Data from hue_28_FLMS001491_00026.txt Node
Date: Tue Feb 07 17:17:04 GMT 2017
User: dcchb
Spectrometer: FLMS00149
Trigger mode: 0
Integration Time (sec): 2.000000E-2
Scans to average: 10
Electric dark correction enabled: true
Nonlinearity correction enabled: false
Boxcar width: 0
XAxis mode: Wavelengths
Number of Pixels in Spectrum: 2048
>>>>>Begin Spectral Data<<<<<
341.393	-11.13
341.776	-11.13
342.16	-11.13
342.543	-75.08
342.927	-67.85
343.31	-77.79
343.693	-82.77
344.077	-75.99
344.46	-61.52
344.843	-45.25
345.226	-48.19
345.61	-38.25
345.993	-15.2
346.376	-1.64
346.759	8.53
347.142	30
347.525	50.79
347.908	57.57
348.291	80.17
348.674	110.68
349.057	108.87
349.44	115.65
349.823	137.12
350.206	165.14
350.588	183.44
350.971	190.22
351.354	232.03
351.737	244.91
352.119	236.55
352.502	263.67
352.884	274.51
353.267	267.28
353.65	292.37
354.032	310.44
354.414	295.08
354.797	304.79
355.179	312.7
355.562	335.53
355.944	334.17
356.326	330.78
356.709	312.48
357.091	323.55
357.473	334.85
357.855	344.79
358.238	348.86
358.62	344.34
359.002	353.61
359.384	357.9
359.766	338.69
360.148	351.8
360.53	340.73
360.912	353.15
361.294	345.7
361.676	328.3
362.057	327.62
362.439	342.99
362.821	319.48
363.203	324.45
363.584	338.69
363.966	340.73
364.348	319.26
364.729	307.96
365.111	327.39
365.493	312.7
365.874	319.26
366.256	322.19
366.637	302.53
367.019	306.15
367.4	337.56
367.781	303.44
368.163	336.66
368.544	312.48
368.925	330.56
369.306	316.09
369.688	313.61
370.069	329.88
370.45	306.83
370.831	328.3
371.212	325.81
371.593	323.32
371.974	310.44
372.355	320.61
372.736	317.68
373.117	303.44
373.498	323.1
373.879	314.96
374.26	322.87
374.641	327.17
375.021	307.73
375.402	337.79
375.783	336.43
376.163	340.95
376.544	335.3
376.925	342.53
377.305	331.91
377.686	327.17
378.066	311.8
378.447	315.87
378.827	346.6
379.208	316.32
379.588	335.98
379.968	330.78
380.349	363.78
380.729	345.7
381.109	333.95
381.489	353.83
381.87	358.35
382.25	356.32
382.63	351.35
383.01	345.92
383.39	353.15
383.77	335.08
384.15	332.59
384.53	347.96
384.91	357
385.29	344.79
385.67	375.75
386.049	341.4
386.429	339.14
386.809	335.75
387.189	342.31
387.568	387.05
387.948	352.02
388.328	367.62
388.707	339.14
389.087	359.71
389.466	380.72
389.846	371.23
390.225	357.67
390.605	352.93
390.984	362.42
391.363	368.3
391.743	392.93
392.122	362.19
392.501	394.51
392.881	372.36
393.26	392.25
393.639	369.88
394.018	373.27
394.397	365.58
394.776	392.25
395.155	406.71
395.534	382.98
395.913	391.12
396.292	411.91
396.671	392.48
397.05	393.83
397.429	383.89
397.808	399.26
398.186	381.63
398.565	398.13
398.944	398.13
399.323	409.42
399.701	398.13
400.08	412.14
400.458	404.9
400.837	425.02
401.215	416.66
401.594	411.23
401.972	399.48
402.351	428.18
402.729	415.07
403.107	411.23
403.486	426.37
403.864	400.84
404.242	405.36
404.62	426.6
404.999	432.25
405.377	434.51
405.755	444.45
406.133	416.43
406.511	444.9
406.889	428.41
407.267	452.36
407.645	431.57
408.023	436.32
408.401	458.91
408.779	452.14
409.156	464.11
409.534	493.72
409.912	474.73
410.29	457.33
410.667	435.19
411.045	468.63
411.422	471.57
411.8	484.68
412.178	474.51
412.555	500.5
412.933	443.32
413.31	484.45
413.687	499.82
414.065	503.43
414.442	490.55
414.819	500.04
415.197	488.52
415.574	511.57
415.951	514.28
416.328	507.95
416.705	514.73
417.082	527.39
417.46	521.06
417.837	529.42
418.214	524.9
418.591	522.19
418.967	523.77
419.344	526.94
419.721	551.79
420.098	538.69
420.475	548.4
420.852	539.36
421.228	564
421.605	584.56
421.982	548.63
422.358	547.95
422.735	598.8
423.111	558.12
423.488	582.75
423.864	567.16
424.241	567.16
424.617	574.62
424.994	589.53
425.37	579.14
425.746	583.21
426.123	604.67
426.499	572.13
426.875	587.5
427.251	631.79
427.627	625.01
428.003	611.9
428.379	628.85
428.756	629.08
429.132	637.21
429.507	648.29
429.883	652.36
430.259	654.39
430.635	658.91
431.011	656.2
431.387	684.9
431.763	681.73
432.138	693.48
432.514	693.48
432.89	687.61
433.265	681.06
433.641	709.08
434.016	692.13
434.392	694.16
434.767	735.74
435.143	723.54
435.518	749.53
435.894	716.99
436.269	740.49
436.644	755.63
437.02	769.41
437.395	760.38
437.77	794.72
438.145	772.35
438.52	761.73
438.895	790.88
439.271	793.59
439.646	795.4
440.021	803.99
440.395	814.39
440.77	799.24
441.145	821.39
441.52	841.5
441.895	827.04
442.27	825.01
442.645	844.89
443.019	858.45
443.394	808.06
443.769	869.07
444.143	851.45
444.518	851.9
444.892	855.06
445.267	879.69
445.641	844.44
446.016	871.78
446.39	897.1
446.764	897.77
447.139	886.7
447.513	895.97
447.887	882.63
448.262	891.9
448.636	893.25
449.01	923.31
449.384	922.41
449.758	918.11
450.132	930.54
450.506	950.2
450.88	952.23
451.254	930.54
451.628	954.04
452.002	964.89
452.376	957.66
452.75	983.65
453.123	989.52
453.497	1018.22
453.871	991.56
454.244	1022.97
454.618	1031.33
454.992	1050.54
455.365	1054.61
455.739	1064.77
456.112	1063.87
456.486	1087.37
456.859	1072.23
457.232	1120.59
457.606	1107.26
457.979	1120.14
458.352	1135.96
458.725	1141.16
459.099	1157.43
459.472	1198.78
459.845	1209.86
460.218	1201.04
460.591	1199.23
460.964	1243.3
461.337	1245.56
461.71	1253.02
462.083	1256.86
462.456	1278.78
462.829	1259.35
463.201	1294.82
463.574	1286.92
463.947	1311.32
464.32	1316.52
464.692	1340.02
465.065	1357.65
465.438	1391.09
465.81	1389.96
466.183	1396.74
466.555	1423.86
466.928	1427.02
467.3	1449.85
467.672	1457.76
468.045	1497.08
468.417	1500.92
468.789	1527.81
469.161	1547.7
469.534	1534.37
469.906	1599.22
470.278	1609.17
470.65	1635.15
471.022	1653.91
471.394	1707.7
471.766	1711.76
472.138	1744.76
472.51	1789.95
472.882	1805.55
473.253	1800.12
473.625	1838.31
473.997	1907.24
474.369	1892.32
474.74	1939.33
475.112	1938.2
475.484	2030.17
475.855	2034.92
476.227	2064.75
476.598	2118.08
476.97	2146.1
477.341	2192.65
477.713	2264.06
478.084	2235.59
478.455	2288.92
478.827	2323.72
479.198	2414.57
479.569	2433.55
479.94	2504.28
480.311	2510.39
480.682	2576.82
481.053	2647.11
481.424	2659.76
481.795	2753.09
482.166	2785.18
482.537	2824.95
482.908	2878.96
483.279	2944.05
483.65	3023.82
484.021	3075.57
484.391	3049.13
484.762	3158.28
485.133	3213.64
485.503	3257.48
485.874	3298.16
486.244	3364.15
486.615	3461.32
486.985	3525.5
487.356	3567.99
487.726	3598.27
488.097	3723.24
488.467	3692.28
488.837	3801.2
489.207	3818.37
489.578	3893.17
489.948	3948.54
490.318	4018.82
490.688	4054.53
491.058	4146.73
491.428	4225.37
491.798	4259.04
492.168	4365.7
492.538	4354.18
492.908	4459.94
493.278	4466.72
493.648	4510.33
494.017	4608.64
494.387	4632.36
494.757	4673.49
495.126	4724.57
495.496	4760.27
495.866	4795.07
496.235	4873.49
496.605	4929.31
496.974	4953.71
497.344	5040.26
497.713	5051.56
498.082	5083.88
498.452	5149.64
498.821	5218.11
499.19	5188.51
499.559	5239.35
499.928	5311.89
500.298	5340.37
500.667	5420.14
501.036	5353.93
501.405	5464.21
501.774	5473.25
502.143	5535.84
502.512	5574.49
502.88	5627.14
503.249	5599.34
503.618	5723.41
503.987	5707.59
504.356	5747.14
504.724	5776.74
505.093	5784.42
505.462	5804.76
505.83	5875.5
506.199	5931.76
506.567	5987.36
506.936	6014.7
507.304	6002.05
507.672	6018.32
508.041	6146.67
508.409	6117.07
508.777	6167.24
509.145	6203.85
509.514	6235.49
509.882	6244.75
510.25	6309.83
510.618	6302.38
510.986	6317.07
511.354	6376.27
511.722	6484.74
512.09	6546.89
512.458	6508.92
512.826	6553.67
513.193	6593.44
513.561	6566.55
513.929	6599.09
514.297	6672.99
514.664	6674.8
515.032	6699.2
515.4	6805.64
515.767	6773.55
516.135	6888.58
516.502	6819.65
516.869	6883.83
517.237	6913.66
517.604	6908.01
517.972	7006.76
518.339	7009.93
518.706	7039.98
519.073	7036.82
519.44	7037.72
519.808	7155.01
520.175	7131.51
520.542	7237.27
520.909	7252.18
521.276	7201.79
521.643	7328.56
522.009	7384.16
522.376	7391.61
522.743	7424.38
523.11	7481.78
523.477	7547.77
523.843	7546.86
524.21	7657.82
524.577	7688.1
524.943	7694.43
525.31	7708.22
525.676	7772.85
526.043	7807.42
526.409	7787.08
526.776	7882.9
527.142	7954.99
527.508	7954.08
527.874	8056.68
528.241	8044.48
528.607	8109.11
528.973	8222.33
529.339	8208.09
529.705	8254.42
530.071	8302.78
530.437	8305.94
530.803	8378.25
531.169	8441.98
531.535	8477.91
531.901	8481.75
532.267	8584.12
532.632	8541.64
532.998	8585.03
533.364	8622.54
533.73	8668.64
534.095	8730.34
534.461	8748.19
534.826	8844
535.192	8862.54
535.557	8945.25
535.923	8933.49
536.288	8913.38
536.653	8955.87
537.019	8928.52
537.384	9011.01
537.749	9058.69
538.114	9106.82
538.479	9102.08
538.845	9254.62
539.21	9158.35
539.575	9254.84
539.94	9297.1
540.305	9317.21
540.67	9324.67
541.034	9342.52
541.399	9453.93
541.764	9410.54
542.129	9479.47
542.494	9576.41
542.858	9578.67
543.223	9591.1
543.587	9691.21
543.952	9640.14
544.316	9700.03
544.681	9735.73
545.045	9749.52
545.41	9814.15
545.774	9907.03
546.138	9834.71
546.503	9891.21
546.867	9930.98
547.231	10016.63
547.595	10061.37
547.959	10080.81
548.324	10067.02
548.688	10085.55
549.052	10093.24
549.416	10134.37
549.779	10208.26
550.143	10195.61
550.507	10266.11
550.871	10326.23
551.235	10366.45
551.599	10319.45
551.962	10447.8
552.326	10439.22
552.689	10486.45
553.053	10469.5
553.417	10528.48
553.78	10679.66
554.143	10646.44
554.507	10646.44
554.87	10732.09
555.234	10843.5
555.597	10690.74
555.96	10785.65
556.323	10823.61
556.686	10878.75
557.05	10928.47
557.413	10968.02
557.776	10937.06
558.139	11051.4
558.502	11121.46
558.865	10992.42
559.228	11094.57
559.59	11213.43
559.953	11160.55
560.316	11259.53
560.679	11285.52
561.041	11399.19
561.404	11397.61
561.767	11454.11
562.129	11483.48
562.492	11476.03
562.854	11525.74
563.217	11524.84
563.579	11558.74
563.941	11647.55
564.304	11649.58
564.666	11711.5
565.028	11767.54
565.39	11800.76
565.753	11929.35
566.115	11842.57
566.477	11932.74
566.839	11919.18
567.201	12076.46
567.563	12076.46
567.925	12131.38
568.287	12156.23
568.648	12140.19
569.01	12214.54
569.372	12278.94
569.734	12233.07
570.095	12403.69
570.457	12491.82
570.819	12504.02
571.18	12527.98
571.542	12616.79
571.903	12598.93
572.265	12640.29
572.626	12749.21
572.987	12840.74
573.349	12866.5
573.71	12969.32
574.071	12952.6
574.432	13057.45
574.794	13160.28
575.155	13228.07
575.516	13192.59
575.877	13362.76
576.238	13337.45
576.599	13452.92
576.96	13526.14
577.32	13671
577.681	13650.66
578.042	13853.14
578.403	13827.15
578.763	14059.23
579.124	14100.59
579.485	14216.07
579.845	14445.89
580.206	14461.94
580.566	14572.89
580.927	14672.33
581.287	14960
581.648	14969.72
582.008	15155.7
582.368	15226.21
582.728	15516.82
583.089	15612.64
583.449	15762.47
583.809	16009.69
584.169	16177.82
584.529	16382.56
584.889	16741.65
585.249	16803.8
585.609	16975.32
585.969	17220.73
586.329	17392.93
586.688	17707.73
587.048	17902.3
587.408	18094.83
587.768	18286.02
588.127	18550.87
588.487	18709.51
588.846	19157.63
589.206	19288.25
589.565	19606.43
589.925	19879.65
590.284	20199.41
590.643	20494.32
591.003	20775.22
591.362	21034.42
591.721	21286.16
592.08	21635.53
592.44	21901.06
592.799	22169.3
593.158	22445.68
593.517	22654.72
593.876	23109.62
594.235	23257.19
594.593	23606.1
594.952	23827.79
595.311	24233.2
595.67	24415.57
596.029	24885.84
596.387	25258.26
596.746	25491.25
597.104	25760.62
597.463	26051.69
597.822	26427.72
598.18	26601.05
598.538	26857.54
598.897	27376.85
599.255	27405.78
599.613	28069.94
599.972	28254.12
600.33	28508.57
600.688	28799.41
601.046	29125.96
601.404	29459.51
601.762	29587.87
602.12	30057.91
602.478	30333.84
602.836	30673.71
603.194	30750.32
603.552	31123.87
603.91	31195.73
604.268	31688.38
604.625	31753.46
604.983	32145.99
605.341	32160
605.698	32727.44
606.056	32940.55
606.413	33202.46
606.771	33410.36
607.128	33770.81
607.485	33724.25
607.843	33924.7
608.2	34383.45
608.557	34752.25
608.914	34874.28
609.272	35201.5
609.629	35334.61
609.986	35773.69
610.343	35772.56
610.7	36220.01
611.057	36208.93
611.414	36328.71
611.771	36679.43
612.127	36896.6
612.484	37097.5
612.841	37454.78
613.198	37437.15
613.554	37695.45
613.911	37960.3
614.267	38077.59
614.624	38200.3
614.98	38502.21
615.337	38808.41
615.693	38887.73
616.05	38987.84
616.406	39162.3
616.762	39345.12
617.118	39492.92
617.475	39524.33
617.831	39882.96
618.187	40023.3
618.543	40173.12
618.899	40498.99
619.255	40471.2
619.611	40608.59
619.967	40770.4
620.323	40996.15
620.678	40897.4
621.034	40887.68
621.39	41065.76
621.746	40923.16
622.101	41472.98
622.457	41271.85
622.812	41426.88
623.168	41776.7
623.523	41730.15
623.879	41925.62
624.234	41800.2
624.589	41902.34
624.945	42075.67
625.3	42210.59
625.655	42240.87
626.01	42274.54
626.365	42459.39
626.72	42484.48
627.075	42493.52
627.43	42434.53
627.785	42575.55
628.14	42644.25
628.495	42754.3
628.85	42645.6
629.205	42662.55
629.559	42905.26
629.914	42772.38
630.269	42900.74
630.623	42838.59
630.978	42819.38
631.332	43082.88
631.687	43142.31
632.041	42997.46
632.396	43044.91
632.75	42959.49
633.104	43306.6
633.459	42987.51
633.813	43001.07
634.167	42992.26
634.521	43087.4
634.875	43233.16
635.229	43221.18
635.583	42990.9
635.937	43098.02
636.291	42941.64
636.645	43081.07
636.999	42952.03
637.352	43146.61
637.706	42943.9
638.06	43061.64
638.413	43037
638.767	42926.05
639.121	43079.26
639.474	42874.07
639.828	42931.47
640.181	42917.46
640.534	42892.83
640.888	42945.03
641.241	42686.5
641.594	42925.14
641.947	43113.39
642.301	42810.8
642.654	43042.43
643.007	42901.87
643.36	42814.18
643.713	42898.93
644.066	43041.52
644.419	42758.14
644.771	42622.78
645.124	42303.46
645.477	42111.83
645.83	41920.65
646.182	41829.35
646.535	41709.58
646.888	41756.81
647.24	41492.19
647.593	41811.5
647.945	41714.78
648.298	41616.02
648.65	41582.8
649.002	41394.34
649.355	41677.49
649.707	41460.55
650.059	41844.49
650.411	42170.59
650.763	42376
651.115	42788.87
651.467	42437.25
651.819	42513.4
652.171	42361.09
652.523	42323.58
652.875	42346.63
653.227	42126.97
653.578	42505.49
653.93	42374.65
654.282	42274.76
654.633	42130.36
654.985	42360.64
655.337	42353.63
655.688	42242.67
656.039	42400.41
656.391	42030.7
656.742	42126.07
657.094	42218.27
657.445	42337.36
657.796	42254.88
658.147	42211.04
658.498	42133.98
658.849	42239.74
659.2	42187.99
659.551	41963.81
659.902	42232.51
660.253	42220.75
660.604	42267.08
660.955	41975.56
661.306	42141.21
661.656	42078.16
662.007	42098.5
662.358	42040.19
662.708	42062.34
663.059	42046.75
663.409	41718.17
663.76	42069.12
664.11	42090.59
664.461	42083.58
664.811	42161.32
665.161	42271.37
665.511	42022.12
665.862	42115.22
666.212	42106.18
666.562	42111.83
666.912	41986.41
667.262	41984.38
667.612	42112.96
667.962	42088.78
668.312	42004.04
668.662	42121.32
669.011	41960.65
669.361	42006.75
669.711	42030.25
670.06	41885.4
670.41	41938.05
670.76	41736.25
671.109	41916.58
671.459	41826.87
671.808	41725.17
672.157	41919.75
672.507	41644.72
672.856	41749.58
673.205	41663.71
673.554	41880.65
673.904	41534.67
674.253	41882.23
674.602	41684.95
674.951	41203.83
675.3	41040.22
675.649	41671.16
675.998	41568.12
676.346	41529.25
676.695	41787.32
677.044	41459.42
677.393	41531.05
677.741	41617.38
678.09	41344.17
678.438	41396.37
678.787	41376.26
679.135	41519.08
679.484	41143.27
679.832	41298.52
680.181	41075.7
680.529	41375.35
680.877	41206.09
681.225	41241.57
681.573	41246.77
681.922	41030.28
682.27	40930.62
682.618	40912.54
682.966	40837.06
683.314	41029.83
683.661	40936.49
684.009	40744.41
684.357	40589.38
684.705	40545.32
685.053	40535.6
685.4	40499.44
685.748	40488.14
686.095	40408.15
686.443	40280.01
686.79	40068.27
687.138	40315.04
687.485	40323.63
687.832	40030.76
688.18	40021.04
688.527	39884.09
688.874	39915.96
689.221	39747.6
689.568	39716.19
689.915	39647.94
690.262	39666.7
690.609	39628.28
690.956	39369.76
691.303	39241.17
691.65	39161.63
691.997	39117.11
692.344	38918.24
692.69	39054.06
693.037	38919.82
693.383	38503.34
693.73	38634.18
694.077	38642.09
694.423	38513.06
694.769	38455.66
695.116	38460.85
695.462	38375.66
695.808	38156.68
696.155	38352.83
696.501	37876.24
696.847	37952.17
697.193	37671.27
697.539	37911.94
697.885	37569.35
698.231	37414.55
698.577	37339.53
698.923	37292.52
699.269	37297.95
699.614	37175.69
699.96	37068.8
700.306	37049.14
700.651	36921.46
700.997	36752.2
701.342	36749.49
701.688	36675.14
702.033	36527.34
702.379	36579.55
702.724	36439.44
703.069	36641.92
703.415	36077.64
703.76	36089.62
704.105	36274.92
704.45	35967.81
704.795	35844.2
705.14	35717.65
705.485	35706.35
705.83	35633.13
706.175	35552.91
706.52	35495.96
706.865	35409.41
707.209	35408.28
707.554	35136.87
707.899	35237.44
708.243	35092.35
708.588	35021.4
708.932	34799.71
709.277	34827.28
709.621	34842.87
709.966	34705.7
710.31	34675.64
710.654	34444.24
710.998	34444.69
711.342	34475.2
711.687	34262.32
712.031	34119.95
712.375	34064.81
712.719	34171.02
713.063	34219.16
713.407	34143
713.75	34004.47
714.094	34005.83
714.438	33886.28
714.782	33780.98
715.125	33600.42
715.469	33811.94
715.812	33559.51
716.156	33578.72
716.499	33393.87
716.843	33567.87
717.186	33239.97
717.53	33416.69
717.873	33317.49
718.216	33274.77
718.559	33126.3
718.902	32870.94
719.246	32993.88
719.589	32909.36
719.932	32875.69
720.275	32930.83
720.617	32579.43
720.96	32811.51
721.303	32701.91
721.646	32629.37
721.989	32344.63
722.331	32546.43
722.674	32496.04
723.016	32355.7
723.359	32253.33
723.701	32465.76
724.044	32216.72
724.386	31966.56
724.729	32184.41
725.071	32310.05
725.413	32001.14
725.755	32096.5
726.097	31934.47
726.439	31767.92
726.782	31876.62
727.124	31864.19
727.465	31695.38
727.807	31760.01
728.149	31678.43
728.491	31575.84
728.833	31625.78
729.175	31494.26
729.516	31508.04
729.858	31337.65
730.199	31369.74
730.541	31390.3
730.882	31370.87
731.224	31466.91
731.565	31212.68
731.906	31107.37
732.248	31140.82
732.589	31057.66
732.93	30923.88
733.271	30834.39
733.612	30917.77
733.953	30937.66
734.294	30836.65
734.635	30715.07
734.976	30868.28
735.317	30621.29
735.658	30647.5
735.999	30730.43
736.339	30575.18
736.68	30584
737.021	30511.46
737.361	30407.73
737.702	30610.66
738.042	30359.82
738.383	30469.2
738.723	30424.23
739.063	30283.67
739.404	30265.14
739.744	30251.35
740.084	30233.95
740.424	30217.68
740.764	29987.18
741.104	30200.73
741.444	30051.13
741.784	29879.61
742.124	29939.04
742.464	29919.16
742.804	29851.36
743.143	29803.91
743.483	29837.13
743.823	29518.04
744.162	29606.85
744.502	29517.36
744.841	29531.82
745.181	29590.8
745.52	29433.29
745.86	29543.35
746.199	29502.9
746.538	29400.75
746.877	29522.33
747.216	29460.41
747.556	29283.02
747.895	29338.61
748.234	29146.75
748.573	29135
748.911	29161.66
749.25	29142.91
749.589	29033.53
749.928	29038.95
750.267	29096.58
750.605	28902.46
750.944	28858.39
751.283	28851.61
751.621	28744.27
751.96	28769.81
752.298	28773.42
752.636	28749.47
752.975	28657.95
753.313	28530.27
753.651	28625.63
753.989	28497.5
754.327	28489.14
754.666	28364.62
755.004	28396.03
755.342	28312.42
755.679	28252.08
756.017	28145.19
756.355	28222.03
756.693	28127.11
757.031	28194.91
757.368	27925.54
757.706	27860.45
758.044	27881.47
758.381	27801.25
758.719	27727.35
759.056	27680.8
