Data from hue_110_FLMS001491_00096.txt Node
Date: Tue Feb 07 17:02:05 GMT 2017
User: dcchb
Spectrometer: FLMS00149
Trigger mode: 0
Integration Time (sec): 2.000000E-2
Scans to average: 10
Electric dark correction enabled: true
Nonlinearity correction enabled: false
Boxcar width: 0
XAxis mode: Wavelengths
Number of Pixels in Spectrum: 2048
>>>>>Begin Spectral Data<<<<<
341.393	-28.36
341.776	-28.36
342.16	-28.36
342.543	-62.94
342.927	-100.68
343.31	-72.88
343.693	-85.53
344.077	-62.26
344.46	-64.97
344.843	-51.86
345.226	-29.72
345.61	-27.68
345.993	-33.56
346.376	-22.03
346.759	9.83
347.142	25.88
347.525	41.24
347.908	75.37
348.291	82.82
348.674	104.52
349.057	110.84
349.44	111.97
349.823	133.67
350.206	182.48
350.588	196.72
350.971	219.32
351.354	229.26
351.737	231.07
352.119	251.63
352.502	267.45
352.884	265.42
353.267	272.2
353.65	287.79
354.032	299.31
354.414	294.34
354.797	322.14
355.179	332.53
355.562	319.65
355.944	325.75
356.326	336.6
356.709	342.48
357.091	339.77
357.473	339.54
357.855	349.93
358.238	346.32
358.62	335.47
359.002	328.69
359.384	354
359.766	340.89
360.148	343.38
360.53	350.39
360.912	337.73
361.294	330.73
361.676	329.6
362.057	330.27
362.439	333.44
362.821	325.75
363.203	305.87
363.584	320.1
363.966	313.1
364.348	305.87
364.729	309.03
365.111	316.04
365.493	325.3
365.874	322.82
366.256	325.53
366.637	335.47
367.019	342.93
367.4	308.58
367.781	314
368.163	324.85
368.544	316.49
368.925	316.26
369.306	318.52
369.688	306.32
370.069	318.07
370.45	316.94
370.831	336.15
371.212	322.36
371.593	318.07
371.974	326.88
372.355	312.65
372.736	315.36
373.117	321.91
373.498	286.21
373.879	322.14
374.26	316.04
374.641	322.59
375.021	312.87
375.402	295.25
375.783	316.94
376.163	327.79
376.544	334.34
376.925	340.89
377.305	316.26
377.686	335.25
378.066	345.41
378.447	335.25
378.827	321.01
379.208	333.44
379.588	326.88
379.968	333.66
380.349	330.95
380.729	351.29
381.109	332.08
381.489	343.38
381.87	333.66
382.25	336.6
382.63	314
383.01	334.57
383.39	345.41
383.77	347
384.15	342.25
384.53	372.31
384.91	337.28
385.29	319.88
385.67	363.04
386.049	347.45
386.429	349.26
386.809	333.44
387.189	368.01
387.568	346.77
387.948	365.75
388.328	365.53
388.707	368.46
389.087	369.59
389.466	363.04
389.846	375.24
390.225	370.05
390.605	367.33
390.984	371.4
391.363	364.62
391.743	370.72
392.122	356.49
392.501	384.06
392.881	378.41
393.26	387
393.639	353.55
394.018	398.75
394.397	397.84
394.776	384.51
395.155	382.02
395.534	400.1
395.913	371.18
396.292	378.86
396.671	377.96
397.05	388.13
397.429	368.92
397.808	399.65
398.186	376.83
398.565	401.23
398.944	405.98
399.323	395.13
399.701	406.2
400.08	398.75
400.458	405.75
400.837	412.53
401.215	415.24
401.594	412.76
401.972	422.25
402.351	429.71
402.729	409.82
403.107	408.24
403.486	431.97
403.864	435.58
404.242	425.41
404.62	436.03
404.999	427.45
405.377	428.58
405.755	450.95
406.133	445.53
406.511	444.62
406.889	438.52
407.267	447.33
407.645	444.85
408.023	452.3
408.401	446.43
408.779	455.24
409.156	450.04
409.534	485.98
409.912	473.32
410.29	470.16
410.667	474.9
411.045	455.69
411.422	471.74
411.8	483.04
412.178	449.14
412.555	475.81
412.933	475.81
413.31	464.96
413.687	512.87
414.065	504.73
414.442	498.4
414.819	528.46
415.197	499.53
415.574	514.22
415.951	513.09
416.328	532.08
416.705	515.13
417.082	511.06
417.46	549.93
417.837	528.91
418.214	524.62
418.591	525.75
418.967	540.21
419.344	563.04
419.721	556.48
420.098	535.01
420.475	548.8
420.852	545.41
421.228	568.01
421.605	568.91
421.982	554
422.358	576.6
422.735	570.72
423.111	574.56
423.488	578.63
423.864	585.18
424.241	587.44
424.617	594.22
424.994	592.87
425.37	587.22
425.746	595.35
426.123	615.69
426.499	598.74
426.875	636.03
427.251	631.73
427.627	634.45
428.003	633.09
428.379	668.12
428.756	634.67
429.132	637.38
429.507	651.17
429.883	681.23
430.259	641.23
430.635	664.28
431.011	686.42
431.387	686.65
431.763	690.26
432.138	699.08
432.514	719.64
432.89	718.74
433.265	728.91
433.641	730.49
434.016	716.93
434.392	730.94
434.767	741.34
435.143	740.21
435.518	729.13
435.894	746.99
436.269	753.99
436.644	784.73
437.02	787.44
437.395	792.86
437.77	790.15
438.145	806.19
438.52	793.31
438.895	815.23
439.271	808.68
439.646	850.26
440.021	835.35
440.395	827.89
440.77	823.82
441.145	839.19
441.52	839.64
441.895	865.85
442.27	859.98
442.645	842.12
443.019	859.53
443.394	883.71
443.769	862.69
444.143	888.68
444.518	878.73
444.892	901.11
445.267	904.04
445.641	913.76
446.016	908.79
446.39	923.93
446.764	920.09
447.139	942.91
447.513	927.55
447.887	948.11
448.262	954.66
448.636	938.39
449.01	988.11
449.384	975
449.758	962.12
450.132	967.09
450.506	988.79
450.88	986.3
451.254	987.88
451.628	996.7
452.002	1011.61
452.376	1048.22
452.75	1023.14
453.123	1016.36
453.497	1076.47
453.871	1071.27
454.244	1086.86
454.618	1097.26
454.992	1120.76
455.365	1141.78
455.739	1134.77
456.112	1133.42
456.486	1145.17
456.859	1165.05
457.232	1193.3
457.606	1179.97
457.979	1202.34
458.352	1248.44
458.725	1222.68
459.099	1265.62
459.472	1265.84
459.845	1267.42
460.218	1284.82
460.591	1299.06
460.964	1316.24
461.337	1324.82
461.71	1374.99
462.083	1370.02
462.456	1383.81
462.829	1385.61
463.201	1397.14
463.574	1418.83
463.947	1435.33
464.32	1459.28
464.692	1489.34
465.065	1518.49
465.438	1512.84
465.81	1540.64
466.183	1584.25
466.555	1606.62
466.928	1632.61
467.3	1603.46
467.672	1672.39
468.045	1674.42
468.417	1689.56
468.789	1765.04
469.161	1778.37
469.534	1774.53
469.906	1828.54
470.278	1843.45
470.65	1840.52
471.022	1898.37
471.394	1941.08
471.766	1989.21
472.138	1997.12
472.51	2071.92
472.882	2097.01
473.253	2158.93
473.625	2208.42
473.997	2239.15
474.369	2257.68
474.74	2297.45
475.112	2358.92
475.484	2421.74
475.855	2500.84
476.227	2539.26
476.598	2674.84
476.97	2657.44
477.341	2730.21
477.713	2789.42
478.084	2847.04
478.455	2937.21
478.827	3003.65
479.198	3086.59
479.569	3124.78
479.94	3254.49
480.311	3332.45
480.682	3424.2
481.053	3562.05
481.424	3612
481.795	3713.69
482.166	3792.56
482.537	3872.1
482.908	3996.17
483.279	4050.4
483.65	4195.93
484.021	4327.91
484.391	4429.6
484.762	4533.1
485.133	4553.67
485.503	4726.32
485.874	4893.54
486.244	4987.1
486.615	5095.8
486.985	5252.63
487.356	5326.3
487.726	5479.52
488.097	5653.52
488.467	5710.02
488.837	5879.73
489.207	6006.28
489.578	6148.65
489.948	6269.33
490.318	6472.03
490.688	6513.39
491.058	6660.05
491.428	6858.69
491.798	6926.03
492.168	7193.82
492.538	7273.37
492.908	7403.08
493.278	7553.36
493.648	7707.03
494.017	7807.37
494.387	7903.41
494.757	8041.03
495.126	8267.01
495.496	8306.79
495.866	8465.65
496.235	8596.27
496.605	8767.57
496.974	8899.77
497.344	8910.16
497.713	9039.42
498.082	9175.69
498.452	9365.74
498.821	9426.08
499.19	9485.97
499.559	9666.3
499.928	9716.69
500.298	9817.93
500.667	10052.73
501.036	10053.63
501.405	10115.1
501.774	10273.74
502.143	10347.41
502.512	10473.06
502.88	10582.21
503.249	10631.02
503.618	10745.14
503.987	10779.94
504.356	10936.32
504.724	11028.98
505.093	11089.09
505.462	11118.01
505.83	11220.16
506.199	11349.87
506.567	11527.27
506.936	11485.01
507.304	11644.1
507.672	11669.64
508.041	11786.24
508.409	11892.68
508.777	11975.17
509.145	12103.75
509.514	12038.21
509.882	12193.01
510.25	12188.04
510.618	12284.76
510.986	12237.98
511.354	12485.21
511.722	12519.78
512.09	12643.4
512.458	12607.69
512.826	12707.8
513.193	12715.03
513.561	12863.73
513.929	12915.71
514.297	13000.68
514.664	13045.65
515.032	13084.29
515.4	13170.61
515.767	13177.39
516.135	13229.6
516.502	13080.22
516.869	13384.85
517.237	13448.8
517.604	13317.95
517.972	13450.38
518.339	13511.62
518.706	13562.24
519.073	13673.43
519.44	13596.14
519.808	13730.15
520.175	13655.57
520.542	13863.48
520.909	13939.86
521.276	13796.81
521.643	13953.19
522.009	14056.92
522.376	14112.96
522.743	14081.1
523.11	14114.32
523.477	14255.33
523.843	14357.7
524.21	14372.16
524.577	14373.29
524.943	14473.18
525.31	14493.52
525.676	14562.22
526.043	14589.33
526.409	14620.07
526.776	14798.37
527.142	14734.19
527.508	14761.53
527.874	14761.31
528.241	14840.4
528.607	14718.37
528.973	14931.92
529.339	14898.25
529.705	14914.98
530.071	14972.15
530.437	14987.74
530.803	15053.95
531.169	15070.23
531.535	14928.76
531.901	14905.71
532.267	14950.68
532.632	15013.73
532.998	14955.2
533.364	15023.45
533.73	15023.22
534.095	15100.05
534.461	15024.58
534.826	15077.68
535.192	15094.86
535.557	15131.24
535.923	15089.66
536.288	15090.11
536.653	15047.85
537.019	15024.35
537.384	15007.85
537.749	15002.43
538.114	14956.33
538.479	15001.53
538.845	14901.87
539.21	14890.79
539.575	14849.44
539.94	14905.71
540.305	14962.88
540.67	14855.09
541.034	14867.52
541.399	14852.83
541.764	14798.14
542.129	14845.82
542.494	14830.91
542.858	14848.08
543.223	14733.28
543.587	14766.5
543.952	14698.03
544.316	14578.71
544.681	14663.23
545.045	14631.59
545.41	14669.33
545.774	14607.19
546.138	14660.97
546.503	14571.26
546.867	14549.33
547.231	14615.1
547.595	14515.89
547.959	14529.9
548.324	14478.38
548.688	14415.1
549.052	14402.9
549.416	14464.82
549.779	14318.61
550.143	14385.05
550.507	14369.9
550.871	14358.15
551.235	14229.12
551.599	14326.52
551.962	14316.35
552.326	14300.98
552.689	14289
553.053	14197.93
553.417	14201.32
553.78	14376.91
554.143	14323.13
554.507	14196.58
554.87	14261.66
555.234	14312.51
555.597	14104.6
555.96	14156.8
556.323	14246.07
556.686	14122
557.05	14221.43
557.413	14156.8
557.776	14165.16
558.139	14232.51
558.502	14146.41
558.865	14171.94
559.228	14211.94
559.59	14233.19
559.953	14156.12
560.316	14309.57
560.679	14188.44
561.041	14266.18
561.404	14313.41
561.767	14251.49
562.129	14230.02
562.492	14293.52
562.854	14249.46
563.217	14318.83
563.579	14361.32
563.941	14289.68
564.304	14366.06
564.666	14494.2
565.028	14431.6
565.39	14420.07
565.753	14431.37
566.115	14388.44
566.477	14480.41
566.839	14513.4
567.201	14544.82
567.563	14531.93
567.925	14545.49
568.287	14584.81
568.648	14657.13
569.01	14625.27
569.372	14701.65
569.734	14612.16
570.095	14692.38
570.457	14669.78
570.819	14685.38
571.18	14719.73
571.542	14770.57
571.903	14730.35
572.265	14738.71
572.626	14791.81
572.987	14770.12
573.349	14811.47
573.71	14850.57
574.071	14856.67
574.432	14852.6
574.794	14917.23
575.155	14948.65
575.516	14862.32
575.877	14907.52
576.238	14990.91
576.599	14930.57
576.96	14836.79
577.32	14909.1
577.681	14933.05
578.042	15008.53
578.403	14966.05
578.763	14962.66
579.124	15039.27
579.485	14979.83
579.845	15050.56
580.206	15046.27
580.566	14991.13
580.927	14961.3
581.287	15060.73
581.648	14935.09
582.008	15061.86
582.368	15007.85
582.728	15023.45
583.089	14919.95
583.449	15005.82
583.809	14916.33
584.169	15044.24
584.529	14950
584.889	15021.64
585.249	14885.82
585.609	14909.1
585.969	14959.49
586.329	14987.52
586.688	14907.74
587.048	14905.71
587.408	14867.52
587.768	14914.98
588.127	14895.54
588.487	14870
588.846	14894.64
589.206	14750.23
589.565	14773.28
589.925	14865.71
590.284	14730.35
590.643	14881.98
591.003	14807.18
591.362	14945.26
591.721	14894.86
592.08	14799.05
592.44	14878.37
592.799	14848.31
593.158	14793.4
593.517	14779.84
593.876	14784.36
594.235	14763.34
594.593	14708.65
594.952	14788.2
595.311	14779.84
595.67	14767.86
596.029	14809.67
596.387	14825.03
596.746	14851.47
597.104	14765.83
597.463	14672.5
597.822	14734.41
598.18	14648.09
598.538	14720.18
598.897	14721.08
599.255	14740.06
599.613	14842.66
599.972	14813.06
600.33	14720.4
600.688	14721.31
601.046	14772.15
601.404	14833.4
601.762	14806.96
602.12	14904.13
602.478	14795.66
602.836	14770.8
603.194	14748.2
603.552	14734.41
603.91	14703.91
604.268	14696
604.625	14690.57
604.983	14772.83
605.341	14698.03
605.698	14781.42
606.056	14853.51
606.413	14860.74
606.771	14866.16
607.128	14849.89
607.485	14781.87
607.843	14788.42
608.2	14886.95
608.557	14865.26
608.914	14783.45
609.272	14897.57
609.629	14928.99
609.986	14942.77
610.343	14814.19
610.7	14938.7
611.057	14925.6
611.414	14957.46
611.771	14923.79
612.127	14997.68
612.484	15032.71
612.841	15054.18
613.198	14887.86
613.554	15000.62
613.911	15031.58
614.267	15113.61
614.624	14956.56
614.98	14996.55
615.337	15146.38
615.693	15152.03
616.05	15112.71
616.406	15156.32
616.762	15190.9
617.118	15109.77
617.475	15087.85
617.831	15104.35
618.187	15112.94
618.543	15157.68
618.899	15220.73
619.255	15188.19
619.611	15201.3
619.967	15344.34
620.323	15308.19
620.678	15202.43
621.034	15247.85
621.39	15252.37
621.746	15215.31
622.101	15425.7
622.457	15240.84
622.812	15351.57
623.168	15326.72
623.523	15247.62
623.879	15401.52
624.234	15273.61
624.589	15279.03
624.945	15293.27
625.3	15233.16
625.655	15280.16
626.01	15253.72
626.365	15266.6
626.72	15230.45
627.075	15230.9
627.43	15205.59
627.785	15226.83
628.14	15301.86
628.495	15297.79
628.85	15280.62
629.205	15233.61
629.559	15221.41
629.914	15157.23
630.269	15260.73
630.623	15206.94
630.978	15121.3
631.332	15158.81
631.687	15162.65
632.041	15183.44
632.396	15148.19
632.75	15103.9
633.104	15114.74
633.459	15077.23
633.813	14998.59
634.167	14957.69
634.521	14867.74
634.875	15025.71
635.229	15050.79
635.583	14965.37
635.937	14964.92
636.291	14903.45
636.645	14886.28
636.999	14930.12
637.352	14908.87
637.706	14863.23
638.06	14912.04
638.413	14868.65
638.767	14754.08
639.121	14895.09
639.474	14779.61
639.828	14766.73
640.181	14766.73
640.534	14708.2
640.888	14757.92
641.241	14626.85
641.594	14756.11
641.947	14709.78
642.301	14704.36
642.654	14661.2
643.007	14659.84
643.36	14704.59
643.713	14573.29
644.066	14636.79
644.419	14542.78
644.771	14539.62
645.124	14337.59
645.477	14351.6
645.83	14317.7
646.182	14273.86
646.535	14170.59
646.888	14227.08
647.24	14232.28
647.593	14178.95
647.945	14157.25
648.298	14112.51
648.65	14035.9
649.002	14109.57
649.355	14092.17
649.707	14044.94
650.059	14246.97
650.411	14318.15
650.763	14326.06
651.115	14568.32
651.467	14456.23
651.819	14485.83
652.171	14439.73
652.523	14449
652.875	14400.41
653.227	14377.36
653.578	14422.11
653.93	14434.76
654.282	14412.84
654.633	14361.32
654.985	14362.45
655.337	14395.21
655.688	14435.89
656.039	14509.79
656.391	14353.63
656.742	14383.92
657.094	14382.79
657.445	14523.35
657.796	14441.54
658.147	14447.87
658.498	14342.11
658.849	14448.77
659.2	14438.6
659.551	14468.89
659.902	14440.86
660.253	14376.01
660.604	14385.5
660.955	14304.14
661.306	14449.45
661.656	14366.97
662.007	14446.29
662.358	14433.63
662.708	14410.81
663.059	14482.67
663.409	14293.75
663.76	14566.28
664.11	14484.93
664.461	14488.55
664.811	14529.67
665.161	14560.63
665.511	14444.93
665.862	14397.7
666.212	14558.15
666.562	14575.32
666.912	14530.8
667.262	14534.42
667.612	14496.91
667.962	14563.8
668.312	14488.32
668.662	14517.25
669.011	14568.32
669.361	14510.24
669.711	14453.97
670.06	14482.22
670.41	14441.99
670.76	14411.94
671.109	14396.12
671.459	14484.03
671.808	14382.33
672.157	14399.06
672.507	14321.32
672.856	14304.82
673.205	14391.6
673.554	14341.66
673.904	14345.5
674.253	14401.54
674.602	14392.95
674.951	14153.87
675.3	14079.74
675.649	14234.99
675.998	14295.56
676.346	14276.57
676.695	14366.51
677.044	14218.95
677.393	14194.77
677.741	14294.43
678.09	14165.84
678.438	14248.55
678.787	14252.85
679.135	14149.12
679.484	14071.16
679.832	14155.22
680.181	14023.47
680.529	14166.97
680.877	14070.25
681.225	14047.43
681.573	14058.27
681.922	13933.53
682.27	13942.35
682.618	13845.85
682.966	13886.53
683.314	13987.54
683.661	13809.02
684.009	13797.26
684.357	13834.1
684.705	13724.5
685.053	13758.62
685.4	13734.44
685.748	13639.53
686.095	13680.43
686.443	13643.37
686.79	13492.87
687.138	13577.16
687.485	13606.31
687.832	13496.03
688.18	13490.15
688.527	13407.44
688.874	13401.57
689.221	13352.08
689.568	13305.53
689.915	13293.77
690.262	13298.52
690.609	13213.55
690.956	13163.83
691.303	13180.78
691.65	13116.6
691.997	13192.99
692.344	13033.22
692.69	12992.77
693.037	12934.91
693.383	12856.5
693.73	12875.48
694.077	12889.27
694.423	12783.05
694.769	12753.68
695.116	12721.36
695.462	12730.85
695.808	12666.45
696.155	12649.5
696.501	12588.48
696.847	12580.57
697.193	12430.97
697.539	12496.96
697.885	12353.69
698.231	12390.3
698.577	12334.7
698.923	12303.97
699.269	12347.36
699.614	12219
699.96	12148.49
700.306	12102.17
700.651	12084.99
700.997	12064.2
701.342	11915.73
701.688	11935.39
702.033	11920.25
702.379	11901.72
702.724	11860.14
703.069	11860.59
703.415	11722.97
703.76	11741.05
704.105	11709.86
704.45	11656.98
704.795	11576.76
705.14	11468.29
705.485	11494.27
705.83	11511.45
706.175	11410.21
706.52	11384.45
706.865	11346.93
707.209	11356.88
707.554	11300.83
707.899	11356.65
708.243	11348.97
708.588	11233.72
708.932	11202.08
709.277	11197.33
709.621	11178.12
709.966	11110.1
710.31	11102.19
710.654	11006.15
710.998	11013.61
711.342	11013.61
711.687	10954.4
712.031	10885.93
712.375	10865.82
712.719	10973.84
713.063	10880.05
713.407	10906.49
713.75	10845.93
714.094	10783.33
714.438	10786.04
714.782	10772.94
715.125	10687.52
715.469	10741.98
715.812	10642.09
716.156	10557.58
716.499	10604.81
716.843	10548.99
717.186	10597.57
717.53	10578.82
717.873	10652.94
718.216	10558.93
718.559	10520.06
718.902	10492.27
719.246	10476.22
719.589	10418.37
719.932	10435.32
720.275	10479.61
720.617	10483.23
720.96	10465.6
721.303	10415.43
721.646	10413.17
721.989	10333.85
722.331	10444.13
722.674	10405.04
723.016	10388.54
723.359	10268.77
723.701	10339.28
724.044	10258.37
724.386	10248.21
724.729	10324.81
725.071	10270.13
725.413	10330.91
725.755	10214.53
726.097	10256.79
726.439	10132.73
726.782	10154.65
727.124	10247.75
727.465	10198.04
727.807	10150.35
728.149	10191.48
728.491	10099.51
728.833	10151.03
729.175	10147.87
729.516	10134.99
729.858	10224.02
730.199	10173.18
730.541	10212.95
730.882	10193.07
731.224	10144.48
731.565	10101.32
731.906	10120.52
732.248	10167.76
732.589	10152.84
732.93	10075.1
733.271	10145.16
733.612	10143.12
733.953	10126.85
734.294	10118.72
734.635	10079.17
734.976	10134.54
735.317	10030.58
735.658	10080.3
735.999	10074.2
736.339	10051.37
736.68	10140.86
737.021	10067.19
737.361	10031.94
737.702	10147.87
738.042	10097.93
738.383	10092.5
738.723	10174.76
739.063	10072.39
739.404	10161.2
739.744	10128.66
740.084	10101.32
740.424	10145.83
740.764	10124.82
741.104	10225.38
741.444	10073.52
741.784	10181.09
742.124	10238.49
742.464	10254.98
742.804	10217.92
743.143	10268.32
743.483	10287.75
743.823	10242.78
744.162	10265.83
744.502	10340.18
744.841	10309.22
745.181	10466.28
745.52	10459.72
745.86	10452.04
746.199	10497.92
746.538	10457.24
746.877	10573.17
747.216	10611.59
747.556	10592.6
747.895	10666.73
748.234	10783.56
748.573	10720.28
748.911	10815.42
749.25	10866.27
749.589	10931.13
749.928	11020.39
750.267	11118.01
750.605	11225.81
750.944	11220.16
751.283	11344.22
751.621	11443.43
751.96	11363.2
752.298	11538.11
752.636	11642.29
752.975	11697.43
753.313	11806.13
753.651	11901.04
753.989	11991.66
754.327	12082.28
754.666	12098.33
755.004	12343.74
755.342	12493.12
755.679	12557.07
756.017	12652.89
756.355	12752.09
