Data from hue_32_FLMS001491_00041.txt Node
Date: Tue Feb 07 17:23:25 GMT 2017
User: dcchb
Spectrometer: FLMS00149
Trigger mode: 0
Integration Time (sec): 2.000000E-2
Scans to average: 10
Electric dark correction enabled: true
Nonlinearity correction enabled: false
Boxcar width: 0
XAxis mode: Wavelengths
Number of Pixels in Spectrum: 2048
>>>>>Begin Spectral Data<<<<<
341.393	3.66
341.776	3.66
342.16	3.66
342.543	-62.55
342.927	-94.87
343.31	-60.3
343.693	-49.45
344.077	-63.68
344.46	-58.26
344.843	-57.58
345.226	-46.96
345.61	-40.63
345.993	-13.97
346.376	-12.61
346.759	2.75
347.142	33.49
347.525	55.18
347.908	61.28
348.291	64.9
348.674	87.05
349.057	98.8
349.44	120.94
349.823	137.89
350.206	173.15
350.588	207.72
350.971	212.47
351.354	249.53
351.737	243.88
352.119	264.22
352.502	289.98
352.884	282.07
353.267	291.33
353.65	302.63
354.032	318.9
354.414	321.84
354.797	307.6
355.179	315.74
355.562	325.68
355.944	340.6
356.326	354.84
356.709	362.52
357.091	355.74
357.473	358.68
357.855	333.37
358.238	336.3
358.62	338.56
359.002	351.9
359.384	353.25
359.766	355.51
360.148	340.6
360.53	353.93
360.912	338.11
361.294	349.41
361.676	332.46
362.057	313.03
362.439	305.57
362.821	336.76
363.203	336.98
363.584	340.6
363.966	334.95
364.348	323.42
364.729	322.75
365.111	349.41
365.493	322.29
365.874	333.14
366.256	326.81
366.637	318
367.019	334.04
367.4	337.43
367.781	323.65
368.163	316.42
368.544	301.28
368.925	296.98
369.306	319.13
369.688	321.39
370.069	310.99
370.45	356.19
370.831	314.38
371.212	320.49
371.593	331.56
371.974	325.91
372.355	331.11
372.736	324.33
373.117	319.13
373.498	343.76
373.879	328.17
374.26	317.55
374.641	314.84
375.021	329.98
375.402	326.59
375.783	319.13
376.163	347.6
376.544	340.15
376.925	323.88
377.305	342.41
377.686	345.12
378.066	334.04
378.447	325.68
378.827	327.49
379.208	327.72
379.588	340.15
379.968	335.4
380.349	342.63
380.729	343.08
381.109	353.71
381.489	362.74
381.87	363.65
382.25	345.8
382.63	329.53
383.01	361.84
383.39	339.24
383.77	366.36
384.15	356.64
384.53	342.86
384.91	346.47
385.29	351.67
385.67	352.12
386.049	356.42
386.429	348.96
386.809	374.04
387.189	357.77
387.568	370.43
387.948	365.46
388.328	374.72
388.707	363.2
389.087	351.67
389.466	361.16
389.846	372.01
390.225	366.59
390.605	364.78
390.984	367.94
391.363	365.46
391.743	376.53
392.122	386.02
392.501	378.34
392.881	377.21
393.26	390.31
393.639	374.5
394.018	386.02
394.397	389.41
394.776	390.31
395.155	385.12
395.534	395.74
395.913	404.1
396.292	383.99
396.671	399.13
397.05	393.93
397.429	410.88
397.808	420.6
398.186	408.17
398.565	383.08
398.944	381.28
399.323	400.26
399.701	414.49
400.08	407.49
400.458	426.92
400.837	414.95
401.215	413.59
401.594	429.86
401.972	413.59
402.351	399.13
402.729	412.46
403.107	444.55
403.486	442.29
403.864	407.04
404.242	410.88
404.62	438.45
404.999	419.01
405.377	461.05
405.755	442.52
406.133	438.45
406.511	447.04
406.889	447.49
407.267	449.07
407.645	438
408.023	445.23
408.401	433.7
408.779	455.85
409.156	455.85
409.534	460.14
409.912	453.82
410.29	475.28
410.667	467.6
411.045	475.96
411.422	467.83
411.8	498.56
412.178	485.68
412.555	500.82
412.933	493.14
413.31	477.77
413.687	510.99
414.065	487.04
414.442	499.69
414.819	517.32
415.197	516.86
415.574	495.4
415.951	507.83
416.328	505.11
416.705	528.62
417.082	501.27
417.46	507.15
417.837	538.79
418.214	531.55
418.591	526.36
418.967	532.46
419.344	544.89
419.721	534.72
420.098	552.34
420.475	528.84
420.852	529.07
421.228	570.2
421.605	566.36
421.982	550.54
422.358	557.32
422.735	598.44
423.111	555.73
423.488	579.69
423.864	599.8
424.241	590.54
424.617	597.31
424.994	589.41
425.37	578.56
425.746	581.27
426.123	613.36
426.499	580.14
426.875	591.21
427.251	598.67
427.627	613.36
428.003	609.74
428.379	621.27
428.756	631.44
429.132	645.9
429.507	637.31
429.883	648.39
430.259	664.43
430.635	639.12
431.011	645.22
431.387	659.91
431.763	683.87
432.138	698.56
432.514	679.12
432.89	685
433.265	713.92
433.641	703.3
434.016	713.7
434.392	708.05
434.767	694.71
435.143	741.94
435.518	724.09
435.894	740.81
436.269	747.37
436.644	749.63
437.02	743.3
437.395	755.95
437.77	743.98
438.145	793.69
438.52	762.73
438.895	795.28
439.271	776.29
439.646	812
440.021	797.54
440.395	789.85
440.77	810.42
441.145	784.2
441.52	824.2
441.895	830.3
442.27	830.3
442.645	828.27
443.019	832.34
443.394	827.59
443.769	853.81
444.143	825.11
444.518	845.44
444.892	840.7
445.267	844.31
445.641	867.14
446.016	871.88
446.39	860.58
446.764	871.21
447.139	884.09
447.513	887.25
447.887	874.37
448.262	905.1
448.636	882.96
449.01	896.29
449.384	917.08
449.758	912.79
450.132	920.02
450.506	928.15
450.88	921.37
451.254	936.97
451.628	913.24
452.002	943.75
452.376	947.14
452.75	968.15
453.123	974.71
453.497	961.37
453.871	995.04
454.244	1014.03
454.618	1016.74
454.992	1025.78
455.365	1037.53
455.739	1058.77
456.112	1058.32
456.486	1051.31
456.859	1078.88
457.232	1120.01
457.606	1086.57
457.979	1074.59
458.352	1092.89
458.725	1108.71
459.099	1153.23
459.472	1141.26
459.845	1158.66
460.218	1158.88
460.591	1168.83
460.964	1191.42
461.337	1196.4
461.71	1228.48
462.083	1237.52
462.456	1260.8
462.829	1260.12
463.201	1270.74
463.574	1275.72
463.947	1319.56
464.32	1301.93
464.692	1315.71
465.065	1320.69
465.438	1357.29
465.81	1357.52
466.183	1406.56
466.555	1430.74
466.928	1429.84
467.3	1441.13
467.672	1474.58
468.045	1496.05
468.417	1512.32
468.789	1522.94
469.161	1515.03
469.534	1550.51
469.906	1600.68
470.278	1604.29
470.65	1597.74
471.022	1674.35
471.394	1703.95
471.766	1730.84
472.138	1716.61
472.51	1787.79
472.882	1831.86
473.253	1840.45
473.625	1879.77
473.997	1916.83
474.369	1932.42
474.74	1950.27
475.112	1975.36
475.484	2072.3
475.855	2063.94
476.227	2137.84
476.598	2196.14
476.97	2212.19
477.341	2251.96
477.713	2288.34
478.084	2381.67
478.455	2408.57
478.827	2484.95
479.198	2533.08
479.569	2578.05
479.94	2667.99
480.311	2724.94
480.682	2753.87
481.053	2852.85
481.424	2921.32
481.795	2965.39
482.166	2999.96
482.537	3082
482.908	3185.27
483.279	3276.79
483.65	3340.97
484.021	3422.33
484.391	3430.01
484.762	3492.61
485.133	3595.2
485.503	3689.89
485.874	3751.13
486.244	3832.03
486.615	3939.37
486.985	4041.29
487.356	4119.48
487.726	4175.98
488.097	4320.61
488.467	4354.73
488.837	4478.34
489.207	4547.04
489.578	4653.48
489.948	4725.57
490.318	4857.77
490.688	4871.33
491.058	5035.39
491.428	5069.29
491.798	5162.17
492.168	5379.34
492.538	5385.89
492.908	5437.64
493.278	5549.27
493.648	5589.27
494.017	5695.94
494.387	5817.52
494.757	5908.36
495.126	5978.87
495.496	6055.7
495.866	6184.29
496.235	6240.1
496.605	6318.97
496.974	6395.13
497.344	6480.55
497.713	6549.25
498.082	6597.61
498.452	6732.52
498.821	6820.88
499.19	6762.8
499.559	6930.71
499.928	7009.12
500.298	7040.08
500.667	7149.68
501.036	7155.56
501.405	7264.26
501.774	7337.02
502.143	7345.84
502.512	7458.38
502.88	7478.49
503.249	7554.42
503.618	7592.39
503.987	7667.19
504.356	7735.66
504.724	7790.12
505.093	7880.97
505.462	7915.09
505.83	7968.19
506.199	8087.29
506.567	8114.63
506.936	8131.13
507.304	8292.71
507.672	8370.9
508.041	8388.07
508.409	8492.93
508.777	8568.4
509.145	8647.27
509.514	8639.14
509.882	8652.47
510.25	8742.19
510.618	8761.85
510.986	8855.63
511.354	8868.96
511.722	9034.83
512.09	9049.3
512.458	9083.87
512.826	9147.37
513.193	9195.51
513.561	9211.33
513.929	9340.59
514.297	9427.14
514.664	9376.07
515.032	9446.57
515.4	9555.05
515.767	9600.47
516.135	9721.82
516.502	9568.38
516.869	9722.5
517.237	9731.31
517.604	9774.25
517.972	9846.79
518.339	9931.31
518.706	9988.48
519.073	10011.53
519.44	10042.26
519.808	10194.8
520.175	10181.02
520.542	10315.25
520.909	10352.54
521.276	10360
521.643	10393.67
522.009	10505.08
522.376	10497.85
522.743	10562.48
523.11	10761.79
523.477	10807.67
523.843	10835.01
524.21	10927.89
524.577	10966.08
524.943	10961.79
525.31	11032.75
525.676	11189.35
526.043	11205.4
526.409	11202.01
526.776	11283.14
527.142	11390.48
527.508	11476.35
527.874	11566.29
528.241	11613.97
528.607	11585.5
528.973	11774.42
529.339	11755.89
529.705	11903.46
530.071	11954.53
530.437	11931.25
530.803	12007.41
531.169	12131.93
531.535	12058.03
531.901	12212.38
532.267	12270.45
532.632	12341.86
532.998	12430.45
533.364	12398.13
533.73	12476.32
534.095	12600.62
534.461	12620.28
534.826	12731.46
535.192	12782.98
535.557	12781.85
535.923	12837.67
536.288	12792.93
536.653	12968.74
537.019	12930.32
537.384	12964.45
537.749	13035.18
538.114	13067.72
538.479	13199.47
538.845	13231.11
539.21	13189.75
539.575	13257.55
539.94	13366.92
540.305	13411.22
540.67	13483.3
541.034	13473.59
541.399	13547.71
541.764	13575.73
542.129	13669.74
542.494	13659.34
542.858	13740.7
543.223	13770.53
543.587	13868.15
543.952	13879.23
544.316	13919
544.681	13951.31
545.045	14027.47
545.41	14184.53
545.774	14270.18
546.138	14139.56
546.503	14286.45
546.867	14273.11
547.231	14448.7
547.595	14506.33
547.959	14519.43
548.324	14576.61
548.688	14622.03
549.052	14637.62
549.416	14682.82
549.779	14703.38
550.143	14736.6
550.507	14845.98
550.871	14829.71
551.235	14888.92
551.599	14980.21
551.962	15041.45
552.326	15022.92
552.689	15200.77
553.053	15079.65
553.417	15121
553.78	15372.29
554.143	15246.42
554.507	15422.01
554.87	15436.47
555.234	15612.51
555.597	15557.15
555.96	15544.72
556.323	15584.49
556.686	15659.07
557.05	15699.97
557.413	15782.45
557.776	15785.62
558.139	15830.81
558.502	15885.5
558.865	15881.66
559.228	16001.2
559.59	16153.97
559.953	16120.75
560.316	16323.23
560.679	16322.1
561.041	16462.43
561.404	16430.12
561.767	16538.82
562.129	16521.42
562.492	16722.99
562.854	16679.15
563.217	16694.52
563.579	16780.84
563.941	16848.41
564.304	16852.25
564.666	17046.83
565.028	16938.35
565.39	17006.83
565.753	17033.04
566.115	17154.85
566.477	17216.99
566.839	17280.49
567.201	17356.65
567.563	17463.76
567.925	17559.58
568.287	17474.84
568.648	17504.89
569.01	17725
569.372	17816.07
569.734	17805.68
570.095	17937.2
570.457	18010.19
570.819	18057.42
571.18	18143.07
571.542	18252.9
571.903	18249.05
572.265	18316.62
572.626	18416.28
572.987	18497.86
573.349	18548.48
573.71	18652.21
574.071	18742.37
574.432	18922.26
574.794	19087
575.155	19046.32
575.516	19083.16
575.877	19209.48
576.238	19343.26
576.599	19485.41
576.96	19532.86
577.32	19646.76
577.681	19769.47
578.042	19885.62
578.403	20070.48
578.763	20104.6
579.124	20292.39
579.485	20394.31
579.845	20582.33
580.206	20761.3
580.566	20900.74
580.927	21067.96
581.287	21429.76
581.648	21367.84
582.008	21671.11
582.368	21813.48
582.728	22008.73
583.089	22139.57
583.449	22344.09
583.809	22534.37
584.169	22816.39
584.529	22924.41
584.889	23384.74
585.249	23400.11
585.609	23559.2
585.969	23913.54
586.329	24013.42
586.688	24358.27
587.048	24467.87
587.408	24727.08
587.768	25010.68
588.127	25134.75
588.487	25504.91
588.846	25863.32
589.206	25875.29
589.565	26128.17
589.925	26670.08
590.284	26705.55
590.643	27039.11
591.003	27306.89
591.362	27641.12
591.721	27748.69
592.08	28063.94
592.44	28460.09
592.799	28648.78
593.158	28783.47
593.517	29175.77
593.876	29481.98
594.235	29666.38
594.593	29905.47
594.952	30216.2
595.311	30382.75
595.67	30810.98
596.029	31287.81
596.387	31431.31
596.746	31693.22
597.104	31883.95
597.463	32048.69
597.822	32470.38
598.18	32662.01
598.538	32784.72
598.897	33284.82
599.255	33218.38
599.613	33970.45
599.972	33970
600.33	34323.43
600.688	34242.76
601.046	34786.25
601.404	35015.17
601.762	35159.8
602.12	35402.05
602.478	35667.81
602.836	35860.79
603.194	35806.33
603.552	36133.78
603.91	36135.36
604.268	36606.31
604.625	36608.57
604.983	37081.33
605.341	37054.21
605.698	37502.33
606.056	37648.77
606.413	37759.5
606.771	38195.87
607.128	38123.56
607.485	38230.45
607.843	38453.49
608.2	38725.13
608.557	39101.39
608.914	39043.76
609.272	39277.65
609.629	39479
609.986	39908.15
610.343	39721.26
610.7	40112.66
611.057	40242.15
611.414	40416.38
611.771	40505.19
612.127	40785.64
612.484	40823.38
612.841	41160.32
613.198	41055.01
613.554	41275.79
613.911	41465.62
614.267	41682.56
614.624	41635.11
614.98	41692.05
615.337	42181.31
615.693	42081.87
616.05	42149.67
616.406	42477.8
616.762	42465.14
617.118	42543.1
617.475	42581.97
617.831	42821.97
618.187	42933.15
618.543	43159.81
618.899	43212.69
619.255	43421.5
619.611	43369.3
619.967	43557.77
620.323	43625.56
620.678	43568.61
621.034	43568.84
621.39	43691.32
621.746	43789.63
622.101	44268.26
622.457	43854.48
622.812	44198.43
623.168	44257.86
623.523	44458.99
623.879	44559.77
624.234	44203.4
624.589	44471.42
624.945	44597.29
625.3	44536.72
625.655	44672.77
626.01	44662.6
626.365	44665.99
626.72	44778.98
627.075	44844.51
627.43	44786.21
627.785	44763.61
628.14	44866.66
628.495	45057.61
628.85	44939.88
629.205	44844.06
629.559	45009.25
629.914	45021.23
630.269	44925.64
630.623	45066.88
630.978	44905.3
631.332	45217.38
631.687	45122.92
632.041	45063.26
632.396	45136.93
632.75	44981.68
633.104	45111.17
633.459	44939.88
633.813	45068.69
634.167	45002.47
634.521	45142.58
634.875	45124.28
635.229	45110.49
635.583	44851.97
635.937	44951.85
636.291	44931.74
636.645	45031.85
636.999	44814.01
637.352	45183.26
637.706	44785.08
638.06	45077.28
638.413	44902.36
638.767	44832.76
639.121	44900.1
639.474	44704.18
639.828	44858.98
640.181	44894.91
640.534	44884.74
640.888	44797.28
641.241	44594.35
641.594	44678.64
641.947	44887.45
642.301	44602.26
642.654	44634.12
643.007	44751.63
643.36	44709.15
643.713	44624.41
644.066	44698.98
644.419	44404.52
644.771	44307.8
645.124	43943.75
645.477	43945.78
645.83	43516.64
646.182	43479.58
646.535	43380.14
646.888	43435.51
647.24	43307.83
647.593	43393.48
647.945	43338.56
648.298	43179.92
648.65	43302.86
649.002	42998.46
649.355	43392.12
649.707	43338.11
650.059	43312.35
650.411	43707.37
650.763	43971.32
651.115	44285.88
651.467	44054.03
651.819	44128.6
652.171	43937.64
652.523	44017.87
652.875	43920.47
653.227	43838.66
653.578	44078.43
653.93	44059.22
654.282	43805.9
654.633	43862.84
654.985	43790.3
655.337	43910.3
655.688	44008.38
656.039	44095.83
656.391	43614.71
656.742	43825.33
657.094	43812.68
657.445	44015.38
657.796	43840.25
658.147	43753.92
658.498	43715.73
658.849	43725.22
659.2	43653.81
659.551	43562.51
659.902	43668.05
660.253	43702.62
660.604	43691.55
660.955	43493.81
661.306	43615.39
661.656	43560.25
662.007	43611.55
662.358	43641.15
662.708	43576.52
663.059	43563.42
663.409	43402.52
663.76	43674.6
664.11	43597.31
664.461	43656.97
664.811	43662.62
665.161	43532.91
665.511	43441.84
665.862	43604.09
666.212	43718.44
666.562	43547.37
666.912	43437.54
667.262	43432.35
667.612	43473.7
667.962	43574.72
668.312	43419.01
668.662	43703.3
669.011	43550.31
669.361	43395.06
669.711	43378.79
670.06	43331.56
670.41	43318.45
670.76	43151
671.109	43408.84
671.459	43359.58
671.808	43228.06
672.157	43319.36
672.507	43149.64
672.856	43188.51
673.205	43177.89
673.554	43195.74
673.904	43089.98
674.253	43428.96
674.602	43203.43
674.951	42635.08
675.3	42472.37
675.649	43056.99
675.998	43162.75
676.346	43092.47
676.695	43176.53
677.044	42810.44
677.393	43048.18
677.741	43026.48
678.09	42894.28
678.438	42843.89
678.787	42958.69
679.135	42898.12
679.484	42718.02
679.832	42790.56
680.181	42501.52
680.529	42718.92
680.877	42591.69
681.225	42568.19
681.573	42809.09
681.922	42508.3
682.27	42312.83
682.618	42300.4
682.966	42251.59
683.314	42445.71
683.661	42229.89
684.009	42035.77
684.357	42003.91
684.705	42016.11
685.053	42013.63
685.4	41932.73
685.748	41726.4
686.095	41721.66
686.443	41621.77
686.79	41577.25
687.138	41683.92
687.485	41535
687.832	41356.24
688.18	41419.29
688.527	41273.76
688.874	41208.9
689.221	41177.72
689.568	40990.6
689.915	40895.92
690.262	40870.83
690.609	40745.86
690.956	40709.71
691.303	40671.29
691.65	40516.94
691.997	40570.28
692.344	40323.73
692.69	40319.66
693.037	40193.79
693.383	39930.97
693.73	40076.95
694.077	39808.04
694.423	39968.03
694.769	39737.3
695.116	39726.68
695.462	39667.47
695.808	39561.04
696.155	39580.24
696.501	39252.12
696.847	39345.45
697.193	39033.14
697.539	39105.91
697.885	38826.82
698.231	38800.38
698.577	38869.3
698.923	38625.47
699.269	38489.43
699.614	38394.51
699.96	38368.98
700.306	38398.58
700.651	38171.92
700.997	38156.55
701.342	38015.09
701.688	37966.95
702.033	37785.04
702.379	37850.35
702.724	37763.8
703.069	37708.66
703.415	37358.38
703.76	37256.69
704.105	37565.38
704.45	37433.86
704.795	37088.78
705.14	37005.17
705.485	36914.33
705.83	36869.36
706.175	36839.75
706.52	36777.38
706.865	36650.15
707.209	36561.34
707.554	36385.98
707.899	36438.63
708.243	36282.03
708.588	36239.77
708.932	35952.09
709.277	36059.21
709.621	36069.38
709.966	35879.78
710.31	35818.76
710.654	35574.47
710.998	35649.73
711.342	35616.06
711.687	35560.92
712.031	35409.05
712.375	35294.93
712.719	35472.56
713.063	35282.73
713.407	35331.54
713.75	35171.32
714.094	35150.08
714.438	34974.26
714.782	35049.29
715.125	34864.44
715.469	34977.43
715.812	34752.35
716.156	34569.53
716.499	34624.22
716.843	34633.93
717.186	34364.56
717.53	34411.57
717.873	34449.53
718.216	34369.99
718.559	34323.89
718.902	34182.19
719.246	34132.7
719.589	33952.14
719.932	33929.09
720.275	33814.29
720.617	33989.21
720.96	33720.51
721.303	33807.97
721.646	33699.04
721.989	33563
722.331	33684.81
722.674	33541.53
723.016	33641.42
723.359	33515.32
723.701	33485.26
724.044	33168.89
724.386	33118.04
724.729	33388.54
725.071	33128.21
725.413	33179.51
725.755	33139.74
726.097	33071.04
726.439	32957.82
726.782	32902
727.124	33083.01
727.465	32759.18
727.807	32750.37
728.149	32773.19
728.491	32656.81
728.833	32792.63
729.175	32489.36
729.516	32574.55
729.858	32460.66
730.199	32505.4
730.541	32473.76
730.882	32423.82
731.224	32377.5
731.565	32188.12
731.906	32247.1
732.248	32220.44
732.589	32030.61
732.93	31865.65
733.271	31933.21
733.612	31972.54
733.953	32010.95
734.294	31848.92
734.635	31673.79
734.976	31908.81
735.317	31800.79
735.658	31649.83
735.999	31612.32
736.339	31556.27
736.68	31728.7
737.021	31618.87
737.361	31326.22
737.702	31689.15
738.042	31356.73
738.383	31314.93
738.723	31447.58
739.063	31338.65
739.404	31306.11
739.744	31254.81
740.084	31184.76
740.424	31089.62
740.764	31073.12
741.104	31250.29
741.444	31038.77
741.784	30859.34
742.124	31019.57
742.464	30858.21
742.804	30866.12
743.143	30764.66
743.483	30712.68
743.823	30679.69
744.162	30638.33
744.502	30890.98
744.841	30573.93
745.181	30688.95
745.52	30323.09
745.86	30430.2
746.199	30380.71
746.538	30357.89
746.877	30336.87
747.216	30329.19
747.556	30293.94
747.895	30200.15
748.234	30123.32
748.573	30152.7
748.911	30135.3
749.25	29967.84
749.589	29924.23
749.928	29944.57
750.267	29976.43
750.605	29863.89
750.944	29703.44
751.283	29791.35
751.621	29809.43
751.96	29545.03
752.298	29690.34
752.636	29719.71
752.975	29452.38
753.313	29356.33
753.651	29424.58
753.989	29423.22
754.327	29339.38
754.666	29125.83
755.004	29288.31
755.342	29212.83
755.679	29128.32
756.017	28963.35
756.355	29072.72
756.693	28847.87
757.031	28895.1
757.368	28833.86
757.706	28792.73
