Data from hue_190_FLMS001491_00087.txt Node
Date: Tue Feb 07 16:45:54 GMT 2017
User: dcchb
Spectrometer: FLMS00149
Trigger mode: 0
Integration Time (sec): 2.000000E-2
Scans to average: 10
Electric dark correction enabled: true
Nonlinearity correction enabled: false
Boxcar width: 0
XAxis mode: Wavelengths
Number of Pixels in Spectrum: 2048
>>>>>Begin Spectral Data<<<<<
341.393	-21.79
341.776	-21.79
342.16	-21.79
342.543	-73.77
342.927	-56.37
343.31	-70.61
343.693	-76.26
344.077	-64.05
344.46	-65.86
344.843	-69.25
345.226	-17.27
345.61	-24.28
345.993	-3.94
346.376	-24.28
346.759	-2.58
347.142	47.36
347.525	46.45
347.908	66.79
348.291	73.57
348.674	70.18
349.057	114.02
349.44	140.24
349.823	156.51
350.206	167.81
350.588	208.26
350.971	205.77
351.354	230.18
351.737	256.39
352.119	260.69
352.502	264.98
352.884	297.29
353.267	309.5
353.65	294.58
354.032	299.78
354.414	286
354.797	322.6
355.179	333.68
355.562	326.22
355.944	340.68
356.326	328.03
356.709	327.8
357.091	330.74
357.473	349.72
357.855	328.93
358.238	365.77
358.62	353.56
359.002	344.3
359.384	371.19
359.766	321.02
360.148	324.41
360.53	329.38
360.912	329.61
361.294	342.04
361.676	349.04
362.057	342.04
362.439	333.9
362.821	320.57
363.203	337.29
363.584	326.9
363.966	337.29
364.348	318.76
364.729	325.77
365.111	331.19
365.493	336.39
365.874	312.89
366.256	296.84
366.637	324.41
367.019	319.89
367.4	314.24
367.781	337.75
368.163	313.79
368.544	312.44
368.925	313.11
369.306	307.92
369.688	321.02
370.069	294.13
370.45	318.99
370.831	309.27
371.212	308.37
371.593	303.62
371.974	305.43
372.355	320.57
372.736	298.88
373.117	324.86
373.498	336.62
373.879	325.54
374.26	323.06
374.641	331.42
375.021	311.76
375.402	309.95
375.783	327.58
376.163	316.28
376.544	319.44
376.925	319.21
377.305	321.7
377.686	326.9
378.066	344.07
378.447	330.06
378.827	341.59
379.208	356.28
379.588	333.45
379.968	329.16
380.349	342.49
380.729	332.32
381.109	344.3
381.489	316.5
381.87	351.53
382.25	349.95
382.63	373
383.01	323.96
383.39	345.65
383.77	344.98
384.15	331.64
384.53	355.37
384.91	346.78
385.29	340.68
385.67	344.52
386.049	347.01
386.429	363.51
386.809	370.06
387.189	349.72
387.568	358.99
387.948	350.17
388.328	365.54
388.707	368.7
389.087	372.77
389.466	372.32
389.846	364.19
390.225	356.5
390.605	369.61
390.984	350.85
391.363	379.78
391.743	351.98
392.122	375.26
392.501	358.54
392.881	379.55
393.26	384.3
393.639	374.81
394.018	374.81
394.397	384.07
394.776	377.29
395.155	385.88
395.534	378.87
395.913	377.52
396.292	385.2
396.671	402.83
397.05	394.92
397.429	394.24
397.808	417.74
398.186	407.8
398.565	396.5
398.944	401.47
399.323	397.63
399.701	425.65
400.08	412.77
400.458	418.2
400.837	412.32
401.215	388.82
401.594	396.05
401.972	416.84
402.351	412.09
402.729	408.93
403.107	414.81
403.486	445.54
403.864	434.24
404.242	439.66
404.62	437.4
404.999	450.28
405.377	469.95
405.755	467.01
406.133	443.05
406.511	454.58
406.889	465.65
407.267	467.46
407.645	488.48
408.023	449.61
408.401	476.95
408.779	473.56
409.156	497.97
409.534	495.93
409.912	516.72
410.29	538.42
410.667	515.59
411.045	529.15
411.422	558.53
411.8	533.45
412.178	550.17
412.555	588.59
412.933	547.01
413.31	592.88
413.687	561.02
414.065	617.29
414.442	594.46
414.819	608.02
415.197	615.25
415.574	603.5
415.951	633.78
416.328	658.87
416.705	631.07
417.082	645.53
417.46	663.16
417.837	652.31
418.214	667
418.591	679.21
418.967	676.49
419.344	703.16
419.721	706.78
420.098	710.39
420.475	709.49
420.852	737.96
421.228	758.98
421.605	747.9
421.982	783.38
422.358	770.5
422.735	794.46
423.111	774.34
423.488	819.31
423.864	856.15
424.241	852.53
424.617	853.21
424.994	857.05
425.37	878.75
425.746	895.24
426.123	889.6
426.499	913.78
426.875	945.86
427.251	930.95
427.627	929.37
428.003	965.53
428.379	983.6
428.756	987.22
429.132	1012.08
429.507	1011.4
429.883	1042.81
430.259	1050.27
430.635	1047.11
431.011	1068.57
431.387	1062.25
431.763	1097.05
432.138	1112.64
432.514	1106.09
432.89	1128.23
433.265	1149.93
433.641	1153.54
434.016	1182.92
434.392	1209.13
434.767	1242.35
435.143	1259.76
435.518	1269.02
435.894	1274.44
436.269	1313.76
436.644	1354.44
437.02	1372.75
437.395	1360.54
437.77	1395.12
438.145	1412.07
438.52	1470.14
438.895	1464.5
439.271	1507.88
439.646	1522.12
440.021	1520.77
440.395	1528.9
440.77	1543.14
441.145	1591.05
441.52	1640.54
441.895	1615.45
442.27	1653.87
442.645	1633.08
443.019	1669.46
443.394	1707.2
443.769	1728.22
444.143	1722.57
444.518	1742.68
444.892	1713.53
445.267	1758.05
445.641	1769.35
446.016	1772.74
446.39	1840.98
446.764	1838.04
447.139	1863.35
447.513	1896.57
447.887	1892.51
448.262	1880.08
448.636	1893.18
449.01	1936.57
449.384	1941.09
449.758	1988.78
450.132	2008.21
450.506	1996.46
450.88	2023.35
451.254	2024.25
451.628	2083.24
452.002	2124.14
452.376	2050.47
452.75	2157.13
453.123	2159.84
453.497	2176.57
453.871	2217.47
454.244	2250.01
454.618	2255.66
454.992	2281.65
455.365	2299.05
455.739	2346.73
456.112	2369.1
456.486	2413.62
456.859	2436.9
457.232	2470.34
457.606	2454.3
457.979	2467.18
458.352	2555.77
458.725	2597.35
459.099	2584.69
459.472	2650.68
459.845	2680.73
460.218	2663.56
460.591	2721.86
460.964	2737.46
461.337	2787.85
461.71	2855.65
462.083	2866.72
462.456	2890.67
462.829	2919.37
463.201	2946.94
463.574	2933.16
463.947	2997.79
464.32	3105.81
464.692	3082.31
465.065	3130.67
465.438	3201.85
465.81	3240.72
466.183	3288.18
466.555	3305.35
466.928	3353.49
467.3	3357.33
467.672	3405.69
468.045	3473.71
468.417	3503.99
468.789	3562.75
469.161	3632.35
469.534	3669.64
469.906	3781.27
470.278	3781.72
470.65	3787.37
471.022	3903.75
471.394	3968.61
471.766	4021.72
472.138	4040.02
472.51	4157.08
472.882	4175.84
473.253	4238.66
473.625	4310.75
473.997	4389.84
474.369	4404.31
474.74	4484.98
475.112	4582.83
475.484	4651.76
475.855	4767.46
476.227	4814.46
476.598	4920.45
476.97	4992.31
477.341	5072.08
477.713	5133.33
478.084	5174.91
478.455	5337.61
478.827	5365.64
479.198	5555.69
479.569	5549.13
479.94	5725.85
480.311	5797.71
480.682	5868
481.053	6007.65
481.424	6122.68
481.795	6150.02
482.166	6279.96
482.537	6382.56
482.908	6519.05
483.279	6599.73
483.65	6708.88
484.021	6833.85
484.391	6892.83
484.762	6980.51
485.133	7061.41
485.503	7163.33
485.874	7233.38
486.244	7363.1
486.615	7441.51
486.985	7581.85
487.356	7738.91
487.726	7799.24
488.097	7969.64
488.467	7959.92
488.837	8159.69
489.207	8219.35
489.578	8316.74
489.948	8384.99
490.318	8532.11
490.688	8546.34
491.058	8743.17
491.428	8804.19
491.798	8935.94
492.168	9036.05
492.538	9082.6
492.908	9076.5
493.278	9300.45
493.648	9330.73
494.017	9432.42
494.387	9490.27
494.757	9578.41
495.126	9679.87
495.496	9688.23
495.866	9811.62
496.235	9772.98
496.605	9910.38
496.974	10002.8
497.344	10086.87
497.713	10079.64
498.082	10163.7
498.452	10257.03
498.821	10301.33
499.19	10273.53
499.559	10337.03
499.928	10365.96
500.298	10436.01
500.667	10464.03
501.036	10476.69
501.405	10625.84
501.774	10546.29
502.143	10737.25
502.512	10703.12
502.88	10755.1
503.249	10747.19
503.618	10840.07
503.987	10808.88
504.356	10932.27
504.724	10946.05
505.093	10965.26
505.462	11030.12
505.83	11019.27
506.199	11118.48
506.567	11259.72
506.936	11110.12
507.304	11270.79
507.672	11300.62
508.041	11275.76
508.409	11309.43
508.777	11381.97
509.145	11415.42
509.514	11356.66
509.882	11465.59
510.25	11389.88
510.618	11513.95
510.986	11408.64
511.354	11546.04
511.722	11591.69
512.09	11679.37
512.458	11596.88
512.826	11636.21
513.193	11647.28
513.561	11652.48
513.929	11804.11
514.297	11765.24
514.664	11825.35
515.032	11862.41
515.4	11795.07
515.767	11850.89
516.135	11869.42
516.502	11746.03
516.869	11959.59
517.237	11898.57
517.604	11916.88
517.972	11915.29
518.339	11986.03
518.706	11894.05
519.073	11948.29
519.44	11947.16
519.808	12048.17
520.175	12015.63
520.542	12057.89
520.909	12060.6
521.276	12044.56
521.643	12102.86
522.009	12091.79
522.376	12060.83
522.743	12087.72
523.11	12128.62
523.477	12169.75
523.843	12174.04
524.21	12303.76
524.577	12330.88
524.943	12245.91
525.31	12250.43
525.676	12311.67
526.043	12362.74
526.409	12284.78
526.776	12328.16
527.142	12323.87
527.508	12349.63
527.874	12356.86
528.241	12331.55
528.607	12302.18
528.973	12298.79
529.339	12331.55
529.705	12397.77
530.071	12384.43
530.437	12304.44
530.803	12280.26
531.169	12334.49
531.535	12201.84
531.901	12210.88
532.267	12159.13
532.632	12160.94
532.998	12147.15
533.364	12221.73
533.73	12066.48
534.095	12128.85
534.461	12030.09
534.826	12107.61
535.192	12026.93
535.557	12016.31
535.923	11877.1
536.288	11947.38
536.653	11885.01
537.019	11783.09
537.384	11800.04
537.749	11733.83
538.114	11741.51
538.479	11671.68
538.845	11672.59
539.21	11589.65
539.575	11573.61
539.94	11497
540.305	11468.3
540.67	11473.95
541.034	11364.35
541.399	11329.77
541.764	11278.02
542.129	11234.86
542.494	11202.09
542.858	11200.74
543.223	11189.66
543.587	11110.12
543.952	10983.34
544.316	10994.19
544.681	10949.67
545.045	10937.24
545.41	10908.31
545.774	10816.34
546.138	10806.17
546.503	10776.34
546.867	10691.6
547.231	10679.17
547.595	10625.84
547.959	10647.3
548.324	10547.87
548.688	10475.56
549.052	10447.54
549.416	10382.45
549.779	10341.78
550.143	10312.4
550.507	10310.59
550.871	10299.97
551.235	10218.62
551.599	10235.11
551.962	10104.27
552.326	10125.28
552.689	10079.41
553.053	10074.44
553.417	10003.03
553.78	10055
554.143	10020.65
554.507	9911.28
554.87	9891.39
555.234	9948.79
555.597	9745.41
555.96	9830.83
556.323	9772.75
556.686	9741.11
557.05	9758.51
557.413	9708.8
557.776	9673.55
558.139	9686.2
558.502	9625.18
558.865	9569.37
559.228	9585.19
559.59	9599.42
559.953	9618.41
560.316	9601
560.679	9594.68
561.041	9594.45
561.404	9570.27
561.767	9650.49
562.129	9520.78
562.492	9643.72
562.854	9538.41
563.217	9528.46
563.579	9517.17
563.941	9523.04
564.304	9526.88
564.666	9555.36
565.028	9478.3
565.39	9506.09
565.753	9519.65
566.115	9566.43
566.477	9509.93
566.839	9545.41
567.201	9544.06
567.563	9518.97
567.925	9551.74
568.287	9570.04
568.648	9509.71
569.01	9565.98
569.372	9499.54
569.734	9487.11
570.095	9503.15
570.457	9529.59
570.819	9557.39
571.18	9526.66
571.542	9567.79
571.903	9543.83
572.265	9592.87
572.626	9468.13
572.987	9556.94
573.349	9537.5
573.71	9512.65
574.071	9631.06
574.432	9606.43
574.794	9602.13
575.155	9594.68
575.516	9549.71
575.877	9561.01
576.238	9581.12
576.599	9564.85
576.96	9625.41
577.32	9620.67
577.681	9589.03
578.042	9592.64
578.403	9515.58
578.763	9592.87
579.124	9611.17
579.485	9579.76
579.845	9540.67
580.206	9571.17
580.566	9516.94
580.927	9515.36
581.287	9566.2
581.648	9533.66
582.008	9578.63
582.368	9530.95
582.728	9586.32
583.089	9490.27
583.449	9457.73
583.809	9457.96
584.169	9491.85
584.529	9470.39
584.889	9564.85
585.249	9501.57
585.609	9477.17
585.969	9527.79
586.329	9432.42
586.688	9462.25
587.048	9426.77
587.408	9386.55
587.768	9421.12
588.127	9431.97
588.487	9382.03
588.846	9410.05
589.206	9362.59
589.565	9415.47
589.925	9428.58
590.284	9360.33
590.643	9402.14
591.003	9367.34
591.362	9365.76
591.721	9393.78
592.08	9376.83
592.44	9416.38
592.799	9383.16
593.158	9352.42
593.517	9339.54
593.876	9325.08
594.235	9263.16
594.593	9325.98
594.952	9250.73
595.311	9262.48
595.67	9255.48
596.029	9336.6
596.387	9312.42
596.746	9314.01
597.104	9320.33
597.463	9308.36
597.822	9269.04
598.18	9267.23
598.538	9213.22
598.897	9215.48
599.255	9173.67
599.613	9327.57
599.972	9223.84
600.33	9288.92
600.688	9200.56
601.046	9180.45
601.404	9261.35
601.762	9235.36
602.12	9278.75
602.478	9255.48
602.836	9220
603.194	9206.89
603.552	9253.67
603.91	9200.34
604.268	9234.01
604.625	9119.21
604.983	9179.09
605.341	9151.98
605.698	9168.93
606.056	9254.8
606.413	9258.87
606.771	9210.05
607.128	9245.53
607.485	9214.35
607.843	9216.38
608.2	9279.43
608.557	9299.77
608.914	9231.97
609.272	9292.99
609.629	9221.58
609.986	9344.74
610.343	9280.34
610.7	9278.08
611.057	9315.59
611.414	9308.36
611.771	9329.83
612.127	9317.85
612.484	9358.3
612.841	9337.28
613.198	9380.45
613.554	9311.97
613.911	9337.06
614.267	9346.55
614.624	9371.63
614.98	9298.64
615.337	9399.43
615.693	9389.71
616.05	9380.67
616.406	9387
616.762	9352.88
617.118	9386.55
617.475	9341.35
617.831	9359.2
618.187	9369.37
618.543	9393.33
618.899	9474.45
619.255	9450.27
619.611	9411.18
619.967	9531.18
620.323	9477.17
620.678	9445.53
621.034	9365.08
621.39	9436.49
621.746	9418.86
622.101	9479.65
622.457	9401.46
622.812	9397.85
623.168	9405.08
623.523	9471.52
623.879	9544.06
624.234	9444.62
624.589	9513.78
624.945	9461.57
625.3	9447.56
625.655	9460.67
626.01	9478.75
626.365	9462.03
626.72	9423.16
627.075	9469.26
627.43	9463.61
627.785	9420.67
628.14	9370.95
628.495	9391.52
628.85	9454.12
629.205	9411.41
629.559	9408.24
629.914	9370.95
630.269	9316.72
630.623	9356.49
630.978	9321.92
631.332	9313.78
631.687	9372.31
632.041	9328.02
632.396	9309.03
632.75	9328.92
633.104	9268.36
633.459	9314.91
633.813	9290.73
634.167	9275.82
634.521	9229.26
634.875	9253.67
635.229	9212.77
635.583	9196.95
635.937	9132.32
636.291	9140.9
636.645	9161.47
636.999	9167.57
637.352	9204.4
637.706	9112.66
638.06	9191.98
638.413	9174.35
638.767	9130.96
639.121	9153.56
639.474	9130.73
639.828	9055.48
640.181	9079.89
640.534	9118.98
640.888	9007.35
641.241	9036.73
641.594	9023.84
641.947	9099.77
642.301	8984.98
642.654	9077.4
643.007	9019.32
643.36	8970.06
643.713	8976.39
644.066	9030.85
644.419	8990.4
644.771	8922.83
645.124	8856.62
645.477	8834.7
645.83	8783.62
646.182	8766.22
646.535	8740.01
646.888	8709.95
647.24	8658.66
647.593	8776.39
647.945	8683.74
648.298	8643.97
648.65	8653.68
649.002	8641.03
649.355	8703.4
649.707	8637.87
650.059	8719.22
650.411	8854.81
650.763	8798.54
651.115	8900.68
651.467	8858.43
651.819	8851.65
652.171	8861.36
652.523	8866.56
652.875	8817.3
653.227	8785.21
653.578	8862.72
653.93	8784.98
654.282	8807.35
654.633	8751.08
654.985	8778.2
655.337	8813.23
655.688	8892.1
656.039	8897.29
656.391	8796.51
656.742	8796.51
657.094	8829.5
657.445	8814.81
657.796	8793.12
658.147	8853.23
658.498	8791.99
658.849	8893.23
659.2	8848.71
659.551	8793.79
659.902	8841.02
660.253	8880.8
660.604	8872.21
660.955	8784.3
661.306	8888.71
661.656	8861.59
662.007	8906.11
662.358	8834.25
662.708	8888.93
663.059	8879.89
663.409	8860.91
663.76	8909.05
664.11	8909.72
664.461	8873.79
664.811	8847.8
665.161	8923.06
665.511	8831.76
665.862	8861.14
666.212	8897.75
666.562	8968.7
666.912	8979.78
667.262	8897.97
667.612	8878.31
667.962	8879.44
668.312	8919.44
668.662	8972.77
669.011	8887.8
669.361	8913.11
669.711	8881.48
670.06	8901.36
670.41	8904.98
670.76	8872.21
671.109	8876.28
671.459	8887.8
671.808	8831.08
672.157	8867.46
672.507	8798.31
672.856	8805.55
673.205	8803.06
673.554	8809.16
673.904	8745.21
674.253	8840.12
674.602	8742.27
674.951	8684.87
675.3	8614.14
675.649	8753.8
675.998	8771.65
676.346	8731.2
676.695	8786.11
677.044	8700.01
677.393	8747.92
677.741	8767.35
678.09	8711.76
678.438	8694.36
678.787	8702.95
679.135	8759.67
679.484	8645.78
679.832	8614.82
680.181	8621.82
680.529	8601.71
680.877	8575.49
681.225	8568.04
681.573	8585.44
681.922	8577.53
682.27	8535.5
682.618	8593.12
682.966	8490.75
683.314	8512.22
683.661	8399.45
684.009	8443.29
684.357	8346.35
684.705	8425.44
685.053	8411.66
685.4	8383.41
685.748	8356.52
686.095	8317.87
686.443	8309.29
686.79	8289.17
687.138	8304.32
687.485	8314.48
687.832	8227.71
688.18	8246.92
688.527	8192
688.874	8190.19
689.221	8163.98
689.568	8166.92
689.915	8152.68
690.262	8116.98
690.609	8054.15
690.956	8090.54
691.303	8034.94
691.65	8073.59
691.997	8003.98
692.344	7971.22
692.69	7946.13
693.037	7939.81
693.383	7923.76
693.73	7884.89
694.077	7807.83
694.423	7822.29
694.769	7795.18
695.116	7765.57
695.462	7743.2
695.808	7743.2
696.155	7698.91
696.501	7621.62
696.847	7672.47
697.193	7565.35
697.539	7588.63
697.885	7568.74
698.231	7517.9
698.577	7484.45
698.923	7480.38
699.269	7462.98
699.614	7441.51
699.96	7375.3
700.306	7368.07
700.651	7364
700.997	7340.95
701.342	7280.16
701.688	7338.24
702.033	7223.21
702.379	7301.4
702.724	7159.03
703.069	7248.3
703.415	7090.11
703.76	7128.75
704.105	7128.98
704.45	7137.79
704.795	7084.01
705.14	6990.23
705.485	7014.41
705.83	6974.41
706.175	6943
706.52	6975.54
706.865	6887.86
707.209	6900.74
707.554	6853.05
707.899	6899.38
708.243	6870.23
708.588	6837.01
708.932	6741.42
709.277	6753.4
709.621	6732.38
709.966	6677.92
710.31	6744.13
710.654	6727.86
710.998	6655.55
711.342	6623.23
711.687	6651.7
712.031	6628.88
712.375	6638.14
712.719	6639.5
713.063	6650.8
713.407	6592.72
713.75	6606.73
714.094	6557.24
714.438	6514.53
714.782	6600.41
715.125	6492.61
715.469	6456.23
715.812	6477.02
716.156	6451.26
716.499	6471.6
716.843	6459.39
717.186	6467.98
717.53	6446.74
717.873	6400.18
718.216	6392.28
718.559	6439.05
718.902	6379.39
719.246	6431.82
719.589	6371.49
719.932	6376
720.275	6335.78
720.617	6350.92
720.96	6333.75
721.303	6303.92
721.646	6359.28
721.989	6335.78
722.331	6327.19
722.674	6272.96
723.016	6321.32
723.359	6347.98
723.701	6331.03
724.044	6233.64
724.386	6286.97
724.729	6314.09
725.071	6253.97
725.413	6288.32
725.755	6272.73
726.097	6276.12
726.439	6216.91
726.782	6231.6
727.124	6279.06
727.465	6237.93
727.807	6192.73
728.149	6214.88
728.491	6209
728.833	6263.24
729.175	6194.99
729.516	6222.56
729.858	6220.75
730.199	6258.49
730.541	6222.34
730.882	6251.71
731.224	6243.8
731.565	6153.64
731.906	6232.73
732.248	6173.75
732.589	6217.82
732.93	6172.17
733.271	6180.08
733.612	6209.23
733.953	6169.46
734.294	6216.01
734.635	6153.86
734.976	6228.89
735.317	6214.65
735.658	6187.99
735.999	6212.39
736.339	6209.68
736.68	6237.25
737.021	6228.66
737.361	6212.85
737.702	6256.46
738.042	6226.18
738.383	6187.31
738.723	6174.2
739.063	6253.52
739.404	6287.42
739.744	6308.21
740.084	6260.3
740.424	6283.35
740.764	6260.75
741.104	6310.02
741.444	6310.02
741.784	6282.22
742.124	6354.99
742.464	6348.66
742.804	6312.73
743.143	6337.81
743.483	6348.66
743.823	6408.55
744.162	6366.51
744.502	6434.31
744.841	6517.02
745.181	6535.32
745.52	6485.61
745.86	6567.41
746.199	6575.32
746.538	6572.38
746.877	6690.35
747.216	6748.65
747.556	6741.64
747.895	6788.65
748.234	6778.25
748.573	6830.23
748.911	6865.48
749.25	6885.6
749.589	6985.48
749.928	7057.34
750.267	7108.87
750.605	7173.27
750.944	7224.34
751.283	7295.75
751.621	7445.13
751.96	7493.04
752.298	7552.92
752.636	7611.9
752.975	7749.3
753.313	7723.99
753.651	7992.01
753.989	8025.23
754.327	8136.86
754.666	8161.04
755.004	8378.44
755.342	8498.21
755.679	8595.38
756.017	8700.01
756.355	8799.9
756.693	8861.59
757.031	9130.96
757.368	9161.69
757.706	9382.03
758.044	9534.57
758.381	9622.25
758.719	9855.01
759.056	9979.75
759.394	10102.23
759.731	10247.54
760.068	10435.11
760.405	10536.35
760.743	10706.06
761.08	10889.78
761.417	11065.82
761.754	11235.76
762.091	11424.91
762.428	11576.09
762.765	11680.05
763.102	11891.34
763.438	12016.31
763.775	12224.66
764.112	12446.81
764.449	12618.78
764.785	12706.91
765.122	12872.78
765.458	13010.86
765.795	13213.79
