Data from hue_160_FLMS001491_00018.txt Node
Date: Tue Feb 07 16:50:50 GMT 2017
User: dcchb
Spectrometer: FLMS00149
Trigger mode: 0
Integration Time (sec): 2.000000E-2
Scans to average: 10
Electric dark correction enabled: true
Nonlinearity correction enabled: false
Boxcar width: 0
XAxis mode: Wavelengths
Number of Pixels in Spectrum: 2048
>>>>>Begin Spectral Data<<<<<
341.393	-7.08
341.776	-7.08
342.16	-7.08
342.543	-43.91
342.927	-66.96
343.31	-72.84
343.693	-50.69
344.077	-60.63
344.46	-50.01
344.843	-65.15
345.226	-64.02
345.61	-28.09
345.993	-2.56
346.376	6.26
346.759	-17.7
347.142	7.84
347.525	51.45
347.908	73.37
348.291	79.48
348.674	82.41
349.057	110.89
349.44	125.35
349.823	160.83
350.206	172.58
350.588	180.72
350.971	210.55
351.354	206.48
351.737	239.25
352.119	246.93
352.502	256.42
352.884	267.49
353.267	293.03
353.65	308.62
354.032	295.06
354.414	297.32
354.797	311.79
355.179	300.71
355.562	312.01
355.944	318.79
356.326	333.48
356.709	342.07
357.091	328.96
357.473	343.2
357.855	335.29
358.238	335.29
358.62	331.22
359.002	323.54
359.384	336.42
359.766	314.27
360.148	332.58
360.53	323.99
360.912	328.06
361.294	332.58
361.676	342.75
362.057	319.02
362.439	324.67
362.821	333.03
363.203	323.76
363.584	330.77
363.966	322.63
364.348	286.02
364.729	314.05
365.111	336.19
365.493	318.11
365.874	313.59
366.256	313.37
366.637	316.08
367.019	305.91
367.4	308.4
367.781	301.84
368.163	296.87
368.544	307.94
368.925	307.27
369.306	323.54
369.688	295.74
370.069	309.98
370.45	328.73
370.831	305.91
371.212	314.95
371.593	317.66
371.974	320.82
372.355	304.33
372.736	318.11
373.117	312.46
373.498	313.37
373.879	313.37
374.26	289.41
374.641	302.75
375.021	297.77
375.402	305.68
375.783	322.86
376.163	308.17
376.544	330.09
376.925	325.57
377.305	316.08
377.686	318.79
378.066	325.57
378.447	351.33
378.827	320.37
379.208	315.85
379.588	329.19
379.968	309.98
380.349	298.9
380.729	318.57
381.109	341.84
381.489	344.78
381.87	349.98
382.25	325.34
382.63	318.34
383.01	342.52
383.39	344.78
383.77	336.87
384.15	336.64
384.53	330.99
384.91	346.36
385.29	342.29
385.67	354.72
386.049	356.76
386.429	345.91
386.809	338.68
387.189	345.68
387.568	347.94
387.948	363.99
388.328	350.43
388.707	370.54
389.087	362.41
389.466	363.31
389.846	352.01
390.225	354.72
390.605	352.46
390.984	353.37
391.363	354.27
391.743	361.28
392.122	358.56
392.501	364.89
392.881	374.16
393.26	359.02
393.639	368.73
394.018	372.35
394.397	365.8
394.776	379.35
395.155	375.06
395.534	359.69
395.913	386.36
396.292	370.32
396.671	388.62
397.05	382.07
397.429	396.3
397.808	382.74
398.186	378.45
398.565	405.57
398.944	385.23
399.323	390.2
399.701	401.5
400.08	386.36
400.458	411.22
400.837	378.68
401.215	416.64
401.594	391.11
401.972	406.25
402.351	409.18
402.729	411.44
403.107	396.76
403.486	416.87
403.864	416.19
404.242	422.52
404.62	424.33
404.999	415.06
405.377	432.91
405.755	401.73
406.133	415.06
406.511	422.29
406.889	417.09
407.267	439.69
407.645	459.35
408.023	432.69
408.401	427.49
408.779	443.31
409.156	421.16
409.534	438.11
409.912	444.21
410.29	441.73
410.667	451.89
411.045	476.98
411.422	459.35
411.8	460.71
412.178	460.93
412.555	462.97
412.933	466.36
413.31	473.14
413.687	469.3
414.065	483.76
414.442	500.93
414.819	486.24
415.197	516.3
415.574	492.57
415.951	477.43
416.328	486.7
416.705	490.99
417.082	489.86
417.46	497.09
417.837	530.08
418.214	506.36
418.591	527.83
418.967	508.39
419.344	525.57
419.721	522.63
420.098	518.79
420.475	528.73
420.852	539.8
421.228	552.23
421.605	534.83
421.982	567.82
422.358	546.81
422.735	540.93
423.111	542.29
423.488	559.69
423.864	577.09
424.241	562.17
424.617	569.86
424.994	587.03
425.37	555.4
425.746	567.37
426.123	574.38
426.499	591.55
426.875	589.52
427.251	576.41
427.627	614.6
428.003	599.24
428.379	618.9
428.756	622.96
429.132	627.03
429.507	626.58
429.883	629.07
430.259	630.65
430.635	640.14
431.011	629.52
431.387	652.12
431.763	679.23
432.138	636.97
432.514	680.82
432.89	645.34
433.265	661.38
433.641	676.75
434.016	698.22
434.392	716.07
434.767	705.67
435.143	732.79
435.518	714.94
435.894	691.66
436.269	740.25
436.644	716.52
437.02	744.32
437.395	735.73
437.77	749.97
438.145	752.9
438.52	776.18
438.895	778.89
439.271	749.51
439.646	783.19
440.021	784.54
440.395	806.24
440.77	791.32
441.145	802.85
441.52	834.03
441.895	798.78
442.27	836.74
442.645	838.55
443.019	853.01
443.394	818.89
443.769	832.45
444.143	851.66
444.518	855.05
444.892	855.5
445.267	891.21
445.641	862.05
446.016	886.01
446.39	885.56
446.764	870.41
447.139	895.05
447.513	896.63
447.887	898.44
448.262	910.19
448.636	923.75
449.01	919
449.384	927.81
449.758	920.13
450.132	937.76
450.506	975.95
450.88	928.49
451.254	955.61
451.628	967.59
452.002	970.3
452.376	999
452.75	996.74
453.123	1012.11
453.497	1023.63
453.871	1007.81
454.244	1056.17
454.618	1067.02
454.992	1061.6
455.365	1067.7
455.739	1081.03
456.112	1088.94
456.486	1095.49
456.859	1102.95
457.232	1135.27
457.606	1129.17
457.979	1149.05
458.352	1180.92
458.725	1180.46
459.099	1188.6
459.472	1226.56
459.845	1222.95
460.218	1262.72
460.591	1246.22
460.964	1245.09
461.337	1277.18
461.71	1293.45
462.083	1314.7
462.456	1338.65
462.829	1321.25
463.201	1336.62
463.574	1371.19
463.947	1395.82
464.32	1380.23
464.692	1436.28
465.065	1421.81
465.438	1459.78
465.81	1475.6
466.183	1531.41
466.555	1520.12
466.928	1578.19
467.3	1555.59
467.672	1589.27
468.045	1638.08
468.417	1655.25
468.789	1658.19
469.161	1691.86
469.534	1718.08
469.906	1730.96
470.278	1779.09
470.65	1830.62
471.022	1867
471.394	1894.12
471.766	1924.17
472.138	1941.35
472.51	1983.15
472.882	2008.69
473.253	2044.17
473.625	2093.21
473.997	2150.16
474.369	2199.65
474.74	2213.2
475.112	2283.03
475.484	2310.38
475.855	2388.79
476.227	2433.31
476.598	2492.97
476.97	2587.43
477.341	2591.73
477.713	2723.25
478.084	2741.33
478.455	2810.48
478.827	2878.72
479.198	2964.15
479.569	3024.48
479.94	3115.55
480.311	3144.25
480.682	3263.35
481.053	3386.28
481.424	3427.18
481.795	3528.42
482.166	3611.81
482.537	3732.49
482.908	3812.26
483.279	3922.76
483.65	4013.61
484.021	4115.98
484.391	4208.18
484.762	4282.53
485.133	4363.66
485.503	4485.24
485.874	4623.08
486.244	4765.91
486.615	4849.75
486.985	4983.08
487.356	5095.61
487.726	5199.79
488.097	5394.36
488.467	5403.18
488.837	5579.44
489.207	5675.03
489.578	5837.29
489.948	5881.36
490.318	6065.53
490.688	6122.25
491.058	6310.5
491.428	6485.86
491.798	6526.99
492.168	6705.52
492.538	6777.6
492.908	6888.11
493.278	7056.24
493.648	7081.1
494.017	7313.18
494.387	7336.91
494.757	7516.12
495.126	7675.66
495.496	7717.69
495.866	7839.27
496.235	7939.38
496.605	8127.17
496.974	8190.22
497.344	8277.45
497.713	8436.77
498.082	8520.61
498.452	8583.88
498.821	8665.46
499.19	8780.72
499.559	8889.41
499.928	8926.25
500.298	9049.86
500.667	9173.93
501.036	9141.61
501.405	9350.87
501.774	9330.76
502.143	9489.85
502.512	9592.22
502.88	9707.24
503.249	9670.41
503.618	9752.89
503.987	9857.98
504.356	9889.39
504.724	9962.38
505.093	9989.27
505.462	10040.57
505.83	10115.6
506.199	10294.12
506.567	10386.77
506.936	10369.6
507.304	10490.5
507.672	10544.51
508.041	10638.97
508.409	10671.74
508.777	10693.43
509.145	10855.69
509.514	10846.88
509.882	10884.84
510.25	10918.96
510.618	10916.03
510.986	10926.87
511.354	11074.89
511.722	11074.44
512.09	11238.5
512.458	11226.3
512.826	11248.45
513.193	11290.48
513.561	11349.24
513.929	11404.15
514.297	11424.26
514.664	11510.36
515.032	11547.87
515.4	11630.36
515.767	11626.52
516.135	11649.11
516.502	11558.72
516.869	11760.07
517.237	11813.86
517.604	11623.58
517.972	11821.09
518.339	11799.17
518.706	11804.59
519.073	11789.68
519.44	11871.48
519.808	11966.62
520.175	11984.7
520.542	12144.47
520.909	12037.35
521.276	11947.41
521.643	12104.24
522.009	12173.17
522.376	12186.5
522.743	12239.16
523.11	12272.38
523.477	12285.03
523.843	12344.24
524.21	12391.24
524.577	12389.66
524.943	12399.6
525.31	12445.7
525.676	12480.05
526.043	12498.81
526.409	12486.38
526.776	12590.33
527.142	12597.11
527.508	12610.9
527.874	12596.66
528.241	12647.28
528.607	12621.74
528.973	12717.79
529.339	12621.07
529.705	12730.67
530.071	12715.53
530.437	12586.04
530.803	12654.96
531.169	12697.9
531.535	12601.41
531.901	12570.9
532.267	12651.12
532.632	12629.65
532.998	12614.74
533.364	12633.27
533.73	12472.6
534.095	12613.84
534.461	12630.78
534.826	12660.61
535.192	12601.63
535.557	12612.48
535.923	12547.62
536.288	12543.1
536.653	12511.92
537.019	12459.94
537.384	12483.89
537.749	12412.03
538.114	12402.09
538.479	12372.49
538.845	12334.97
539.21	12257.01
539.575	12184.24
539.94	12190.12
540.305	12303.79
540.67	12206.61
541.034	12174.75
541.399	12206.61
541.764	12112.61
542.129	12107.86
542.494	12049.78
542.858	12038.71
543.223	11892.27
543.587	11984.25
543.952	11913.51
544.316	11979.28
544.681	11977.47
545.045	11899.5
545.41	11948.32
545.774	11919.39
546.138	11826.29
546.503	11760.52
546.867	11768.66
547.231	11726.85
547.595	11702.67
547.959	11676.46
548.324	11593.3
548.688	11503.81
549.052	11513.52
549.416	11520.3
549.779	11429.91
550.143	11516.24
550.507	11439.85
550.871	11456.35
551.235	11358.5
551.599	11375.22
551.962	11303.81
552.326	11271.05
552.689	11324.15
553.053	11256.36
553.417	11226.3
553.78	11357.37
554.143	11223.36
554.507	11188.79
554.87	11220.88
555.234	11269.01
555.597	11158.73
555.96	11156.02
556.323	11209.58
556.686	11093.65
557.05	11116.93
557.413	11141.78
557.776	11082.12
558.139	11141.56
558.502	11070.15
558.865	10986.31
559.228	11113.99
559.59	11094.1
559.953	10979.08
560.316	11100.2
560.679	11189.47
561.041	11082.35
561.404	11077.83
561.767	11140.88
562.129	10951.73
562.492	11124.38
562.854	11075.12
563.217	11058.4
563.579	11071.28
563.941	11152.63
564.304	11088
564.666	11150.14
565.028	11139.52
565.39	11171.84
565.753	11186.53
566.115	11186.08
566.477	11166.64
566.839	11232.4
567.201	11283.02
567.563	11244.15
567.925	11292.06
568.287	11188.34
568.648	11289.8
569.01	11296.81
569.372	11367.31
569.734	11206.41
570.095	11355.34
570.457	11325.51
570.819	11336.58
571.18	11377.03
571.542	11418.39
571.903	11326.64
572.265	11295.9
572.626	11373.19
572.987	11383.36
573.349	11340.65
573.71	11417.48
574.071	11416.35
574.432	11484.37
574.794	11551.26
575.155	11407.09
575.516	11436.92
575.877	11443.47
576.238	11448.22
576.599	11382.91
576.96	11424.26
577.32	11400.99
577.681	11441.89
578.042	11485.28
578.403	11490.7
578.763	11477.37
579.124	11437.59
579.485	11515.11
579.845	11499.97
580.206	11471.27
580.566	11494.54
580.927	11473.53
581.287	11490.47
581.648	11466.07
582.008	11514.88
582.368	11469.68
582.728	11494.09
583.089	11444.6
583.449	11455.67
583.809	11425.62
584.169	11431.27
584.529	11445.96
584.889	11456.35
585.249	11418.84
585.609	11405.73
585.969	11468.78
586.329	11473.07
586.688	11417.48
587.048	11393.08
587.408	11385.62
587.768	11386.07
588.127	11321.21
588.487	11330.25
588.846	11381.78
589.206	11310.37
589.565	11295.68
589.925	11383.58
590.284	11310.59
590.643	11309.24
591.003	11337.48
591.362	11361.21
591.721	11346.52
592.08	11317.15
592.44	11329.8
592.799	11306.98
593.158	11294.55
593.517	11233.31
593.876	11274.66
594.235	11240.54
594.593	11209.35
594.952	11244.83
595.311	11269.69
595.67	11277.82
596.029	11245.51
596.387	11266.53
596.746	11225.85
597.104	11330.48
597.463	11203.25
597.822	11282.57
598.18	11173.87
598.538	11204.83
598.897	11226.53
599.255	11154.66
599.613	11285.96
599.972	11203.02
600.33	11216.36
600.688	11162.12
601.046	11264.94
601.404	11302.68
601.762	11214.1
602.12	11295.45
602.478	11297.94
602.836	11256.81
603.194	11153.08
603.552	11202.8
603.91	11172.97
604.268	11289.8
604.625	11232.85
604.983	11244.15
605.341	11149.24
605.698	11227.2
606.056	11299.07
606.413	11256.13
606.771	11287.09
607.128	11268.33
607.485	11119.19
607.843	11212.97
608.2	11192.86
608.557	11297.03
608.914	11322.8
609.272	11388.78
609.629	11337.26
609.986	11373.19
610.343	11314.43
610.7	11329.8
611.057	11389.69
611.414	11360.99
611.771	11339.74
612.127	11310.37
612.484	11353.76
612.841	11352.4
613.198	11312.85
613.554	11323.93
613.911	11355.56
614.267	11322.57
614.624	11517.37
614.98	11366.18
615.337	11480.53
615.693	11405.96
616.05	11479.63
616.406	11531.38
616.762	11413.19
617.118	11434.66
617.475	11474.2
617.831	11533.19
618.187	11530.02
618.543	11493.86
618.899	11574.77
619.255	11538.38
619.611	11509.01
619.967	11570.7
620.323	11621.54
620.678	11515.33
621.034	11534.54
621.39	11455.67
621.746	11476.01
622.101	11621.32
622.457	11549.23
622.812	11577.93
623.168	11559.85
623.523	11545.39
623.879	11612.05
624.234	11535.9
624.589	11524.82
624.945	11487.08
625.3	11578.83
625.655	11506.52
626.01	11537.93
626.365	11611.38
626.72	11565.05
627.075	11494.32
627.43	11532.28
627.785	11520.3
628.14	11622.9
628.495	11571.83
628.85	11597.59
629.205	11521.21
629.559	11609.79
629.914	11505.84
630.269	11478.72
630.623	11525.05
630.978	11475.56
631.332	11534.99
631.687	11570.25
632.041	11399.63
632.396	11480.31
632.75	11429.23
633.104	11446.18
633.459	11398.05
633.813	11347.43
634.167	11345.39
634.521	11372.74
634.875	11366.41
635.229	11340.42
635.583	11288.45
635.937	11245.28
636.291	11304.04
636.645	11325.06
636.999	11271.72
637.352	11270.82
637.706	11262.68
638.06	11240.09
638.413	11280.99
638.767	11197.15
639.121	11214.1
639.474	11194.89
639.828	11134.78
640.181	11162.8
640.534	11190.82
640.888	11153.31
641.241	11109.47
641.594	11090.03
641.947	11115.34
642.301	11106.3
642.654	11126.19
643.007	11128
643.36	11030.15
643.713	11048.9
644.066	11110.15
644.419	11011.39
644.771	10944.27
645.124	10890.49
645.477	10854.11
645.83	10718.97
646.182	10662.7
646.535	10709.93
646.888	10718.29
647.24	10683.04
647.593	10699.99
647.945	10710.16
648.298	10711.74
648.65	10631.74
649.002	10586.54
649.355	10611.4
649.707	10681.91
650.059	10637.16
650.411	10825.18
650.763	10897.5
651.115	10975.91
651.467	10933.2
651.819	10890.04
652.171	10848.46
652.523	10841.68
652.875	10905.18
653.227	10926.42
653.578	10979.08
653.93	10881.68
654.282	10849.59
654.633	10867.44
654.985	10911.05
655.337	10921
655.688	10972.97
656.039	10989.47
656.391	10864.05
656.742	10907.21
657.094	10897.95
657.445	10944.05
657.796	10959.87
658.147	10901.11
658.498	10852.75
658.849	10949.25
659.2	10894.78
659.551	10906.31
659.902	10902.47
660.253	10870.15
660.604	10967.78
660.955	10909.02
661.306	10956.25
661.656	10974.33
662.007	10958.51
662.358	10954.44
662.708	10981.56
663.059	10879.42
663.409	10913.99
663.76	11008
664.11	10963.03
664.461	10974.1
664.811	10966.87
665.161	10944.05
665.511	10955.57
665.862	10924.16
666.212	11018.62
666.562	10909.93
666.912	10916.03
667.262	10952.86
667.612	10997.15
667.962	10952.41
668.312	10952.64
668.662	10930.72
669.011	10937.95
669.361	10976.82
669.711	10852.53
670.06	10897.5
670.41	10869.93
670.76	10996.93
671.109	10880.1
671.459	10942.92
671.808	10904.28
672.157	10951.73
672.507	10788.57
672.856	10864.05
673.205	10884.84
673.554	10938.4
673.904	10828.8
674.253	10952.64
674.602	10888.46
674.951	10772.08
675.3	10714.9
675.649	10866.54
675.998	10882.36
676.346	10851.85
676.695	10798.06
677.044	10718.74
677.393	10781.79
677.741	10751.74
678.09	10791.51
678.438	10733.66
678.787	10817.27
679.135	10734.11
679.484	10648.91
679.832	10655.02
680.181	10651.4
680.529	10606.43
680.877	10614.57
681.225	10682.13
681.573	10623.6
681.922	10547.22
682.27	10535.7
682.618	10554.23
682.966	10588.8
683.314	10541.12
683.661	10505.64
684.009	10367.79
684.357	10438.98
684.705	10351.52
685.053	10394.46
685.4	10339.54
685.748	10358.75
686.095	10278.53
686.443	10327.12
686.79	10234.01
687.138	10246.89
687.485	10305.87
687.832	10213.67
688.18	10231.3
688.527	10201.24
688.874	10161.24
689.221	10153.11
689.568	10176.16
689.915	10081.7
690.262	10079.66
690.609	10008.03
690.956	10050.96
691.303	9973.45
691.65	9906.79
691.997	9846.22
692.344	9854.36
692.69	9879.22
693.037	9814.59
693.383	9752.22
693.73	9814.81
694.077	9697.3
694.423	9664.53
694.769	9625.21
695.116	9605.33
695.462	9646.91
695.808	9550.41
696.155	9660.69
696.501	9441.72
696.847	9509.96
697.193	9399.91
697.539	9493.24
697.885	9424.31
698.231	9336.86
698.577	9373.47
698.923	9343.64
699.269	9296.63
699.614	9157.43
699.96	9234.94
700.306	9247.82
700.651	9143.87
700.997	9087.37
701.342	9041.05
701.688	9022.52
702.033	9042.63
702.379	8961.05
702.724	8911.33
703.069	8986.13
703.415	8931.67
703.76	8853.93
704.105	8861.39
704.45	8774.84
704.795	8786.37
705.14	8732.58
705.485	8729.64
705.83	8688.51
706.175	8732.58
706.52	8700.27
706.865	8650.78
707.209	8642.64
707.554	8584.56
707.899	8648.52
708.243	8562.19
708.588	8548.86
708.932	8496.88
709.277	8475.19
709.621	8491.23
709.966	8443.78
710.31	8426.6
710.654	8385.47
710.998	8340.73
711.342	8371.01
711.687	8327.62
712.031	8286.49
712.375	8246.49
712.719	8315.42
713.063	8251.24
713.407	8237
713.75	8174.86
714.094	8148.64
714.438	8187.74
714.782	8185.25
715.125	8179.83
715.469	8194.74
715.812	8072.26
716.156	8157.68
716.499	8119.94
716.843	8140.28
717.186	7967.18
717.53	8053.95
717.873	8049.44
718.216	8057.34
718.559	8062.32
718.902	7940.74
719.246	8006.72
719.589	7929.89
719.932	7834.3
720.275	7895.99
720.617	7971.47
720.96	7927.63
721.303	7923.11
721.646	7861.19
721.989	7850.8
722.331	7895.54
722.674	7895.54
723.016	7889.44
723.359	7839.05
723.701	7877.01
724.044	7818.93
724.386	7752.95
724.729	7833.85
725.071	7810.12
725.413	7827.29
725.755	7786.39
726.097	7730.35
726.439	7779.16
726.782	7786.17
727.124	7818.25
727.465	7744.36
727.807	7719.27
728.149	7749.1
728.491	7761.99
728.833	7737.35
729.175	7725.15
729.516	7752.72
729.858	7713.4
730.199	7775.32
730.541	7747.52
730.882	7759.95
731.224	7808.31
731.565	7695.32
731.906	7684.7
732.248	7759.27
732.589	7730.35
732.93	7643.12
733.271	7679.95
733.612	7673.85
733.953	7813.51
734.294	7742.55
734.635	7723.57
734.976	7765.37
735.317	7592.72
735.658	7698.94
735.999	7735.55
736.339	7679.95
736.68	7721.53
737.021	7699.16
737.361	7650.58
737.702	7731.03
738.042	7745.71
738.383	7738.71
738.723	7702.1
739.063	7753.85
739.404	7754.75
739.744	7764.7
740.084	7684.7
740.424	7857.58
740.764	7776.9
741.104	7819.61
741.444	7746.39
741.784	7799.05
742.124	7893.73
742.464	7846.95
742.804	7881.76
743.143	7819.84
743.483	7881.98
743.823	7979.15
744.162	7931.25
744.502	7997.91
744.841	7926.73
745.181	8001.75
745.52	8067.74
745.86	8071.36
746.199	8126.95
746.538	8102.99
746.877	8187.28
747.216	8239.71
747.556	8233.61
747.895	8323.78
748.234	8398.13
748.573	8415.98
748.911	8438.8
749.25	8468.63
749.589	8488.52
749.928	8573.26
750.267	8651.68
750.605	8658.68
750.944	8807.83
751.283	8813.71
751.621	8904.1
751.96	8973.25
752.298	9021.39
752.636	9171.89
752.975	9193.81
753.313	9304.32
753.651	9470.64
753.989	9481.94
754.327	9572.56
754.666	9662.05
755.004	9831.76
755.342	9869.27
755.679	10056.61
756.017	10071.53
756.355	10219.77
756.693	10378.19
757.031	10570.95
757.368	10669.48
757.706	10816.59
758.044	10921.22
758.381	11048
758.719	11241.67
759.056	11345.39
759.394	11490.47
759.731	11561.66
760.068	11742.9
