Data from hue_26_FLMS001491_00071.txt Node
Date: Tue Feb 07 17:14:29 GMT 2017
User: dcchb
Spectrometer: FLMS00149
Trigger mode: 0
Integration Time (sec): 2.000000E-2
Scans to average: 10
Electric dark correction enabled: true
Nonlinearity correction enabled: false
Boxcar width: 0
XAxis mode: Wavelengths
Number of Pixels in Spectrum: 2048
>>>>>Begin Spectral Data<<<<<
341.393	-8.5
341.776	-8.5
342.16	-8.5
342.543	-67.26
342.927	-85.11
343.31	-72.68
343.693	-81.27
344.077	-62.06
344.46	-67.71
344.843	-53.47
345.226	-42.17
345.61	-28.62
345.993	-15.28
346.376	-10.08
346.759	27.65
347.142	19.52
347.525	36.02
347.908	82.34
348.291	89.57
348.674	82.12
349.057	96.13
349.44	102.91
349.823	130.25
350.206	149.91
350.588	207.99
350.971	219.74
351.354	238.72
351.737	248.44
352.119	269
352.502	277.14
352.884	272.17
353.267	280.53
353.65	291.6
354.032	278.27
354.414	283.24
354.797	310.13
355.179	316.69
355.562	302.45
355.944	321.88
356.326	331.38
356.709	349.91
357.091	340.41
357.473	332.05
357.855	336.57
358.238	333.41
358.62	325.5
359.002	349.68
359.384	342.67
359.766	348.78
360.148	349.23
360.53	354.43
360.912	331.38
361.294	342
361.676	331.15
362.057	319.62
362.439	341.54
362.821	337.25
363.203	334.99
363.584	302
363.966	327.53
364.348	334.54
364.729	324.37
365.111	312.84
365.493	299.29
365.874	322.11
366.256	318.95
366.637	305.84
367.019	319.85
367.4	323.69
367.781	310.81
368.163	340.19
368.544	314.2
368.925	321.43
369.306	325.73
369.688	306.97
370.069	296.35
370.45	306.52
370.831	289.34
371.212	312.62
371.593	318.27
371.974	318.04
372.355	320.75
372.736	302.9
373.117	311.26
373.498	303.58
373.879	308.33
374.26	302.9
374.641	308.55
375.021	311.26
375.402	324.14
375.783	326.63
376.163	318.72
376.544	338.15
376.925	333.18
377.305	332.96
377.686	315.56
378.066	323.69
378.447	329.34
378.827	313.07
379.208	321.43
379.588	342.22
379.968	311.04
380.349	331.6
380.729	334.99
381.109	329.12
381.489	365.27
381.87	355.33
382.25	327.31
382.63	315.33
383.01	347.19
383.39	343.8
383.77	336.8
384.15	327.31
384.53	356.91
384.91	337.7
385.29	335.67
385.67	349.23
386.049	348.1
386.429	333.64
386.809	359.85
387.189	365.95
387.568	349
387.948	366.4
388.328	376.8
388.707	367.31
389.087	353.52
389.466	367.98
389.846	366.4
390.225	356.23
390.605	364.37
390.984	360.08
391.363	367.08
391.743	352.39
392.122	359.17
392.501	366.18
392.881	359.85
393.26	369.79
393.639	393.52
394.018	374.76
394.397	382.9
394.776	382.67
395.155	380.87
395.534	353.3
395.913	375.67
396.292	393.07
396.671	389.23
397.05	375.44
397.429	377.25
397.808	385.39
398.186	400.53
398.565	384.71
398.944	409.11
399.323	395.55
399.701	393.29
400.08	398.04
400.458	384.71
400.837	395.1
401.215	404.37
401.594	390.81
401.972	393.52
402.351	410.02
402.729	403.69
403.107	415.44
403.486	391.26
403.864	408.89
404.242	415.22
404.62	413.63
404.999	400.75
405.377	390.36
405.755	426.74
406.133	416.57
406.511	405.27
406.889	438.72
407.267	449.11
407.645	420.41
408.023	446.17
408.401	418.83
408.779	437.59
409.156	444.37
409.534	434.42
409.912	435.1
410.29	436.01
410.667	437.36
411.045	447.3
411.422	455.89
411.8	431.03
412.178	454.08
412.555	458.6
412.933	461.77
413.31	460.19
413.687	473.74
414.065	466.97
414.442	473.74
414.819	482.78
415.197	479.39
415.574	494.54
415.951	496.12
416.328	507.42
416.705	487.76
417.082	510.81
417.46	493.18
417.837	504.7
418.214	500.64
418.591	498.38
418.967	503.35
419.344	513.07
419.721	501.31
420.098	511.26
420.475	540.18
420.852	523.46
421.228	522.1
421.605	517.36
421.982	516
422.358	534.99
422.735	533.4
423.111	534.31
423.488	527.75
423.864	549.67
424.241	538.6
424.617	560.97
424.994	576.34
425.37	545.38
425.746	554.87
426.123	551.71
426.499	563.91
426.875	574.76
427.251	572.27
427.627	554.42
428.003	567.53
428.379	597.36
428.756	583.12
429.132	588.54
429.507	611.59
429.883	602.33
430.259	604.59
430.635	614.98
431.011	611.82
431.387	633.51
431.763	648.66
432.138	650.92
432.514	641.65
432.89	628.54
433.265	651.37
433.641	661.31
434.016	653.85
434.392	665.15
434.767	654.98
435.143	680.74
435.518	666.06
435.894	684.81
436.269	701.99
436.644	701.31
437.02	698.15
437.395	712.16
437.77	729.78
438.145	722.1
438.52	697.24
438.895	735.21
439.271	742.21
439.646	739.5
440.021	735.66
440.395	747.86
440.77	744.02
441.145	751.93
441.52	756.68
441.895	763.23
442.27	776.56
442.645	779.05
443.019	772.95
443.394	763.23
443.769	790.57
444.143	798.71
444.518	778.82
444.892	784.24
445.267	793.06
445.641	795.32
446.016	809.1
446.39	803.23
446.764	816.33
447.139	809.55
447.513	826.5
447.887	836.9
448.262	800.06
448.636	822.89
449.01	812.27
449.384	837.12
449.758	853.17
450.132	874.41
450.506	853.17
450.88	857.69
451.254	864.47
451.628	876.22
452.002	886.16
452.376	864.69
452.75	869.89
453.123	906.73
453.497	918.25
453.871	903.34
454.244	942.88
454.618	919.61
454.992	961.19
455.365	952.38
455.739	963
456.112	979.27
456.486	973.62
456.859	970.45
457.232	971.58
457.606	994.86
457.979	1014.3
458.352	1030.34
458.725	1040.28
459.099	1034.63
459.472	1049.55
459.845	1059.49
460.218	1094.75
460.591	1082.32
460.964	1091.58
461.337	1103.11
461.71	1113.05
462.083	1147.17
462.456	1144.01
462.829	1180.17
463.201	1185.59
463.574	1171.58
463.947	1205.02
464.32	1227.17
464.692	1217.68
465.065	1232.82
465.438	1244.8
465.81	1289.09
466.183	1256.1
466.555	1275.98
466.928	1311.46
467.3	1280.96
467.672	1310.56
468.045	1344.91
468.417	1366.83
468.789	1386.94
469.161	1365.92
469.534	1442.98
469.906	1442.76
470.278	1409.31
470.65	1461.06
471.022	1480.05
471.394	1487.05
471.766	1545.81
472.138	1541.74
472.51	1588.74
472.882	1598.23
473.253	1622.87
473.625	1635.75
473.997	1669.65
474.369	1687.95
474.74	1741.51
475.112	1749.42
475.484	1798
475.855	1798.68
476.227	1830.09
476.598	1863.99
476.97	1878.91
477.341	1949.19
477.713	1965.46
478.084	2010.2
478.455	2056.08
478.827	2044.32
479.198	2155.73
479.569	2142.4
479.94	2194.15
480.311	2237.09
480.682	2263.08
481.053	2342.62
481.424	2372.68
481.795	2421.72
482.166	2419.91
482.537	2530.19
482.908	2520.7
483.279	2606.34
483.65	2637.53
484.021	2671.43
484.391	2722.95
484.762	2723.18
485.133	2806.56
485.503	2837.3
485.874	2934.47
486.244	2961.14
486.615	2980.12
486.985	3059.67
487.356	3131.3
487.726	3161.13
488.097	3225.99
488.467	3237.06
488.837	3295.37
489.207	3380.11
489.578	3461.24
489.948	3485.19
490.318	3533.1
490.688	3544.62
491.058	3602.7
491.428	3675.69
491.798	3696.03
492.168	3772.87
492.538	3796.14
492.908	3874.56
493.278	3967.44
493.648	3923.6
494.017	4003.82
494.387	4050.15
494.757	4120.2
495.126	4108.9
495.496	4109.13
495.866	4210.37
496.235	4259.86
496.605	4260.31
496.974	4299.18
497.344	4376.92
497.713	4401.32
498.082	4469.57
498.452	4457.59
498.821	4532.62
499.19	4503.47
499.559	4575.56
499.928	4628.66
500.298	4639.28
500.667	4730.13
501.036	4710.02
501.405	4725.16
501.774	4751.15
502.143	4813.07
502.512	4844.25
502.88	4858.71
503.249	4851.71
503.618	4951.59
503.987	5004.02
504.356	4969.9
504.724	4994.08
505.093	5020.74
505.462	5064.81
505.83	5022.78
506.199	5100.97
506.567	5150.46
506.936	5183.9
507.304	5240.17
507.672	5259.61
508.041	5267.52
508.409	5338.93
508.777	5337.8
509.145	5368.53
509.514	5316.1
509.882	5427.96
510.25	5402.88
510.618	5460.51
510.986	5441.75
511.354	5586.15
511.722	5545.48
512.09	5590.22
512.458	5554.97
512.826	5591.35
513.193	5695.3
513.561	5655.53
513.929	5696.43
514.297	5744.79
514.664	5762.87
515.032	5771.01
515.4	5787.05
515.767	5836.99
516.135	5890.1
516.502	5826.15
516.869	5933.04
517.237	5975.29
517.604	5956.31
517.972	5991.11
518.339	6018.01
518.706	6010.1
519.073	5994.28
519.44	6010.55
519.808	6148.17
520.175	6043.99
520.542	6161.73
520.909	6171.45
521.276	6184.55
521.643	6220.26
522.009	6253.25
522.376	6285.34
522.743	6286.25
523.11	6360.6
523.477	6421.84
523.843	6417.09
524.21	6530.31
524.577	6526.69
524.943	6519.01
525.31	6623.41
525.676	6621.83
526.043	6686.24
526.409	6681.72
526.776	6765.56
527.142	6751.55
527.508	6800.58
527.874	6843.52
528.241	6897.08
528.607	6932.11
528.973	6931.65
529.339	6961.71
529.705	7013.91
530.071	7073.8
530.437	7109.05
530.803	7089.62
531.169	7169.84
531.535	7155.6
531.901	7223.62
532.267	7176.62
532.632	7279.89
532.998	7262.94
533.364	7344.98
533.73	7331.64
534.095	7436.27
534.461	7424.07
534.826	7493.22
535.192	7484.86
535.557	7546.55
535.923	7568.47
536.288	7625.65
536.653	7639.21
537.019	7608.02
537.384	7655.02
537.749	7678.98
538.114	7718.53
538.479	7694.8
538.845	7798.98
539.21	7833.33
539.575	7830.39
539.94	7881.69
540.305	7923.04
540.67	7937.96
541.034	7976.37
541.399	8046.65
541.764	8015.02
542.129	8019.99
542.494	8084.84
542.858	8119.42
543.223	8095.92
543.587	8170.27
543.952	8184.95
544.316	8241.9
544.681	8254.78
545.045	8345.85
545.41	8360.09
545.774	8343.82
546.138	8319.64
546.503	8393.99
546.867	8474.21
547.231	8502.01
547.595	8502.91
547.959	8521.89
548.324	8530.26
548.688	8544.94
549.052	8651.83
549.416	8631.04
549.779	8663.13
550.143	8657.71
550.507	8718.73
550.871	8759.63
551.235	8725.73
551.599	8814.77
551.962	8855.45
552.326	8933.18
552.689	8989.23
553.053	8945.39
553.417	8884.14
553.78	9066.96
554.143	8986.97
554.507	9022.67
554.87	9071.26
555.234	9147.64
555.597	9090.92
555.96	9122.78
556.323	9207.75
556.686	9183.12
557.05	9321.2
557.413	9274.42
557.776	9317.13
558.139	9367.52
558.502	9395.54
558.865	9378.6
559.228	9447.29
559.59	9429.67
559.953	9494.98
560.316	9619.27
560.679	9618.36
561.041	9596.67
561.404	9588.31
561.767	9753.05
562.129	9641.87
562.492	9798.47
562.854	9812.48
563.217	9738.81
563.579	9867.4
563.941	9831.24
564.304	9956.89
564.666	9950.11
565.028	9937.9
565.39	9970.22
565.753	9995.08
566.115	10104.9
566.477	10113.27
566.839	10128.63
567.201	10243.21
567.563	10238.23
567.925	10259.02
568.287	10312.36
568.648	10291.11
569.01	10370.43
569.372	10487.72
569.734	10427.38
570.095	10526.81
570.457	10595.96
570.819	10581.28
571.18	10686.13
571.542	10719.58
571.903	10675.28
572.265	10854.71
572.626	10819.69
572.987	10879.8
573.349	10919.35
573.71	10972.23
574.071	11049.51
574.432	11145.33
574.794	11208.6
575.155	11187.59
575.516	11256.06
575.877	11396.62
576.238	11360.24
576.599	11522.95
576.96	11544.41
577.32	11577.63
577.681	11807.91
578.042	11890.39
578.403	11907.34
578.763	12023.5
579.124	12111.18
579.485	12194.79
579.845	12385.75
580.206	12425.52
580.566	12539.64
580.927	12635.46
581.287	12756.36
581.648	12870.03
582.008	13091.94
582.368	13240.41
582.728	13467.75
583.089	13496.45
583.449	13677.92
583.809	13925.59
584.169	14093.27
584.529	14242.65
584.889	14506.37
585.249	14597.22
585.609	14731.22
585.969	15016.87
586.329	15201.72
586.688	15455.95
587.048	15619.79
587.408	15800.35
587.768	16106.55
588.127	16306.32
588.487	16538.86
588.846	16848.23
589.206	16983.14
589.565	17286.41
589.925	17641.2
590.284	17845.04
590.643	18166.61
591.003	18425.36
591.362	18754.85
591.721	19017.44
592.08	19313.7
592.44	19613.35
592.799	19915.49
593.158	20135.6
593.517	20452.43
593.876	20761.35
594.235	20961.12
594.593	21275.23
594.952	21589.57
595.311	21897.14
595.67	22286.73
596.029	22658.02
596.387	22945.02
596.746	23289.42
597.104	23453.71
597.463	23740.48
597.822	24165.55
598.18	24373.23
598.538	24711.07
598.897	25112.19
599.255	25176.37
599.613	25879.4
599.972	25940.42
600.33	26292.95
600.688	26411.14
601.046	26894.07
601.404	27144.46
601.762	27482.07
602.12	27901.5
602.478	28091.32
602.836	28321.37
603.194	28532.22
603.552	28878.42
603.91	29070.05
604.268	29401.12
604.625	29638.4
604.983	29995.45
605.341	30148.44
605.698	30399.51
606.056	30763.8
606.413	31087.85
606.771	31207.17
607.128	31580.72
607.485	31725.8
607.843	32005.8
608.2	32271.1
608.557	32653.46
608.914	32777.53
609.272	33038.76
609.629	33348.59
609.986	33690.95
610.343	33726.2
610.7	34083.26
611.057	34344.72
611.414	34419.74
611.771	34683.69
612.127	34980.63
612.484	35180.85
612.841	35405.93
613.198	35406.84
613.554	35749.2
613.911	36076.88
614.267	36255.18
614.624	36227.38
614.98	36404.33
615.337	36823.3
615.693	36758.44
616.05	36993.69
616.406	37294.25
616.762	37482.72
617.118	37458.31
617.475	37524.52
617.831	37919.09
618.187	37978.3
618.543	38157.5
618.899	38385.74
619.255	38519.07
619.611	38580.99
619.967	38819.85
620.323	38936.46
620.678	39037.25
621.034	38943.69
621.39	39154.54
621.746	39224.14
622.101	39705.71
622.457	39479.27
622.812	39736.22
623.168	39774.41
623.523	39721.53
623.879	40016.66
624.234	39884.23
624.589	40086.04
624.945	40134.62
625.3	40402.41
625.655	40451.22
626.01	40553.82
626.365	40585.46
626.72	40642.41
627.075	40698.45
627.43	40676.08
627.785	40709.75
628.14	40820.93
628.495	41024.32
628.85	41045.79
629.205	40865.68
629.559	41178.89
629.914	40969.4
630.269	41173.01
630.623	41021.38
630.978	41121.72
631.332	41334.14
631.687	41369.62
632.041	41157.87
632.396	41458.2
632.75	41290.75
633.104	41368.26
633.459	41275.38
633.813	41253.01
634.167	41286.23
634.521	41404.65
634.875	41330.52
635.229	41371.88
635.583	41222.5
635.937	41299.34
636.291	41402.16
636.645	41478.99
636.999	41224.76
637.352	41525.32
637.706	41234.71
638.06	41343.18
638.413	41363.74
638.767	41184.54
639.121	41367.81
639.474	41208.72
639.828	41313.35
640.181	41307.7
640.534	41232.22
640.888	41174.37
641.241	41019.8
641.594	41154.03
641.947	41239
642.301	41162.84
642.654	41283.75
643.007	41222.73
643.36	41119.46
643.713	41138.89
644.066	41228.83
644.419	41127.36
644.771	40852.34
645.124	40591.33
645.477	40577.32
645.83	40226.82
646.182	40196.77
646.535	39970.56
646.888	40075.64
647.24	39983.21
647.593	40223.66
647.945	40136.88
648.298	39926.27
648.65	40012.82
649.002	39762.66
649.355	40027.96
649.707	39928.07
650.059	40175.53
650.411	40601.96
650.763	40670.2
651.115	40971.21
651.467	40950.19
651.819	40848.05
652.171	40782.52
652.523	40840.14
652.875	40658.22
653.227	40560.37
653.578	40929.18
653.93	40766.92
654.282	40591.79
654.633	40512.69
654.985	40658.68
655.337	40670.65
655.688	40687.6
656.039	40747.04
656.391	40492.35
656.742	40415.29
657.094	40574.39
657.445	40567.83
657.796	40654.61
658.147	40470.43
658.498	40546.82
658.849	40585.91
659.2	40514.05
659.551	40514.5
659.902	40690.31
660.253	40551.56
660.604	40562.63
660.955	40374.39
661.306	40440.15
661.656	40492.81
662.007	40604.89
662.358	40561.96
662.708	40452.13
663.059	40444.45
663.409	40242.19
663.76	40554.72
664.11	40422.3
664.461	40603.99
664.811	40460.94
665.161	40500.26
665.511	40422.75
665.862	40444.67
666.212	40390.66
666.562	40520.6
666.912	40330.55
667.262	40280.83
667.612	40370.55
667.962	40366.03
668.312	40238.35
668.662	40524.22
669.011	40584.1
669.361	40292.58
669.711	40219.14
670.06	40309.31
670.41	40253.49
670.76	40140.05
671.109	40286.26
671.459	40238.12
671.808	40094.85
672.157	40222.98
672.507	40001.97
672.856	40025.47
673.205	40078.58
673.554	40089.88
673.904	40049.88
674.253	40300.72
674.602	40015.98
674.951	39327.86
675.3	39223.01
675.649	40006.94
675.998	39892.82
676.346	39988.19
676.695	39928.3
677.044	39702.09
677.393	39909.09
677.741	39930.33
678.09	39891.24
678.438	39833.16
678.787	39866.61
679.135	39889.66
679.484	39545.71
679.832	39739.6
680.181	39540.06
680.529	39706.84
680.877	39631.81
681.225	39498.03
681.573	39686.27
681.922	39313.18
682.27	39224.59
682.618	39382.78
682.966	39226.4
683.314	39269.11
683.661	39134.87
684.009	39048.55
684.357	38944.15
684.705	38783.25
685.053	38903.47
685.4	38917.71
685.748	38627.54
686.095	38707.32
686.443	38585.74
686.79	38515
687.138	38613.31
687.485	38480.43
687.832	38509.13
688.18	38563.82
688.527	38302.13
688.874	38204.28
689.221	38153.88
689.568	38014
689.915	38045.64
690.262	38001.12
690.609	37849.94
690.956	37759.32
691.303	37762.03
691.65	37520.23
691.997	37520.45
692.344	37331.08
692.69	37484.75
693.037	37360.68
693.383	37068.26
693.73	37355.94
694.077	36946.23
694.423	36969.96
694.769	36877.31
695.116	36692.91
695.462	36715.96
695.808	36561.61
696.155	36650.65
696.501	36500.59
696.847	36433.48
697.193	36192.81
697.539	36339.92
697.885	36134.28
698.231	35975.18
698.577	36032.36
698.923	35957.56
699.269	35791.46
699.614	35499.04
699.96	35631.92
700.306	35581.75
700.651	35398.25
700.997	35354.41
701.342	35319.38
701.688	35144.92
702.033	35076
702.379	35135.43
702.724	34996.45
703.069	35102.89
703.415	34638.5
703.76	34689.12
704.105	34653.86
704.45	34592.4
704.795	34426.75
705.14	34432.85
705.485	34333.65
705.83	34208.68
706.175	34277.83
706.52	34043.03
706.865	33874.67
707.209	33892.53
707.554	33709.25
707.899	33856.82
708.243	33829.7
708.588	33648.01
708.932	33495.02
709.277	33447.57
709.621	33508.81
709.966	33221.36
710.31	33415.48
710.654	33023.62
710.998	33043.51
711.342	33046.45
711.687	32940.46
712.031	32799.67
712.375	32772.78
712.719	32745.44
713.063	32726.68
713.407	32831.09
713.75	32587.25
714.094	32531.66
714.438	32499.57
714.782	32426.12
715.125	32240.37
715.469	32420.7
715.812	32333.7
716.156	31978.23
716.499	32046.93
716.843	32258.45
717.186	31805.35
717.53	32134.61
717.873	31942.3
718.216	31911.79
718.559	31836.31
718.902	31577.79
719.246	31676.09
719.589	31394.74
719.932	31458.01
720.275	31384.34
720.617	31395.64
720.96	31381.41
721.303	31190.23
721.646	31280.84
721.989	31080.17
722.331	31245.59
722.674	31102.32
723.016	31105.48
723.359	31007.41
723.701	31134.18
724.044	30825.49
724.386	30745.27
724.729	30841.99
725.071	30929.44
725.413	30948.2
725.755	30766.51
726.097	30585.04
726.439	30486.29
726.782	30432.5
727.124	30630.24
727.465	30382.11
727.807	30446.97
728.149	30403.81
728.491	30339.4
728.833	30418.04
729.175	30199.06
729.516	30296.01
729.858	30094.43
730.199	30115.9
730.541	30072.51
730.882	29985.74
731.224	30038.84
731.565	29862.12
731.906	29931.95
732.248	29897.83
732.589	29766.99
732.93	29669.81
733.271	29745.74
733.612	29715.91
733.953	29679.3
734.294	29517.95
734.635	29538.29
734.976	29537.61
735.317	29326.32
735.658	29427.56
735.999	29413.77
736.339	29319.09
736.68	29370.61
737.021	29182.14
737.361	29193.89
737.702	29258.07
738.042	29284.96
738.383	29125.42
738.723	29129.49
739.063	28875.03
739.404	29117.96
739.744	28962.94
740.084	28936.95
740.424	29020.34
740.764	28923.84
741.104	29088.13
741.444	28783.51
741.784	28657.86
742.124	28694.47
742.464	28747.58
742.804	28647.47
743.143	28530.41
743.483	28671.87
743.823	28452.22
744.162	28418.77
744.502	28518.88
744.841	28443.63
745.181	28570.63
745.52	28331.32
745.86	28413.57
746.199	28318.66
746.538	28261.04
746.877	28341.26
747.216	28265.78
747.556	28233.47
747.895	28070.31
748.234	28099.46
748.573	28112.57
748.911	27937.43
749.25	27902.85
749.589	27835.29
749.928	27921.84
750.267	27863.76
750.605	27732.69
750.944	27774.04
751.283	27644.1
751.621	27693.37
751.96	27549.42
752.298	27490.89
752.636	27494.96
752.975	27481.85
753.313	27300.38
753.651	27525.01
753.989	27258.35
754.327	27323.66
754.666	27094.06
755.004	27121.63
755.342	27100.62
755.679	27098.13
756.017	26942.43
756.355	27007.74
756.693	26884.8
757.031	26881.86
757.368	26743.56
757.706	26787.4
758.044	26571.59
758.381	26774.52
758.719	26582.89
759.056	26669.21
759.394	26526.39
759.731	26280.52
760.068	26360.07
