Data from hue_32_FLMS001491_00045.txt Node
Date: Tue Feb 07 17:23:26 GMT 2017
User: dcchb
Spectrometer: FLMS00149
Trigger mode: 0
Integration Time (sec): 2.000000E-2
Scans to average: 10
Electric dark correction enabled: true
Nonlinearity correction enabled: false
Boxcar width: 0
XAxis mode: Wavelengths
Number of Pixels in Spectrum: 2048
>>>>>Begin Spectral Data<<<<<
341.393	1.2
341.776	1.2
342.16	1.2
342.543	-53.71
342.927	-48.97
343.31	-66.14
343.693	-58.91
344.077	-82.41
344.46	-58.68
344.843	-58.01
345.226	-40.15
345.61	-42.64
345.993	-32.02
346.376	-9.42
346.759	21.09
347.142	37.36
347.525	52.95
347.908	63.12
348.291	74.42
348.674	89.33
349.057	110.12
349.44	143.8
349.823	143.57
350.206	158.26
350.588	198.71
350.971	216.34
351.354	245.26
351.737	243.68
352.119	271.48
352.502	286.62
352.884	285.49
353.267	268.09
353.65	286.39
354.032	296.79
354.414	321.19
354.797	326.84
355.179	319.61
355.562	328.42
355.944	332.27
356.326	334.07
356.709	352.15
357.091	355.99
357.473	356.67
357.855	346.05
358.238	352.6
358.62	334.75
359.002	351.93
359.384	370.23
359.766	334.75
360.148	349.21
360.53	334.98
360.912	326.62
361.294	349.21
361.676	343.34
362.057	349.21
362.439	336.33
362.821	318.03
363.203	341.98
363.584	342.43
363.966	340.4
364.348	336.78
364.729	339.04
365.111	337.91
365.493	347.86
365.874	327.29
366.256	316.67
366.637	330.68
367.019	314.41
367.4	311.93
367.781	341.3
368.163	327.29
368.544	302.89
368.925	320.06
369.306	335.88
369.688	299.72
370.069	320.29
370.45	326.39
370.831	323
371.212	299.27
371.593	323.23
371.974	314.41
372.355	332.04
372.736	336.56
373.117	337.01
373.498	330.68
373.879	327.97
374.26	338.14
374.641	322.77
375.021	319.61
375.402	337.01
375.783	338.37
376.163	345.6
376.544	349.67
376.925	339.04
377.305	323.68
377.686	337.24
378.066	344.92
378.447	330.23
378.827	335.43
379.208	330.68
379.588	341.08
379.968	352.6
380.349	333.62
380.729	328.42
381.109	340.17
381.489	348.54
381.87	347.63
382.25	347.63
382.63	337.46
383.01	353.28
383.39	354.64
383.77	357.8
384.15	354.64
384.53	355.99
384.91	353.51
385.29	357.8
385.67	370.46
386.049	365.03
386.429	347.18
386.809	379.5
387.189	360.74
387.568	351.47
387.948	371.59
388.328	361.64
388.707	363.22
389.087	384.69
389.466	389.44
389.846	352.15
390.225	388.08
390.605	375.88
390.984	365.48
391.363	375.88
391.743	398.48
392.122	377.91
392.501	390.12
392.881	385.15
393.26	388.53
393.639	363.45
394.018	406.84
394.397	391.25
394.776	401.19
395.155	378.82
395.534	393.51
395.913	381.76
396.292	410.23
396.671	389.21
397.05	404.13
397.429	402.32
397.808	403.9
398.186	390.79
398.565	392.6
398.944	426.73
399.323	431.47
399.701	431.7
400.08	423.56
400.458	409.78
400.837	412.04
401.215	402.09
401.594	402.09
401.972	411.81
402.351	419.49
402.729	422.66
403.107	406.16
403.486	416.78
403.864	429.89
404.242	439.38
404.62	425.6
404.999	429.66
405.377	440.51
405.755	458.14
406.133	421.98
406.511	462.21
406.889	432.38
407.267	439.61
407.645	430.79
408.023	438.25
408.401	480.51
408.779	450.68
409.156	455.88
409.534	437.8
409.912	443.45
410.29	463.11
410.667	470.34
411.045	490.68
411.422	479.38
411.8	483.22
412.178	494.52
412.555	473.96
412.933	478.93
413.31	507.85
413.687	504.24
414.065	504.46
414.442	507.63
414.819	513.05
415.197	503.11
415.574	522.09
415.951	521.41
416.328	506.72
416.705	514.18
417.082	533.84
417.46	549.66
417.837	533.62
418.214	529.32
418.591	520.28
418.967	510.79
419.344	529.1
419.721	529.77
420.098	562.09
420.475	541.75
420.852	552.82
421.228	558.47
421.605	527.74
421.982	560.51
422.358	556.21
422.735	551.69
423.111	567.51
423.488	568.64
423.864	541.98
424.241	602.31
424.617	587.17
424.994	586.5
425.37	583.33
425.746	585.82
426.123	588.53
426.499	582.2
426.875	589.43
427.251	632.6
427.627	620.39
428.003	630.11
428.379	619.94
428.756	638.25
429.132	634.18
429.507	651.35
429.883	633.73
430.259	653.61
430.635	651.35
431.011	640.96
431.387	649.32
431.763	682.76
432.138	683.67
432.514	675.76
432.89	679.83
433.265	685.02
433.641	687.06
434.016	694.29
434.392	715.76
434.767	705.36
435.143	686.15
435.518	722.54
435.894	714.4
436.269	742.2
436.644	753.05
437.02	737
437.395	738.13
437.77	738.81
438.145	753.95
438.52	769.77
438.895	761.63
439.271	758.92
439.646	778.13
440.021	785.36
440.395	783.1
440.77	778.58
441.145	803.44
441.52	775.64
441.895	828.52
442.27	801.41
442.645	826.26
443.019	825.59
443.394	834.85
443.769	844.79
444.143	811.35
444.518	806.83
444.892	844.12
445.267	838.01
445.641	837.56
446.016	854.51
446.39	850.9
446.764	886.37
447.139	873.95
447.513	885.47
447.887	865.36
448.262	886.6
448.636	878.92
449.01	874.17
449.384	913.04
449.758	923.66
450.132	878.47
450.506	910.1
450.88	896.77
451.254	939.48
451.628	951.46
452.002	922.53
452.376	937.22
452.75	975.41
453.123	975.64
453.497	993.04
453.871	975.86
454.244	1000.72
454.618	987.39
454.992	1016.09
455.365	1022.87
455.739	1011.34
456.112	1039.37
456.486	1073.49
456.859	1038.01
457.232	1056.09
457.606	1080.95
457.979	1104.67
458.352	1104
458.725	1102.19
459.099	1115.75
459.472	1137.22
459.845	1136.99
460.218	1166.14
460.591	1165.24
460.964	1158.46
461.337	1200.27
461.71	1202.98
462.083	1230.32
462.456	1258.12
462.829	1249.08
463.201	1253.37
463.574	1225.35
463.947	1269.64
464.32	1328.17
464.692	1346.93
465.065	1327.95
465.438	1354.61
465.81	1349.41
466.183	1374.72
466.555	1395.74
466.928	1412.46
467.3	1407.27
467.672	1468.73
468.045	1477.55
468.417	1485.46
468.789	1505.57
469.161	1536.98
469.534	1555.96
469.906	1576.3
470.278	1565.23
470.65	1623.53
471.022	1658.78
471.394	1676.86
471.766	1696.98
472.138	1725.9
472.51	1738.56
472.882	1788.05
473.253	1833.69
473.625	1860.13
473.997	1891.77
474.369	1903.98
474.74	1933.13
475.112	1986.23
475.484	2005.89
475.855	2054.48
476.227	2082.28
476.598	2146.45
476.97	2198.66
477.341	2233.46
477.713	2285.66
478.084	2306.68
478.455	2350.07
478.827	2404.75
479.198	2497.86
479.569	2539.66
479.94	2612.66
480.311	2650.17
480.682	2714.35
481.053	2770.39
481.424	2847.23
481.795	2893.55
482.166	2948.02
482.537	3058.3
482.908	3122.47
483.279	3195.47
483.65	3272.07
484.021	3358.85
484.391	3434.78
484.762	3467.1
485.133	3505.97
485.503	3572.18
485.874	3712.52
486.244	3741.89
486.615	3893.75
486.985	3932.85
487.356	4070.47
487.726	4131.26
488.097	4240.86
488.467	4238.6
488.837	4357.7
489.207	4461.87
489.578	4597.01
489.948	4679.5
490.318	4784.13
490.688	4801.3
491.058	4888.76
491.428	5040.16
491.798	5060.73
492.168	5246.94
492.538	5233.15
492.908	5394.96
493.278	5462.75
493.648	5523.09
494.017	5618.45
494.387	5722.86
494.757	5803.08
495.126	5860.03
495.496	5952.91
495.866	5997.43
496.235	6121.72
496.605	6201.94
496.974	6284.2
497.344	6304.09
497.713	6364.65
498.082	6494.36
498.452	6576.62
498.821	6662.04
499.19	6730.74
499.559	6786.56
499.928	6892.54
500.298	6905.88
500.667	7001.02
501.036	7038.76
501.405	7160.33
501.774	7162.14
502.143	7187.45
502.512	7300.9
502.88	7356.49
503.249	7406.2
503.618	7430.84
503.987	7544.73
504.356	7661.34
504.724	7642.36
505.093	7707.21
505.462	7794.89
505.83	7853.88
506.199	7972.29
506.567	8033.31
506.936	8039.18
507.304	8163.92
507.672	8175
508.041	8247.09
508.409	8340.87
508.777	8346.74
509.145	8433.52
509.514	8414.76
509.882	8558.26
510.25	8562.56
510.618	8638.04
510.986	8660.18
511.354	8782.21
511.722	8866.96
512.09	8852.49
512.458	8942.89
512.826	8948.99
513.193	9009.78
513.561	9088.42
513.929	9108.08
514.297	9224.91
514.664	9266.95
515.032	9332.25
515.4	9366.15
515.767	9336.55
516.135	9503.1
516.502	9478.01
516.869	9615.64
517.237	9636.65
517.604	9631.68
517.972	9668.06
518.339	9702.64
518.706	9744.9
519.073	9794.84
519.44	9918.91
519.808	10005.91
520.175	9947.61
520.542	10139.24
520.909	10229.63
521.276	10171.55
521.643	10224.43
522.009	10310.76
522.376	10378.1
522.743	10394.37
523.11	10505.56
523.477	10705.55
523.843	10628.49
524.21	10797.98
524.577	10798.66
524.943	10790.52
525.31	10923.85
525.676	11013.11
526.043	11000.46
526.409	11033
526.776	11181.92
527.142	11261.47
527.508	11244.75
527.874	11306.67
528.241	11422.14
528.607	11471.18
528.973	11580.78
529.339	11505.08
529.705	11642.48
530.071	11719.76
530.437	11752.08
530.803	11860.55
531.169	11871.85
531.535	11915.01
531.901	12028.23
532.267	12084.72
532.632	12155.23
532.998	12174.44
533.364	12248.56
533.73	12252.63
534.095	12411.72
534.461	12393.19
534.826	12522.91
535.192	12510.25
535.557	12643.13
535.923	12568.78
536.288	12634.09
536.653	12714.31
537.019	12753.86
537.384	12845.16
537.749	12852.61
538.114	12787.76
538.479	12927.41
538.845	12946.4
539.21	13006.96
539.575	13049.45
539.94	13098.48
540.305	13181.19
540.67	13160.63
541.034	13217.58
541.399	13276.78
541.764	13323.79
542.129	13349.32
542.494	13385.93
542.858	13570.79
543.223	13536.44
543.587	13663.89
543.952	13657.34
544.316	13709.99
544.681	13658.69
545.045	13796.09
545.41	13852.36
545.774	13843.77
546.138	13980.27
546.503	13988.4
546.867	14014.39
547.231	14202.64
547.595	14195.86
547.959	14325.34
548.324	14210.54
548.688	14255.97
549.052	14438.79
549.416	14440.14
549.779	14481.95
550.143	14492.12
550.507	14518.33
550.871	14533.7
551.235	14582.29
551.599	14757.65
551.962	14732.11
552.326	14759.91
552.689	14796.29
553.053	14787.93
553.417	14846.69
553.78	15095.94
554.143	14993.8
554.507	15114.7
554.87	15075.61
555.234	15197.41
555.597	15210.07
555.96	15276.51
556.323	15338.65
556.686	15421.59
557.05	15403.06
557.413	15473.11
557.776	15493.9
558.139	15620.45
558.502	15611.86
558.865	15577.74
559.228	15783.84
559.59	15947
559.953	15812.99
560.316	16024.51
560.679	15969.14
561.041	16089.37
561.404	16123.49
561.767	16175.01
562.129	16140.89
562.492	16346.76
562.854	16333.65
563.217	16434.21
563.579	16442.12
563.941	16481.67
564.304	16629.01
564.666	16640.99
565.028	16632.85
565.39	16789.01
565.753	16773.41
566.115	16804.6
566.477	16910.81
566.839	16991.04
567.201	17076.91
567.563	17123.91
567.925	17218.83
568.287	17135.67
568.648	17221.76
569.01	17330.46
569.372	17537.24
569.734	17481.42
570.095	17599.61
570.457	17621.3
570.819	17755.99
571.18	17730.68
571.542	17915.53
571.903	17948.75
572.265	18009.09
572.626	18099.93
572.987	18189.2
573.349	18264.45
573.71	18310.55
574.071	18391.9
574.432	18385.35
574.794	18682.74
575.155	18658.79
575.516	18729.3
575.877	18942.4
576.238	19006.12
576.599	19097.2
576.96	19120.92
577.32	19262.16
577.681	19429.84
578.042	19451.08
578.403	19630.74
578.763	19711.87
579.124	19935.82
579.485	20166.32
579.845	20313.43
580.206	20337.16
580.566	20577.16
580.927	20683.37
581.287	20898.05
581.648	20946.41
582.008	21169.01
582.368	21496.68
582.728	21628.2
583.089	21805.37
583.449	21907.29
583.809	22163.33
584.169	22423.66
584.529	22565.35
584.889	22973.48
585.249	23013.93
585.609	23118.56
585.969	23538.21
586.329	23609.17
586.688	23869.73
587.048	24121.24
587.408	24312.65
587.768	24535.47
588.127	24742.47
588.487	24948.12
588.846	25481.21
589.206	25571.38
589.565	25692.5
589.925	26177.24
590.284	26360.73
590.643	26631.91
591.003	27028.96
591.362	27200.03
591.721	27268.05
592.08	27677.99
592.44	27961.82
592.799	28131.99
593.158	28449.49
593.517	28597.28
593.876	28963.6
594.235	29055.58
594.593	29521.55
594.952	29790.47
595.311	29986.4
595.67	30340.52
596.029	30753.84
596.387	30982.31
596.746	31200.38
597.104	31370.55
597.463	31610.99
597.822	32090.07
598.18	31984.54
598.538	32347.47
598.897	32773.22
599.255	32670.85
599.613	33371.62
599.972	33435.58
600.33	33670.37
600.688	33758.96
601.046	34178.15
601.404	34511.71
601.762	34542.89
602.12	34980.39
602.478	35128.19
602.836	35289.31
603.194	35336.32
603.552	35652.01
603.91	35703.31
604.268	36094.71
604.625	36125.45
604.983	36585.55
605.341	36468.26
605.698	36828.25
606.056	37124.74
606.413	37324.06
606.771	37458.75
607.128	37719.98
607.485	37723.82
607.843	37956.36
608.2	38289.46
608.557	38461.43
608.914	38416.69
609.272	38745.49
609.629	38905.04
609.986	39220.73
610.343	39201.75
610.7	39639.48
611.057	39533.27
611.414	39619.37
611.771	39838.57
612.127	40082.63
612.484	40355.85
612.841	40523.75
613.198	40418.22
613.554	40496.18
613.911	40941.82
614.267	41068.14
614.624	41063.85
614.98	41341.81
615.337	41593.78
615.693	41430.39
616.05	41604.4
616.406	41920.32
616.762	41866.31
617.118	41913.54
617.475	42106.76
617.831	42236.7
618.187	42403.7
618.543	42497.03
618.899	42786.52
619.255	42590.14
619.611	42786.06
619.967	43087.53
620.323	43088.43
620.678	43053.85
621.034	43175.66
621.39	42964.14
621.746	43180.86
622.101	43564.12
622.457	43352.6
622.812	43592.6
623.168	43644.57
623.523	43588.08
623.879	43881.85
624.234	43605.03
624.589	43860.84
624.945	44092.02
625.3	44183.09
625.655	44026.26
626.01	44146.48
626.365	44165.46
626.72	44178.12
627.075	44197.55
627.43	44281.17
627.785	44119.59
628.14	44303.76
628.495	44458.79
628.85	44416.53
629.205	44341.05
629.559	44628.5
629.914	44277.1
630.269	44489.07
630.623	44319.81
630.978	44343.76
631.332	44599.12
631.687	44628.5
632.041	44533.81
632.396	44651.78
632.75	44551.22
633.104	44602.29
633.459	44396.19
633.813	44513.93
634.167	44559.8
634.521	44498.79
634.875	44386.7
635.229	44366.81
635.583	44288.4
635.937	44493.82
636.291	44383.99
636.645	44402.07
636.999	44324.1
637.352	44597.09
637.706	44259.47
638.06	44533.81
638.413	44248.4
638.767	44212.02
639.121	44408.62
639.474	44347.38
639.828	44241.39
640.181	44218.34
640.534	44097.44
640.888	44092.7
641.241	44038.91
641.594	44156.88
641.947	44136.31
642.301	44125.01
642.654	44128.4
643.007	44144.45
643.36	44115.29
643.713	43910.78
644.066	44243.43
644.419	43968.41
644.771	43873.04
645.124	43301.76
645.477	43289.55
645.83	43113.97
646.182	42800.08
646.535	42780.87
646.888	42851.83
647.24	42733.41
647.593	42850.47
647.945	42741.09
648.298	42600.08
648.65	42557.14
649.002	42488.44
649.355	42757.59
649.707	42645.95
650.059	42865.16
650.411	43268.54
650.763	43429.89
651.115	43618.58
651.467	43564.35
651.819	43598.47
652.171	43388.31
652.523	43515.99
652.875	43340.17
653.227	43188.09
653.578	43434.18
653.93	43412.71
654.282	43377.69
654.633	43306.05
654.985	43232.15
655.337	43422.21
655.688	43249.55
656.039	43404.58
656.391	43170.46
656.742	43298.37
657.094	43194.64
657.445	43343.79
657.796	43218.6
658.147	43128.2
658.498	43177.01
658.849	43221.53
659.2	43255.2
659.551	43020.41
659.902	43090.24
660.253	43049.33
660.604	43017.02
660.955	42873.52
661.306	43043.91
661.656	42981.77
662.007	43079.84
662.358	42971.82
662.708	43000.3
663.059	43052.72
663.409	42778.15
663.76	43146.28
664.11	42991.93
664.461	43122.55
664.811	43081.65
665.161	43019.73
665.511	42902.67
665.862	42958.49
666.212	43138.37
666.562	43041.42
666.912	42978.83
667.262	42838.49
667.612	42815.89
667.962	42983.12
668.312	42847.53
668.662	43003.46
669.011	42886.63
669.361	42941.31
669.711	42891.37
670.06	42749.46
670.41	42691.83
670.76	42656.12
671.109	42654.54
671.459	42684.6
671.808	42658.61
672.157	42598.27
672.507	42483.47
672.856	42572.74
673.205	42690.7
673.554	42639.18
673.904	42518.5
674.253	42854.09
674.602	42563.47
674.951	41918.29
675.3	41877.39
675.649	42593.07
675.998	42549.91
676.346	42459.52
676.695	42709.23
677.044	42314.21
677.393	42494.77
677.741	42523.02
678.09	42366.41
678.438	42141.11
678.787	42389.46
679.135	42313.99
679.484	42035.8
679.832	42203.48
680.181	41949.25
680.529	42098.4
680.877	42049.81
681.225	42015.01
681.573	42130.94
681.922	41855.92
682.27	41839.2
682.618	41762.59
682.966	41674
683.314	41704.51
683.661	41561.24
684.009	41584.06
684.357	41565.08
684.705	41457.29
685.053	41373.9
685.4	41330.51
685.748	41230.4
686.095	41163.51
686.443	41078.99
686.79	40954.47
687.138	40988.37
687.485	40995.38
687.832	40959.45
688.18	40850.75
688.527	40696.4
688.874	40665.89
689.221	40599.68
689.568	40452.34
689.915	40376.86
690.262	40375.05
690.609	40335.06
690.956	40137.32
691.303	40234.72
691.65	39957.89
691.997	39989.3
692.344	39703.43
692.69	39704.34
693.037	39787.5
693.383	39296.21
693.73	39568.97
694.077	39295.99
694.423	39283.78
694.769	39154.97
695.116	39072.04
695.462	39066.16
695.808	38880.18
696.155	38950.68
696.501	38740.07
696.847	38709.79
697.193	38343.47
697.539	38662.78
697.885	38267.09
698.231	38314.32
698.577	38124.27
698.923	38204.94
699.269	38045.4
699.614	37815.8
699.96	37749.36
700.306	37772.64
700.651	37758.85
700.997	37545.75
701.342	37541.91
701.688	37419.88
702.033	37249.94
702.379	37365.42
702.724	37365.64
703.069	37194.35
703.415	36870.06
703.76	36953.45
704.105	36833.23
704.45	36694.25
704.795	36635.27
705.14	36409.51
705.485	36473.91
705.83	36374.03
706.175	36366.35
706.52	36168.39
706.865	36129.74
707.209	36080.7
707.554	35956.64
707.899	35952.8
708.243	35829.19
708.588	35777.89
708.932	35516.65
709.277	35383.55
709.621	35609.3
709.966	35217.9
710.31	35299.48
710.654	35042.31
710.998	35209.99
711.342	35201.86
711.687	35023.78
712.031	34980.39
712.375	34785.14
712.719	34941.3
713.063	34801.64
713.407	34935.65
713.75	34697.69
714.094	34617.92
714.438	34576.11
714.782	34609.33
715.125	34175.67
715.469	34472.16
715.812	34328.89
716.156	34116.46
716.499	34149.23
716.843	34066.52
717.186	33943.58
717.53	34059.74
717.873	34028.55
718.216	33887.32
718.559	33746.75
718.902	33545.86
719.246	33589.24
719.589	33590.15
719.932	33345.63
720.275	33387.89
720.617	33347.67
720.96	33361
721.303	33283.72
721.646	33237.39
721.989	33093.66
722.331	33260.44
722.674	33090.95
723.016	33132.31
723.359	33022.25
723.701	33044.63
724.044	32733.45
724.386	32703.17
724.729	32938.64
725.071	32787.01
725.413	32701.58
725.755	32667.91
726.097	32488.93
726.439	32360.8
726.782	32323.51
727.124	32452.32
727.465	32184.08
727.807	32311.31
728.149	32314.02
728.491	32287.58
728.833	32261.14
729.175	32212.1
729.516	32078.1
729.858	31989.96
730.199	32054.82
730.541	31985.9
730.882	31948.16
731.224	32009.85
731.565	31711.1
731.906	31745.68
732.248	31808.73
732.589	31641.05
732.93	31581.39
733.271	31526.93
733.612	31490.54
733.953	31551.33
734.294	31451.45
734.635	31291.45
734.976	31481.28
735.317	31288.29
735.658	31259.36
735.999	31360.6
736.339	31088.07
736.68	31221.62
737.021	31170.55
737.361	31030.67
737.702	31184.34
738.042	30977.34
738.383	30877.22
738.723	30947.73
739.063	30761.75
739.404	30844.46
739.744	30749.54
740.084	30655.99
740.424	30791.35
740.764	30664.8
741.104	30820.96
741.444	30676.55
741.784	30364.92
742.124	30545.48
742.464	30424.13
742.804	30320.18
743.143	30373.51
743.483	30364.02
743.823	30163.35
744.162	30178.03
744.502	30297.35
744.841	30016
745.181	30186.17
745.52	30053.74
745.86	30019.39
746.199	30011.71
746.538	29989.79
746.877	29972.84
747.216	30023.46
747.556	29904.82
747.895	29811.04
748.234	29801.55
748.573	29747.54
748.911	29752.51
749.25	29706.63
749.589	29490.14
749.928	29519.97
750.267	29584.38
750.605	29408.79
750.944	29425.29
751.283	29189.81
751.621	29433.65
751.96	29204.5
752.298	29030.27
752.636	29154.11
752.975	28978.74
753.313	28829.37
753.651	29058.29
753.989	29045.41
754.327	28979.65
754.666	28743.27
755.004	28787.56
755.342	28773.1
755.679	28801.57
756.017	28486.55
756.355	28662.14
756.693	28513.67
757.031	28547.34
757.368	28380.57
