Data from hue_200_FLMS001491_00050.txt Node
Date: Tue Feb 07 16:43:21 GMT 2017
User: dcchb
Spectrometer: FLMS00149
Trigger mode: 0
Integration Time (sec): 2.000000E-2
Scans to average: 10
Electric dark correction enabled: true
Nonlinearity correction enabled: false
Boxcar width: 0
XAxis mode: Wavelengths
Number of Pixels in Spectrum: 2048
>>>>>Begin Spectral Data<<<<<
341.393	-19.25
341.776	-19.25
342.16	-19.25
342.543	-71.68
342.927	-72.81
343.31	-70.1
343.693	-81.85
344.077	-69.19
344.46	-54.5
344.843	-56.31
345.226	-41.4
345.61	-29.42
345.993	-22.41
346.376	-15.64
346.759	8.77
347.142	41.54
347.525	58.94
347.908	77.7
348.291	67.3
348.674	84.7
349.057	101.88
349.44	135.55
349.823	153.63
350.206	151.82
350.588	197.24
350.971	213.29
351.354	220.29
351.737	248.09
352.119	247.41
352.502	255.32
352.884	252.83
353.267	279.95
353.65	274.53
354.032	269.56
354.414	294.19
354.797	291.02
355.179	316.11
355.562	327.86
355.944	325.37
356.326	338.71
356.709	346.16
357.091	333.06
357.473	335.54
357.855	340.29
358.238	352.72
358.62	327.41
359.002	340.06
359.384	332.6
359.766	329.21
360.148	341.87
360.53	303.9
360.912	327.41
361.294	330.12
361.676	349.78
362.057	313.85
362.439	333.96
362.821	310.68
363.203	312.49
363.584	307.29
363.966	329.21
364.348	326.73
364.729	326.73
365.111	314.3
365.493	313.62
365.874	322.21
366.256	317.69
366.637	316.56
367.019	343.45
367.4	308.42
367.781	303.45
368.163	305.94
368.544	317.24
368.925	295.32
369.306	318.14
369.688	309.1
370.069	302.1
370.45	328.08
370.831	307.97
371.212	314.3
371.593	339.38
371.974	300.06
372.355	309.55
372.736	307.07
373.117	324.47
373.498	320.85
373.879	319.95
374.26	312.27
374.641	312.49
375.021	312.49
375.402	320.85
375.783	324.69
376.163	319.95
376.544	326.28
376.925	335.54
377.305	334.41
377.686	344.81
378.066	320.4
378.447	338.48
378.827	328.54
379.208	319.72
379.588	319.95
379.968	332.6
380.349	335.99
380.729	317.01
381.109	325.15
381.489	347.07
381.87	335.32
382.25	346.84
382.63	315.43
383.01	360.85
383.39	353.62
383.77	345.26
384.15	327.18
384.53	356.78
384.91	358.37
385.29	356.11
385.67	345.26
386.049	369.21
386.429	353.62
386.809	346.62
387.189	357.01
387.568	355.88
387.948	344.81
388.328	339.84
388.707	378.7
389.087	380.74
389.466	366.73
389.846	369.44
390.225	364.92
390.605	361.53
390.984	377.8
391.363	370.8
391.743	358.37
392.122	373.28
392.501	369.89
392.881	383.22
393.26	369.67
393.639	375.09
394.018	375.31
394.397	379.16
394.776	384.81
395.155	395.43
395.534	388.65
395.913	364.69
396.292	413.05
396.671	398.14
397.05	401.98
397.429	395.65
397.808	408.76
398.186	405.6
398.565	412.15
398.944	415.99
399.323	404.69
399.701	413.51
400.08	427.97
400.458	413.51
400.837	416.22
401.215	418.93
401.594	419.38
401.972	439.04
402.351	433.62
402.729	431.13
403.107	434.52
403.486	435.88
403.864	438.36
404.242	458.02
404.62	450.57
404.999	483.56
405.377	465.26
405.755	474.3
406.133	462.09
406.511	472.71
406.889	481.53
407.267	484.46
407.645	503.9
408.023	503
408.401	467.97
408.779	521.3
409.156	500.74
409.534	512.49
409.912	517.91
410.29	546.61
410.667	538.02
411.045	563.11
411.422	556.33
411.8	556.78
412.178	581.19
412.555	588.42
412.933	588.64
413.31	607.85
413.687	597.91
414.065	630.22
414.442	657.34
414.819	660.96
415.197	667.51
415.574	677.23
415.951	677.91
416.328	709.32
416.705	708.87
417.082	717.45
417.46	740.28
417.837	724.23
418.214	730.56
418.591	742.31
418.967	748.19
419.344	768.3
419.721	762.65
420.098	779.37
420.475	785.93
420.852	792.25
421.228	819.15
421.605	837
421.982	855.53
422.358	845.13
422.735	880.16
423.111	861.63
423.488	908.18
423.864	901.63
424.241	953.38
424.617	947.96
424.994	972.59
425.37	992.25
425.746	1005.35
426.123	1031.34
426.499	1042.64
426.875	1046.48
427.251	1068.86
427.627	1082.19
428.003	1106.37
428.379	1102.75
428.756	1113.6
429.132	1135.97
429.507	1153.37
429.883	1145.24
430.259	1176.42
430.635	1182.07
431.011	1223.2
431.387	1244.44
431.763	1246.7
432.138	1264.33
432.514	1296.19
432.89	1293.48
433.265	1322.41
433.641	1347.27
434.016	1378.45
434.392	1404.21
434.767	1423.87
435.143	1467.94
435.518	1438.11
435.894	1502.97
436.269	1521.95
436.644	1540.26
437.02	1606.92
437.395	1589.29
437.77	1651.89
438.145	1646.92
438.52	1672.46
438.895	1718.1
439.271	1743.41
439.646	1778.67
440.021	1813.24
440.395	1842.17
440.77	1811.66
441.145	1852.79
441.52	1898.89
441.895	1912.68
442.27	1928.04
442.645	1962.39
443.019	1997.42
443.394	1953.35
443.769	2004.88
444.143	2008.94
444.518	2055.72
444.892	2051.88
445.267	2075.38
445.641	2098.89
446.016	2131.88
446.39	2160.58
446.764	2136.85
447.139	2169.17
447.513	2175.04
447.887	2222.72
448.262	2249.16
448.636	2274.93
449.01	2263.4
449.384	2290.74
449.758	2323.29
450.132	2363.96
450.506	2375.71
450.88	2367.58
451.254	2375.71
451.628	2447.8
452.002	2470.4
452.376	2469.27
452.75	2500.46
453.123	2531.42
453.497	2572.55
453.871	2590.4
454.244	2616.39
454.618	2645.54
454.992	2657.97
455.365	2681.7
455.739	2764.63
456.112	2747
456.486	2772.31
456.859	2816.15
457.232	2855.48
457.606	2874.01
457.979	2883.05
458.352	3003.49
458.725	3008.69
459.099	3024.96
459.472	3097.73
459.845	3093.44
460.218	3112.87
460.591	3182.7
460.964	3183.83
461.337	3236.48
461.71	3291.85
462.083	3309.25
462.456	3337.27
462.829	3357.84
463.201	3425.18
463.574	3429.7
463.947	3459.98
464.32	3566.87
464.692	3570.71
465.065	3593.99
465.438	3645.51
465.81	3728.22
466.183	3727.77
466.555	3833.3
466.928	3848.44
467.3	3870.14
467.672	3911.04
468.045	3984.71
468.417	4008.21
468.789	4046.4
469.161	4088.89
469.534	4139.74
469.906	4291.14
470.278	4252.73
470.65	4364.59
471.022	4440.07
471.394	4455.21
471.766	4516.22
472.138	4572.94
472.51	4638.71
472.882	4712.6
473.253	4740.4
473.625	4829.21
473.997	4822.66
474.369	4920.96
474.74	4925.7
475.112	5092.71
475.484	5149.2
475.855	5244.57
476.227	5276.88
476.598	5364.56
476.97	5485.24
477.341	5532.69
477.713	5611.11
478.084	5644.78
478.455	5758.22
478.827	5834.15
479.198	5988.73
479.569	5976.75
479.94	6159.12
480.311	6181.49
480.682	6322.5
481.053	6442.5
481.424	6544.64
481.795	6572.21
482.166	6680.69
482.537	6721.81
482.908	6904.41
483.279	6894.01
483.65	7059.21
484.021	7225.3
484.391	7205.42
484.762	7329.26
485.133	7356.83
485.503	7463.72
485.874	7625.75
486.244	7691.51
486.615	7851.5
486.985	7920.88
487.356	8014.21
487.726	8046.53
488.097	8183.25
488.467	8201.1
488.837	8419.17
489.207	8421.88
489.578	8541.43
489.948	8606.51
490.318	8778.03
490.688	8676.34
491.058	8934.41
491.428	8964.69
491.798	9063
492.168	9224.12
492.538	9176.67
492.908	9295.31
493.278	9393.16
493.648	9363.55
494.017	9523.32
494.387	9545.24
494.757	9568.52
495.126	9692.81
495.496	9705.47
495.866	9780.72
496.235	9911.79
496.605	9940.71
496.974	9982.29
497.344	10041.28
497.713	10074.27
498.082	10155.4
498.452	10145.23
498.821	10183.42
499.19	10210.08
499.559	10283.98
499.928	10365.56
500.298	10382.06
500.667	10472
501.036	10397.42
501.405	10505.44
501.774	10498.89
502.143	10579.34
502.512	10574.37
502.88	10643.07
503.249	10663.63
503.618	10737.08
503.987	10671.54
504.356	10754.7
504.724	10830.63
505.093	10830.86
505.462	10831.54
505.83	10878.99
506.199	10895.04
506.567	11092.55
506.936	11041.7
507.304	11105.2
507.672	11036.05
508.041	11192.88
508.409	11195.37
508.777	11270.17
509.145	11226.56
509.514	11151.75
509.882	11299.77
510.25	11281.69
510.618	11339.55
510.986	11325.31
511.354	11386.55
511.722	11445.98
512.09	11499.77
512.458	11409.15
512.826	11456.38
513.193	11615.25
513.561	11490.28
513.929	11486.66
514.297	11599.65
514.664	11689.82
515.032	11579.77
515.4	11667
515.767	11721.68
516.135	11702.47
516.502	11582.25
516.869	11734.34
517.237	11739.99
517.604	11711.06
517.972	11810.95
518.339	11827.9
518.706	11708.8
519.073	11786.54
519.44	11817.5
519.808	11853.43
520.175	11850.95
520.542	11915.12
520.909	11906.99
521.276	11824.96
521.643	11894.11
522.009	11960.77
522.376	11961.9
522.743	11966.42
523.11	12011.85
523.477	12053.43
523.843	12031.96
524.21	12090.71
524.577	12137.72
524.943	12097.72
525.31	12113.54
525.676	12137.49
526.043	12210.48
526.409	12145.4
526.776	12241.9
527.142	12158.28
527.508	12167.32
527.874	12238.73
528.241	12203.7
528.607	12163.25
528.973	12218.62
529.339	12103.82
529.705	12191.95
530.071	12193.54
530.437	12128.9
530.803	12172.29
531.169	12172.29
531.535	12095.68
531.901	12137.94
532.267	12032.41
532.632	12092.07
532.998	12041
533.364	12060.88
533.73	12098.85
534.095	12037.83
534.461	12046.42
534.826	11923.26
535.192	11970.49
535.557	11942.02
535.923	11867.67
536.288	11865.18
536.653	11805.75
537.019	11776.6
537.384	11717.16
537.749	11709.71
538.114	11644.17
538.479	11631.06
538.845	11565.98
539.21	11540.9
539.575	11517.62
539.94	11501.12
540.305	11566.89
540.67	11503.38
541.034	11415.48
541.399	11375.93
541.764	11290.06
542.129	11279.21
542.494	11302.71
542.858	11290.28
543.223	11157.63
543.587	11156.73
543.952	11032.89
544.316	11063.62
544.681	10930.97
545.045	10939.56
545.41	10935.94
545.774	10925.55
546.138	10836.73
546.503	10800.8
546.867	10622.96
547.231	10769.62
547.595	10677.64
547.959	10676.97
548.324	10522.84
548.688	10536.4
549.052	10454.6
549.416	10516.97
549.779	10465.67
550.143	10399.01
550.507	10384.32
550.871	10343.41
551.235	10274.49
551.599	10346.8
551.962	10295.96
552.326	10182.29
552.689	10185.23
553.053	10117.43
553.417	10123.76
553.78	10157.43
554.143	10068.17
554.507	10044.44
554.87	9961.05
555.234	9965.12
555.597	9882.41
555.96	9948.4
556.323	9872.69
556.686	9828.17
557.05	9884.9
557.413	9860.49
557.776	9855.29
558.139	9825.69
558.502	9744.11
558.865	9771.23
559.228	9768.97
559.59	9770.55
559.953	9709.98
560.316	9735.75
560.679	9778.91
561.041	9678.8
561.404	9670.44
561.767	9669.08
562.129	9653.94
562.492	9659.14
562.854	9648.29
563.217	9597.45
563.579	9624.79
563.941	9633.6
564.304	9641.96
564.666	9709.08
565.028	9633.83
565.39	9644.9
565.753	9611.46
566.115	9646.71
566.477	9650.55
566.839	9584.34
567.201	9700.72
567.563	9551.57
567.925	9693.94
568.287	9674.05
568.648	9648.29
569.01	9632.25
569.372	9615.3
569.734	9624.56
570.095	9647.61
570.457	9661.17
570.819	9733.04
571.18	9618.24
571.542	9725.35
571.903	9669.99
572.265	9676.31
572.626	9712.47
572.987	9649.2
573.349	9672.7
573.71	9709.53
574.071	9676.77
574.432	9644.22
574.794	9705.01
575.155	9759.02
575.516	9742.53
575.877	9684.9
576.238	9669.76
576.599	9747.5
576.96	9736.88
577.32	9717.67
577.681	9723.32
578.042	9742.98
578.403	9696.2
578.763	9691.45
579.124	9653.04
579.485	9716.31
579.845	9767.16
580.206	9749.98
580.566	9741.4
580.927	9706.37
581.287	9701.85
581.648	9702.98
582.008	9747.5
582.368	9680.16
582.728	9674.28
583.089	9639.48
583.449	9685.35
583.809	9686.71
584.169	9723.77
584.529	9655.75
584.889	9676.54
585.249	9629.53
585.609	9608.07
585.969	9641.96
586.329	9628.41
586.688	9640.61
587.048	9634.96
587.408	9587.28
587.768	9568.75
588.127	9579.59
588.487	9589.54
588.846	9708.85
589.206	9535.75
589.565	9615.07
589.925	9559.03
590.284	9581.63
590.643	9562.87
591.003	9620.04
591.362	9558.8
591.721	9547.5
592.08	9519.93
592.44	9568.29
592.799	9497.79
593.158	9582.76
593.517	9525.81
593.876	9575.98
594.235	9495.08
594.593	9511.12
594.952	9466.15
595.311	9469.99
595.67	9501.18
596.029	9490.1
596.387	9501.63
596.746	9517.45
597.104	9458.69
597.463	9449.43
597.822	9554.73
598.18	9425.92
598.538	9444
598.897	9465.92
599.255	9438.58
599.613	9498.92
599.972	9457.56
600.33	9411.24
600.688	9453.27
601.046	9415.76
601.404	9477.22
601.762	9436.09
602.12	9441.07
602.478	9465.25
602.836	9466.38
603.194	9397.9
603.552	9373.72
603.91	9382.31
604.268	9419.37
604.625	9433.38
604.983	9430.44
605.341	9370.33
605.698	9467.96
606.056	9468.86
606.413	9426.6
606.771	9446.26
607.128	9449.2
607.485	9340.95
607.843	9448.97
608.2	9507.28
608.557	9446.49
608.914	9388.41
609.272	9490.33
609.629	9469.09
609.986	9469.09
610.343	9504.57
610.7	9459.14
611.057	9463.89
611.414	9447.17
611.771	9513.83
612.127	9532.14
612.484	9482.65
612.841	9462.99
613.198	9438.13
613.554	9475.64
613.911	9514.74
614.267	9542.98
614.624	9567.16
614.98	9557.45
615.337	9573.72
615.693	9536.88
616.05	9566.03
616.406	9584.11
616.762	9529.2
617.118	9535.75
617.475	9540.95
617.831	9586.37
618.187	9617.11
618.543	9601.51
618.899	9680.38
619.255	9589.76
619.611	9579.82
619.967	9660.72
620.323	9582.76
620.678	9684.9
621.034	9615.07
621.39	9641.06
621.746	9601.74
622.101	9742.07
622.457	9547.5
622.812	9621.63
623.168	9644.9
623.523	9608.74
623.879	9681.06
624.234	9577.56
624.589	9660.72
624.945	9622.76
625.3	9632.92
625.655	9582.3
626.01	9641.29
626.365	9569.42
626.72	9542.31
627.075	9569.65
627.43	9555.86
627.785	9541.18
628.14	9583.21
628.495	9620.27
628.85	9534.17
629.205	9500.27
629.559	9614.62
629.914	9560.38
630.269	9573.04
630.623	9524.23
630.978	9494.4
631.332	9511.35
631.687	9495.98
632.041	9484
632.396	9495.75
632.75	9429.31
633.104	9412.82
633.459	9349.54
633.813	9354.74
634.167	9422.31
634.521	9388.86
634.875	9400.16
635.229	9434.74
635.583	9350.9
635.937	9342.99
636.291	9326.49
636.645	9335.98
636.999	9286.72
637.352	9335.53
637.706	9253.05
638.06	9269.32
638.413	9264.8
638.767	9190.22
639.121	9284.46
639.474	9184.12
639.828	9181.19
640.181	9274.06
640.534	9185.48
640.888	9196.78
641.241	9104.58
641.594	9161.75
641.947	9179.83
642.301	9162.2
642.654	9166.04
643.007	9261.86
643.36	9144.58
643.713	9143.9
644.066	9148.42
644.419	9077.69
644.771	9065.71
645.124	8945.26
645.477	9019.16
645.83	8914.75
646.182	8889.89
646.535	8815.55
646.888	8910.68
647.24	8828.43
647.593	8860.29
647.945	8850.8
648.298	8840.86
648.65	8789.11
649.002	8817.35
649.355	8871.36
649.707	8841.99
650.059	8884.92
650.411	8946.39
650.763	8951.81
651.115	9072.26
651.467	9038.36
651.819	9046.95
652.171	9074.52
652.523	9052.83
652.875	9004.69
653.227	8997.01
653.578	9042.88
653.93	9014.64
654.282	8963.56
654.633	8994.98
654.985	9030.23
655.337	9032.04
655.688	9081.98
656.039	9054.41
656.391	9008.31
656.742	9010.79
657.094	8969.44
657.445	9101.19
657.796	9047.63
658.147	9028.42
658.498	9080.4
658.849	9071.58
659.2	9039.95
659.551	8980.29
659.902	9050.57
660.253	9050.12
660.604	9021.87
660.955	9049.44
661.306	9054.18
661.656	9037.46
662.007	9076.33
662.358	9084.92
662.708	9111.36
663.059	9143.45
663.409	9038.14
663.76	9111.81
664.11	9177.34
664.461	9134.86
664.811	9126.05
665.161	9118.59
665.511	9075.2
665.862	9041.3
666.212	9096.22
666.562	9198.36
666.912	9135.31
667.262	9068.87
667.612	9104.13
667.962	9178.25
668.312	9173.95
668.662	9160.17
669.011	9115.2
669.361	9121.3
669.711	9125.82
670.06	9123.79
670.41	9102.77
670.76	9041.75
671.109	9123.56
671.459	9125.59
671.808	9097.12
672.157	9058.25
672.507	9105.93
672.856	9021.64
673.205	9084.01
673.554	9088.31
673.904	9052.6
674.253	9152.03
674.602	9055.99
674.951	8883.11
675.3	8874.07
675.649	9035.2
675.998	8988.87
676.346	8954.75
676.695	8995.2
677.044	8969.89
677.393	8974.64
677.741	8945.26
678.09	8918.59
678.438	8910.46
678.787	8873.17
679.135	8914.3
679.484	8873.62
679.832	8849.67
680.181	8766.05
680.529	8845.83
680.877	8774.42
681.225	8760.41
681.573	8841.08
681.922	8768.31
682.27	8765.15
682.618	8756.34
682.966	8701.65
683.314	8697.13
683.661	8715.66
684.009	8665.27
684.357	8709.56
684.705	8655.55
685.053	8658.26
685.4	8613.74
685.748	8509.34
686.095	8514.99
686.443	8519.28
686.79	8474.99
687.138	8518.83
687.485	8529
687.832	8417.82
688.18	8495.33
688.527	8418.49
688.874	8440.64
689.221	8368.78
689.568	8343.92
689.915	8346.63
690.262	8292.85
690.609	8288.33
690.956	8307.31
691.303	8252.85
691.65	8264.83
691.997	8200.19
692.344	8140.76
692.69	8149.57
693.037	8103.25
693.383	8056.92
693.73	8044.04
694.077	7948.68
694.423	7994.32
694.769	7957.94
695.116	7916.36
695.462	7885.17
695.808	7896.7
696.155	7857.15
696.501	7754.1
696.847	7790.49
697.193	7711.39
697.539	7765.63
697.885	7682.92
698.231	7663.48
698.577	7661.23
698.923	7590.94
699.269	7559.98
699.614	7551.85
699.96	7532.41
700.306	7510.72
700.651	7477.5
700.997	7472.98
701.342	7406.54
701.688	7346.21
702.033	7317.96
702.379	7346.88
702.724	7297.17
703.069	7317.05
703.415	7230.73
703.76	7200.67
704.105	7260.78
704.45	7204.29
704.795	7144.85
705.14	7087.45
705.485	7148.7
705.83	7083.61
706.175	7077.29
706.52	7027.34
706.865	7039.32
707.209	6966.1
707.554	7016.04
707.899	6991.41
708.243	7014.24
708.588	6951.87
708.932	6880.91
709.277	6847.46
709.621	6875.26
709.966	6838.65
710.31	6842.04
710.654	6769.05
710.998	6731.98
711.342	6739.89
711.687	6775.6
712.031	6718.2
712.375	6680.23
712.719	6686.11
713.063	6700.35
713.407	6690.63
713.75	6654.92
714.094	6673
714.438	6601.37
714.782	6602.72
715.125	6608.15
715.469	6619.9
715.812	6540.12
716.156	6549.84
716.499	6558.66
716.843	6518.2
717.186	6503.06
717.53	6546
717.873	6504.65
718.216	6551.2
718.559	6464.87
718.902	6430.97
719.246	6466.91
719.589	6485.89
719.932	6473.91
720.275	6435.04
720.617	6360.69
720.96	6401.15
721.303	6388.04
721.646	6404.53
721.989	6387.81
722.331	6433.46
722.674	6393.24
723.016	6389.85
723.359	6380.13
723.701	6408.38
724.044	6306.46
724.386	6307.81
724.729	6382.39
725.071	6357.3
725.413	6336.97
725.755	6362.5
726.097	6332.22
726.439	6304.42
726.782	6273.92
727.124	6368.38
727.465	6303.52
727.807	6288.83
728.149	6254.26
728.491	6258.78
728.833	6322.05
729.175	6358.66
729.516	6259
729.858	6239.12
730.199	6305.33
730.541	6296.52
730.882	6294.93
731.224	6335.38
731.565	6289.74
731.906	6267.36
732.248	6298.32
732.589	6277.53
732.93	6252.22
733.271	6260.13
733.612	6244.09
733.953	6348.72
734.294	6273.69
734.635	6276.4
734.976	6280.47
735.317	6257.87
735.658	6314.14
735.999	6303.52
736.339	6332.67
736.68	6311.66
737.021	6296.06
737.361	6306.91
737.702	6362.73
738.042	6362.28
738.383	6348.49
738.723	6350.3
739.063	6364.54
739.404	6352.33
739.744	6383.07
740.084	6365.44
740.424	6432.56
740.764	6362.5
741.104	6456.29
741.444	6425.33
741.784	6439.56
742.124	6466.45
742.464	6459.45
742.804	6492.89
743.143	6482.27
743.483	6537.64
743.823	6510.75
744.162	6531.54
744.502	6578.09
744.841	6595.49
745.181	6661.93
745.52	6703.74
745.86	6717.97
746.199	6776.05
746.538	6804.3
746.877	6853.34
747.216	6872.32
747.556	6905.54
747.895	6947.8
748.234	6996.61
748.573	6999.55
748.911	7101.69
749.25	7171.97
749.589	7166.1
749.928	7275.92
750.267	7352.98
750.605	7433.89
750.944	7452.87
751.283	7555.69
751.621	7635.46
751.96	7698.96
752.298	7784.84
752.636	7871.62
752.975	7924.72
753.313	8007.43
753.651	8123.36
753.989	8270.7
754.327	8461.43
754.666	8522.67
755.004	8681.31
755.342	8713.4
755.679	8897.35
756.017	8966.95
756.355	9188.19
756.693	9267.06
757.031	9506.37
757.368	9527.62
757.706	9717.44
758.044	9816.87
758.381	10082.63
758.719	10112.91
759.056	10393.81
759.394	10518.78
759.731	10583.63
760.068	10773.69
760.405	10982.49
760.743	11072.43
761.08	11322.6
761.417	11434.46
761.754	11558.3
762.091	11788.8
762.428	11876.93
762.765	12141.33
763.102	12407.77
763.438	12445.73
763.775	12611.83
764.112	12864.25
764.449	13139.73
764.785	13199.61
765.122	13284.35
765.458	13398.02
765.795	13554.86
766.131	13755.08
