Data from hue_170_FLMS001491_00035.txt Node
Date: Tue Feb 07 16:48:36 GMT 2017
User: dcchb
Spectrometer: FLMS00149
Trigger mode: 0
Integration Time (sec): 2.000000E-2
Scans to average: 10
Electric dark correction enabled: true
Nonlinearity correction enabled: false
Boxcar width: 0
XAxis mode: Wavelengths
Number of Pixels in Spectrum: 2048
>>>>>Begin Spectral Data<<<<<
341.393	-24.21
341.776	-24.21
342.16	-24.21
342.543	-52.46
342.927	-49.07
343.31	-95.17
343.693	-78.44
344.077	-68.05
344.46	-50.42
344.843	-32.34
345.226	-28.28
345.61	-40.48
345.993	-8.62
346.376	-10.42
346.759	-13.59
347.142	39.52
347.525	60.08
347.908	51.72
348.291	74.32
348.674	93.98
349.057	106.18
349.44	128.78
349.823	133.53
350.206	178.72
350.588	178.72
350.971	222.34
351.354	243.36
351.737	225.73
352.119	251.72
352.502	254.65
352.884	266.41
353.267	283.58
353.65	275.9
354.032	295.33
354.414	300.53
354.797	306.86
355.179	314.09
355.562	291.49
355.944	319.74
356.326	343.01
356.709	323.35
357.091	349.57
357.473	351.6
357.855	324.48
358.238	349.79
358.62	343.47
359.002	354.31
359.384	342.56
359.766	340.53
360.148	364.03
360.53	339.62
360.912	318.83
361.294	338.27
361.676	340.75
362.057	344.14
362.439	343.24
362.821	337.59
363.203	329.91
363.584	320.87
363.966	298.49
364.348	307.76
364.729	309.79
365.111	331.71
365.493	321.55
365.874	295.78
366.256	317.7
366.637	318.61
367.019	299.4
367.4	296.69
367.781	317.48
368.163	320.42
368.544	310.02
368.925	303.69
369.306	336.91
369.688	318.38
370.069	328.55
370.45	323.35
370.831	320.64
371.212	304.37
371.593	333.07
371.974	324.93
372.355	328.55
372.736	307.08
373.117	329
373.498	331.71
373.879	314.09
374.26	332.39
374.641	315.67
375.021	326.29
375.402	310.7
375.783	330.81
376.163	321.77
376.544	334.88
376.925	317.7
377.305	322.22
377.686	314.99
378.066	314.09
378.447	316.57
378.827	345.5
379.208	321.55
379.588	342.11
379.968	338.04
380.349	329
380.729	323.13
381.109	338.49
381.489	328.32
381.87	345.05
382.25	348.89
382.63	345.27
383.01	342.56
383.39	357.25
383.77	342.79
384.15	325.84
384.53	343.69
384.91	353.86
385.29	362.22
385.67	337.82
386.049	334.65
386.429	355.89
386.809	361.54
387.189	348.89
387.568	364.26
387.948	326.29
388.328	379.62
388.707	354.31
389.087	354.54
389.466	359.06
389.846	338.04
390.225	365.61
390.605	373.97
390.984	367.42
391.363	379.17
391.743	379.62
392.122	377.36
392.501	359.96
392.881	386.63
393.26	359.28
393.639	369.23
394.018	391.6
394.397	370.58
394.776	383.92
395.155	370.13
395.534	412.16
395.913	396.35
396.292	390.24
396.671	387.08
397.05	386.63
397.429	392.28
397.808	385.95
398.186	402.45
398.565	402.67
398.944	387.08
399.323	391.15
399.701	395.67
400.08	384.59
400.458	401.09
400.837	402.67
401.215	425.27
401.594	401.54
401.972	407.64
402.351	411.03
402.729	412.84
403.107	408.1
403.486	427.98
403.864	412.84
404.242	441.99
404.62	432.95
404.999	427.98
405.377	433.41
405.755	454.65
406.133	451.03
406.511	462.11
406.889	451.26
407.267	442.45
407.645	463.01
408.023	473.63
408.401	460.98
408.779	451.26
409.156	477.25
409.534	461.2
409.912	484.25
410.29	488.32
410.667	496.68
411.045	490.13
411.422	492.39
411.8	505.72
412.178	502.33
412.555	531.26
412.933	533.52
413.31	513.4
413.687	520.41
414.065	528.55
414.442	533.97
414.819	550.92
415.197	551.82
415.574	570.58
415.951	559.28
416.328	559.51
416.705	560.18
417.082	568.77
417.46	575.55
417.837	593.85
418.214	577.81
418.591	584.36
418.967	583.46
419.344	593.63
419.721	594.98
420.098	599.05
420.475	613.97
420.852	622.55
421.228	617.81
421.605	631.37
421.982	640.18
422.358	640.63
422.735	639.5
423.111	637.7
423.488	667.52
423.864	661.88
424.241	661.65
424.617	712.5
424.994	693.06
425.37	699.39
425.746	724.92
426.123	709.56
426.499	729.22
426.875	718.6
427.251	738.26
427.627	749.56
428.003	733.96
428.379	733.96
428.756	772.15
429.132	763.12
429.507	783.68
429.883	806.28
430.259	807.41
430.635	801.76
431.011	814.19
431.387	818.03
431.763	830.23
432.138	814.87
432.514	844.02
432.89	829.33
433.265	873.85
433.641	873.62
434.016	862.77
434.392	880.85
434.767	891.47
435.143	916.78
435.518	907.52
435.894	931.7
436.269	951.13
436.644	972.15
437.02	976.44
437.395	983
437.77	999.04
438.145	993.84
438.52	1027.52
438.895	1015.76
439.271	1022.77
439.646	1072.94
440.021	1081.3
440.395	1069.77
440.77	1062.99
441.145	1112.03
441.52	1090.11
441.895	1124.91
442.27	1114.29
442.645	1115.87
443.019	1135.76
443.394	1142.54
443.769	1170.79
444.143	1145.03
444.518	1193.39
444.892	1186.16
445.267	1168.08
445.641	1207.17
446.016	1193.61
446.39	1215.76
446.764	1218.92
447.139	1216.44
447.513	1230.45
447.887	1249.66
448.262	1263.44
448.636	1249.88
449.01	1272.48
449.384	1296.89
449.758	1291.01
450.132	1323.55
450.506	1318.58
450.88	1339.37
451.254	1354.29
451.628	1352.7
452.002	1361.74
452.376	1371.24
452.75	1392.93
453.123	1407.17
453.497	1417.56
453.871	1452.14
454.244	1484.23
454.618	1469.76
454.992	1483.55
455.365	1522.19
455.739	1538.01
456.112	1559.48
456.486	1555.86
456.859	1592.02
457.232	1577.78
457.606	1612.36
457.979	1640.38
458.352	1664.79
458.725	1643.54
459.099	1696.42
459.472	1718.12
459.845	1719.25
460.218	1761.73
460.591	1782.52
460.964	1790.43
461.337	1822.3
461.71	1846.7
462.083	1879.47
462.456	1872.46
462.829	1899.13
463.201	1953.37
463.574	1963.54
463.947	2019.13
464.32	2018.68
464.692	2039.24
465.065	2076.3
465.438	2098
465.81	2146.58
466.183	2205.79
466.555	2210.99
466.928	2212.12
467.3	2240.14
467.672	2282.62
468.045	2319.91
468.417	2334.83
468.789	2400.81
469.161	2403.07
469.534	2481.49
469.906	2528.94
470.278	2557.87
470.65	2600.81
471.022	2643.74
471.394	2697.3
471.766	2725.32
472.138	2789.95
472.51	2873.57
472.882	2948.59
473.253	2988.37
473.625	2973.9
473.997	3094.13
474.369	3135.71
474.74	3141.36
475.112	3240.34
475.484	3311.3
475.855	3346.78
476.227	3450.73
476.598	3540.67
476.97	3575.47
477.341	3670.61
477.713	3762.13
478.084	3793.32
478.455	3947.44
478.827	3974.78
479.198	4105.85
479.569	4177.94
479.94	4304.49
480.311	4392.17
480.682	4477.82
481.053	4559.17
481.424	4703.35
481.795	4762.56
482.166	4890.92
482.537	4939.28
482.908	5171.81
483.279	5205.71
483.65	5358.02
484.021	5471.01
484.391	5558.24
484.762	5636.89
485.133	5686.83
485.503	5911.68
485.874	5978.35
486.244	6070.55
486.615	6269.19
486.985	6374.04
487.356	6525.45
487.726	6581.27
488.097	6716.18
488.467	6838.66
488.837	6967.92
489.207	7119.33
489.578	7324.52
489.948	7380.79
490.318	7560.22
490.688	7593.22
491.058	7785.98
491.428	7931.06
491.798	7937.84
492.168	8165.86
492.538	8260.32
492.908	8387.77
493.278	8512.29
493.648	8602.01
494.017	8704.83
494.387	8835.22
494.757	8877.25
495.126	9103.46
495.496	9134.19
495.866	9259.39
496.235	9347.3
496.605	9450.34
496.974	9531.92
497.344	9659.6
497.713	9700.28
498.082	9828.41
498.452	9921.07
498.821	9963.55
499.19	10005.58
499.559	10060.72
499.928	10222.08
500.298	10259.59
500.667	10395.63
501.036	10370.32
501.405	10592.24
501.774	10602.4
502.143	10655.51
502.512	10687.6
502.88	10776.86
503.249	10854.6
503.618	10945.22
503.987	10961.49
504.356	11096.18
504.724	11103.41
505.093	11059.34
505.462	11199
505.83	11247.36
506.199	11336.4
506.567	11491.65
506.936	11366
507.304	11471.53
507.672	11514.92
508.041	11592.21
508.409	11668.14
508.777	11733.22
509.145	11888.25
509.514	11820.45
509.882	11806.67
510.25	11836.27
510.618	11897.29
510.986	11932.09
511.354	11992.88
511.722	12032.42
512.09	12186.32
512.458	12147.45
512.826	12200.55
513.193	12302.93
513.561	12246.88
513.929	12338.63
514.297	12456.37
514.664	12570.94
515.032	12455.69
515.4	12580.66
515.767	12603.93
516.135	12580.43
516.502	12426.09
516.869	12630.37
517.237	12663.82
517.604	12727.55
517.972	12753.53
518.339	12737.04
518.706	12666.98
519.073	12749.92
519.44	12762.12
519.808	12869.46
520.175	12832.63
520.542	12940.42
520.909	12988.78
521.276	12913.3
521.643	13014.54
522.009	12953.76
522.376	13052.74
522.743	13015
523.11	13118.95
523.477	13229.68
523.843	13225.16
524.21	13322.33
524.577	13334.08
524.943	13331.15
525.31	13353.74
525.676	13367.08
526.043	13392.16
526.409	13413.18
526.776	13411.37
527.142	13474.19
527.508	13503.8
527.874	13530.24
528.241	13556
528.607	13453.18
528.973	13508.09
529.339	13397.13
529.705	13580.41
530.071	13551.71
530.437	13516.45
530.803	13634.64
531.169	13576.11
531.535	13552.61
531.901	13590.8
532.267	13490.92
532.632	13512.16
532.998	13498.83
533.364	13539.05
533.73	13501.76
534.095	13556
534.461	13460.86
534.826	13457.47
535.192	13430.58
535.557	13372.28
535.923	13381.09
536.288	13336.8
536.653	13389.68
537.019	13282.11
537.384	13269.23
537.749	13262.9
538.114	13201.43
538.479	13229.68
538.845	13216.12
539.21	13094.99
539.575	13177.25
539.94	13033.53
540.305	13063.13
540.67	13019.29
541.034	13020.19
541.399	12937.03
541.764	12986.07
542.129	12852.52
542.494	12885.28
542.858	12913.3
543.223	12880.54
543.587	12835.11
543.952	12785.4
544.316	12772.07
544.681	12642.8
545.045	12633.54
545.41	12611.62
545.774	12565.97
546.138	12587.66
546.503	12551.51
546.867	12448.01
547.231	12602.58
547.595	12450.04
547.959	12402.13
548.324	12467.44
548.688	12336.82
549.052	12259.08
549.416	12292.76
549.779	12222.48
550.143	12113.78
550.507	12154.23
550.871	12171.18
551.235	12096.15
551.599	12117.85
551.962	12044.17
552.326	12054.12
552.689	12052.99
553.053	11948.81
553.417	11927.12
553.78	11960.56
554.143	11902.94
554.507	11914.91
554.87	11885.53
555.234	11941.58
555.597	11765.99
555.96	11812.09
556.323	11755.37
556.686	11765.54
557.05	11761.47
557.413	11758.31
557.776	11703.84
558.139	11791.3
558.502	11732.54
558.865	11708.59
559.228	11728.25
559.59	11771.87
559.953	11642.38
560.316	11796.95
560.679	11761.92
561.041	11702.94
561.404	11684.86
561.767	11692.32
562.129	11598.76
562.492	11784.29
562.854	11631.98
563.217	11699.1
563.579	11681.02
563.941	11731.19
564.304	11713.79
564.666	11795.59
565.028	11747.23
565.39	11719.44
565.753	11705.43
566.115	11721.92
566.477	11768.93
566.839	11732.54
567.201	11828.36
567.563	11740.45
567.925	11799.89
568.287	11806.89
568.648	11820.45
569.01	11863.84
569.372	11869.26
569.734	11834.46
570.095	11854.12
570.457	11827.68
570.819	11920.11
571.18	11874.24
571.542	11900.68
571.903	11825.65
572.265	11816.16
572.626	11802.15
572.987	11893.44
573.349	11915.59
573.71	11933.22
574.071	11931.64
574.432	11953.1
574.794	11986.32
575.155	12019.99
575.516	11930.73
575.877	11982.71
576.238	11990.62
576.599	12010.28
576.96	12019.09
577.32	11929.83
577.681	12016.15
578.042	11953.1
578.403	11986.78
578.763	11949.94
579.124	11944.06
579.485	11961.69
579.845	12021.12
580.206	11953.1
580.566	11984.06
580.927	11946.55
581.287	11954.69
581.648	11927.57
582.008	12011.86
582.368	11954.69
582.728	11950.84
583.089	11903.39
583.449	11913.78
583.809	11868.36
584.169	11909.04
584.529	11834.46
584.889	11935.93
585.249	11883.05
585.609	11815.93
585.969	11963.27
586.329	11786.1
586.688	11908.81
587.048	11838.53
587.408	11849.15
587.768	11715.37
588.127	11828.59
588.487	11745.65
588.846	11835.37
589.206	11731.64
589.565	11762.6
589.925	11846.89
590.284	11810.96
590.643	11688.7
591.003	11817.29
591.362	11761.92
591.721	11834.24
592.08	11782.71
592.44	11765.09
592.799	11755.59
593.158	11705.88
593.517	11705.2
593.876	11707.69
594.235	11601.93
594.593	11691.42
594.952	11727.35
595.311	11688.7
595.67	11620.23
596.029	11685.31
596.387	11707.46
596.746	11756.95
597.104	11594.7
597.463	11694.13
597.822	11681.02
598.18	11651.64
598.538	11650.74
598.897	11669.72
599.255	11530.52
599.613	11765.31
599.972	11713.56
600.33	11595.83
600.688	11612.1
601.046	11695.71
601.404	11694.58
601.762	11677.18
602.12	11693.45
602.478	11690.51
602.836	11650.74
603.194	11562.38
603.552	11627.69
603.91	11549.72
604.268	11522.83
604.625	11505.21
604.983	11500.23
605.341	11538.2
605.698	11537.52
606.056	11619.78
606.413	11566
606.771	11594.92
607.128	11674.02
607.485	11606.45
607.843	11563.28
608.2	11595.15
608.557	11731.87
608.914	11617.75
609.272	11690.51
609.629	11653.22
609.986	11673.56
610.343	11713.34
610.7	11755.59
611.057	11698.87
611.414	11707.91
611.771	11650.29
612.127	11747.01
612.484	11783.39
612.841	11748.36
613.198	11701.13
613.554	11664.3
613.911	11740.68
614.267	11782.71
614.624	11743.62
614.98	11705.2
615.337	11851.41
615.693	11808.25
616.05	11836.95
616.406	11847.8
616.762	11816.16
617.118	11795.59
617.475	11802.37
617.831	11891.18
618.187	11842.82
618.543	11897.51
618.899	11934.8
619.255	11940.67
619.611	11861.13
619.967	11869.49
620.323	11914.46
620.678	11881.02
621.034	11892.09
621.39	11913.33
621.746	11852.99
622.101	11957.62
622.457	11873.56
622.812	11900.68
623.168	11918.53
623.523	11918.08
623.879	11923.27
624.234	11824.07
624.589	11889.83
624.945	11916.95
625.3	11917.4
625.655	11829.94
626.01	11911.97
626.365	11820.23
626.72	11891.64
627.075	11878.08
627.43	11910.17
627.785	11744.3
628.14	11850.28
628.495	11872.88
628.85	11893.22
629.205	11759.21
629.559	11852.99
629.914	11799.21
630.269	11799.66
630.623	11761.02
630.978	11773.22
631.332	11851.41
631.687	11828.14
632.041	11715.14
632.396	11712.21
632.75	11701.58
633.104	11774.13
633.459	11657.07
633.813	11680.34
634.167	11679.44
634.521	11673.79
634.875	11690.74
635.229	11627.46
635.583	11582.72
635.937	11650.74
636.291	11470.86
636.645	11526.9
636.999	11599.21
637.352	11481.03
637.706	11473.34
638.06	11579.78
638.413	11525.54
638.767	11526
639.121	11499.78
639.474	11438.32
639.828	11413.91
640.181	11541.14
640.534	11416.39
640.888	11410.75
641.241	11368.94
641.594	11415.94
641.947	11389.5
642.301	11358.54
642.654	11396.06
643.007	11416.85
643.36	11460.01
643.713	11425.66
644.066	11490.29
644.419	11380.46
644.771	11282.16
645.124	11169.4
645.477	11134.59
645.83	11147.93
646.182	11105.22
646.535	11065.44
646.888	11058.89
647.24	10976.18
647.593	10987.48
647.945	11058.66
648.298	10942.96
648.65	10962.62
649.002	10988.38
649.355	11021.38
649.707	10984.77
650.059	11082.84
650.411	11153.8
650.763	11163.97
651.115	11178.89
651.467	11245.78
651.819	11211.88
652.171	11281.26
652.523	11222.28
652.875	11209.85
653.227	11143.86
653.578	11240.58
653.93	11239.22
654.282	11134.82
654.633	11206.68
654.985	11192.9
655.337	11209.62
655.688	11199.23
656.039	11248.49
656.391	11176.85
656.742	11186.57
657.094	11198.32
657.445	11230.64
657.796	11196.74
658.147	11201.71
658.498	11190.64
658.849	11176.63
659.2	11251.65
659.551	11153.35
659.902	11230.86
660.253	11232.9
660.604	11248.94
660.955	11216.63
661.306	11263.86
661.656	11289.39
662.007	11307.02
662.358	11318.77
662.708	11247.13
663.059	11268.83
663.409	11206.46
663.76	11364.87
664.11	11244.42
664.461	11345.44
664.811	11325.1
665.161	11323.29
665.511	11315.83
665.862	11298.66
666.212	11301.82
666.562	11384.08
666.912	11280.58
667.262	11351.09
667.612	11331.88
667.962	11294.14
668.312	11229.96
668.662	11272.44
669.011	11309.96
669.361	11301.82
669.711	11266.34
670.06	11270.64
670.41	11280.13
670.76	11175.72
671.109	11286.45
671.459	11244.42
671.808	11194.93
672.157	11298.21
672.507	11142.05
672.856	11189.28
673.205	11201.03
673.554	11223.63
673.904	11247.13
674.253	11201.71
674.602	11181.37
674.951	11009.63
675.3	11032
675.649	11151.09
675.998	11129.4
676.346	11183.86
676.695	11149.28
677.044	11055.73
677.393	11090.75
677.741	11115.84
678.09	11023.64
678.438	11000.81
678.787	11073.35
679.135	11013.69
679.484	11010.3
679.832	10988.38
680.181	10956.52
680.529	10998.55
680.877	10961.72
681.225	10902.74
681.573	10963.53
681.922	10912.23
682.27	10872.45
682.618	10918.55
682.966	10803.3
683.314	10844.66
683.661	10831.1
684.009	10747.94
684.357	10705.45
684.705	10718.56
685.053	10672.46
685.4	10615.96
685.748	10617.77
686.095	10601.5
686.443	10523.31
686.79	10545.46
687.138	10625
687.485	10558.56
687.832	10556.53
688.18	10569.86
688.527	10438.34
688.874	10412.13
689.221	10398.79
689.568	10412.35
689.915	10351.56
690.262	10350.89
690.609	10323.54
690.956	10217.56
691.303	10256.43
691.65	10215.3
691.997	10187.05
692.344	10102.08
692.69	10080.84
693.037	10098.01
693.383	9998.58
693.73	10031.57
694.077	9931.69
694.423	9891.46
694.769	9855.31
695.116	9892.82
695.462	9903.89
695.808	9823.22
696.155	9861.63
696.501	9756.55
696.847	9662.99
697.193	9637.23
697.539	9690.79
697.885	9619.38
698.231	9565.37
698.577	9551.36
698.923	9563.79
699.269	9469.55
699.614	9434.75
699.96	9439.27
700.306	9412.15
700.651	9359.5
700.997	9312.95
701.342	9228.88
701.688	9296.68
702.033	9243.34
702.379	9188.66
702.724	9133.52
703.069	9177.58
703.415	9043.58
703.76	9048.55
704.105	9025.05
704.45	9052.84
704.795	8933.52
705.14	8947.08
705.485	8867.08
705.83	8889.91
706.175	8905.05
706.52	8829.34
706.865	8830.7
707.209	8812.17
707.554	8773.53
707.899	8789.12
708.243	8654.66
708.588	8668.67
708.932	8648.33
709.277	8617.37
709.621	8602.01
709.966	8573.08
710.31	8528.34
710.654	8463.48
710.998	8460.54
711.342	8508.45
711.687	8423.71
712.031	8376.25
712.375	8383.03
712.719	8364.95
713.063	8424.83
713.407	8459.86
713.75	8411.73
714.094	8271.39
714.438	8343.03
714.782	8373.08
715.125	8242.92
715.469	8247.66
715.812	8248.34
716.156	8225.97
716.499	8217.16
716.843	8162.92
717.186	8148.46
717.53	8206.31
717.873	8144.16
718.216	8176.93
718.559	8162.24
718.902	8141.45
719.246	8075.47
719.589	8039.53
719.932	8040.44
720.275	8026.2
720.617	8072.53
720.96	8044.28
721.303	8000.21
721.646	8063.04
721.989	8016.03
722.331	8027.78
722.674	8090.38
723.016	8004.51
723.359	7988.24
723.701	8050.83
724.044	7930.16
724.386	7982.36
724.729	7991.63
725.071	7962.47
725.413	7916.6
725.755	7913.66
726.097	7905.3
726.439	7906.88
726.782	7869.14
727.124	7920.22
727.465	7911.63
727.807	7913.21
728.149	7832.76
728.491	7938.29
728.833	7894.91
729.175	7835.02
729.516	7835.7
729.858	7865.3
730.199	7833.44
730.541	7851.06
730.882	7859.65
731.224	7846.09
731.565	7833.89
731.906	7856.71
732.248	7814.68
732.589	7795.47
732.93	7765.19
733.271	7794.57
733.612	7878.18
733.953	7778.3
734.294	7810.84
734.635	7825.53
734.976	7846.55
735.317	7869.6
735.658	7867.34
735.999	7858.07
736.339	7833.89
736.68	7788.02
737.021	7861.69
737.361	7734.91
737.702	7917.96
738.042	7838.64
738.383	7908.01
738.723	7941.68
739.063	7912.31
739.404	7959.99
739.744	7936.49
740.084	7938.52
740.424	7910.27
740.764	7959.99
741.104	7949.37
741.444	8009.93
741.784	7988.24
742.124	8033.21
742.464	8037.05
742.804	8003.15
743.143	8025.52
743.483	8071.17
743.823	8068.23
744.162	8077.95
744.502	8141.9
744.841	8158.18
745.181	8274.56
745.52	8236.37
745.86	8211.96
746.199	8319.75
746.538	8347.1
746.877	8446.98
747.216	8427.77
747.556	8437.49
747.895	8535.57
748.234	8549.13
748.573	8583.47
748.911	8627.99
749.25	8689.01
749.589	8707.54
749.928	8870.02
750.267	8947.76
750.605	8944.14
750.944	9010.81
751.283	9121.77
751.621	9241.08
751.96	9306.85
752.298	9354.08
752.636	9436.79
752.975	9536.67
753.313	9618.02
753.651	9792.48
753.989	9887.4
754.327	9948.41
754.666	10037
755.004	10188.86
755.342	10277.44
755.679	10412.81
756.017	10490.32
756.355	10693.48
756.693	10787.03
757.031	10938.89
757.368	11041.04
757.706	11197.42
758.044	11357.87
758.381	11510.18
758.719	11605.32
