Data from hue_20_FLMS001491_54.txt Node
Date: Mon Feb 06 15:34:19 GMT 2017
User: dcchb
Spectrometer: FLMS00149
Trigger mode: 0
Integration Time (sec): 2.000000E-2
Scans to average: 10
Electric dark correction enabled: true
Nonlinearity correction enabled: false
Boxcar width: 0
XAxis mode: Wavelengths
Number of Pixels in Spectrum: 2048
>>>>>Begin Spectral Data<<<<<
341.393	-0.45
341.776	-0.45
342.16	-0.45
342.543	-42.26
342.927	-74.35
343.31	-77.74
343.693	-84.74
344.077	-61.02
344.46	-80.68
344.843	-73.9
345.226	-7.01
345.61	-24.18
345.993	-5.88
346.376	-0.23
346.759	6.78
347.142	34.58
347.525	46.55
347.908	51.3
348.291	78.64
348.674	72.77
349.057	124.74
349.44	128.13
349.823	167.45
350.206	175.14
350.588	197.06
350.971	202.93
351.354	228.69
351.737	241.58
352.119	245.64
352.502	272.99
352.884	293.33
353.267	297.17
353.65	323.61
354.032	303.04
354.414	305.98
354.797	314.34
355.179	337.62
355.562	343.95
355.944	357.05
356.326	345.3
356.709	364.74
357.091	344.62
357.473	342.59
357.855	360.22
358.238	361.12
358.62	361.57
359.002	348.47
359.384	348.01
359.766	360.22
360.148	359.76
360.53	344.85
360.912	347.79
361.294	364.28
361.676	347.79
362.057	355.92
362.439	333.55
362.821	352.53
363.203	334
363.584	340.33
363.966	325.64
364.348	328.58
364.729	345.53
365.111	313.44
365.493	334.91
365.874	314.34
366.256	341.46
366.637	315.47
367.019	332.87
367.4	323.38
367.781	306.66
368.163	341.01
368.544	330.61
368.925	328.8
369.306	324.06
369.688	315.7
370.069	319.99
370.45	313.89
370.831	331.52
371.212	317.73
371.593	324.51
371.974	317.51
372.355	328.58
372.736	331.97
373.117	336.26
373.498	329.26
373.879	343.72
374.26	336.94
374.641	325.19
375.021	327
375.402	344.62
375.783	336.94
376.163	339.43
376.544	331.06
376.925	346.43
377.305	337.39
377.686	347.56
378.066	355.47
378.447	350.27
378.827	350.27
379.208	343.27
379.588	348.24
379.968	329.03
380.349	347.34
380.729	356.83
381.109	342.59
381.489	326.77
381.87	361.12
382.25	360.44
382.63	364.74
383.01	354.11
383.39	339.2
383.77	366.77
384.15	355.02
384.53	345.75
384.91	363.15
385.29	364.51
385.67	374.23
386.049	366.09
386.429	351.4
386.809	375.13
387.189	377.62
387.568	383.04
387.948	365.19
388.328	380.78
388.707	389.37
389.087	366.77
389.466	369.03
389.846	371.97
390.225	382.36
390.605	373.32
390.984	384.85
391.363	381.46
391.743	382.59
392.122	387.33
392.501	386.2
392.881	391.85
393.26	384.85
393.639	412.42
394.018	391.18
394.397	375.58
394.776	405.19
395.155	402.48
395.534	398.18
395.913	402.93
396.292	402.02
396.671	407.9
397.05	426.88
397.429	420.78
397.808	403.83
398.186	424.4
398.565	395.02
398.944	416.26
399.323	416.71
399.701	422.36
400.08	426.66
400.458	423.04
400.837	428.01
401.215	425.3
401.594	426.2
401.972	397.5
402.351	434.34
402.729	437.05
403.107	430.5
403.486	428.24
403.864	438.18
404.242	447.22
404.62	441.34
404.999	443.83
405.377	461.23
405.755	447.9
406.133	433.66
406.511	428.92
406.889	442.25
407.267	445.19
407.645	461.23
408.023	446.99
408.401	470.27
408.779	426.43
409.156	470.04
409.534	452.19
409.912	472.53
410.29	502.13
410.667	485.18
411.045	478.41
411.422	490.16
411.8	491.29
412.178	495.81
412.555	501
412.933	516.82
413.31	514.34
413.687	494.68
414.065	490.38
414.442	513.88
414.819	501.68
415.197	521.12
415.574	526.54
415.951	522.02
416.328	544.17
416.705	531.06
417.082	542.58
417.46	535.35
417.837	546.65
418.214	535.81
418.591	533.55
418.967	544.84
419.344	544.39
419.721	542.81
420.098	571.74
420.475	543.71
420.852	554.34
421.228	574
421.605	568.8
421.982	581.45
422.358	566.76
422.735	570.15
423.111	608.35
423.488	605.41
423.864	601.79
424.241	592.3
424.617	585.07
424.994	577.39
425.37	602.47
425.746	607.44
426.123	625.97
426.499	609.02
426.875	601.34
427.251	611.74
427.627	640.66
428.003	623.26
428.379	639.98
428.756	654.9
429.132	652.64
429.507	659.64
429.883	663.03
430.259	665.07
430.635	693.09
431.011	675.46
431.387	692.41
431.763	676.14
432.138	690.83
432.514	696.03
432.89	701.68
433.265	737.38
433.641	732.64
434.016	752.07
434.392	731.73
434.767	723.14
435.143	769.7
435.518	747.1
435.894	744.61
436.269	773.76
436.644	762.92
437.02	778.74
437.395	767.66
437.77	796.36
438.145	783.03
438.52	822.13
438.895	806.08
439.271	795.46
439.646	801.33
440.021	795.01
440.395	825.97
440.77	794.78
441.145	821.67
441.52	825.06
441.895	840.88
442.27	842.01
442.645	858.28
443.019	827.77
443.394	854.44
443.769	858.96
444.143	867.32
444.518	873.88
444.892	873.88
445.267	882.24
445.641	881.33
446.016	895.12
446.39	882.69
446.764	901.67
447.139	881.33
447.513	897.15
447.887	902.8
448.262	909.35
448.636	917.49
449.01	934.66
449.384	947.55
449.758	929.47
450.132	948
450.506	948.9
450.88	961.33
451.254	969.24
451.628	957.71
452.002	1002.46
452.376	989.8
452.75	1004.95
453.123	995.45
453.497	1006.3
453.871	1008.34
454.244	1037.94
454.618	1033.87
454.992	1055.57
455.365	1043.14
455.739	1084.04
456.112	1082.91
456.486	1089.01
456.859	1105.73
457.232	1141.21
457.606	1122.23
457.979	1146.64
458.352	1132.63
458.725	1142.34
459.099	1166.97
459.472	1180.76
459.845	1203.13
460.218	1200.65
460.591	1218.05
460.964	1212.17
461.337	1245.17
461.71	1274.54
462.083	1270.02
462.456	1282.9
462.829	1297.82
463.201	1264.15
463.574	1286.75
463.947	1324.03
464.32	1353.64
464.692	1322.9
465.065	1380.08
465.438	1404.03
465.81	1404.71
466.183	1450.81
466.555	1448.78
466.928	1453.97
467.3	1465.05
467.672	1473.86
468.045	1491.49
468.417	1524.93
468.789	1538.04
469.161	1576.68
469.534	1615.32
469.906	1600.18
470.278	1629.11
470.65	1637.02
471.022	1655.55
471.394	1691.93
471.766	1710.69
472.138	1740.75
472.51	1752.04
472.882	1765.15
473.253	1802.66
473.625	1804.25
473.997	1886.28
474.369	1899.16
474.74	1896.67
475.112	1910.23
475.484	1945.26
475.855	2010.34
476.227	1987.97
476.598	2060.06
476.97	2117.23
477.341	2166.72
477.713	2178.7
478.084	2178.47
478.455	2244.69
478.827	2267.29
479.198	2311.8
479.569	2342.31
479.94	2425.47
480.311	2456.43
480.682	2485.13
481.053	2565.36
481.424	2624.79
481.795	2609.65
482.166	2684
482.537	2685.58
482.908	2771.9
483.279	2785.24
483.65	2844.9
484.021	2891.68
484.391	2997.21
484.762	2986.36
485.133	2985.23
485.503	3056.19
485.874	3129.41
486.244	3170.09
486.615	3199.46
486.985	3253.47
487.356	3335.73
487.726	3361.49
488.097	3452.79
488.467	3460.47
488.837	3570.3
489.207	3567.82
489.578	3599.45
489.948	3647.36
490.318	3715.61
490.688	3768.94
491.058	3798.54
491.428	3855.94
491.798	3896.39
492.168	3987.01
492.538	3990.18
492.908	4040.8
493.278	4091.42
493.648	4126.9
494.017	4175.26
494.387	4227.46
494.757	4247.35
495.126	4297.74
495.496	4304.07
495.866	4332.99
496.235	4413.67
496.605	4442.6
496.974	4475.59
497.344	4513.33
497.713	4543.61
498.082	4551.74
498.452	4658.63
498.821	4679.42
499.19	4690.95
499.559	4745.64
499.928	4749.48
500.298	4725.53
500.667	4822.7
501.036	4831.06
501.405	4898.63
501.774	4883.49
502.143	4918.74
502.512	4932.98
502.88	4980.21
503.249	5016.59
503.618	5017.27
503.987	5104.5
504.356	5100.43
504.724	5133.88
505.093	5193.99
505.462	5190.82
505.83	5229.69
506.199	5213.87
506.567	5340.42
506.936	5304.27
507.304	5388.56
507.672	5389.24
508.041	5382.68
508.409	5408.67
508.777	5465.62
509.145	5488.22
509.514	5524.15
509.882	5550.14
510.25	5610.02
510.618	5577.48
510.986	5617.25
511.354	5694.77
511.722	5724.6
512.09	5743.8
512.458	5775.67
512.826	5792.62
513.193	5818.83
513.561	5790.81
513.929	5882.56
514.297	5920.97
514.664	5927.75
515.032	6020.86
515.4	6005.72
515.767	6010.46
516.135	6017.02
516.502	6007.53
516.869	6062.89
517.237	6125.49
517.604	6110.57
517.972	6170.46
518.339	6212.27
518.706	6163.68
519.073	6257.46
519.44	6280.96
519.808	6324.35
520.175	6353.96
520.542	6329.1
520.909	6451.81
521.276	6457.91
521.643	6441.41
522.009	6504.01
522.376	6547.85
522.743	6574.06
523.11	6625.14
523.477	6710.33
523.843	6767.96
524.21	6812.02
524.577	6824
524.943	6822.19
525.31	6872.81
525.676	6965.01
526.043	6984.9
526.409	7029.65
526.776	7090.44
527.142	7065.58
527.508	7166.59
527.874	7159.59
528.241	7228.74
528.607	7258.11
528.973	7275.51
529.339	7291.79
529.705	7400.48
530.071	7384.21
530.437	7419.69
530.803	7505.79
531.169	7508.73
531.535	7485
531.901	7501.95
532.267	7550.99
532.632	7635.51
532.998	7694.94
533.364	7715.05
533.73	7747.82
534.095	7777.65
534.461	7774.48
534.826	7856.52
535.192	7833.92
535.557	7935.38
535.923	7950.3
536.288	7944.88
536.653	8018.32
537.019	8027.36
537.384	8045.89
537.749	8094.93
538.114	8081.14
538.479	8155.94
538.845	8159.11
539.21	8202.27
539.575	8214.47
539.94	8277.3
540.305	8385.77
540.67	8352.1
541.034	8391.42
541.399	8413.11
541.764	8434.13
542.129	8492.21
542.494	8480.23
542.858	8516.39
543.223	8580.57
543.587	8632.32
543.952	8629.38
544.316	8666.44
544.681	8642.94
545.045	8712.09
545.41	8740.11
545.774	8773.55
546.138	8801.35
546.503	8788.02
546.867	8866.89
547.231	8922.03
547.595	8939.88
547.959	8977.84
548.324	8991.18
548.688	9038.41
549.052	9049.71
549.416	9077.28
549.779	9110.72
550.143	9091.96
550.507	9181.23
550.871	9175.58
551.235	9216.93
551.599	9344.84
551.962	9337.38
552.326	9365.86
552.689	9371.96
553.053	9297.61
553.417	9355.91
553.78	9510.03
554.143	9460.99
554.507	9528.11
554.87	9557.26
555.234	9548.45
555.597	9598.17
555.96	9583.02
556.323	9688.11
556.686	9696.24
557.05	9715.22
557.413	9743.92
557.776	9823.7
558.139	9846.07
558.502	9905.05
558.865	9860.53
559.228	9987.53
559.59	9982.79
559.953	9954.77
560.316	10086.51
560.679	10049.23
561.041	10146.85
561.404	10217.36
561.767	10204.03
562.129	10219.39
562.492	10334.42
562.854	10343.23
563.217	10333.74
563.579	10378.71
563.941	10417.58
564.304	10422.1
564.666	10523.79
565.028	10611.25
565.39	10544.36
565.753	10709.1
566.115	10636.56
566.477	10696.67
566.839	10724.69
567.201	10751.58
567.563	10795.42
567.925	10818.7
568.287	10878.13
568.648	10929.2
569.01	11027.73
569.372	11043.33
569.734	11107.05
570.095	11118.8
570.457	11217.11
570.819	11186.37
571.18	11251
571.542	11317.89
571.903	11364.67
572.265	11386.37
572.626	11358.12
572.987	11493.94
573.349	11520.6
573.71	11547.49
574.071	11622.07
574.432	11740.03
574.794	11792.23
575.155	11778.22
575.516	11821.16
575.877	11944.77
576.238	11980.48
576.599	12048.27
576.96	12086.91
577.32	12182.73
577.681	12285.78
578.042	12363.52
578.403	12468.82
578.763	12558.31
579.124	12569.61
579.485	12733.45
579.845	12755.37
580.206	12932.99
580.566	12936.38
580.927	13016.38
581.287	13232.42
581.648	13294.34
582.008	13497.05
582.368	13594.67
582.728	13728.45
583.089	13876.7
583.449	14033.53
583.809	14144.26
584.169	14239.63
584.529	14358.49
584.889	14645.49
585.249	14690.69
585.609	14884.58
585.969	15142.43
586.329	15220.62
586.688	15518.46
587.048	15580.83
587.408	15804.78
587.768	16044.55
588.127	16261.04
588.487	16443.64
588.846	16854.7
589.206	16903.96
589.565	17263.95
589.925	17508.69
590.284	17701.23
590.643	17901.45
591.003	18175.57
591.362	18481.1
591.721	18704.37
592.08	18963.34
592.44	19220.06
592.799	19456.89
593.158	19774.62
593.517	20034.05
593.876	20301.84
594.235	20648.95
594.593	20799
594.952	21174.81
595.311	21360.34
595.67	21794.46
596.029	22138.85
596.387	22478.51
596.746	22795.78
597.104	22949.91
597.463	23241.65
597.822	23648.42
598.18	23836.89
598.538	24204.11
598.897	24506.02
599.255	24695.4
599.613	25320.46
599.972	25435.49
600.33	25700.34
600.688	25927.68
601.046	26315.92
601.404	26813.08
601.762	26978.27
602.12	27262.56
602.478	27573.06
602.836	27841.53
603.194	27946.16
603.552	28165.14
603.91	28399.93
604.268	28883.99
604.625	29032.01
604.983	29354.26
605.341	29486.23
605.698	29971.64
606.056	30198.98
606.413	30420.9
606.771	30861.11
607.128	31014.78
607.485	31075.12
607.843	31473.07
608.2	31831.48
608.557	32038.93
608.914	32173.39
609.272	32631.23
609.629	32764.79
609.986	33162.52
610.343	33154.38
610.7	33547.82
611.057	33681.83
611.414	33966.34
611.771	34179.44
612.127	34367.68
612.484	34578.3
612.841	34918.4
613.198	35006.09
613.554	35304.61
613.911	35547.77
614.267	35577.14
614.624	35611.94
614.98	36066.62
615.337	36168.54
615.693	36308.88
616.05	36374.86
616.406	36734.85
616.762	36823.44
617.118	36923.77
617.475	37139.59
617.831	37340.94
618.187	37600.82
618.543	37662.29
618.899	37974.82
619.255	37970.53
619.611	38126.91
619.967	38369.16
620.323	38553.79
620.678	38482.83
621.034	38469.95
621.39	38695.71
621.746	38716.72
622.101	39335.46
622.457	39078.52
622.812	39224.96
623.168	39381.11
623.523	39542.69
623.879	39689.13
624.234	39600.99
624.589	39862.45
624.945	39960.98
625.3	40032.85
625.655	40066.52
626.01	40149.68
626.365	39971.83
626.72	40213.63
627.075	40267.64
627.43	40194.88
627.785	40303.12
628.14	40516.9
628.495	40550.35
628.85	40527.97
629.205	40391.48
629.559	40832.82
629.914	40713.28
630.269	40794.18
630.623	40715.77
630.978	40713.28
631.332	40783.33
631.687	41158.01
632.041	40859.94
632.396	41085.02
632.75	40822.88
633.104	41021.75
633.459	40850.9
633.813	40933.16
634.167	40982.65
634.521	41006.83
634.875	41003.44
635.229	40935.87
635.583	40909.88
635.937	40962.54
636.291	40976.1
636.645	40976.55
636.999	40859.94
637.352	41050.45
637.706	40861.07
638.06	40955.08
638.413	40889.09
638.767	40890
639.121	40922.99
639.474	40850.9
639.828	40776.78
640.181	40823.79
640.534	41031.24
640.888	40775.2
641.241	40798.7
641.594	40744.92
641.947	40904.69
642.301	40928.87
642.654	40900.62
643.007	40868.08
643.36	40744.24
643.713	40705.37
644.066	40974.06
644.419	40820.17
644.771	40559.61
645.124	40206.4
645.477	39943.81
645.83	39894.54
646.182	39715.79
646.535	39693.19
646.888	39724.83
647.24	39533.88
647.593	39695.23
647.945	39718.73
648.298	39452.3
648.65	39404.61
649.002	39363.94
649.355	39583.59
649.707	39412.75
650.059	39742.91
650.411	40111.94
650.763	40086.4
651.115	40506.05
651.467	40334.53
651.819	40347.87
652.171	40320.52
652.523	40210.47
652.875	40203.24
653.227	40082.34
653.578	40386.73
653.93	40221.77
654.282	40045.95
654.633	40007.08
654.985	40108.78
655.337	40180.64
655.688	40134.54
656.039	40345.15
656.391	40039.85
656.742	40072.84
657.094	40017.03
657.445	40190.36
657.796	40069.91
658.147	40060.19
658.498	39972.28
658.849	40244.82
659.2	40015.22
659.551	40001.66
659.902	40035.11
660.253	39966.41
660.604	40028.55
660.955	39922.34
661.306	40088.21
661.656	39942.23
662.007	39922.11
662.358	40047.99
662.708	39901.1
663.059	39859.97
663.409	39766.41
663.76	39939.97
664.11	40017.48
664.461	39974.09
664.811	40052.96
665.161	39988.33
665.511	39907.65
665.862	39876.92
666.212	40009.8
666.562	39932.28
666.912	39890.93
667.262	39820.2
667.612	39840.53
667.962	39958.95
668.312	39808.22
668.662	39981.32
669.011	39779.29
669.361	39669.24
669.711	39800.08
670.06	39784.49
670.41	39555.8
670.76	39666.3
671.109	39778.62
671.459	39894.77
671.808	39619.75
672.157	39685.74
672.507	39473.99
672.856	39327.33
673.205	39420.21
673.554	39665.85
673.904	39452.07
674.253	39684.38
674.602	39547.66
674.951	39006.43
675.3	38788.36
675.649	39454.78
675.998	39355.8
676.346	39496.36
676.695	39581.78
677.044	39294.79
677.393	39389.92
677.741	39406.87
678.09	39396.7
678.438	39234.9
678.787	39408.46
679.135	39281.45
679.484	39008.47
679.832	39283.03
680.181	38932.54
680.529	39057.73
680.877	38900.22
681.225	38842.82
681.573	39177.5
681.922	38810.28
682.27	38594.24
682.618	38636.05
682.966	38538.65
683.314	38753.78
683.661	38500.46
684.009	38450.51
684.357	38361.7
684.705	38290.29
685.053	38270.18
685.4	38332.78
685.748	38091.2
686.095	38214.36
686.443	37980.92
686.79	38048.49
687.138	37935.5
687.485	38017.98
687.832	37822.06
688.18	37955.39
688.527	37808.95
688.874	37675.39
689.221	37686.47
689.568	37554.94
689.915	37431.56
690.262	37426.13
690.609	37382.29
690.956	37135.97
691.303	37149.98
691.65	36912.7
691.997	37063.43
692.344	36660.05
692.69	36678.58
693.037	36832.25
693.383	36446.05
693.73	36516.1
694.077	36357.46
694.423	36354.3
694.769	36309.78
695.116	36238.37
695.462	35980.3
695.808	36050.8
696.155	36107.53
696.501	35764.94
696.847	35814.88
697.193	35635.9
697.539	35718.83
697.885	35453.76
698.231	35439.75
698.577	35399.07
698.923	35339.41
699.269	35164.5
699.614	34944.17
699.96	34957.05
700.306	34880.21
700.651	34733.1
700.997	34729.48
701.342	34734.91
701.688	34504.4
702.033	34520
702.379	34551.86
702.724	34275.71
703.069	34501.24
703.415	33878.66
703.76	33965.66
704.105	33986
704.45	33828.49
704.795	33827.81
705.14	33743.52
705.485	33691.09
705.83	33647.7
706.175	33622.62
706.52	33365.22
706.865	33329.07
707.209	33220.82
707.554	33174.04
707.899	33170.43
708.243	32936.31
708.588	32919.36
708.932	32800.49
709.277	32723.89
709.621	32882.75
709.966	32579.71
710.31	32649.76
710.654	32337.68
710.998	32513.95
711.342	32363.67
711.687	32280.51
712.031	32225.37
712.375	32125.48
712.719	32147.4
713.063	32077.12
713.407	32236.44
713.75	31902.89
714.094	31886.85
714.438	31748.54
714.782	31980.85
715.125	31603.01
715.469	31712.84
715.812	31512.39
716.156	31435.11
716.499	31469.46
716.843	31383.36
717.186	31207.54
717.53	31267.43
717.873	31334.54
718.216	31216.58
718.559	31039.18
718.902	30953.54
719.246	31049.58
719.589	30929.81
719.932	30860.88
720.275	30761.68
720.617	30749.25
720.96	30666.76
721.303	30660.66
721.646	30645.3
721.989	30462.02
722.331	30658.63
722.674	30528.69
723.016	30537.73
723.359	30279.88
723.701	30347.68
724.044	30297.96
724.386	30032.2
724.729	30237.85
725.071	30149.49
725.413	30047.35
725.755	30033.79
726.097	29911.76
726.439	29745.88
726.782	29797.18
727.124	29923.51
727.465	29746.79
727.807	29812.78
728.149	29724.87
728.491	29769.61
728.833	29617.3
729.175	29535.27
729.516	29428.15
729.858	29411.2
730.199	29420.02
730.541	29400.36
730.882	29345.9
731.224	29470.86
731.565	29224.99
731.906	29309.74
732.248	29216.18
732.589	29091.21
732.93	29050.08
733.271	29039.69
733.612	29096.86
733.953	29095.05
734.294	29024.77
734.635	28958.11
734.976	28893.93
735.317	28804.21
735.658	28745.91
735.999	28800.6
736.339	28675.4
736.68	28666.36
737.021	28604.45
737.361	28528.74
737.702	28701.39
738.042	28606.71
738.383	28376.2
738.723	28588.17
739.063	28406.71
739.404	28448.29
739.744	28415.52
740.084	28308.63
740.424	28295.75
740.764	28186.83
741.104	28190.45
741.444	28237.9
741.784	27983.22
742.124	28052.37
742.464	28032.03
742.804	28016.66
743.143	27914.75
743.483	28006.04
743.823	27826.39
744.162	27727.41
744.502	27854.86
744.841	27700.97
745.181	27898.93
745.52	27675.43
745.86	27681.98
746.199	27631.82
746.538	27553.63
746.877	27573.06
747.216	27592.72
747.556	27558.82
747.895	27437.92
748.234	27427.3
748.573	27347.08
748.911	27380.75
749.25	27207.42
749.589	27137.37
749.928	27187.99
750.267	27220.3
750.605	27143.24
750.944	27076.8
751.283	27019.63
751.621	27035.67
751.96	26758.62
752.298	26935.34
752.636	26947.09
752.975	26750.71
753.313	26650.37
753.651	26873.19
753.989	26658.28
754.327	26750.26
754.666	26473.88
755.004	26562.47
755.342	26505.74
755.679	26519.75
756.017	26261
756.355	26409.25
756.693	26325.18
757.031	26258.07
757.368	26197.73
757.706	26158.41
758.044	26092.2
758.381	26009.49
758.719	25950.28
759.056	25993.21
759.394	25807.46
759.731	25654.92
