Data from hue_240_FLMS001491_00098.txt Node
Date: Tue Feb 07 16:36:12 GMT 2017
User: dcchb
Spectrometer: FLMS00149
Trigger mode: 0
Integration Time (sec): 2.000000E-2
Scans to average: 10
Electric dark correction enabled: true
Nonlinearity correction enabled: false
Boxcar width: 0
XAxis mode: Wavelengths
Number of Pixels in Spectrum: 2048
>>>>>Begin Spectral Data<<<<<
341.393	-22.68
341.776	-22.68
342.16	-22.68
342.543	-38.05
342.927	-75.34
343.31	-87.54
343.693	-71.04
344.077	-56.35
344.46	-51.16
344.843	-64.72
345.226	-41.67
345.61	-14.1
345.993	-17.03
346.376	0.82
346.759	-7.99
347.142	32.46
347.525	47.15
347.908	64.09
348.291	61.38
348.674	85.56
349.057	120.14
349.44	122.17
349.823	143.87
350.206	183.19
350.588	178.89
350.971	199.01
351.354	199.01
351.737	222.06
352.119	251.89
352.502	254.15
352.884	285.56
353.267	255.5
353.65	309.51
354.032	297.08
354.414	304.54
354.797	312.45
355.179	302.28
355.562	309.96
355.944	313.58
356.326	315.84
356.709	333.24
357.091	333.24
357.473	349.06
357.855	326.23
358.238	345.44
358.62	317.2
359.002	343.41
359.384	336.86
359.766	329.17
360.148	329.85
360.53	326.91
360.912	335.95
361.294	336.18
361.676	325.1
362.057	323.97
362.439	326.23
362.821	314.03
363.203	320.36
363.584	314.03
363.966	315.61
364.348	298.66
364.729	306.57
365.111	323.97
365.493	328.49
365.874	315.84
366.256	285.56
366.637	308.38
367.019	319
367.4	311.09
367.781	326.01
368.163	320.81
368.544	330.53
368.925	302.96
369.306	322.39
369.688	308.83
370.069	309.29
370.45	299.12
370.831	294.37
371.212	318.1
371.593	313.35
371.974	304.77
372.355	322.62
372.736	305.22
373.117	295.05
373.498	323.97
373.879	315.61
374.26	300.92
374.641	308.38
375.021	314.03
375.402	334.14
375.783	313.58
376.163	321.94
376.544	333.69
376.925	312.9
377.305	335.95
377.686	307.25
378.066	306.57
378.447	323.3
378.827	318.1
379.208	331.88
379.588	319.91
379.968	339.79
380.349	340.47
380.729	330.53
381.109	331.43
381.489	339.34
381.87	334.14
382.25	339.12
382.63	326.01
383.01	326.23
383.39	345.22
383.77	335.27
384.15	332.11
384.53	339.79
384.91	331.88
385.29	335.73
385.67	332.79
386.049	343.41
386.429	361.26
386.809	330.53
387.189	353.13
387.568	362.17
387.948	341.6
388.328	348.15
388.707	354.48
389.087	374.14
389.466	363.3
389.846	360.58
390.225	366.23
390.605	372.56
390.984	360.58
391.363	379.57
391.743	367.82
392.122	355.16
392.501	348.61
392.881	382.96
393.26	378.21
393.639	385.22
394.018	387.25
394.397	395.84
394.776	380.02
395.155	384.31
395.534	363.75
395.913	377.53
396.292	392.67
396.671	392.9
397.05	379.34
397.429	407.81
397.808	396.29
398.186	389.96
398.565	399.45
398.944	394.93
399.323	400.13
399.701	405.33
400.08	420.7
400.458	409.62
400.837	414.82
401.215	407.14
401.594	424.54
401.972	414.59
402.351	424.76
402.729	396.97
403.107	438.77
403.486	413.92
403.864	415.95
404.242	439.68
404.62	427.47
404.999	436.51
405.377	432.22
405.755	443.29
406.133	447.36
406.511	460.47
406.889	479.9
407.267	467.47
407.645	455.5
408.023	467.02
408.401	481.94
408.779	481.03
409.156	485.55
409.534	488.72
409.912	487.36
410.29	497.53
410.667	519.9
411.045	530.3
411.422	495.72
411.8	531.2
412.178	525.78
412.555	539.79
412.933	560.58
413.31	536.85
413.687	569.84
414.065	560.58
414.442	596.74
414.819	545.89
415.197	561.03
415.574	584.31
415.951	583.63
416.328	621.37
416.705	603.97
417.082	630.86
417.46	610.75
417.837	627.92
418.214	618.88
418.591	625.44
418.967	638.32
419.344	640.58
419.721	652.33
420.098	650.97
420.475	661.82
420.852	668.82
421.228	673.12
421.605	677.86
421.982	698.65
422.358	683.97
422.735	742.95
423.111	712.44
423.488	733.23
423.864	749.73
424.241	760.57
424.617	747.01
424.994	758.31
425.37	759.67
425.746	770.97
426.123	791.98
426.499	802.15
426.875	817.97
427.251	822.27
427.627	865.66
428.003	810.29
428.379	848.03
428.756	833.11
429.132	869.95
429.507	876.05
429.883	859.55
430.259	908.59
430.635	895.48
431.011	916.73
431.387	918.76
431.763	941.59
432.138	937.07
432.514	942.26
432.89	963.05
433.265	976.84
433.641	981.81
434.016	996.27
434.392	1034.46
434.767	1078.08
435.143	1063.16
435.518	1047.8
435.894	1058.42
436.269	1088.47
436.644	1121.92
437.02	1123.73
437.395	1123.28
437.77	1159.88
438.145	1193.1
438.52	1151.07
438.895	1175.7
439.271	1217.96
439.646	1230.62
440.021	1225.42
440.395	1227.68
440.77	1232.2
441.145	1250.05
441.52	1297.28
441.895	1295.25
442.27	1313.33
442.645	1308.36
443.019	1322.59
443.394	1329.37
443.769	1366.21
444.143	1368.92
444.518	1379.09
444.892	1372.31
445.267	1390.16
445.641	1414.34
446.016	1420.67
446.39	1424.51
446.764	1438.52
447.139	1407.11
447.513	1451.85
447.887	1451.85
448.262	1452.76
448.636	1472.42
449.01	1500.89
449.384	1515.36
449.758	1522.81
450.132	1570.5
450.506	1526.88
450.88	1528.46
451.254	1543.83
451.628	1572.3
452.002	1606.88
452.376	1611.17
452.75	1618.18
453.123	1603.49
453.497	1648.01
453.871	1649.82
454.244	1676.48
454.618	1713.54
454.992	1693.43
455.365	1731.17
455.739	1741.79
456.112	1774.78
456.486	1779.08
456.859	1770.26
457.232	1848.91
457.606	1852.97
457.979	1856.14
458.352	1883.93
458.725	1897.27
459.099	1876.93
459.472	1958.06
459.845	1965.51
460.218	1981.78
460.591	1991.05
460.964	2018.85
461.337	2055
461.71	2103.81
462.083	2070.14
462.456	2083.93
462.829	2092.74
463.201	2140.42
463.574	2176.36
463.947	2194.21
464.32	2214.32
464.692	2239.18
465.065	2240.08
465.438	2283.02
465.81	2284.6
466.183	2327.31
466.555	2384.49
466.928	2394.2
467.3	2388.33
467.672	2431.26
468.045	2467.42
468.417	2485.95
468.789	2506.29
469.161	2567.31
469.534	2576.8
469.906	2599.17
470.278	2624.48
470.65	2627.42
471.022	2701.77
471.394	2764.59
471.766	2754.19
472.138	2791.25
472.51	2811.14
472.882	2888.65
473.253	2900.18
473.625	2946.05
473.997	3009.1
474.369	3026.05
474.74	3037.12
475.112	3095.88
475.484	3172.49
475.855	3214.29
476.227	3213.62
476.598	3303.56
476.97	3254.29
477.341	3397.57
477.713	3449.99
478.084	3429.43
478.455	3524.34
478.827	3521.4
479.198	3634.4
479.569	3652.93
479.94	3704.68
480.311	3812.47
480.682	3822.41
481.053	3908.97
481.424	3965.23
481.795	3995.29
482.166	4023.76
482.537	4088.85
482.908	4172.91
483.279	4217.43
483.65	4263.08
484.021	4321.38
484.391	4374.94
484.762	4395.51
485.133	4406.13
485.503	4473.7
485.874	4599.34
486.244	4609.96
486.615	4708.04
486.985	4706.91
487.356	4786.68
487.726	4894.7
488.097	4920.92
488.467	4893.12
488.837	5026
489.207	5020.57
489.578	5138.09
489.948	5134.7
490.318	5269.16
490.688	5239.55
491.058	5347.35
491.428	5368.36
491.798	5468.25
492.168	5509.83
492.538	5521.58
492.908	5573.78
493.278	5635.47
493.648	5686.55
494.017	5711.63
494.387	5749.59
494.757	5806.32
495.126	5863.49
495.496	5866.2
495.866	5841.34
496.235	5999.31
496.605	6026.88
496.974	6014.67
497.344	6091.05
497.713	6087.21
498.082	6162.01
498.452	6264.38
498.821	6214.89
499.19	6152.07
499.559	6296.25
499.928	6311.39
500.298	6289.92
500.667	6422.12
501.036	6349.58
501.405	6435.68
501.774	6403.59
502.143	6412.18
502.512	6493.3
502.88	6475.45
503.249	6547.77
503.618	6554.09
503.987	6611.72
504.356	6585.05
504.724	6652.4
505.093	6695.78
505.462	6723.58
505.83	6731.04
506.199	6795.89
506.567	6820.98
506.936	6842.22
507.304	6934.65
507.672	6859.4
508.041	6926.29
508.409	6980.75
508.777	7054.19
509.145	7050.13
509.514	7068.2
509.882	7101.42
510.25	7078.6
510.618	7086.28
510.986	7077.47
511.354	7180.97
511.722	7233.62
512.09	7225.49
512.458	7211.03
512.826	7300.97
513.193	7308.42
513.561	7300.51
513.929	7332.38
514.297	7351.13
514.664	7436.56
515.032	7350.46
515.4	7405.6
515.767	7455.76
516.135	7498.25
516.502	7476.55
516.869	7536.67
517.237	7542.09
517.604	7528.3
517.972	7616.89
518.339	7590.45
518.706	7582.31
519.073	7610.79
519.44	7653.05
519.808	7707.96
520.175	7708.19
520.542	7792.25
520.909	7829.54
521.276	7718.13
521.643	7859.82
522.009	7834.74
522.376	7819.82
522.743	7931.68
523.11	7922.19
523.477	7942.31
523.843	7941.4
524.21	8021.63
524.577	8040.16
524.943	8045.13
525.31	8123.77
525.676	8153.83
526.043	8140.27
526.409	8159.02
526.776	8187.72
527.142	8169.64
527.508	8219.81
527.874	8263.43
528.241	8275.86
528.607	8264.78
528.973	8325.8
529.339	8319.47
529.705	8374.84
530.071	8419.13
530.437	8321.73
530.803	8392.24
531.169	8453.48
531.535	8392.24
531.901	8421.84
532.267	8399.02
532.632	8513.14
532.998	8467.94
533.364	8499.8
533.73	8469.3
534.095	8486.92
534.461	8466.36
534.826	8490.31
535.192	8500.71
535.557	8504.55
535.923	8537.54
536.288	8500.26
536.653	8577.32
537.019	8492.12
537.384	8497.32
537.749	8534.38
538.114	8535.74
538.479	8545.45
538.845	8522.63
539.21	8498.9
539.575	8467.26
539.94	8494.61
540.305	8539.35
540.67	8506.81
541.034	8438.79
541.399	8505.23
541.764	8511.56
542.129	8474.95
542.494	8529.63
542.858	8517.21
543.223	8509.07
543.587	8491.9
543.952	8503.19
544.316	8489.86
544.681	8473.14
545.045	8509.52
545.41	8516.3
545.774	8483.53
546.138	8528.05
546.503	8456.64
546.867	8491.67
547.231	8506.36
547.595	8501.61
547.959	8491.67
548.324	8502.74
548.688	8472.91
549.052	8512.23
549.416	8422.29
549.779	8433.14
550.143	8489.86
550.507	8519.24
550.871	8457.55
551.235	8454.38
551.599	8468.85
551.962	8464.1
552.326	8476.98
552.689	8541.61
553.053	8407.15
553.417	8428.62
553.78	8561.72
554.143	8502.52
554.507	8493.03
554.87	8468.62
555.234	8576.64
555.597	8527.6
555.96	8517.88
556.323	8541.84
556.686	8513.14
557.05	8548.39
557.413	8559.92
557.776	8557.66
558.139	8563.31
558.502	8582.74
558.865	8563.08
559.228	8593.14
559.59	8636.07
559.953	8657.31
560.316	8720.82
560.679	8654.83
561.041	8700.48
561.404	8757.88
561.767	8792.45
562.129	8714.04
562.492	8781.15
562.854	8769.63
563.217	8729.4
563.579	8809.63
563.941	8827.93
564.304	8871.77
564.666	8903.41
565.028	8857.99
565.39	8909.29
565.753	8952
566.115	8973.01
566.477	8963.75
566.839	9003.29
567.201	8995.61
567.563	9059.34
567.925	9073.12
568.287	9047.36
568.648	9070.86
569.01	9134.14
569.372	9161.03
569.734	9115.61
570.095	9176.85
570.457	9246.23
570.819	9234.47
571.18	9287.58
571.542	9307.92
571.903	9298.43
572.265	9415.94
572.626	9367.8
572.987	9357.86
573.349	9378.43
573.71	9475.82
574.071	9465.43
574.432	9442.38
574.794	9460.01
575.155	9544.75
575.516	9519.21
575.877	9511.08
576.238	9494.81
576.599	9590.62
576.96	9499.1
577.32	9615.03
577.681	9683.05
578.042	9635.82
578.403	9675.14
578.763	9578.65
579.124	9671.3
579.485	9717.17
579.845	9707.23
580.206	9693.9
580.566	9763.27
580.927	9756.04
581.287	9777.96
581.648	9772.09
582.008	9864.74
582.368	9811.63
582.728	9868.81
583.089	9832.88
583.449	9852.09
583.809	9840.33
584.169	9916.49
584.529	9894.57
584.889	9963.95
585.249	9975.47
585.609	9878.98
585.969	9977.51
586.329	9982.25
586.688	9948.81
587.048	9967.11
587.408	9937.51
587.768	9936.83
588.127	9986.32
588.487	9958.3
588.846	10055.47
589.206	9975.47
589.565	10001.01
589.925	10046.2
590.284	10008.24
590.643	10052.76
591.003	9994.23
591.362	10024.06
591.721	10051.85
592.08	10045.53
592.44	10069.03
592.799	10004.17
593.158	10060.22
593.517	10093.21
593.876	10058.63
594.235	10117.84
594.593	10083.72
594.952	10179.31
595.311	10128.69
595.67	10080.1
596.029	10154.22
596.387	10141.34
596.746	10147.45
597.104	10113.77
597.463	10170.5
597.822	10166.88
598.18	10085.53
598.538	10113.55
598.897	10257.5
599.255	10125.98
599.613	10278.74
599.972	10229.7
600.33	10296.14
600.688	10197.16
601.046	10263.15
601.404	10229.7
601.762	10196.26
602.12	10262.24
602.478	10284.62
602.836	10339.76
603.194	10299.53
603.552	10198.74
603.91	10211.62
604.268	10260.66
604.625	10249.82
604.983	10247.33
605.341	10252.75
605.698	10328.91
606.056	10296.59
606.413	10309.02
606.771	10314.67
607.128	10293.43
607.485	10272.64
607.843	10304.73
608.2	10344.5
608.557	10386.08
608.914	10311.28
609.272	10430.15
609.629	10408.91
609.986	10465.85
610.343	10334.11
610.7	10461.11
611.057	10471.96
611.414	10437.83
611.771	10413.2
612.127	10507.89
612.484	10512.86
612.841	10492.52
613.198	10461.56
613.554	10463.14
613.911	10599.18
614.267	10509.92
614.624	10524.38
614.98	10499.3
615.337	10621.56
615.693	10532.75
616.05	10639.41
616.406	10542.69
616.762	10569.13
617.118	10600.77
617.475	10577.72
617.831	10649.8
618.187	10665.4
618.543	10556.47
618.899	10693.87
619.255	10639.64
619.611	10717.6
619.967	10711.95
620.323	10769.58
620.678	10646.41
621.034	10609.35
621.39	10690.48
621.746	10668.79
622.101	10678.28
622.457	10613.87
622.812	10644.83
623.168	10661.56
623.523	10616.59
623.879	10648.9
624.234	10632.4
624.589	10656.81
624.945	10732.29
625.3	10633.76
625.655	10660.88
626.01	10734.32
626.365	10648.45
626.72	10628.34
627.075	10646.64
627.43	10576.81
627.785	10672.4
628.14	10684.38
628.495	10697.94
628.85	10671.95
629.205	10558.06
629.559	10655.91
629.914	10553.31
630.269	10579.52
630.623	10595.12
630.978	10575.23
631.332	10692.74
631.687	10615
632.041	10594.89
632.396	10519.19
632.75	10545.17
633.104	10483.48
633.459	10470.83
633.813	10525.29
634.167	10452.07
634.521	10521.45
634.875	10455.46
635.229	10488.23
635.583	10349.93
635.937	10369.36
636.291	10472.18
636.645	10386.31
636.999	10338.17
637.352	10313.09
637.706	10314.67
638.06	10328.68
638.413	10351.28
638.767	10331.4
639.121	10294.33
639.474	10276.93
639.828	10231.51
640.181	10338.4
640.534	10281.68
640.888	10245.97
641.241	10193.32
641.594	10279.19
641.947	10235.58
642.301	10192.87
642.654	10271.28
643.007	10248.91
643.36	10174.56
643.713	10171.85
644.066	10215.24
644.419	10149.7
644.771	10056.37
645.124	10036.94
645.477	10005.98
645.83	9899.54
646.182	9893.89
646.535	9836.27
646.888	9830.84
647.24	9756.95
647.593	9865.64
647.945	9846.89
648.298	9721.24
648.65	9793.78
649.002	9722.37
649.355	9755.14
649.707	9807.79
650.059	9875.14
650.411	9906.55
650.763	9924.63
651.115	9994.23
651.467	10041.91
651.819	10020.44
652.171	9985.42
652.523	9920.56
652.875	10033.55
653.227	9919.88
653.578	9995.81
653.93	9871.29
654.282	9908.36
654.633	9965.98
654.985	9863.84
655.337	9931.63
655.688	9895.25
656.039	10003.04
656.391	9884.63
656.742	9910.16
657.094	9844.4
657.445	9919.43
657.796	9927.11
658.147	9892.76
658.498	9815.7
658.849	9950.39
659.2	9945.42
659.551	9853.44
659.902	9972.99
660.253	9907
660.604	9962.82
660.955	9883.72
661.306	9885.31
661.656	9930.28
662.007	9943.16
662.358	9786.55
662.708	9963.04
663.059	9845.53
663.409	9811.63
663.76	9919.43
664.11	9955.59
664.461	9873.33
664.811	9994.45
665.161	9944.74
665.511	9920.11
665.862	9840.79
666.212	9901.12
666.562	9936.83
666.912	9892.54
667.262	9803.05
667.612	9878.3
667.962	9854.8
668.312	9897.28
668.662	9885.76
669.011	9865.64
669.361	9870.16
669.711	9820.22
670.06	9883.05
670.41	9866.32
670.76	9858.41
671.109	9871.75
671.459	9781.8
671.808	9859.99
672.157	9836.49
672.507	9680.79
672.856	9782.48
673.205	9797.17
673.554	9801.92
673.904	9791.75
674.253	9792.88
674.602	9751.98
674.951	9584.52
675.3	9627.68
675.649	9774.12
675.998	9807.12
676.346	9676.05
676.695	9776.16
677.044	9708.81
677.393	9727.34
677.741	9755.59
678.09	9704.52
678.438	9607.8
678.787	9667.68
679.135	9698.87
679.484	9583.39
679.832	9641.47
680.181	9554.01
680.529	9629.04
680.877	9574.13
681.225	9561.92
681.573	9621.36
681.922	9543.17
682.27	9461.36
682.618	9490.74
682.966	9487.12
683.314	9453.45
683.661	9447.35
684.009	9388.82
684.357	9379.1
684.705	9359.67
685.053	9361.93
685.4	9348.37
685.748	9250.75
686.095	9351.53
686.443	9257.98
686.79	9309.5
687.138	9262.27
687.485	9206.68
687.832	9245.32
688.18	9175.95
688.527	9200.8
688.874	9160.8
689.221	9126.68
689.568	9112.9
689.915	9098.89
690.262	9033.12
690.609	9006.01
690.956	9090.3
691.303	9028.6
691.65	8903.18
691.997	8993.13
692.344	8878.55
692.69	8834.49
693.037	8839.23
693.383	8837.42
693.73	8855.05
694.077	8745.67
694.423	8789.97
694.769	8773.47
695.116	8649.18
695.462	8689.63
695.808	8638.11
696.155	8668.39
696.501	8592.01
696.847	8613.7
697.193	8496.87
697.539	8599.24
697.885	8454.61
698.231	8441.73
698.577	8469.52
698.923	8404.44
699.269	8378
699.614	8314.5
699.96	8299.13
700.306	8280.15
700.651	8248.74
700.997	8274.73
701.342	8234.73
701.688	8179.36
702.033	8189.76
702.379	8153.37
702.724	8159.7
703.069	8175.75
703.415	8064.34
703.76	8060.27
704.105	8027.95
704.45	8038.8
704.795	7956.77
705.14	8012.59
705.485	7952.47
705.83	7851.23
706.175	7931.68
706.52	7968.29
706.865	7881.97
707.209	7828.18
707.554	7826.83
707.899	7820.27
708.243	7738.47
708.588	7734.63
708.932	7678.36
709.277	7745.7
709.621	7720.62
709.966	7628.87
710.31	7665.25
710.654	7600.39
710.998	7580.05
711.342	7643.33
711.687	7546.16
712.031	7498.02
712.375	7514.52
712.719	7571.92
713.063	7563.78
713.407	7555.87
713.75	7442.66
714.094	7443.11
714.438	7398.82
714.782	7429.55
715.125	7400.62
715.469	7400.4
715.812	7413.96
716.156	7309.33
716.499	7346.39
716.843	7354.98
717.186	7298.48
717.53	7383.22
717.873	7300.29
718.216	7326.95
718.559	7301.19
718.902	7240.4
719.246	7270.46
719.589	7199.73
719.932	7204.02
720.275	7189.1
720.617	7173.51
720.96	7183.46
721.303	7225.71
721.646	7209.9
721.989	7155.43
722.331	7184.59
722.674	7176
723.016	7123.34
723.359	7116.56
723.701	7176.9
724.044	7149.11
724.386	7077.7
724.729	7168.31
725.071	7062.78
725.413	7078.83
725.755	7063.91
726.097	7049.67
726.439	7019.39
726.782	7030.92
727.124	7067.75
727.465	7040.63
727.807	7038.6
728.149	6979.84
728.491	6994.53
728.833	6987.53
729.175	6944.37
729.516	6995.66
729.858	6988.43
730.199	6942.78
730.541	6957.25
730.882	7013.97
731.224	6949.56
731.565	6922.45
731.906	6920.19
732.248	6931.94
732.589	6943.24
732.93	6892.39
733.271	6904.82
733.612	6920.64
733.953	6949.79
734.294	6865.05
734.635	6933.74
734.976	6876.34
735.317	6889
735.658	6910.02
735.999	6959.96
736.339	6960.41
736.68	6941.65
737.021	6923.12
737.361	6870.92
737.702	6958.38
738.042	6915.67
738.383	6883.35
738.723	6935.1
739.063	6878.15
739.404	6901.88
739.744	6924.25
740.084	6898.94
740.424	6956.57
740.764	6897.14
741.104	6949.11
741.444	6894.88
741.784	6896.68
742.124	6912.05
742.464	6963.35
742.804	6890.36
743.143	6940.75
743.483	6956.79
743.823	7003.35
744.162	6973.97
744.502	7009.45
744.841	6995.66
745.181	7019.62
745.52	7020.3
745.86	7022.56
746.199	7069.56
746.538	7062.55
746.877	7123.57
747.216	7152.04
747.556	7132.16
747.895	7201.31
748.234	7196.34
748.573	7188.65
748.911	7252.15
749.25	7312.49
749.589	7288.09
749.928	7366.05
750.267	7392.04
750.605	7459.61
750.944	7439.72
751.283	7558.81
751.621	7521.98
751.96	7621.86
752.298	7626.61
752.636	7728.75
752.975	7765.36
753.313	7791.35
753.651	7900.27
753.989	7897.56
754.327	8077.44
754.666	8049.87
755.004	8092.13
755.342	8161.28
755.679	8292.8
756.017	8364.67
756.355	8397.89
756.693	8469.98
757.031	8558.11
757.368	8610.54
757.706	8672.46
758.044	8746.8
758.381	8892.56
758.719	8859.57
759.056	9014.59
759.394	9154.7
759.731	9185.89
760.068	9307.69
760.405	9316.73
760.743	9398.09
761.08	9461.81
761.417	9556.27
761.754	9643.73
762.091	9778.87
762.428	9874.46
762.765	9897.51
763.102	10069.71
763.438	10069.93
763.775	10170.5
764.112	10269.7
764.449	10376.82
764.785	10468.79
765.122	10568.45
765.458	10563.25
765.795	10636.7
766.131	10642.12
