Data from hue_310_FLMS001491_77.txt Node
Date: Mon Feb 06 15:50:09 GMT 2017
User: dcchb
Spectrometer: FLMS00149
Trigger mode: 0
Integration Time (sec): 2.000000E-2
Scans to average: 10
Electric dark correction enabled: true
Nonlinearity correction enabled: false
Boxcar width: 0
XAxis mode: Wavelengths
Number of Pixels in Spectrum: 2048
>>>>>Begin Spectral Data<<<<<
341.393	-30
341.776	-30
342.16	-30
342.543	-53.95
342.927	-65.25
343.31	-70
343.693	-73.84
344.077	-59.6
344.46	-62.99
344.843	-37.68
345.226	-35.87
345.61	-36.55
345.993	-21.86
346.376	-13.05
346.759	7.29
347.142	17.91
347.525	58.81
347.908	42.99
348.291	74.86
348.674	94.97
349.057	114.63
349.44	121.86
349.823	160.96
350.206	162.31
350.588	212.71
350.971	206.83
351.354	221.52
351.737	252.48
352.119	278.24
352.502	265.81
352.884	273.04
353.267	283.21
353.65	285.7
354.032	294.74
354.414	317.11
354.797	306.04
355.179	309.43
355.562	319.37
355.944	325.7
356.326	365.02
356.709	370.89
357.091	356.88
357.473	315.08
357.855	341.52
358.238	366.83
358.62	330.9
359.002	348.3
359.384	339.48
359.766	334.28
360.148	343.32
360.53	334.28
360.912	336.09
361.294	344
361.676	319.37
362.057	338.35
362.439	341.52
362.821	336.09
363.203	342.87
363.584	331.8
363.966	326.15
364.348	323.66
364.729	329.31
365.111	321.63
365.493	311.69
365.874	334.96
366.256	322.99
366.637	313.49
367.019	323.44
367.4	285.92
367.781	326.38
368.163	325.92
368.544	326.15
368.925	325.02
369.306	322.99
369.688	315.98
370.069	301.74
370.45	312.14
370.831	324.57
371.212	313.95
371.593	326.15
371.974	320.5
372.355	327.05
372.736	298.35
373.117	339.93
373.498	315.3
373.879	309.65
374.26	315.98
374.641	323.44
375.021	315.75
375.402	325.02
375.783	322.53
376.163	332.25
376.544	319.6
376.925	336.54
377.305	337.45
377.686	337.67
378.066	337.22
378.447	333.16
378.827	349.65
379.208	360.95
379.588	327.51
379.968	344.23
380.349	344.23
380.729	369.54
381.109	336.77
381.489	343.32
381.87	341.06
382.25	331.12
382.63	335.64
383.01	349.2
383.39	329.09
383.77	348.3
384.15	346.49
384.53	341.29
384.91	355.08
385.29	339.71
385.67	378.35
386.049	363.21
386.429	346.71
386.809	365.7
387.189	367.5
387.568	365.24
387.948	343.55
388.328	350.1
388.707	365.47
389.087	387.62
389.466	352.14
389.846	379.48
390.225	363.21
390.605	391.01
390.984	369.54
391.363	367.28
391.743	364.79
392.122	379.93
392.501	384.91
392.881	377.67
393.26	385.81
393.639	370.89
394.018	392.59
394.397	392.59
394.776	380.16
395.155	400.27
395.534	385.58
395.913	378.13
396.292	409.76
396.671	381.52
397.05	398.24
397.429	392.81
397.808	395.53
398.186	404.79
398.565	412.02
398.944	422.87
399.323	431.46
399.701	426.49
400.08	412.93
400.458	420.61
400.837	450.89
401.215	423.55
401.594	404.34
401.972	406.6
402.351	427.39
402.729	425.13
403.107	414.51
403.486	436.43
403.864	441.17
404.242	432.14
404.62	448.18
404.999	449.99
405.377	456.09
405.755	458.35
406.133	468.97
406.511	477.33
406.889	475.98
407.267	473.72
407.645	479.82
408.023	472.59
408.401	478.01
408.779	492.47
409.156	487.95
409.534	508.52
409.912	492.92
410.29	502.87
410.667	503.55
411.045	521.4
411.422	532.92
411.8	533.6
412.178	536.09
412.555	554.84
412.933	555.75
413.31	553.71
413.687	580.61
414.065	565.47
414.442	584.22
414.819	578.35
415.197	601.4
415.574	613.37
415.951	641.4
416.328	628.29
416.705	627.38
417.082	639.36
417.46	638.01
417.837	666.71
418.214	647.95
418.591	671.45
418.967	659.7
419.344	679.59
419.721	721.85
420.098	689.3
420.475	697.89
420.852	715.97
421.228	713.03
421.605	731.11
421.982	739.25
422.358	721.85
422.735	733.14
423.111	752.81
423.488	770.66
423.864	766.59
424.241	787.83
424.617	777.89
424.994	793.93
425.37	813.59
425.746	802.3
426.123	827.83
426.499	810.66
426.875	827.38
427.251	854.27
427.627	872.58
428.003	849.75
428.379	884.1
428.756	903.99
429.132	890.2
429.507	914.83
429.883	909.41
430.259	932.46
430.635	927.94
431.011	943.31
431.387	994.15
431.763	969.3
432.138	989.18
432.514	1006.13
432.89	1001.39
433.265	1013.36
433.641	1048.84
434.016	1027.15
434.392	1058.33
434.767	1068.95
435.143	1076.64
435.518	1083.87
435.894	1080.03
436.269	1101.5
436.644	1109.86
437.02	1121.83
437.395	1144.43
437.77	1149.18
438.145	1144.66
438.52	1191.89
438.895	1212.45
439.271	1166.81
439.646	1210.42
440.021	1214.49
440.395	1215.39
440.77	1206.8
441.145	1223.75
441.52	1214.49
441.895	1249.29
442.27	1273.02
442.645	1253.81
443.019	1256.52
443.394	1271.44
443.769	1292.68
444.143	1291.77
444.518	1312.34
444.892	1291.77
445.267	1291.77
445.641	1306.01
446.016	1319.57
446.39	1316.63
446.764	1306.46
447.139	1326.35
447.513	1343.52
447.887	1327.71
448.262	1360.02
448.636	1345.56
449.01	1363.86
449.384	1355.5
449.758	1366.12
450.132	1381.04
450.506	1367.48
450.88	1390.08
451.254	1391.43
451.628	1424.65
452.002	1395.95
452.376	1405.44
452.75	1429.17
453.123	1429.4
453.497	1447.48
453.871	1437.08
454.244	1459.91
454.618	1470.07
454.992	1476.85
455.365	1482.73
455.739	1539.45
456.112	1528.38
456.486	1508.27
456.859	1525.44
457.232	1573.57
457.606	1540.13
457.979	1549.85
458.352	1583.97
458.725	1604.53
459.099	1619.67
459.472	1638.21
459.845	1629.84
460.218	1624.19
460.591	1644.98
460.964	1634.59
461.337	1678.88
461.71	1674.81
462.083	1750.07
462.456	1718.88
462.829	1720.01
463.201	1746.23
463.574	1749.62
463.947	1784.42
464.32	1809.5
464.692	1826.45
465.065	1804.08
465.438	1818.54
465.81	1871.19
466.183	1865.09
466.555	1892.66
466.928	1873.45
467.3	1902.83
467.672	1917.97
468.045	1969.04
468.417	1947.35
468.789	1956.39
469.161	1972.43
469.534	1992.55
469.906	1999.33
470.278	2020.34
470.65	2055.14
471.022	2099.66
471.394	2103.96
471.766	2089.27
472.138	2176.27
472.51	2167.46
472.882	2180.56
473.253	2211.98
473.625	2228.02
473.997	2296.27
474.369	2242.03
474.74	2235.7
475.112	2317.06
475.484	2342.59
475.855	2350.5
476.227	2385.53
476.598	2423.95
476.97	2445.87
477.341	2468.24
477.713	2503.27
478.084	2510.05
478.455	2585.07
478.827	2588.01
479.198	2625.75
479.569	2644.73
479.94	2663.04
480.311	2665.3
480.682	2790.04
481.053	2788.46
481.424	2804.73
481.795	2797.5
482.166	2868
482.537	2880.43
482.908	2947.1
483.279	2948.91
483.65	2992.07
484.021	3059.64
484.391	3030.49
484.762	3079.52
485.133	3064.61
485.503	3082.69
485.874	3159.3
486.244	3176.7
486.615	3218.5
486.985	3246.98
487.356	3300.08
487.726	3328.56
488.097	3337.6
488.467	3370.36
488.837	3430.47
489.207	3478.38
489.578	3485.61
489.948	3519.96
490.318	3561.32
490.688	3505.5
491.058	3617.81
491.428	3639.06
491.798	3652.62
492.168	3757.92
492.538	3767.19
492.908	3760.41
493.278	3782.33
493.648	3801.99
494.017	3837.7
494.387	3877.24
494.757	3881.08
495.126	3916.11
495.496	3908.43
495.866	3911.37
496.235	3960.63
496.605	3999.05
496.974	3995.88
497.344	4020.74
497.713	4052.61
498.082	4092.83
498.452	4149.1
498.821	4079.72
499.19	4155.43
499.559	4180.06
499.928	4194.3
500.298	4200.4
500.667	4246.27
501.036	4270.68
501.405	4235.2
501.774	4250.11
502.143	4311.13
502.512	4327.4
502.88	4354.07
503.249	4313.16
503.618	4359.94
503.987	4366.27
504.356	4383.22
504.724	4394.52
505.093	4379.38
505.462	4424.12
505.83	4437.45
506.199	4461.86
506.567	4512.25
506.936	4521.75
507.304	4561.74
507.672	4524.23
508.041	4558.13
508.409	4569.43
508.777	4618.24
509.145	4631.12
509.514	4570.56
509.882	4645.81
510.25	4681.97
510.618	4722.42
510.986	4698.92
511.354	4741.63
511.722	4732.81
512.09	4787.05
512.458	4792.92
512.826	4791.79
513.193	4857.1
513.561	4829.31
513.929	4808.29
514.297	4848.29
514.664	4902.75
515.032	4893.49
515.4	4912.7
515.767	4921.06
516.135	4896.65
516.502	4902.75
516.869	4990.43
517.237	4983.43
517.604	4962.64
517.972	5051.45
518.339	5050.77
518.706	5019.36
519.073	5046.25
519.44	5054.16
519.808	5124.67
520.175	5052.35
520.542	5188.17
520.909	5181.84
521.276	5126.48
521.643	5204.44
522.009	5199.92
522.376	5224.78
522.743	5254.61
523.11	5318.33
523.477	5336.41
523.843	5338.67
524.21	5330.76
524.577	5393.59
524.943	5439.01
525.31	5422.51
525.676	5422.74
526.043	5449.63
526.409	5502.06
526.776	5548.39
527.142	5577.76
527.508	5599.46
527.874	5647.59
528.241	5693.92
528.607	5662.73
528.973	5688.95
529.339	5718.55
529.705	5779.57
530.071	5843.29
530.437	5824.08
530.803	5850.98
531.169	5850.07
531.535	5857.3
531.901	5890.75
532.267	5920.8
532.632	5919.9
532.998	5958.09
533.364	5988.37
533.73	6059.56
534.095	6087.13
534.461	6068.37
534.826	6127.13
535.192	6145.88
535.557	6203.74
535.923	6135.04
536.288	6225.66
536.653	6244.64
537.019	6177.52
537.384	6293.68
537.749	6277.41
538.114	6329.83
538.479	6309.04
538.845	6368.48
539.21	6368.48
539.575	6404.86
539.94	6432.66
540.305	6449.15
540.67	6463.62
541.034	6481.02
541.399	6554.91
541.764	6525.76
542.129	6540.9
542.494	6640.56
542.858	6674.68
543.223	6637.4
543.587	6681.01
543.952	6649.37
544.316	6700.9
544.681	6769.14
545.045	6742.7
545.41	6810.72
545.774	6841.01
546.138	6877.39
546.503	6892.3
546.867	6915.58
547.231	6949.48
547.595	7014.79
547.959	7021.57
548.324	7045.75
548.688	7039.19
549.052	7055.92
549.416	7079.87
549.779	7123.94
550.143	7137.95
550.507	7147.89
550.871	7182.69
551.235	7183.14
551.599	7278.96
551.962	7303.14
552.326	7248.68
552.689	7285.97
553.053	7284.38
553.417	7300.88
553.78	7428.34
554.143	7381.78
554.507	7448.45
554.87	7409.81
555.234	7453.42
555.597	7457.71
555.96	7573.19
556.323	7562.57
556.686	7578.84
557.05	7605.05
557.413	7623.36
557.776	7662.68
558.139	7670.82
558.502	7704.26
558.865	7645.28
559.228	7694.54
559.59	7814.31
559.953	7759.4
560.316	7824.26
560.679	7769.8
561.041	7916.23
561.404	7953.75
561.767	7973.41
562.129	7878.72
562.492	8051.37
562.854	7986.51
563.217	7983.58
563.579	8066.74
563.941	8079.39
564.304	8063.12
564.666	8104.48
565.028	8186.51
565.39	8223.57
565.753	8250.69
566.115	8308.09
566.477	8278.03
566.839	8302.21
567.201	8354.64
567.563	8367.75
567.925	8373.62
568.287	8365.71
568.648	8454.98
569.01	8523.9
569.372	8504.24
569.734	8521.87
570.095	8563.22
570.457	8620.62
570.819	8681.64
571.18	8656.78
571.542	8729.09
571.903	8734.74
572.265	8730
572.626	8846.83
572.987	8877.79
573.349	8964.11
573.71	8965.24
574.071	9025.13
574.432	9071
574.794	9191
575.155	9218.12
575.516	9302.41
575.877	9265.58
576.238	9413.14
576.599	9545.34
576.96	9541.95
577.32	9621.05
577.681	9664.66
578.042	9788.05
578.403	9831.21
578.763	9929.74
579.124	9983.3
579.485	10081.83
579.845	10237.98
580.206	10351.2
580.566	10417.86
580.927	10574.69
581.287	10705.54
581.648	10741.24
582.008	10957.28
582.368	11123.38
582.728	11256.71
583.089	11325.18
583.449	11572.41
583.809	11747.32
584.169	11915.68
584.529	12048.55
584.889	12286.74
585.249	12500.74
585.609	12629.1
585.969	12850.79
586.329	13077.9
586.688	13284.68
587.048	13624.33
587.408	13640.38
587.768	13953.36
588.127	14145.45
588.487	14372.56
588.846	14807.12
589.206	14811.19
589.565	15116.5
589.925	15431.52
590.284	15661.57
590.643	15988.34
591.003	16269.23
591.362	16574.99
591.721	16810.91
592.08	17167.97
592.44	17463.55
592.799	17742.87
593.158	17989.64
593.517	18312.8
593.876	18614.93
594.235	18855.38
594.593	19219.89
594.952	19529.94
595.311	19744.17
595.67	20188
596.029	20477.94
596.387	20750.47
596.746	21096.22
597.104	21301.42
597.463	21578.47
597.822	22010.33
598.18	22173.94
598.538	22473.36
598.897	22851.43
599.255	22942.96
599.613	23711.75
599.972	23793.33
600.33	24130.27
600.688	24387.89
601.046	24689.35
601.404	25007.08
601.762	25349.45
602.12	25640.06
602.478	25993.27
602.836	26153.49
603.194	26339.7
603.552	26640.49
603.91	26904.66
604.268	27191.21
604.625	27386.91
604.983	27678.2
605.341	27845.43
605.698	28169.26
606.056	28593.2
606.413	28616.93
606.771	28986.19
607.128	29350.25
607.485	29526.74
607.843	29649.67
608.2	30013.05
608.557	30272.03
608.914	30379.37
609.272	30622.3
609.629	31009.41
609.986	31308.61
610.343	31363.53
610.7	31671.31
611.057	31845.32
611.414	32108.36
611.771	32295.03
612.127	32461.8
612.484	32708.35
612.841	32967.78
613.198	33078.51
613.554	33112.18
613.911	33544.94
614.267	33645.05
614.624	33842.33
614.98	34030.12
615.337	34302.66
615.693	34417.91
616.05	34603.89
616.406	34858.12
616.762	34883.66
617.118	34985.58
617.475	35134.5
617.831	35347.15
618.187	35466.02
618.543	35618.1
618.899	35936.29
619.255	35942.84
619.611	36069.84
619.967	36304.41
620.323	36511.19
620.678	36474.13
621.034	36404.97
621.39	36458.76
621.746	36670.5
622.101	37134
622.457	36906.66
622.812	37094.22
623.168	37279.75
623.523	37398.4
623.879	37531.27
624.234	37442.01
624.589	37521.33
624.945	37867.54
625.3	37892.85
625.655	37871.6
626.01	37952.73
626.365	38009.23
626.72	38070.02
627.075	38070.24
627.43	38230.01
627.785	38102.11
628.14	38337.13
628.495	38428.42
628.85	38348.88
629.205	38485.6
629.559	38626.39
629.914	38470.23
630.269	38600.85
630.623	38583.9
630.978	38512.49
631.332	38679.04
631.687	38836.32
632.041	38791.13
632.396	38778.47
632.75	38739.6
633.104	38842.43
633.459	38725.14
633.813	38762.88
634.167	38659.38
634.521	38851.24
634.875	38951.12
635.229	38838.36
635.583	38687.17
635.937	38785.03
636.291	38762.2
636.645	38835.42
636.999	38904.8
637.352	38902.76
637.706	38615.54
638.06	38856.66
638.413	38813.73
638.767	38744.35
639.121	38964.23
639.474	38765.59
639.828	38738.47
640.181	38814.18
640.534	38860.73
640.888	38685.59
641.241	38484.24
641.594	38835.19
641.947	38833.16
642.301	38821.86
642.654	38728.08
643.007	38863.44
643.36	38849.43
643.713	38643.56
644.066	38821.63
644.419	38598.14
644.771	38357.69
645.124	38143.01
645.477	37930.81
645.83	37679.07
646.182	37712.29
646.535	37618.28
646.888	37742.11
647.24	37384.84
647.593	37662.12
647.945	37700.99
648.298	37439.52
648.65	37423.93
649.002	37250.38
649.355	37434.1
649.707	37398.4
650.059	37568.11
650.411	38079.73
650.763	38136.23
651.115	38368.54
651.467	38258.26
651.819	38372.83
652.171	38266.39
652.523	38122.44
652.875	38317.69
653.227	38125.61
653.578	38390.91
653.93	38298.94
654.282	37981.43
654.633	37918.61
654.985	38070.92
655.337	38161.99
655.688	38094.2
656.039	38153.4
656.391	37978.94
656.742	37935.1
657.094	38086.96
657.445	38121.09
657.796	37997.02
658.147	38034.31
658.498	37905.95
658.849	38033.18
659.2	37912.51
659.551	37784.37
659.902	37839.74
660.253	37892.85
660.604	38022.79
660.955	37867.08
661.306	37846.07
661.656	37795.67
662.007	37884.03
662.358	37885.39
662.708	37909.57
663.059	37858.95
663.409	37749.12
663.76	37973.75
664.11	37842.9
664.461	37956.8
664.811	37849.68
665.161	37937.59
665.511	37734.88
665.862	37660.08
666.212	37895.78
666.562	38003.8
666.912	37749.57
667.262	37734.43
667.612	37801.32
667.962	37867.99
668.312	37818.27
668.662	37927.19
669.011	37694.43
669.361	37842.68
669.711	37597.71
670.06	37658.05
670.41	37792.74
670.76	37594.1
671.109	37725.17
671.459	37547.32
671.808	37571.05
672.157	37683.13
672.507	37457.15
672.856	37512.74
673.205	37595.23
673.554	37591.38
673.904	37609.92
674.253	37680.65
674.602	37558.62
674.951	37057.39
675.3	36870.73
675.649	37507.54
675.998	37397.94
676.346	37450.37
676.695	37534.66
677.044	37264.39
677.393	37396.81
677.741	37376.25
678.09	37225.29
678.438	37227.78
678.787	37461.67
679.135	37193.88
679.484	37077.73
679.832	37213.32
680.181	36948.24
680.529	37100.78
680.877	37061.23
681.225	37009.93
681.573	37107.1
681.922	36870.27
682.27	36828.01
682.618	36799.54
682.966	36636.61
683.314	36732.42
683.661	36705.08
684.009	36475.48
684.357	36444.97
684.705	36291.08
685.053	36458.31
685.4	36287.92
685.748	36221.03
686.095	36381.7
686.443	36027.81
686.79	36203.4
687.138	36097.41
687.485	36262.61
687.832	36014.48
688.18	36048.15
688.527	35866.68
688.874	35792.56
689.221	35764.31
689.568	35587.37
689.915	35633.92
690.262	35505.11
690.609	35484.1
690.956	35389.41
691.303	35297.43
691.65	35156.19
691.997	35228.28
692.344	34912.81
692.69	35034.39
693.037	34943.32
693.383	34569.77
693.73	34958.69
694.077	34587.62
694.423	34646.6
694.769	34465.82
695.116	34471.01
695.462	34343.33
695.808	34312.6
696.155	34257.91
696.501	34093.4
696.847	34043.68
697.193	33899.5
697.539	33862.44
697.885	33765.04
698.231	33699.51
698.577	33658.15
698.923	33578.83
699.269	33403.47
699.614	33278.73
699.96	33207.54
700.306	33258.84
700.651	33159.86
700.997	33106.3
701.342	33006.65
701.688	32985.63
702.033	32880.77
702.379	32804.17
702.724	32801.68
703.069	32757.39
703.415	32502.03
703.76	32442.59
704.105	32412.54
704.45	32343.84
704.795	32147.69
705.14	32128.25
705.485	32026.33
705.83	31908.37
706.175	32067.69
706.52	31780.24
706.865	31703.4
707.209	31709.51
707.554	31647.13
707.899	31701.14
708.243	31459.79
708.588	31562.39
708.932	31388.38
709.277	31294.6
709.621	31313.81
709.966	31109.07
710.31	31205.79
710.654	30965.34
710.998	30889.19
711.342	31002.63
711.687	30857.32
712.031	30673.83
712.375	30611.23
712.719	30699.14
713.063	30571
713.407	30613.04
713.75	30410.33
714.094	30526.71
714.438	30347.73
714.782	30426.38
715.125	30165.59
715.469	30254.85
715.812	29945.03
716.156	29982.54
716.499	30012.15
716.843	29978.03
717.186	29799.72
717.53	29927.63
717.873	29789.1
718.216	29771.7
718.559	29719.05
718.902	29501.65
719.246	29487.87
719.589	29559.51
719.932	29316.57
720.275	29381.66
720.617	29386.4
720.96	29270.47
721.303	29242.45
721.646	29231.6
721.989	29135.79
722.331	29164.94
722.674	29065.28
723.016	29090.37
723.359	29054.89
723.701	29023.7
724.044	28859.18
724.386	28792.75
724.729	28970.14
725.071	28760.2
725.413	28720.43
725.755	28588.01
726.097	28510.95
726.439	28430.27
726.782	28483.6
727.124	28688.79
727.465	28338.29
727.807	28353.44
728.149	28305.53
728.491	28313.21
728.833	28397.28
729.175	28270.05
729.516	28175.36
729.858	28111.41
730.199	28122.03
730.541	28054.91
730.882	28053.56
731.224	28075.02
731.565	27858.31
731.906	27944.41
732.248	27839.32
732.589	27777.18
732.93	27665.54
733.271	27640.01
733.612	27726.33
733.953	27751.87
734.294	27617.18
734.635	27608.37
734.976	27442.05
735.317	27442.72
735.658	27377.19
735.999	27496.28
736.339	27410.18
736.68	27369.73
737.021	27246.57
737.361	27196.63
737.702	27297.87
738.042	27101.26
738.383	27145.78
738.723	27152.11
739.063	26974.49
739.404	27089.97
739.744	26967.03
740.084	26895.17
740.424	26922.96
740.764	26835.28
741.104	26880.25
741.444	26682.07
741.784	26724.78
742.124	26846.58
742.464	26706.7
742.804	26631.45
743.143	26572.01
743.483	26488.63
743.823	26426.25
744.162	26538.57
744.502	26542.18
744.841	26359.59
745.181	26383.77
745.52	26403.43
745.86	26404.79
746.199	26387.16
746.538	26177.45
746.877	26304.45
747.216	26299.48
747.556	26204.11
747.895	26172.48
748.234	26018.81
748.573	25919.6
748.911	25879.83
749.25	25874.63
749.589	25855.2
749.928	25720.06
750.267	25787.85
750.605	25745.82
750.944	25808.19
751.283	25597.35
751.621	25527.75
751.96	25493.62
752.298	25537.92
752.636	25461.08
752.975	25348.77
753.313	25245.27
753.651	25294.76
753.989	25238.94
754.327	25191.94
754.666	24956.01
755.004	25093.41
755.342	25104.71
755.679	25041.43
756.017	24944.03
756.355	24933.19
756.693	24761.21
757.031	24829.23
757.368	24649.35
757.706	24639.18
758.044	24488.68
758.381	24535.23
758.719	24427.89
759.056	24564.83
759.394	24381.11
