Data from hue_24_FLMS001491_00014.txt Node
Date: Tue Feb 07 17:11:51 GMT 2017
User: dcchb
Spectrometer: FLMS00149
Trigger mode: 0
Integration Time (sec): 2.000000E-2
Scans to average: 10
Electric dark correction enabled: true
Nonlinearity correction enabled: false
Boxcar width: 0
XAxis mode: Wavelengths
Number of Pixels in Spectrum: 2048
>>>>>Begin Spectral Data<<<<<
341.393	-21.54
341.776	-21.54
342.16	-21.54
342.543	-70.13
342.927	-57.47
343.31	-44.14
343.693	-95.21
344.077	-67.64
344.46	-50.46
344.843	-55.66
345.226	-47.3
345.61	-20.18
345.993	-30.35
346.376	9.19
346.759	5.8
347.142	33.6
347.525	44.22
347.908	56.88
348.291	51.91
348.674	87.61
349.057	121.73
349.44	127.16
349.823	160.38
350.206	149.98
350.588	183.43
350.971	231.34
351.354	239.02
351.737	238.57
352.119	246.25
352.502	257.1
352.884	278.57
353.267	274.27
353.65	281.73
354.032	302.52
354.414	321.95
354.797	316.98
355.179	305.46
355.562	337.1
355.944	318.57
356.326	314.27
356.709	333.48
357.091	345.91
357.473	334.38
357.855	356.53
358.238	332.35
358.62	338.45
359.002	315.4
359.384	333.71
359.766	328.73
360.148	340.49
360.53	320.6
360.912	354.5
361.294	337.55
361.676	325.57
362.057	329.86
362.439	351.33
362.821	342.07
363.203	328.28
363.584	325.8
363.966	327.6
364.348	320.82
364.729	358.34
365.111	322.86
365.493	327.6
365.874	335.74
366.256	326.93
366.637	298.9
367.019	307.94
367.4	311.11
367.781	311.56
368.163	328.06
368.544	304.1
368.925	312.01
369.306	332.35
369.688	306.81
370.069	297.1
370.45	317.66
370.831	328.06
371.212	306.36
371.593	312.69
371.974	345.23
372.355	326.93
372.736	310.88
373.117	322.41
373.498	321.73
373.879	330.54
374.26	323.31
374.641	308.4
375.021	312.69
375.402	319.47
375.783	320.15
376.163	341.39
376.544	321.28
376.925	333.03
377.305	340.03
377.686	340.71
378.066	331.9
378.447	337.77
378.827	316.31
379.208	353.59
379.588	340.26
379.968	343.65
380.349	341.39
380.729	342.97
381.109	330.09
381.489	309.98
381.87	350.2
382.25	331.22
382.63	349.07
383.01	335.29
383.39	353.37
383.77	345.23
384.15	354.04
384.53	356.08
384.91	366.25
385.29	354.27
385.67	360.37
386.049	361.73
386.429	346.59
386.809	363.54
387.189	377.09
387.568	349.52
387.948	359.24
388.328	351.56
388.707	370.77
389.087	377.55
389.466	371.67
389.846	378.22
390.225	367.6
390.605	380.48
390.984	376.87
391.363	362.63
391.743	383.42
392.122	369.19
392.501	397.66
392.881	395.63
393.26	387.72
393.639	384.55
394.018	378.68
394.397	406.02
394.776	390.2
395.155	408.73
395.534	381.16
395.913	389.52
396.292	402.63
396.671	405.34
397.05	403.31
397.429	398.11
397.808	412.57
398.186	415.74
398.565	418.68
398.944	413.48
399.323	430.88
399.701	394.27
400.08	385.91
400.458	406.92
400.837	437.43
401.215	434.95
401.594	405.12
401.972	433.59
402.351	429.3
402.729	436.08
403.107	434.72
403.486	437.43
403.864	438.56
404.242	418.45
404.62	432.01
404.999	429.75
405.377	452.8
405.755	436.75
406.133	432.23
406.511	450.99
406.889	450.99
407.267	444.44
407.645	455.96
408.023	452.57
408.401	463.87
408.779	449.86
409.156	459.58
409.534	467.71
409.912	488.28
410.29	465.45
410.667	487.6
411.045	478.11
411.422	479.01
411.8	472.01
412.178	485.79
412.555	480.59
412.933	496.41
413.31	502.97
413.687	508.62
414.065	512.01
414.442	519.24
414.819	527.6
415.197	507.49
415.574	524.89
415.951	517.66
416.328	527.37
416.705	520.82
417.082	517.88
417.46	507.94
417.837	521.95
418.214	546.58
418.591	542.51
418.967	558.78
419.344	530.99
419.721	548.84
420.098	548.16
420.475	559.69
420.852	560.37
421.228	582.29
421.605	558.33
421.982	568.28
422.358	555.4
422.735	593.59
423.111	591.33
423.488	594.49
423.864	591.1
424.241	582.74
424.617	596.3
424.994	592.68
425.37	589.29
425.746	586.35
426.123	625.9
426.499	612.79
426.875	629.07
427.251	635.84
427.627	621.83
428.003	629.29
428.379	639.91
428.756	635.84
429.132	635.39
429.507	664.32
429.883	661.38
430.259	666.13
430.635	668.39
431.011	673.13
431.387	689.85
431.763	697.31
432.138	713.58
432.514	699.35
432.89	700.25
433.265	718.55
433.641	709.97
434.016	736.86
434.392	705.9
434.767	741.38
435.143	736.63
435.518	735.96
435.894	730.08
436.269	752.45
436.644	768.95
437.02	787.93
437.395	770.98
437.77	776.18
438.145	804.88
438.52	787.03
438.895	805.11
439.271	806.46
439.646	826.57
440.021	799.23
440.395	822.96
440.77	824.09
441.145	843.3
441.52	853.01
441.895	853.24
442.27	869.29
442.645	854.37
443.019	879
443.394	874.48
443.769	875.84
444.143	870.64
444.518	864.77
444.892	880.13
445.267	893.24
445.641	884.2
446.016	918.1
446.39	912.45
446.764	915.16
447.139	916.29
447.513	910.64
447.887	930.98
448.262	932.11
448.636	936.4
449.01	949.96
449.384	938.21
449.758	964.42
450.132	953.58
450.506	960.81
450.88	976.4
451.254	983.63
451.628	999.23
452.002	1013.69
452.376	998.32
452.75	998.77
453.123	1019.56
453.497	1035.61
453.871	1031.99
454.244	1047.36
454.618	1056.62
454.992	1067.92
455.365	1057.75
455.739	1090.75
456.112	1111.09
456.486	1107.92
456.859	1109.28
457.232	1123.29
457.606	1150.63
457.979	1142.27
458.352	1203.29
458.725	1178.43
459.099	1214.36
459.472	1227.47
459.845	1219.11
460.218	1249.16
460.591	1250.97
460.964	1243.51
461.337	1286.9
461.71	1307.47
462.083	1341.82
462.456	1336.84
462.829	1312.44
463.201	1330.06
463.574	1354.24
463.947	1356.73
464.32	1396.95
464.692	1394.02
465.065	1423.85
465.438	1414.81
465.81	1431.76
466.183	1477.63
466.555	1478.53
466.928	1487.35
467.3	1510.4
467.672	1544.3
468.045	1543.17
468.417	1543.62
468.789	1591.07
469.161	1592.88
469.534	1618.87
469.906	1651.19
470.278	1688.92
470.65	1665.42
471.022	1722.6
471.394	1736.15
471.766	1777.06
472.138	1792.2
472.51	1812.99
472.882	1887.11
473.253	1868.35
473.625	1907.22
473.997	1937.05
474.369	1961.69
474.74	2001.46
475.112	2034.9
475.484	2059.99
475.855	2104.28
476.227	2116.94
476.598	2184.73
476.97	2205.07
477.341	2264.5
477.713	2249.36
478.084	2292.52
478.455	2344.73
478.827	2393.31
479.198	2447.1
479.569	2499.3
479.94	2504.95
480.311	2571.84
480.682	2637.83
481.053	2710.37
481.424	2760.53
481.795	2766.86
482.166	2848.67
482.537	2902
482.908	2931.38
483.279	2980.19
483.65	3036.23
484.021	3116.23
484.391	3171.82
484.762	3185.16
485.133	3231.26
485.503	3301.09
485.874	3379.05
486.244	3377.02
486.615	3486.84
486.985	3507.63
487.356	3581.53
487.726	3632.6
488.097	3717.57
488.467	3710.34
488.837	3780.62
489.207	3840.73
489.578	3925.25
489.948	3989.88
490.318	4082.31
490.688	4053.38
491.058	4108.07
491.428	4171.8
491.798	4211.12
492.168	4344.9
492.538	4324.56
492.908	4369.53
493.278	4423.32
493.648	4459.25
494.017	4547.83
494.387	4602.75
494.757	4610.66
495.126	4708.05
495.496	4730.2
495.866	4765.91
496.235	4793.48
496.605	4870.08
496.974	4890.2
497.344	4964.77
497.713	5023.07
498.082	5038.21
498.452	5076.41
498.821	5066.46
499.19	5092.22
499.559	5135.84
499.928	5163.86
500.298	5227.59
500.667	5288.6
501.036	5324.08
501.405	5366.12
501.774	5336.96
502.143	5397.75
502.512	5439.56
502.88	5523.17
503.249	5494.02
503.618	5565.66
503.987	5587.13
504.356	5626.67
504.724	5655.83
505.093	5629.39
505.462	5658.76
505.83	5715.94
506.199	5746.22
506.567	5819.21
506.936	5813.34
507.304	5882.26
507.672	5881.36
508.041	5925.2
508.409	5972.2
508.777	6001.81
509.145	6026.44
509.514	6092.42
509.882	6123.84
510.25	6105.76
510.618	6195.92
510.986	6196.6
511.354	6192.08
511.722	6312.76
512.09	6345.07
512.458	6270.95
512.826	6377.61
513.193	6390.27
513.561	6343.94
513.929	6406.77
514.297	6482.02
514.664	6533.77
515.032	6531.28
515.4	6590.72
515.767	6562.92
516.135	6593.2
516.502	6593.43
516.869	6697.61
517.237	6734.89
517.604	6746.19
517.972	6743.03
518.339	6824.61
518.706	6880.88
519.073	6859.18
519.44	6851.5
519.808	6921.33
520.175	6938.5
520.542	6997.26
520.909	7047.43
521.276	7030.48
521.643	7136.46
522.009	7169.91
522.376	7147.09
522.743	7220.3
523.11	7312.28
523.477	7314.99
523.843	7366.06
524.21	7416.46
524.577	7482.44
524.943	7481.54
525.31	7493.52
525.676	7617.13
526.043	7662.1
526.409	7649.9
526.776	7712.49
527.142	7743.23
527.508	7767.86
527.874	7794.53
528.241	7857.35
528.607	7848.31
528.973	7942.55
529.339	7959.95
529.705	8018.48
530.071	8115.65
530.437	8145.93
530.803	8133.95
531.169	8227.74
531.535	8210.79
531.901	8292.14
532.267	8256.89
532.632	8324.23
532.998	8304.34
533.364	8427.73
533.73	8477.22
534.095	8462.08
534.461	8498.91
534.826	8540.95
535.192	8647.84
535.557	8702.75
535.923	8600.38
536.288	8708.4
536.653	8729.42
537.019	8747.27
537.384	8786.37
537.749	8784.33
538.114	8844.22
538.479	8875.63
538.845	8909.98
539.21	8944.1
539.575	8979.13
539.94	8959.92
540.305	9114.72
540.67	8985.68
541.034	9062.06
541.399	9125.34
541.764	9196.52
542.129	9146.13
542.494	9287.37
542.858	9292.57
543.223	9321.49
543.587	9338.21
543.952	9374.15
544.316	9396.07
544.681	9429.51
545.045	9433.13
545.41	9567.14
545.774	9509.74
546.138	9592.45
546.503	9601.03
546.867	9652.33
547.231	9673.57
547.595	9708.83
547.959	9798.99
548.324	9774.14
548.688	9797.64
549.052	9895.49
549.416	9875.83
549.779	9875.83
550.143	9912.21
550.507	10044.41
550.871	10025.43
551.235	10075.82
551.599	10100
551.962	10109.95
552.326	10154.01
552.689	10253.45
553.053	10165.54
553.417	10234.24
553.78	10246.89
554.143	10317.85
554.507	10303.61
554.87	10429.49
555.234	10513.1
555.597	10415.47
555.96	10536.6
556.323	10498.64
556.686	10552.87
557.05	10568.24
557.413	10691.85
557.776	10585.19
558.139	10736.14
558.502	10707.22
558.865	10813.43
559.228	10834.67
559.59	10843.26
559.953	10850.04
560.316	10962.13
560.679	10920.77
561.041	10996.93
561.404	11083.93
561.767	11099.75
562.129	11071.95
562.492	11188.79
562.854	11139.75
563.217	11235.11
563.579	11251.61
563.941	11295.23
564.304	11394.21
564.666	11433.98
565.028	11513.07
565.39	11403.02
565.753	11590.13
566.115	11538.61
566.477	11604.37
566.839	11712.84
567.201	11696.57
567.563	11743.12
567.925	11849.34
568.287	11782.9
568.648	11885.72
569.01	11925.27
569.372	11974.3
569.734	11957.81
570.095	12089.33
570.457	12089.78
570.819	12128.88
571.18	12202.32
571.542	12240.74
571.903	12219.04
572.265	12342.43
572.626	12378.36
572.987	12397.12
573.349	12473.73
573.71	12532.03
574.071	12560.5
574.432	12646.83
574.794	12795.53
575.155	12763.89
575.516	12837.78
575.877	12931.34
576.238	12983.32
576.599	13096.53
576.96	13108.06
577.32	13214.5
577.681	13340.14
578.042	13423.08
578.403	13598.67
578.763	13629.4
579.124	13714.15
579.485	13884.54
579.845	13933.12
580.206	13993.46
580.566	14150.07
580.927	14226.22
581.287	14422.15
581.648	14475.25
582.008	14718.64
582.368	14850.84
582.728	15035.69
583.089	15126.99
583.449	15334.22
583.809	15414.67
584.169	15725.62
584.529	15809.68
584.889	16042.22
585.249	16116.12
585.609	16293.51
585.969	16711.13
586.329	16785.25
586.688	17020.27
587.048	17251.23
587.408	17456.65
587.768	17691.89
588.127	17871.78
588.487	18144.99
588.846	18522.38
589.206	18577.97
589.565	18834.69
589.925	19280.33
590.284	19431.73
590.643	19728.9
591.003	20037.37
591.362	20309.45
591.721	20632.16
592.08	20859.49
592.44	21250.67
592.799	21459.7
593.158	21779.47
593.517	22029.18
593.876	22442.5
594.235	22607.7
594.593	22993
594.952	23279.54
595.311	23565.41
595.67	23977.83
596.029	24382.34
596.387	24664.37
596.746	24907.75
597.104	25137.8
597.463	25403.78
597.822	25942.98
598.18	26080.37
598.538	26310.2
598.897	26788.15
599.255	26919.22
599.613	27442.37
599.972	27617.51
600.33	27964.39
600.688	28210.49
601.046	28624.71
601.404	28981.77
601.762	29184.25
602.12	29620.39
602.478	29861.74
602.836	30073.94
603.194	30243.43
603.552	30604.55
603.91	30860.36
604.268	31174.25
604.625	31488.37
604.983	31892.42
605.341	31898.98
605.698	32329.93
606.056	32595.23
606.413	32865.05
606.771	33175.33
607.128	33471.82
607.485	33583
607.843	33787.74
608.2	34312.7
608.557	34505.24
608.914	34645.35
609.272	35027.03
609.629	35300.7
609.986	35540.92
610.343	35597.41
610.7	36146.32
611.057	36264.74
611.414	36328.01
611.771	36613.43
612.127	36968.9
612.484	36941.78
612.841	37287.99
613.198	37453.86
613.554	37602.33
613.911	37995.09
614.267	38115.54
614.624	38152.6
614.98	38448.64
615.337	38716.2
615.693	38785.58
616.05	39006.81
616.406	39339.01
616.762	39394.6
617.118	39449.74
617.475	39652.45
617.831	39875.49
618.187	40073.23
618.543	40280.68
618.899	40522.71
619.255	40627.11
619.611	40651.06
619.967	40928.34
620.323	41110.03
620.678	41047.44
621.034	41117.72
621.39	41322.23
621.746	41301.89
622.101	41855.78
622.457	41538.27
622.812	41651.72
623.168	41898.71
623.523	41980.29
623.879	42291.47
624.234	42086.28
624.589	42308.87
624.945	42275.2
625.3	42524.46
625.655	42587.96
626.01	42632.03
626.365	42660.73
626.72	42538.7
627.075	42757.68
627.43	42815.98
627.785	42888.75
628.14	42951.12
628.495	43194.05
628.85	43129.87
629.205	43140.49
629.559	43360.82
629.914	43086.48
630.269	43213.48
630.623	43345.46
630.978	43194.95
631.332	43426.36
631.687	43452.35
632.041	43378.45
632.396	43452.12
632.75	43323.76
633.104	43501.16
633.459	43488.05
633.813	43475.4
634.167	43508.39
634.521	43543.42
634.875	43722.85
635.229	43526.47
635.583	43503.42
635.937	43554.26
636.291	43452.35
636.645	43568.05
636.999	43458
637.352	43704.77
637.706	43392.46
638.06	43587.48
638.413	43572.79
638.767	43404.21
639.121	43557.88
639.474	43333.03
639.828	43356.3
640.181	43299.36
640.534	43505.23
640.888	43322.18
641.241	43344.33
641.594	43418.9
641.947	43505
642.301	43418.45
642.654	43448.28
643.007	43468.84
643.36	43428.84
643.713	43365.79
644.066	43545.68
644.419	43224.78
644.771	43123.09
645.124	42699.82
645.477	42674.51
645.83	42476.55
646.182	42278.37
646.535	42241.3
646.888	42357.23
647.24	42151.59
647.593	42320.4
647.945	42132.38
648.298	42020.29
648.65	41974.87
649.002	42007.86
649.355	42206.05
649.707	42032.72
650.059	42352.94
650.411	42711.35
650.763	42704.57
651.115	43129.87
651.467	42978.69
651.819	43015.97
652.171	42891.01
652.523	42884.45
652.875	42965.58
653.227	42798.35
653.578	42961.51
653.93	42953.38
654.282	42868.86
654.633	42663.89
654.985	42815.07
655.337	42915.19
655.688	42881.51
656.039	43050.1
656.391	42551.13
656.742	42653.27
657.094	42761.06
657.445	42945.01
657.796	42725.13
658.147	42647.17
658.498	42672.25
658.849	42767.39
659.2	42729.65
659.551	42621.86
659.902	42795.64
660.253	42698.92
660.604	42844.9
660.955	42465.03
661.306	42700.28
661.656	42611.92
662.007	42716.32
662.358	42564.69
662.708	42690.11
663.059	42741.4
663.409	42338.7
663.76	42664.8
664.11	42719.71
664.461	42685.13
664.811	42641.52
665.161	42630.22
665.511	42467.29
665.862	42508.87
666.212	42644.23
666.562	42607.62
666.912	42667.73
667.262	42497.8
667.612	42513.16
667.962	42737.11
668.312	42564.69
668.662	42680.84
669.011	42573.05
669.361	42511.81
669.711	42384.58
670.06	42482.65
670.41	42397.23
670.76	42403.33
671.109	42502.09
671.459	42434.75
671.808	42359.27
672.157	42482.88
672.507	42131.25
672.856	42084.92
673.205	42254.86
673.554	42393.39
673.904	42093.51
674.253	42404.24
674.602	42303
674.951	41836.34
675.3	41562
675.649	42079.27
675.998	42183.9
676.346	42004.02
676.695	42129.67
677.044	41905.95
677.393	42065.72
677.741	42178.48
678.09	42042.67
678.438	41902.56
678.787	41985.94
679.135	42031.14
679.484	41780.98
679.832	41957.7
680.181	41770.13
680.529	41880.18
680.877	41701.43
681.225	41622.56
681.573	41853.52
681.922	41540.08
682.27	41426.41
682.618	41503.24
682.966	41410.37
683.314	41593.64
683.661	41246.98
684.009	41258.28
684.357	41141.45
684.705	41054.44
685.053	41173.08
685.4	40923.37
685.748	40888.8
686.095	40764.28
686.443	40790.95
686.79	40710.72
687.138	40778.29
687.485	40839.08
687.832	40586.43
688.18	40765.86
688.527	40432.54
688.874	40511.86
689.221	40350.28
689.568	40324.52
689.915	40211.08
690.262	40116.61
690.609	40094.92
690.956	39954.36
691.303	39901.03
691.65	39682.95
691.997	39694.25
692.344	39456.75
692.69	39279.8
693.037	39469.63
693.383	39264.89
693.73	39251.78
694.077	39072.12
694.423	38986.25
694.769	38805.91
695.116	38789.87
695.462	38693.83
695.808	38621.29
696.155	38764.11
696.501	38419.48
696.847	38544.45
697.193	38137.01
697.539	38337.45
697.885	38067.85
698.231	38010.46
698.577	38012.26
698.923	37940.85
699.269	37778.37
699.614	37643.69
699.96	37715.77
700.306	37616.79
700.651	37511.03
700.997	37378.38
701.342	37335.67
701.688	37252.28
702.033	37044.83
702.379	37115.34
702.724	36945.85
703.069	37076.24
703.415	36539.99
703.76	36765.29
704.105	36791.5
704.45	36678.96
704.795	36403.94
705.14	36222.25
705.485	36212.31
705.83	36169.15
706.175	36146.32
706.52	36067.91
706.865	36009.38
707.209	35838.08
707.554	35707.24
707.899	35798.76
708.243	35579.11
708.588	35565.1
708.932	35225.9
709.277	35302.96
709.621	35342.95
709.966	35185.44
710.31	35133.24
710.654	34925.56
710.998	34949.29
711.342	34879.01
711.687	34807.38
712.031	34646.7
712.375	34609.19
712.719	34634.5
713.063	34590.66
713.407	34715.85
713.75	34467.5
714.094	34512.02
714.438	34215.98
714.782	34452.58
715.125	34343.21
715.469	34159.26
715.812	34189.54
716.156	33949.77
716.499	34015.76
716.843	33924.24
717.186	33758.14
717.53	33858.02
717.873	33881.52
718.216	33848.53
718.559	33662.32
718.902	33486.05
719.246	33507.75
719.589	33291.71
719.932	33364.7
720.275	33225.72
720.617	33336.68
720.96	33161.77
721.303	33237.02
721.646	33150.47
721.989	32927.2
722.331	33157.25
722.674	32985.28
723.016	33006.97
723.359	32724.27
723.701	32925.17
724.044	32677.49
724.386	32511.39
724.729	32715.68
725.071	32611.28
725.413	32420.77
725.755	32396.59
726.097	32463.48
726.439	32080.22
726.782	32256.93
727.124	32342.81
727.465	32158.63
727.807	32111.4
728.149	32080.44
728.491	32072.98
728.833	32074.79
729.175	32030.5
729.516	31887.23
729.858	31794.35
730.199	31938.07
730.541	31868.92
730.882	31771.98
731.224	31790.05
731.565	31583.96
731.906	31580.34
732.248	31603.62
732.589	31515.48
732.93	31332.44
733.271	31491.76
733.612	31331.31
733.953	31393
734.294	31309.16
734.635	31229.16
734.976	31247.02
735.317	31088.15
735.658	31083.86
735.999	31131.31
736.339	31019.9
736.68	31189.62
737.021	30937.2
737.361	30844.32
737.702	30946.01
738.042	30911.66
738.383	30823.98
738.723	30828.95
739.063	30785.56
739.404	30872.11
739.744	30685.22
740.084	30531.56
740.424	30627.37
740.764	30438.45
741.104	30444.78
741.444	30440.03
741.784	30398.9
742.124	30435.51
742.464	30318.45
742.804	30192.81
743.143	30180.83
743.483	30105.58
743.823	29918.01
744.162	30051.79
744.502	30042.08
744.841	29977.45
745.181	30128.18
745.52	30021.29
745.86	30028.74
746.199	29895.41
746.538	29863.78
746.877	29952.59
747.216	29832.14
747.556	29896.32
747.895	29762.31
748.234	29685.7
748.573	29517.12
748.911	29615.42
749.25	29619.49
749.589	29397.12
749.928	29547.4
750.267	29622.88
750.605	29433.28
750.944	29342.66
751.283	29269.89
751.621	29284.13
751.96	29117.36
752.298	29219.05
752.636	29153.74
752.975	29082.33
753.313	28878.72
753.651	29201.2
753.989	28929.34
754.327	28844.37
754.666	28838.72
755.004	28851.83
755.342	28774.99
755.679	28636.69
756.017	28652.06
756.355	28541.33
756.693	28411.84
757.031	28542.91
757.368	28248.23
757.706	28346.3
758.044	28107.89
758.381	28302.69
758.719	28192.86
759.056	28166.65
