Data from hue_210_FLMS001491_00084.txt Node
Date: Tue Feb 07 16:41:52 GMT 2017
User: dcchb
Spectrometer: FLMS00149
Trigger mode: 0
Integration Time (sec): 2.000000E-2
Scans to average: 10
Electric dark correction enabled: true
Nonlinearity correction enabled: false
Boxcar width: 0
XAxis mode: Wavelengths
Number of Pixels in Spectrum: 2048
>>>>>Begin Spectral Data<<<<<
341.393	-0.99
341.776	-0.99
342.16	-0.99
342.543	-45.51
342.927	-62.23
343.31	-66.07
343.693	-73.08
344.077	-56.35
344.46	-47.77
344.843	-76.92
345.226	-43.47
345.61	-12.51
345.993	-24.94
346.376	-15.68
346.759	11.67
347.142	24.55
347.525	49.18
347.908	62.51
348.291	83.98
348.674	74.04
349.057	110.87
349.44	122.4
349.823	144.09
350.206	169.4
350.588	182.51
350.971	213.92
351.354	250.08
351.737	246.24
352.119	237.65
352.502	267.48
352.884	283.07
353.267	283.07
353.65	279.46
354.032	296.86
354.414	309.06
354.797	283.07
355.179	310.19
355.562	321.04
355.944	343.64
356.326	325.1
356.709	332.79
357.091	333.01
357.473	348.38
357.855	321.26
358.238	307.25
358.62	348.15
359.002	337.08
359.384	326.91
359.766	343.18
360.148	354.26
360.53	357.65
360.912	328.72
361.294	331.43
361.676	337.31
362.057	340.02
362.439	328.27
362.821	316.07
363.203	322.17
363.584	299.34
363.966	322.84
364.348	319
364.729	320.36
365.111	325.78
365.493	306.57
365.874	314.26
366.256	308.83
366.637	316.74
367.019	309.74
367.4	297.76
367.781	310.64
368.163	318.55
368.544	295.05
368.925	319
369.306	318.55
369.688	320.13
370.069	324.43
370.45	311.77
370.831	322.17
371.212	304.99
371.593	302.05
371.974	304.09
372.355	315.84
372.736	314.03
373.117	324.65
373.498	308.83
373.879	304.77
374.26	315.61
374.641	300.7
375.021	309.74
375.402	317.2
375.783	303.86
376.163	336.86
376.544	318.78
376.925	322.62
377.305	322.84
377.686	333.92
378.066	348.61
378.447	318.55
378.827	313.13
379.208	338.66
379.588	326.69
379.968	330.98
380.349	350.19
380.729	340.25
381.109	345.89
381.489	348.61
381.87	335.95
382.25	353.13
382.63	336.63
383.01	334.82
383.39	351.54
383.77	359.91
384.15	336.63
384.53	348.38
384.91	341.83
385.29	343.64
385.67	360.58
386.049	362.62
386.429	355.39
386.809	345.89
387.189	366.91
387.568	369.62
387.948	361.49
388.328	374.37
388.707	373.01
389.087	351.09
389.466	367.82
389.846	368.49
390.225	353.13
390.605	349.74
390.984	338.21
391.363	372.56
391.743	384.31
392.122	364.88
392.501	367.36
392.881	383.63
393.26	374.14
393.639	385.67
394.018	382.28
394.397	404.88
394.776	396.74
395.155	392.45
395.534	384.31
395.913	394.71
396.292	394.26
396.671	404.2
397.05	395.61
397.429	404.88
397.808	395.61
398.186	393.13
398.565	393.8
398.944	424.31
399.323	400.36
399.701	411.2
400.08	431.32
400.458	402.62
400.837	440.36
401.215	417.31
401.594	426.34
401.972	417.76
402.351	436.06
402.729	431.99
403.107	420.47
403.486	435.38
403.864	412.79
404.242	430.41
404.62	456.85
404.999	457.3
405.377	468.6
405.755	451.2
406.133	479.45
406.511	475.61
406.889	486.46
407.267	504.53
407.645	482.61
408.023	482.84
408.401	504.08
408.779	494.82
409.156	539.79
409.534	530.07
409.912	523.97
410.29	536.85
410.667	546.12
411.045	555.15
411.422	568.04
411.8	562.84
412.178	557.87
412.555	563.97
412.933	574.59
413.31	591.76
413.687	616.17
414.065	608.49
414.442	643.97
414.819	649.16
415.197	662.5
415.574	664.98
415.951	660.46
416.328	652.1
416.705	698.2
417.082	664.3
417.46	675.6
417.837	696.17
418.214	692.55
418.591	711.53
418.967	696.62
419.344	720.8
419.721	738.88
420.098	732.1
420.475	765.09
420.852	772.78
421.228	796.28
421.605	810.74
421.982	829.5
422.358	817.07
422.735	838.09
423.111	821.14
423.488	859.78
423.864	867.92
424.241	884.86
424.617	906.56
424.994	923.96
425.37	932.55
425.746	926.9
426.123	976.39
426.499	950.17
426.875	962.83
427.251	983.39
427.627	1006.22
428.003	1016.61
428.379	1034.69
428.756	1042.15
429.132	1074.69
429.507	1074.69
429.883	1068.81
430.259	1111.07
430.635	1107.68
431.011	1127.8
431.387	1131.86
431.763	1140
432.138	1164.63
432.514	1189.94
432.89	1213.67
433.265	1241.01
433.641	1274.68
434.016	1269.49
434.392	1296.15
434.767	1336.38
435.143	1321.69
435.518	1346.55
435.894	1387.45
436.269	1408.24
436.644	1412.53
437.02	1459.99
437.395	1475.81
437.77	1481.68
438.145	1523.04
438.52	1531.85
438.895	1568.69
439.271	1582.02
439.646	1606.2
440.021	1644.84
440.395	1632.19
440.77	1648.46
441.145	1690.27
441.52	1716.48
441.895	1696.82
442.27	1756.93
442.645	1721.45
443.019	1760.09
443.394	1803.94
443.769	1824.73
444.143	1790.15
444.518	1866.76
444.892	1866.08
445.267	1857.72
445.641	1913.76
446.016	1911.28
446.39	1938.62
446.764	1971.84
447.139	1925.51
447.513	1950.82
447.887	1958.51
448.262	2002.35
448.636	1992.18
449.01	2015
449.384	2080.09
449.758	2073.31
450.132	2080.31
450.506	2128.45
450.88	2131.84
451.254	2112.4
451.628	2142.68
452.002	2166.86
452.376	2166.86
452.75	2203.7
453.123	2228.33
453.497	2252.29
453.871	2275.11
454.244	2303.13
454.618	2290.02
454.992	2358.05
455.365	2357.14
455.739	2417.48
456.112	2454.77
456.486	2459.51
456.859	2443.47
457.232	2532.73
457.606	2543.58
457.979	2551.49
458.352	2590.81
458.725	2626.29
459.099	2666.74
459.472	2708.54
459.845	2723.23
460.218	2709.22
460.591	2763.01
460.964	2786.73
461.337	2847.3
461.71	2895.66
462.083	2874.87
462.456	2941.08
462.829	2884.59
463.201	2940.18
463.574	2970.01
463.947	3007.29
464.32	3107.18
464.692	3124.58
465.065	3152.6
465.438	3192.37
465.81	3254.97
466.183	3262.65
466.555	3335.65
466.928	3323.67
467.3	3358.47
467.672	3393.5
468.045	3459.94
468.417	3428.98
468.789	3503.78
469.161	3512.82
469.534	3605.02
469.906	3666.03
470.278	3680.27
470.65	3742.42
471.022	3787.16
471.394	3851.34
471.766	3856.09
472.138	3916.42
472.51	3972.47
472.882	4058.11
473.253	4098.56
473.625	4103.54
473.997	4202.52
474.369	4237.32
474.74	4249.75
475.112	4350.54
475.484	4431.44
475.855	4467.14
476.227	4515.73
476.598	4641.15
476.97	4630.75
477.341	4730.64
477.713	4764.31
478.084	4813.8
478.455	4968.6
478.827	4934.02
479.198	5111.19
479.569	5081.14
479.94	5197.74
480.311	5285.65
480.682	5383.73
481.053	5490.84
481.424	5502.14
481.795	5607.45
482.166	5664.63
482.537	5770.16
482.908	5876.6
483.279	5861.23
483.65	6021.23
484.021	6098.29
484.391	6123.82
484.762	6165.18
485.133	6131.28
485.503	6297.38
485.874	6468.67
486.244	6442.23
486.615	6567.2
486.985	6669.8
487.356	6793.86
487.726	6766.29
488.097	6917.47
488.467	6942.56
488.837	7018.71
489.207	7119.05
489.578	7160.86
489.948	7197.92
490.318	7322.89
490.688	7326.73
491.058	7414.18
491.428	7490.34
491.798	7579.15
492.168	7718.81
492.538	7734.85
492.908	7804.68
493.278	7912.02
493.648	7883.55
494.017	8018.01
494.387	8025.47
494.757	8076.54
495.126	8191.79
495.496	8246.48
495.866	8237.21
496.235	8318.34
496.605	8365.35
496.974	8384.55
497.344	8529.41
497.713	8486.02
498.082	8553.59
498.452	8623.42
498.821	8616.19
499.19	8654.83
499.559	8720.82
499.928	8775.96
500.298	8741.38
500.667	8845.78
501.036	8862.06
501.405	8901.15
501.774	8925.78
502.143	8937.08
502.512	8980.92
502.88	9017.98
503.249	9034.93
503.618	9069.51
503.987	9120.81
504.356	9108.38
504.724	9176.17
505.093	9201.93
505.462	9118.77
505.83	9203.29
506.199	9290.52
506.567	9382.72
506.936	9355.15
507.304	9439.67
507.672	9427.24
508.041	9496.39
508.409	9557.4
508.777	9570.96
509.145	9613.45
509.514	9568.25
509.882	9617.74
510.25	9623.17
510.618	9711.98
510.986	9639.44
511.354	9756.72
511.722	9745.2
512.09	9745.87
512.458	9804.18
512.826	9802.14
513.193	9791.52
513.561	9855.93
513.929	9890.28
514.297	9854.12
514.664	10039.43
515.032	9955.81
515.4	10012.31
515.767	9979.99
516.135	9957.85
516.502	9932.54
516.869	10035.81
517.237	10046.2
517.604	10016.38
517.972	10056.83
518.339	10108.8
518.706	10069.26
519.073	10086.88
519.44	10147.22
519.808	10261.57
520.175	10110.61
520.542	10177.73
520.909	10170.5
521.276	10198.52
521.643	10281.45
522.009	10244.17
522.376	10356.93
522.743	10246.43
523.11	10278.52
523.477	10447.1
523.843	10394.44
524.21	10477.15
524.577	10489.81
524.943	10490.26
525.31	10416.59
525.676	10481.67
526.043	10535.01
526.409	10498.85
526.776	10598.05
527.142	10490.26
527.508	10598.05
527.874	10569.35
528.241	10577.94
528.607	10511.96
528.973	10642.57
529.339	10558.96
529.705	10633.53
530.071	10631.05
530.437	10634.44
530.803	10591.05
531.169	10634.21
531.535	10594.66
531.901	10610.94
532.267	10627.21
532.632	10661.56
532.998	10550.15
533.364	10606.64
533.73	10559.19
534.095	10558.73
534.461	10546.53
534.826	10621.33
535.192	10548.79
535.557	10571.61
535.923	10529.13
536.288	10542.01
536.653	10532.75
537.019	10441.22
537.384	10449.36
537.749	10428.57
538.114	10440.09
538.479	10382.02
538.845	10396.03
539.21	10297.95
539.575	10330.04
539.94	10256.37
540.305	10290.94
540.67	10245.52
541.034	10250.72
541.399	10198.74
541.764	10136.37
542.129	10179.08
542.494	10188.57
542.858	10177.5
543.223	10204.39
543.587	10186.54
543.952	10076.03
544.316	10123.49
544.681	10063.83
545.045	10046.43
545.41	10012.31
545.774	10041.46
546.138	9964.62
546.503	9951.74
546.867	9904.29
547.231	9857.51
547.595	9891.18
547.959	9881.69
548.324	9830.84
548.688	9761.47
549.052	9845.31
549.416	9744.74
549.779	9697.97
550.143	9707.91
550.507	9757.62
550.871	9725.76
551.235	9634.01
551.599	9712.43
551.962	9684.86
552.326	9622.26
552.689	9584.07
553.053	9552.43
553.417	9555.82
553.78	9580.45
554.143	9539.1
554.507	9519.66
554.87	9506.33
555.234	9580.68
555.597	9499.33
555.96	9488.48
556.323	9410.74
556.686	9363.74
557.05	9462.49
557.413	9415.49
557.776	9444.41
558.139	9486.22
558.502	9459.33
558.865	9415.03
559.228	9443.96
559.59	9398.99
559.953	9373
560.316	9469.5
560.679	9403.51
561.041	9505.2
561.404	9463.62
561.767	9455.03
562.129	9501.81
562.492	9417.52
562.854	9450.06
563.217	9411.19
563.579	9394.47
563.941	9476.05
564.304	9482.15
564.666	9487.12
565.028	9469.27
565.39	9512.66
565.753	9495.48
566.115	9552.88
566.477	9510.17
566.839	9515.15
567.201	9541.13
567.563	9496.84
567.925	9616.39
568.287	9608.48
568.648	9670.62
569.01	9624.29
569.372	9690.96
569.734	9611.41
570.095	9686.67
570.457	9632.2
570.819	9728.92
571.18	9719.21
571.542	9703.61
571.903	9690.28
572.265	9761.01
572.626	9791.75
572.987	9755.14
573.349	9762.6
573.71	9760.79
574.071	9777.74
574.432	9802.82
574.794	9877.85
575.155	9795.36
575.516	9815.02
575.877	9859.09
576.238	9788.13
576.599	9887.34
576.96	9924.4
577.32	9866.55
577.681	9912.87
578.042	10017.73
578.403	9941.35
578.763	9953.55
579.124	9965.75
579.485	10007.34
579.845	10025.64
580.206	10024.74
580.566	10057.05
580.927	10047.33
581.287	10055.47
581.648	10040.56
582.008	10068.8
582.368	10050.27
582.728	10036.71
583.089	10123.04
583.449	10041.69
583.809	10070.38
584.169	10101.34
584.529	10087.33
584.889	10227.67
585.249	10136.82
585.609	10060.89
585.969	10122.36
586.329	10149.48
586.688	10142.93
587.048	10154.68
587.408	10225.18
587.768	10115.58
588.127	10192.87
588.487	10194.9
588.846	10222.92
589.206	10123.49
589.565	10207.78
589.925	10176.14
590.284	10138.18
590.643	10144.96
591.003	10190.83
591.362	10332.3
591.721	10275.58
592.08	10214.79
592.44	10300.66
592.799	10240.1
593.158	10229.02
593.517	10243.04
593.876	10283.03
594.235	10231.96
594.593	10287.33
594.952	10286.88
595.311	10251.17
595.67	10228.57
596.029	10318.97
596.387	10319.19
596.746	10376.37
597.104	10318.97
597.463	10275.58
597.822	10326.65
598.18	10210.95
598.538	10252.75
598.897	10337.95
599.255	10292.75
599.613	10385.18
599.972	10340.43
600.33	10377.04
600.688	10342.92
601.046	10368.68
601.404	10447.78
601.762	10391.05
602.12	10425.18
602.478	10435.35
602.836	10379.98
603.194	10346.99
603.552	10348.57
603.91	10335.91
604.268	10366.87
604.625	10318.29
604.983	10363.48
605.341	10330.72
605.698	10412.75
606.056	10396.03
606.413	10428.79
606.771	10445.29
607.128	10449.36
607.485	10384.73
607.843	10510.15
608.2	10460.43
608.557	10511.05
608.914	10440.09
609.272	10471.73
609.629	10541.33
609.986	10537.04
610.343	10444.16
610.7	10595.12
611.057	10548.34
611.414	10458.85
611.771	10545.85
612.127	10639.64
612.484	10598.96
612.841	10514.44
613.198	10568.68
613.554	10578.17
613.911	10611.16
614.267	10558.73
614.624	10526.19
614.98	10637.83
615.337	10666.08
615.693	10640.31
616.05	10650.26
616.406	10599.64
616.762	10564.61
617.118	10607.55
617.475	10632.4
617.831	10712.18
618.187	10674.89
618.543	10717.37
618.899	10739.52
619.255	10684.15
619.611	10690.26
619.967	10725.96
620.323	10708.33
620.678	10685.96
621.034	10681.22
621.39	10701.55
621.746	10642.35
622.101	10817.71
622.457	10735.45
622.812	10728.22
623.168	10754.21
623.523	10705.85
623.879	10801.67
624.234	10733.64
624.589	10812.06
624.945	10779.52
625.3	10693.65
625.655	10704.04
626.01	10678.5
626.365	10709.69
626.72	10735.23
627.075	10660.2
627.43	10688.45
627.785	10600.31
628.14	10678.28
628.495	10704.49
628.85	10731.38
629.205	10647.77
629.559	10697.26
629.914	10650.48
630.269	10652.29
630.623	10658.62
630.978	10658.39
631.332	10552.18
631.687	10617.26
632.041	10581.11
632.396	10626.53
632.75	10479.64
633.104	10554.44
633.459	10510.83
633.813	10558.51
634.167	10483.48
634.521	10492.75
634.875	10534.1
635.229	10415.01
635.583	10421.11
635.937	10457.49
636.291	10417.49
636.645	10427.66
636.999	10417.95
637.352	10445.74
637.706	10363.48
638.06	10352.19
638.413	10338.4
638.767	10349.7
639.121	10335.24
639.474	10252.08
639.828	10315.58
640.181	10290.49
640.534	10307.67
640.888	10268.12
641.241	10189.93
641.594	10251.17
641.947	10244.62
642.301	10263.6
642.654	10248.23
643.007	10238.52
643.36	10230.38
643.713	10222.25
644.066	10184.28
644.419	10203.71
644.771	10172.08
645.124	10044.62
645.477	10003.27
645.83	9909.49
646.182	9883.27
646.535	9923.04
646.888	9867
647.24	9857.28
647.593	9879.66
647.945	9840.56
648.298	9778.19
648.65	9792.65
649.002	9767.12
649.355	9862.71
649.707	9771.41
650.059	9942.7
650.411	9974.57
650.763	10021.57
651.115	10107.45
651.467	10026.09
651.819	9986.09
652.171	10085.53
652.523	9980.67
652.875	10062.93
653.227	10025.19
653.578	10071.06
653.93	9992.87
654.282	10040.56
654.633	9939.54
654.985	10022.02
655.337	9958.98
655.688	10003.04
656.039	10073.32
656.391	10002.14
656.742	10030.61
657.094	10028.58
657.445	10006.43
657.796	9986.32
658.147	9998.52
658.498	10001.69
658.849	10054.57
659.2	10024.06
659.551	10011.18
659.902	10067.67
660.253	9991.74
660.604	10006.88
660.955	10013.89
661.306	10035.81
661.656	10013.21
662.007	10032.19
662.358	9988.81
662.708	10069.48
663.059	10105.64
663.409	10031.52
663.76	10031.97
664.11	10079.88
664.461	10071.06
664.811	10103.15
665.161	10081.68
665.511	10021.35
665.862	10062.25
666.212	10081.68
666.562	10073.32
666.912	10044.62
667.262	10053.44
667.612	10099.08
667.962	10027.9
668.312	10052.31
668.662	10062.02
669.011	10010.73
669.361	10054.34
669.711	10034.23
670.06	9954.46
670.41	9913.1
670.76	10016.6
671.109	10033.78
671.459	10023.15
671.808	9995.13
672.157	9990.84
672.507	9964.62
672.856	9969.82
673.205	9979.77
673.554	9945.19
673.904	9958.07
674.253	9956.72
674.602	9871.29
674.951	9854.8
675.3	9740.68
675.649	9908.81
675.998	9916.26
676.346	9930.95
676.695	9966.66
677.044	9798.75
677.393	9848.92
677.741	9867.9
678.09	9890.5
678.438	9837.85
678.787	9881.92
679.135	9785.19
679.484	9731.41
679.832	9829.26
680.181	9737.29
680.529	9774.57
680.877	9664.52
681.225	9695.93
681.573	9820.67
681.922	9762.37
682.27	9668.59
682.618	9683.5
682.966	9645.76
683.314	9620.91
683.661	9644.41
684.009	9589.27
684.357	9601.92
684.705	9501.59
685.053	9572.77
685.4	9579.1
685.748	9438.31
686.095	9401.93
686.443	9382.27
686.79	9413.91
687.138	9461.59
687.485	9352.66
687.832	9311.31
688.18	9330.52
688.527	9279.9
688.874	9296.17
689.221	9284.64
689.568	9275.38
689.915	9211.2
690.262	9169.62
690.609	9202.39
690.956	9130.3
691.303	9143.4
691.65	9089.39
691.997	9037.87
692.344	9017.98
692.69	9067.93
693.037	8985.22
693.383	8914.94
693.73	8924.88
694.077	8902.05
694.423	8847.14
694.769	8826.8
695.116	8779.12
695.462	8787.93
695.808	8759.91
696.155	8758.56
696.501	8681.49
696.847	8699.12
697.193	8664.09
697.539	8672.23
697.885	8559.92
698.231	8530.09
698.577	8589.97
698.923	8552.46
699.269	8423.2
699.614	8406.25
699.96	8403.54
700.306	8356.98
700.651	8326.25
700.997	8264.56
701.342	8218.23
701.688	8269.98
702.033	8196.31
702.379	8225.69
702.724	8181.4
703.069	8207.16
703.415	8083.77
703.76	8098.91
704.105	8110.21
704.45	8061.4
704.795	7974.39
705.14	8055.97
705.485	8024.56
705.83	7888.3
706.175	7897.11
706.52	7875.19
706.865	7890.56
707.209	7839.03
707.554	7814.63
707.899	7799.26
708.243	7744.8
708.588	7781.63
708.932	7667.96
709.277	7685.36
709.621	7670.22
709.966	7639.71
710.31	7652.14
710.654	7556.78
710.998	7585.7
711.342	7593.16
711.687	7526.27
712.031	7543.9
712.375	7548.42
712.719	7558.13
713.063	7474.29
713.407	7478.81
713.75	7461.64
714.094	7444.47
714.438	7417.12
714.782	7426.39
715.125	7404.01
715.469	7364.24
715.812	7338.25
716.156	7361.98
716.499	7359.5
716.843	7337.35
717.186	7342.32
717.53	7349.1
717.873	7305.26
718.216	7250.35
718.559	7274.07
718.902	7247.86
719.246	7210.35
719.589	7263.23
719.932	7207.86
720.275	7176.9
720.617	7204.25
720.96	7175.77
721.303	7158.37
721.646	7156.34
721.989	7126.73
722.331	7173.06
722.674	7157.47
723.016	7187.52
723.359	7128.77
723.701	7147.75
724.044	7080.63
724.386	7068.2
724.729	7130.35
725.071	7061.88
725.413	7065.49
725.755	7092.38
726.097	7040.63
726.439	7013.52
726.782	7045.83
727.124	7045.61
727.465	6997.92
727.807	6987.75
728.149	7014.65
728.491	7046.96
728.833	7023.91
729.175	6993.63
729.516	7024.14
729.858	6958.15
730.199	7010.58
730.541	7009.22
730.882	6931.71
731.224	7007.87
731.565	6947.76
731.906	6968.32
732.248	7034.08
732.589	6934.65
732.93	6950.24
733.271	6984.14
733.612	7015.78
733.953	6941.65
734.294	6954.31
734.635	7006.28
734.976	6971.71
735.317	6936.46
735.658	6905.27
735.999	6997.47
736.339	6953.86
736.68	6964.48
737.021	6958.6
737.361	6972.16
737.702	7106.4
738.042	6935.78
738.383	6983.46
738.723	6947.08
739.063	6984.14
739.404	6993.63
739.744	7022.1
740.084	6961.09
740.424	7071.82
740.764	7014.65
741.104	7011.03
741.444	7023.01
741.784	7029.33
742.124	7098.94
742.464	7088.77
742.804	7133.51
743.143	7064.36
743.483	7135.09
743.823	7130.8
744.162	7099.39
744.502	7190.23
744.841	7232.04
745.181	7227.3
745.52	7194.53
745.86	7308.2
746.199	7304.36
746.538	7330.34
746.877	7410.12
747.216	7422.54
747.556	7496.67
747.895	7501.19
748.234	7554.29
748.573	7597.68
748.911	7642.65
749.25	7688.98
749.589	7667.28
749.928	7794.74
750.267	7900.95
750.605	7913.15
750.944	8109.31
751.283	7990.21
751.621	8113.83
751.96	8204.45
752.298	8218.46
752.636	8396.08
752.975	8468.62
753.313	8499.8
753.651	8639.46
753.989	8727.14
754.327	8808.05
754.666	8888.5
755.004	8975.95
755.342	9175.49
755.679	9286.22
756.017	9359.44
756.355	9521.92
756.693	9530.51
757.031	9711.75
757.368	9821.8
757.706	9953.1
758.044	10109.93
758.381	10310.6
758.719	10468.57
759.056	10606.64
759.394	10742.01
759.731	10801.89
760.068	11002.34
760.405	11108.1
760.743	11258.15
761.08	11513.51
761.417	11600.06
761.754	11751.47
762.091	11940.84
762.428	12101.07
