Data from hue_220_FLMS001491_00051.txt Node
Date: Tue Feb 07 16:39:38 GMT 2017
User: dcchb
Spectrometer: FLMS00149
Trigger mode: 0
Integration Time (sec): 2.000000E-2
Scans to average: 10
Electric dark correction enabled: true
Nonlinearity correction enabled: false
Boxcar width: 0
XAxis mode: Wavelengths
Number of Pixels in Spectrum: 2048
>>>>>Begin Spectral Data<<<<<
341.393	-26.02
341.776	-26.02
342.16	-26.02
342.543	-64.21
342.927	-64.21
343.31	-56.75
343.693	-54.94
344.077	-75.96
344.46	-61.72
344.843	-36.86
345.226	-20.82
345.61	-56.52
345.993	-26.69
346.376	-29.63
346.759	-13.36
347.142	25.28
347.525	47.65
347.908	68.44
348.291	82
348.674	100.31
349.057	109.57
349.44	129.46
349.823	145.05
350.206	165.62
350.588	185.28
350.971	222.56
351.354	206.75
351.737	255.33
352.119	241.1
352.502	249.91
352.884	283.35
353.267	287.42
353.65	270.7
354.032	329.68
354.414	300.75
354.797	311.15
355.179	317.93
355.562	305.95
355.944	324.03
356.326	324.93
356.709	319.29
357.091	340.08
357.473	364.26
357.855	364.26
358.238	338.49
358.62	325.84
359.002	350.47
359.384	326.06
359.766	329.91
360.148	316.35
360.53	343.92
360.912	334.65
361.294	341.66
361.676	324.26
362.057	340.3
362.439	314.77
362.821	330.13
363.203	326.52
363.584	325.39
363.966	319.29
364.348	327.87
364.729	322.45
365.111	339.62
365.493	311.6
365.874	308.21
366.256	320.19
366.637	323.81
367.019	331.71
367.4	321.55
367.781	302.56
368.163	323.13
368.544	303.92
368.925	312.96
369.306	326.97
369.688	301.88
370.069	317.48
370.45	312.96
370.831	322.9
371.212	308.21
371.593	309.34
371.974	330.13
372.355	320.87
372.736	306.4
373.117	309.79
373.498	339.85
373.879	324.03
374.26	329.68
374.641	321.77
375.021	294.2
375.402	312.28
375.783	333.07
376.163	315.44
376.544	309.12
376.925	313.64
377.305	324.03
377.686	320.64
378.066	325.16
378.447	331.71
378.827	318.16
379.208	338.27
379.588	300.75
379.968	343.01
380.349	325.84
380.729	323.13
381.109	325.61
381.489	324.93
381.87	328.1
382.25	339.4
382.63	355.22
383.01	347.99
383.39	323.13
383.77	340.98
384.15	349.34
384.53	333.52
384.91	334.43
385.29	324.03
385.67	349.79
386.049	351.83
386.429	344.14
386.809	347.53
387.189	336.91
387.568	352.5
387.948	344.14
388.328	352.5
388.707	338.72
389.087	389.34
389.466	365.39
389.846	357.02
390.225	350.25
390.605	355.44
390.984	362.45
391.363	360.64
391.743	384.59
392.122	371.71
392.501	383.69
392.881	359.28
393.26	373.97
393.639	395.89
394.018	367.42
394.397	389.79
394.776	394.31
395.155	386.85
395.534	374.2
395.913	371.71
396.292	388.89
396.671	385.27
397.05	385.27
397.429	389.57
397.808	396.57
398.186	382.56
398.565	383.01
398.944	394.99
399.323	391.37
399.701	397.7
400.08	395.67
400.458	398.38
400.837	410.81
401.215	416.68
401.594	418.94
401.972	431.6
402.351	421.66
402.729	435.21
403.107	421.43
403.486	422.56
403.864	427.31
404.242	413.52
404.62	413.29
404.999	431.82
405.377	469.56
405.755	441.32
406.133	451.94
406.511	453.75
406.889	468.43
407.267	451.26
407.645	461.65
408.023	479.28
408.401	463.91
408.779	500.52
409.156	493.07
409.534	506.85
409.912	490.13
410.29	521.09
410.667	504.82
411.045	521.54
411.422	525.38
411.8	513.4
412.178	539.39
412.555	571.03
412.933	568.77
413.31	558.6
413.687	578.49
414.065	561.31
414.442	587.3
414.819	602.44
415.197	587.98
415.574	619.84
415.951	599.05
416.328	622.78
416.705	642.67
417.082	637.7
417.46	629.79
417.837	653.51
418.214	641.31
418.591	664.81
418.967	681.76
419.344	697.58
419.721	691.25
420.098	660.29
420.475	719.73
420.852	714.98
421.228	714.76
421.605	725.6
421.982	731.03
422.358	750.01
422.735	752.27
423.111	792.27
423.488	805.37
423.864	801.31
424.241	798.37
424.617	838.82
424.994	833.17
425.37	859.38
425.746	851.25
426.123	888.08
426.499	885.82
426.875	879.72
427.251	896.9
427.627	924.92
428.003	923.56
428.379	933.96
428.756	940.51
429.132	957.01
429.507	964.24
429.883	982.09
430.259	989.1
430.635	1026.84
431.011	1015.99
431.387	1038.81
431.763	1036.55
432.138	1055.54
432.514	1083.56
432.89	1064.35
433.265	1119.72
433.641	1136.21
434.016	1162.2
434.392	1191.58
434.767	1205.14
435.143	1222.99
435.518	1234.06
435.894	1240.39
436.269	1261.41
436.644	1284.01
437.02	1275.19
437.395	1325.59
437.77	1343.21
438.145	1385.25
438.52	1384.34
438.895	1387.28
439.271	1417.79
439.646	1450.33
440.021	1496.2
440.395	1489.88
440.77	1477
441.145	1509.31
441.52	1536.65
441.895	1555.86
442.27	1587.05
442.645	1547.05
443.019	1607.84
443.394	1618.23
443.769	1638.8
444.143	1605.35
444.518	1657.33
444.892	1646.71
445.267	1688.97
445.641	1712.92
446.016	1705.24
446.39	1715.86
446.764	1760.38
447.139	1706.82
447.513	1738.68
447.887	1781.62
448.262	1787.5
448.636	1808.06
449.01	1823.2
449.384	1815.97
449.758	1841.05
450.132	1883.09
450.506	1883.76
450.88	1866.59
451.254	1886.02
451.628	1922.18
452.002	1905.01
452.376	1950.43
452.75	1946.36
453.123	1970.77
453.497	1989.98
453.871	1980.48
454.244	2030.88
454.618	2053.93
454.992	2096.64
455.365	2095.96
455.739	2138.9
456.112	2126.47
456.486	2152.91
456.859	2165.56
457.232	2215.05
457.606	2219.57
457.979	2242.62
458.352	2289.4
458.725	2295.96
459.099	2307.93
459.472	2345.45
459.845	2365.11
460.218	2417.99
460.591	2400.13
460.964	2456.18
461.337	2496.86
461.71	2518.1
462.083	2544.31
462.456	2550.87
462.829	2549.28
463.201	2588.83
463.574	2598.32
463.947	2618.66
464.32	2686.45
464.692	2700.47
465.065	2732.1
465.438	2762.84
465.81	2803.74
466.183	2808.26
466.555	2886.45
466.928	2861.82
467.3	2895.04
467.672	2936.84
468.045	3026.33
468.417	3006.22
468.789	3034.47
469.161	3031.08
469.534	3096.61
469.906	3128.93
470.278	3159.21
470.65	3191.07
471.022	3233.33
471.394	3284.18
471.766	3333.67
472.138	3386.32
472.51	3374.35
472.882	3494.57
473.253	3504.06
473.625	3513.55
473.997	3618.18
474.369	3605.98
474.74	3610.05
475.112	3732.53
475.484	3761.68
475.855	3773.66
476.227	3781.57
476.598	3923.94
476.97	3964.16
477.341	3970.71
477.713	4057.27
478.084	4078.96
478.455	4160.09
478.827	4196.92
479.198	4324.38
479.569	4306.53
479.94	4371.61
480.311	4438.95
480.682	4512.17
481.053	4586.52
481.424	4673.97
481.795	4740.19
482.166	4756.68
482.537	4796
482.908	4890.92
483.279	4930.92
483.65	5047.75
484.021	5085.04
484.391	5141.31
484.762	5146.96
485.133	5203.22
485.503	5283.67
485.874	5334.07
486.244	5392.82
486.615	5485.48
486.985	5528.41
487.356	5621.97
487.726	5650.9
488.097	5736.54
488.467	5744.23
488.837	5791.91
489.207	5903.32
489.578	5968.63
489.948	6015.86
490.318	6118
490.688	6068.96
491.058	6144.22
491.428	6197.1
491.798	6307.6
492.168	6419.92
492.538	6410.88
492.908	6442.51
493.278	6508.5
493.648	6554.83
494.017	6602.74
494.387	6660.81
494.757	6671.21
495.126	6682.28
495.496	6705.33
495.866	6757.31
496.235	6824.43
496.605	6877.31
496.974	6901.49
497.344	6915.95
497.713	6981.71
498.082	6997.53
498.452	7068.71
498.821	7019
499.19	7056.51
499.559	7115.26
499.928	7158.65
500.298	7182.61
500.667	7294.24
501.036	7206.79
501.405	7275.71
501.774	7256.5
502.143	7315.26
502.512	7350.74
502.88	7382.6
503.249	7351.19
503.618	7444.52
503.987	7377.63
504.356	7435.48
504.724	7463.96
505.093	7442.94
505.462	7495.14
505.83	7505.31
506.199	7557.97
506.567	7564.97
506.936	7601.35
507.304	7629.83
507.672	7675.7
508.041	7688.81
508.409	7720.45
508.777	7700.56
509.145	7732.88
509.514	7764.74
509.882	7764.06
510.25	7798.64
510.618	7775.59
510.986	7813.1
511.354	7817.85
511.722	7898.3
512.09	7938.29
512.458	7923.15
512.826	7945.98
513.193	7955.69
513.561	7893.55
513.929	7957.5
514.297	8011.29
514.664	7990.95
515.032	7977.84
515.4	8018.74
515.767	7987.56
516.135	8008.12
516.502	7947.11
516.869	8033.21
517.237	8046.99
517.604	8071.17
517.972	8085.86
518.339	8107.1
518.706	8074.79
519.073	8106.2
519.44	8127.44
519.808	8139.19
520.175	8060.78
520.542	8130.83
520.909	8150.49
521.276	8117.05
521.643	8188.46
522.009	8216.93
522.376	8148.46
522.743	8229.13
523.11	8211.28
523.477	8275.23
523.843	8249.92
524.21	8285.86
524.577	8347.55
524.943	8275.91
525.31	8251.51
525.676	8379.19
526.043	8293.76
526.409	8326.98
526.776	8347.32
527.142	8350.94
527.508	8289.02
527.874	8380.54
528.241	8404.04
528.607	8300.54
528.973	8371.73
529.339	8318.17
529.705	8383.25
530.071	8448.56
530.437	8392.75
530.803	8359.07
531.169	8406.76
531.535	8376.93
531.901	8318.85
532.267	8314.78
532.632	8295.35
532.998	8308.68
533.364	8386.64
533.73	8325.18
534.095	8379.19
534.461	8334.22
534.826	8291.96
535.192	8331.28
535.557	8305.74
535.923	8303.26
536.288	8277.95
536.653	8244.95
537.019	8153.2
537.384	8239.3
537.749	8225.74
538.114	8186.42
538.479	8118.18
538.845	8155.92
539.21	8113.88
539.575	8115.46
539.94	8122.24
540.305	8079.53
540.67	8081.34
541.034	8054.68
541.399	8088.8
541.764	8005.18
542.129	8013.32
542.494	7992.08
542.858	8042.02
543.223	7936.03
543.587	7955.02
543.952	7949.14
544.316	7863.27
544.681	7922.25
545.045	7886.32
545.41	7887
545.774	7864.85
546.138	7825.53
546.503	7758.41
546.867	7709.37
547.231	7769.94
547.595	7783.72
547.959	7784.85
548.324	7663.05
548.688	7684.97
549.052	7714.35
549.416	7668.24
549.779	7656.04
550.143	7586.89
550.507	7596.16
550.871	7632.99
551.235	7515.25
551.599	7622.37
551.962	7527.23
552.326	7597.96
552.689	7560.22
553.053	7489.04
553.417	7482.03
553.78	7550.06
554.143	7423.28
554.507	7488.36
554.87	7537.85
555.234	7549.15
555.597	7405.88
555.96	7449.27
556.323	7445.88
556.686	7430.96
557.05	7426.22
557.413	7393
557.776	7351.64
558.139	7423.96
558.502	7410.17
558.865	7403.17
559.228	7463.5
559.59	7419.89
559.953	7410.4
560.316	7432.09
560.679	7421.02
561.041	7431.87
561.404	7417.86
561.767	7452.21
562.129	7422.83
562.492	7456.5
562.854	7457.4
563.217	7388.03
563.579	7482.49
563.941	7485.42
564.304	7447.23
564.666	7515.48
565.028	7466.89
565.39	7502.15
565.753	7471.64
566.115	7475.48
566.477	7617.4
566.839	7561.81
567.201	7591.86
567.563	7597.29
567.925	7640.45
568.287	7616.72
568.648	7654.69
569.01	7640.67
569.372	7637.51
569.734	7693.78
570.095	7703.27
570.457	7733.78
570.819	7693.55
571.18	7632.31
571.542	7790.28
571.903	7724.97
572.265	7767
572.626	7782.37
572.987	7797.28
573.349	7790.73
573.71	7790.05
574.071	7769.71
574.432	7831.18
574.794	7839.99
575.155	7851.74
575.516	7863.95
575.877	7926.09
576.238	7890.39
576.599	7904.4
576.96	7946.2
577.32	7923.38
577.681	7990.5
578.042	7953.43
578.403	7994.79
578.763	8004.06
579.124	8002.02
579.485	8041.79
579.845	8081.34
580.206	8101.45
580.566	8089.48
580.927	8054
581.287	8134.67
581.648	8072.98
582.008	8144.84
582.368	8178.51
582.728	8156.37
583.089	8174.9
583.449	8190.72
583.809	8197.95
584.169	8252.18
584.529	8157.72
584.889	8303.71
585.249	8205.86
585.609	8218.29
585.969	8292.18
586.329	8266.42
586.688	8275.01
587.048	8361.56
587.408	8330.15
587.768	8309.36
588.127	8343.26
588.487	8333.99
588.846	8358.4
589.206	8339.41
589.565	8432.52
589.925	8374.44
590.284	8383.93
590.643	8431.16
591.003	8450.15
591.362	8479.75
591.721	8477.49
592.08	8504.61
592.44	8441.33
592.799	8477.04
593.158	8474.55
593.517	8456.25
593.876	8515.68
594.235	8517.71
594.593	8503.93
594.952	8546.87
595.311	8590.48
595.67	8580.09
596.029	8597.94
596.387	8634.1
596.746	8599.29
597.104	8581.67
597.463	8593.64
597.822	8677.48
598.18	8583.47
598.538	8618.95
598.897	8667.09
599.255	8573.76
599.613	8724.49
599.972	8622.8
600.33	8695.79
600.688	8686.3
601.046	8616.92
601.404	8775.79
601.762	8747.09
602.12	8701.89
602.478	8734.43
602.836	8750.02
603.194	8626.19
603.552	8683.81
603.91	8648.78
604.268	8762.91
604.625	8695.56
604.983	8680.87
605.341	8708.22
605.698	8693.53
606.056	8772.17
606.413	8791.6
606.771	8743.24
607.128	8755.67
607.485	8761.1
607.843	8787.99
608.2	8753.19
608.557	8806.75
608.914	8803.81
609.272	8927.65
609.629	8829.8
609.986	8854.43
610.343	8831.15
610.7	8879.51
611.057	8921.09
611.414	8966.52
611.771	8846.74
612.127	8856.91
612.484	8874.77
612.841	8934.43
613.198	8927.65
613.554	8921.55
613.911	8969.23
614.267	8937.36
614.624	8887.87
614.98	8965.39
615.337	9009.68
615.693	8997.25
616.05	8979.4
616.406	8990.47
616.762	8962.45
617.118	8963.8
617.475	8985.05
617.831	9079.06
618.187	9014.65
618.543	8973.3
618.899	9070.69
619.255	9076.12
619.611	9031.37
619.967	9044.25
620.323	9085.83
620.678	9072.73
621.034	9091.48
621.39	9123.57
621.746	9029.79
622.101	9095.55
622.457	9075.67
622.812	9046.74
623.168	9132.84
623.523	9123.8
623.879	9132.39
624.234	9057.13
624.589	9079.51
624.945	9100.98
625.3	9105.27
625.655	9078.15
626.01	9118.15
626.365	9054.65
626.72	9038.6
627.075	9074.99
627.43	9063.01
627.785	9047.64
628.14	9060.75
628.495	9100.07
628.85	9065.72
629.205	8986.63
629.559	9066.85
629.914	9053.29
630.269	9010.36
630.623	8967.65
630.978	9024.14
631.332	9029.56
631.687	9011.94
632.041	8946.4
632.396	9002.67
632.75	8992.96
633.104	8933.75
633.459	8851.72
633.813	8853.07
634.167	8967.87
634.521	8917.03
634.875	8900.75
635.229	8858.72
635.583	8869.34
635.937	8870.92
636.291	8874.31
636.645	8835.45
636.999	8871.6
637.352	8863.24
637.706	8767.42
638.06	8803.13
638.413	8771.94
638.767	8796.8
639.121	8778.27
639.474	8724.71
639.828	8716.13
640.181	8740.31
640.534	8734.21
640.888	8734.21
641.241	8742.79
641.594	8687.43
641.947	8735.34
642.301	8696.92
642.654	8701.44
643.007	8724.04
643.36	8658.05
643.713	8765.84
644.066	8684.72
644.419	8691.72
644.771	8611.5
645.124	8570.37
645.477	8520.2
645.83	8460.54
646.182	8419.64
646.535	8379.41
646.888	8407.89
647.24	8340.32
647.593	8418.96
647.945	8384.84
648.298	8355.01
648.65	8317.49
649.002	8306.87
649.355	8387.32
649.707	8362.92
650.059	8431.61
650.411	8502.35
650.763	8489.69
651.115	8654.21
651.467	8556.36
651.819	8568.33
652.171	8596.58
652.523	8508.45
652.875	8519.52
653.227	8526.98
653.578	8579.63
653.93	8517.94
654.282	8526.08
654.633	8529.69
654.985	8552.74
655.337	8539.18
655.688	8545.74
656.039	8571.72
656.391	8493.08
656.742	8533.31
657.094	8527.88
657.445	8544.15
657.796	8511.39
658.147	8538.73
658.498	8543.7
658.849	8559.52
659.2	8595.23
659.551	8548.45
659.902	8523.82
660.253	8502.8
660.604	8569.69
660.955	8564.27
661.306	8578.5
661.656	8562.68
662.007	8620.31
662.358	8593.42
662.708	8601.78
663.059	8610.82
663.409	8520.2
663.76	8597.71
664.11	8566.98
664.461	8624.6
664.811	8673.19
665.161	8543.02
665.511	8599.75
665.862	8618.95
666.212	8557.49
666.562	8645.85
666.912	8593.64
667.262	8592.51
667.612	8577.83
667.962	8565.4
668.312	8604.49
668.662	8636.35
669.011	8660.76
669.361	8599.75
669.711	8610.37
670.06	8599.97
670.41	8597.49
670.76	8604.94
671.109	8599.97
671.459	8598.16
671.808	8557.03
672.157	8615.34
672.507	8530.82
672.856	8595.45
673.205	8505.06
673.554	8466.64
673.904	8507.77
674.253	8560.2
674.602	8520.43
674.951	8372.41
675.3	8368.34
675.649	8467.77
675.998	8505.28
676.346	8454.21
676.695	8461.67
677.044	8417.6
677.393	8425.29
677.741	8456.92
678.09	8472.52
678.438	8411.5
678.787	8451.27
679.135	8440.65
679.484	8389.81
679.832	8391.16
680.181	8384.84
680.529	8434.1
680.877	8287.66
681.225	8319.3
681.573	8388
681.922	8281.79
682.27	8269.58
682.618	8278.4
682.966	8298.74
683.314	8240.43
683.661	8269.58
684.009	8196.37
684.357	8180.32
684.705	8163.37
685.053	8170.6
685.4	8211.06
685.748	8150.04
686.095	8139.19
686.443	8079.99
686.79	8043.83
687.138	8054.9
687.485	8033.66
687.832	8018.97
688.18	7977.62
688.527	7941.91
688.874	7969.03
689.221	7952.76
689.568	7862.36
689.915	7905.3
690.262	7880.67
690.609	7816.04
690.956	7851.74
691.303	7854.45
691.65	7735.14
691.997	7776.94
692.344	7663.05
692.69	7691.07
693.037	7720.45
693.383	7609.94
693.73	7596.38
694.077	7552.77
694.423	7591.18
694.769	7560.22
695.116	7511.86
695.462	7428.93
695.808	7456.5
696.155	7469.15
696.501	7407.46
696.847	7405.88
697.193	7323.17
697.539	7368.82
697.885	7287.69
698.231	7266.45
698.577	7319.33
698.923	7244.53
699.269	7153.68
699.614	7168.37
699.96	7175.15
700.306	7059
700.651	7111.2
700.997	7091.08
701.342	7048.15
701.688	7016.28
702.033	6992.56
702.379	6985.55
702.724	6972.67
703.069	6992.33
703.415	6925.21
703.76	6934.7
704.105	6888.6
704.45	6828.72
704.795	6785.33
705.14	6785.56
705.485	6813.58
705.83	6824.43
706.175	6775.16
706.52	6734.94
706.865	6743.52
707.209	6707.59
707.554	6691.55
707.899	6695.61
708.243	6669.85
708.588	6717.08
708.932	6625.79
709.277	6604.54
709.621	6614.04
709.966	6563.19
710.31	6560.93
710.654	6513.47
710.998	6519.35
711.342	6582.4
711.687	6476.86
712.031	6469.63
712.375	6447.49
712.719	6470.31
713.063	6431.67
713.407	6447.03
713.75	6456.75
714.094	6428.73
714.438	6344.66
714.782	6358.9
715.125	6384.44
715.469	6368.17
715.812	6355.28
716.156	6264.89
716.499	6332.23
716.843	6343.08
717.186	6279.58
717.53	6312.8
717.873	6329.97
718.216	6336.75
718.559	6268.28
718.902	6226.02
719.246	6252.91
719.589	6223.08
719.932	6235.97
720.275	6255.4
720.617	6220.83
720.96	6233.93
721.303	6203.65
721.646	6200.26
721.989	6176.31
722.331	6207.04
722.674	6113.71
723.016	6158.91
723.359	6186.93
723.701	6123.88
724.044	6113.94
724.386	6128.17
724.729	6132.47
725.071	6137.66
725.413	6104.22
725.755	6120.26
726.097	6135.63
726.439	6070.32
726.782	6050.21
727.124	6131.34
727.465	6026.93
727.807	6056.99
728.149	6136.31
728.491	6068.29
728.833	6074.61
729.175	6056.99
729.516	6055.18
729.858	6108.06
730.199	6093.6
730.541	6096.31
730.882	6059.25
731.224	6035.75
731.565	6048.4
731.906	6128.62
732.248	6060.83
732.589	6012.24
732.93	6045.91
733.271	6033.71
733.612	6073.26
733.953	6035.07
734.294	6020.6
734.635	6025.35
734.976	6033.26
735.317	6051.34
735.658	6031.9
735.999	6108.51
736.339	6077.55
736.68	6065.57
737.021	6046.82
737.361	6033.71
737.702	6157.1
738.042	6099.7
738.383	6067.61
738.723	6117.33
739.063	6090.66
739.404	6152.35
739.744	6114.84
740.084	6119.58
740.424	6193.71
740.764	6147.61
741.104	6154.39
741.444	6106.48
741.784	6148.06
742.124	6193.26
742.464	6166.59
742.804	6240.26
743.143	6236.87
743.483	6310.99
743.823	6239.81
744.162	6311.9
744.502	6329.97
744.841	6315.74
745.181	6367.94
745.52	6339.24
745.86	6392.57
746.199	6464.89
746.538	6488.39
746.877	6524.32
747.216	6542.4
747.556	6558.44
747.895	6676.63
748.234	6682.06
748.573	6696.74
748.911	6750.53
749.25	6840.92
749.589	6838.66
749.928	6930.41
750.267	6966.12
750.605	7007.92
750.944	7093.34
751.283	7088.6
751.621	7187.13
751.96	7281.14
752.298	7366.56
752.636	7509.83
752.975	7540.34
753.313	7600.68
753.651	7732.42
753.989	7859.2
754.327	7908.69
754.666	7968.8
755.004	8174.22
755.342	8247.44
755.679	8362.69
756.017	8481.1
756.355	8605.17
756.693	8715
757.031	8938.04
757.368	9015.33
757.706	9143.69
758.044	9280.41
758.381	9359.05
758.719	9625.93
759.056	9707.51
759.394	9893.27
759.731	10004.68
760.068	10152.02
760.405	10310.89
760.743	10416.42
761.08	10619.58
761.417	10827.94
761.754	10960.81
762.091	11102.05
762.428	11279.22
762.765	11349.96
763.102	11583.62
763.438	11760.11
763.775	11905.42
764.112	12112.42
764.449	12337.27
764.785	12410.72
765.122	12500.21
765.458	12689.58
765.795	12894.77
766.131	13107.42
766.467	13224.48
766.804	13341.09
767.14	13460.86
767.476	13745.37
767.812	13800.74
768.148	13972.94
768.485	14082.09
768.821	14208.41
