Data from hue_130_FLMS001491_00038.txt Node
Date: Tue Feb 07 16:57:32 GMT 2017
User: dcchb
Spectrometer: FLMS00149
Trigger mode: 0
Integration Time (sec): 2.000000E-2
Scans to average: 10
Electric dark correction enabled: true
Nonlinearity correction enabled: false
Boxcar width: 0
XAxis mode: Wavelengths
Number of Pixels in Spectrum: 2048
>>>>>Begin Spectral Data<<<<<
341.393	-24.8
341.776	-24.8
342.16	-24.8
342.543	-72.71
342.927	-71.35
343.31	-72.03
343.693	-56.21
344.077	-91.01
344.46	-41.07
344.843	-49.66
345.226	-48.53
345.61	-47.4
345.993	-11.02
346.376	-5.59
346.759	0.28
347.142	11.58
347.525	36.44
347.908	58.59
348.291	77.12
348.674	120.96
349.057	117.57
349.44	138.81
349.823	135.19
350.206	152.14
350.588	208.19
350.971	210.22
351.354	246.38
351.737	240.28
352.119	244.34
352.502	275.53
352.884	262.42
353.267	261.97
353.65	298.81
354.032	306.04
354.414	298.13
354.797	308.3
355.179	313.49
355.562	329.54
355.944	320.95
356.326	329.99
356.709	344
357.091	342.19
357.473	331.12
357.855	341.97
358.238	326.6
358.62	341.97
359.002	355.08
359.384	338.13
359.766	333.83
360.148	330.9
360.53	335.19
360.912	328.86
361.294	353.49
361.676	338.58
362.057	349.2
362.439	324.34
362.821	320.95
363.203	329.99
363.584	328.86
363.966	313.49
364.348	321.4
364.729	316.66
365.111	329.09
365.493	302.42
365.874	313.95
366.256	314.4
366.637	302.65
367.019	324.12
367.4	327.73
367.781	323.44
368.163	301.52
368.544	329.31
368.925	323.44
369.306	330.9
369.688	331.35
370.069	332.48
370.45	332.25
370.831	324.34
371.212	313.72
371.593	313.49
371.974	303.78
372.355	350.1
372.736	318.69
373.117	299.26
373.498	324.34
373.879	308.75
374.26	319.14
374.641	312.14
375.021	326.15
375.402	321.63
375.783	327.96
376.163	329.54
376.544	318.69
376.925	336.09
377.305	319.14
377.686	320.05
378.066	336.54
378.447	321.4
378.827	322.31
379.208	327.05
379.588	313.04
379.968	335.19
380.349	332.48
380.729	338.35
381.109	320.73
381.489	346.26
381.87	330.9
382.25	331.8
382.63	336.77
383.01	347.17
383.39	330.22
383.77	343.32
384.15	352.59
384.53	348.75
384.91	346.94
385.29	349.43
385.67	350.33
386.049	355.3
386.429	345.36
386.809	337.67
387.189	358.92
387.568	343.55
387.948	361.4
388.328	349.65
388.707	352.59
389.087	327.73
389.466	350.33
389.846	355.98
390.225	366.37
390.605	369.09
390.984	356.66
391.363	350.33
391.743	387.16
392.122	373.15
392.501	369.76
392.881	364.34
393.26	374.28
393.639	377.9
394.018	388.97
394.397	376.32
394.776	379.26
395.155	372.48
395.534	372.48
395.913	386.04
396.292	384.45
396.671	378.58
397.05	405.02
397.429	382.65
397.808	406.15
398.186	390.33
398.565	392.14
398.944	395.3
399.323	397.11
399.701	408.86
400.08	392.81
400.458	400.27
400.837	399.14
401.215	411.57
401.594	399.82
401.972	400.5
402.351	409.76
402.729	427.39
403.107	404.57
403.486	435.98
403.864	420.61
404.242	397.79
404.62	414.73
404.999	412.02
405.377	424.9
405.755	419.93
406.133	440.27
406.511	423.77
406.889	431.68
407.267	447.95
407.645	456.99
408.023	439.82
408.401	454.51
408.779	447.05
409.156	459.93
409.534	445.02
409.912	452.02
410.29	459.25
410.667	460.16
411.045	444.34
411.422	472.81
411.8	460.61
412.178	474.17
412.555	466.94
412.933	474.62
413.31	483.66
413.687	495.41
414.065	500.16
414.442	484.34
414.819	474.85
415.197	494.51
415.574	486.82
415.951	496.99
416.328	513.04
416.705	507.84
417.082	522.53
417.46	511.46
417.837	524.34
418.214	525.69
418.591	529.08
418.967	557.1
419.344	516.65
419.721	518.91
420.098	532.47
420.475	534.28
420.852	543.77
421.228	548.74
421.605	565.01
421.982	539.25
422.358	557.56
422.735	568.4
423.111	541.74
423.488	562.98
423.864	570.21
424.241	590.32
424.617	560.04
424.994	573.83
425.37	605.01
425.746	584.67
426.123	591.91
426.499	583.09
426.875	601.17
427.251	610.44
427.627	612.92
428.003	595.52
428.379	598.68
428.756	629.64
429.132	631.9
429.507	648.63
429.883	634.62
430.259	653.15
430.635	656.99
431.011	664.67
431.387	671.45
431.763	666.71
432.138	678.91
432.514	668.29
432.89	684.56
433.265	703.31
433.641	701.73
434.016	703.09
434.392	709.64
434.767	725.24
435.143	730.21
435.518	726.82
435.894	728.17
436.269	765.46
436.644	720.04
437.02	738.57
437.395	727.49
437.77	740.6
438.145	780.6
438.52	775.18
438.895	784.89
439.271	786.7
439.646	785.8
440.021	805.23
440.395	790.77
440.77	811.79
441.145	825.57
441.52	815.4
441.895	810.43
442.27	851.56
442.645	830.32
443.019	838.45
443.394	843.42
443.769	830.32
444.143	834.16
444.518	850.66
444.892	862.86
445.267	859.69
445.641	890.43
446.016	870.77
446.39	887.26
446.764	880.71
447.139	906.7
447.513	885.23
447.887	877.55
448.262	932.46
448.636	924.33
449.01	920.03
449.384	927.04
449.758	947.6
450.132	941.5
450.506	919.58
450.88	960.03
451.254	953.7
451.628	958.68
452.002	955.06
452.376	975.17
452.75	985.34
453.123	1009.3
453.497	1002.29
453.871	1004.32
454.244	1029.86
454.618	1034.15
454.992	1030.76
455.365	1059.24
455.739	1081.38
456.112	1085.68
456.486	1110.54
456.859	1143.3
457.232	1112.8
457.606	1120.93
457.979	1161.83
458.352	1171.33
458.725	1187.14
459.099	1191.66
459.472	1230.76
459.845	1200.7
460.218	1204.54
460.591	1235.05
460.964	1261.04
461.337	1276.86
461.71	1316.63
462.083	1299.46
462.456	1318.21
462.829	1317.31
463.201	1339.46
463.574	1365.9
463.947	1384.2
464.32	1419.45
464.692	1450.19
465.065	1448.15
465.438	1428.27
465.81	1479.34
466.183	1500.58
466.555	1554.14
466.928	1522.05
467.3	1557.08
467.672	1579
468.045	1612.67
468.417	1632.33
468.789	1633.69
469.161	1685.21
469.534	1756.39
469.906	1756.17
470.278	1781.25
470.65	1832.1
471.022	1839.78
471.394	1879.1
471.766	1913.45
472.138	1932.21
472.51	2005.43
472.882	2033.68
473.253	2086.1
473.625	2074.35
473.997	2142.6
474.369	2182.15
474.74	2230.28
475.112	2297.17
475.484	2337.62
475.855	2378.75
476.227	2438.18
476.598	2516.37
476.97	2553.66
477.341	2618.07
477.713	2704.39
478.084	2765.63
478.455	2851.73
478.827	2894.67
479.198	2986.19
479.569	3007.66
479.94	3118.17
480.311	3199.29
480.682	3323.58
481.053	3450.36
481.424	3500.76
481.795	3601.09
482.166	3665.04
482.537	3741.2
482.908	3869.33
483.279	3954.75
483.65	4071.81
484.021	4189.1
484.391	4305.93
484.762	4394.29
485.133	4497.11
485.503	4590.67
485.874	4745.69
486.244	4844.67
486.615	4950.43
486.985	5077.89
487.356	5229.75
487.726	5354.49
488.097	5448.73
488.467	5564.43
488.837	5744.09
489.207	5855.27
489.578	6072.21
489.948	6140.01
490.318	6293.68
490.688	6382.71
491.058	6555.14
491.428	6639.88
491.798	6798.3
492.168	6940.21
492.538	7118.51
492.908	7264.27
493.278	7362.35
493.648	7537.03
494.017	7666.52
494.387	7760.3
494.757	7953.75
495.126	8098.37
495.496	8054.08
495.866	8252.95
496.235	8387.86
496.605	8469.21
496.974	8644.8
497.344	8783.78
497.713	8876.43
498.082	9029.42
498.452	9153.71
498.821	9246.82
499.19	9273.71
499.559	9477.32
499.928	9542.18
500.298	9682.97
500.667	9785.11
501.036	9771.1
501.405	10002.51
501.774	9961.38
502.143	10105.1
502.512	10206.57
502.88	10291.31
503.249	10331.31
503.618	10578.76
503.987	10673.22
504.356	10677.52
504.724	10704.63
505.093	10807.46
505.462	10830.51
505.83	10940.79
506.199	11063.72
506.567	11151.63
506.936	11245.64
507.304	11336.03
507.672	11357.95
508.041	11548
508.409	11561.11
508.777	11678.39
509.145	11749.58
509.514	11751.61
509.882	11857.37
510.25	11885.39
510.618	11892.85
510.986	12006.07
511.354	12150.47
511.722	12169.45
512.09	12188.21
512.458	12255.55
512.826	12324.48
513.193	12353.63
513.561	12361.54
513.929	12493.06
514.297	12575.55
514.664	12632.27
515.032	12716.33
515.4	12841.53
515.767	12766.95
516.135	12905.48
516.502	12732.38
516.869	12970.11
517.237	12973.73
517.604	12921.07
517.972	13007.62
518.339	13067.96
518.706	13074.74
519.073	13090.33
519.44	13198.13
519.808	13213.27
520.175	13295.98
520.542	13389.76
520.909	13339.37
521.276	13386.37
521.643	13461.62
522.009	13564.45
522.376	13547.72
522.743	13525.58
523.11	13685.57
523.477	13699.81
523.843	13754.27
524.21	13814.61
524.577	13907.26
524.943	13909.52
525.31	13951.78
525.676	14019.8
526.043	13936.87
526.409	13986.36
526.776	14098.67
527.142	14126.24
527.508	14123.53
527.874	14144.54
528.241	14159.68
528.607	14198.1
528.973	14156.97
529.339	14081.04
529.705	14303.86
530.071	14275.39
530.437	14358.1
530.803	14303.64
531.169	14368.94
531.535	14285.56
531.901	14162.85
532.267	14312.22
532.632	14302.96
532.998	14311.77
533.364	14316.29
533.73	14354.03
534.095	14261.15
534.461	14325.33
534.826	14366.46
535.192	14349.51
535.557	14381.83
535.923	14303.18
536.288	14259.12
536.653	14346.8
537.019	14242.62
537.384	14262.28
537.749	14299.34
538.114	14166.01
538.479	14159.23
538.845	14152.68
539.21	14068.84
539.575	14009.41
539.94	14016.19
540.305	14148.16
540.67	14004.89
541.034	13995.39
541.399	13963.08
541.764	13926.02
542.129	13981.16
542.494	13835.17
542.858	13938.45
543.223	13855.74
543.587	13951.33
543.952	13800.37
544.316	13809.86
544.681	13707.49
545.045	13712.24
545.41	13778.68
545.774	13748.4
546.138	13726.93
546.503	13664.33
546.867	13609.42
547.231	13672.47
547.595	13585.01
547.959	13526.03
548.324	13528.06
548.688	13479.02
549.052	13422.08
549.416	13458.91
549.779	13369.42
550.143	13396.99
550.507	13424.34
550.871	13374.39
551.235	13311.57
551.599	13347.5
551.962	13283.55
552.326	13311.12
552.689	13244.68
553.053	13137.34
553.417	13154.06
553.78	13321.97
554.143	13186.38
554.507	13201.07
554.87	13134.4
555.234	13187.73
555.597	13041.75
555.96	13066.61
556.323	13053.95
556.686	13102.31
557.05	13087.17
557.413	13115.19
557.776	13096.89
558.139	13100.95
558.502	13122.2
558.865	13025.25
559.228	13064.12
559.59	13100.28
559.953	13049.66
560.316	13098.92
560.679	13101.86
561.041	13148.41
561.404	13081.97
561.767	13144.12
562.129	13061.18
562.492	13115.64
562.854	13115.64
563.217	13049.2
563.579	13145.7
563.941	13144.57
564.304	13160.84
564.666	13164
565.028	13216.66
565.39	13167.39
565.753	13260.72
566.115	13222.99
566.477	13345.92
566.839	13343.66
567.201	13433.15
567.563	13227.96
567.925	13324
568.287	13350.67
568.648	13281.74
569.01	13394.73
569.372	13366.71
569.734	13357.67
570.095	13498.91
570.457	13459.36
570.819	13493.04
571.18	13427.73
571.542	13452.13
571.903	13490.78
572.265	13577.1
572.626	13517.67
572.987	13455.75
573.349	13540.27
573.71	13551.34
574.071	13543.2
574.432	13532.81
574.794	13639.7
575.155	13640.83
575.516	13528.29
575.877	13567.84
576.238	13646.03
576.599	13648.96
576.96	13617.55
577.32	13612.58
577.681	13738
578.042	13565.58
578.403	13631.79
578.763	13599.47
579.124	13577.33
579.485	13762.41
579.845	13709.53
580.206	13631.11
580.566	13646.25
580.927	13627.04
581.287	13627.49
581.648	13637.89
582.008	13627.49
582.368	13643.31
582.728	13695.74
583.089	13689.64
583.449	13662.97
583.809	13686.48
584.169	13619.36
584.529	13603.31
584.889	13664.78
585.249	13579.36
585.609	13593.82
585.969	13652.13
586.329	13591.79
586.688	13592.69
587.048	13529.64
587.408	13490.32
587.768	13567.38
588.127	13454.62
588.487	13430.21
588.846	13499.59
589.206	13467.72
589.565	13472.47
589.925	13503.43
590.284	13532.36
590.643	13474.96
591.003	13482.41
591.362	13485.58
591.721	13439.03
592.08	13512.24
592.44	13523.32
592.799	13459.14
593.158	13448.97
593.517	13463.21
593.876	13472.7
594.235	13396.09
594.593	13438.57
594.952	13400.83
595.311	13390.66
595.67	13367.84
596.029	13475.86
596.387	13418.91
596.746	13488.97
597.104	13357.9
597.463	13335.53
597.822	13482.41
598.18	13408.97
598.538	13401.96
598.897	13431.34
599.255	13311.57
599.613	13435.86
599.972	13384.56
600.33	13438.57
600.688	13358.12
601.046	13393.15
601.404	13326.71
601.762	13281.52
602.12	13390.89
602.478	13427.73
602.836	13351.12
603.194	13309.99
603.552	13340.04
603.91	13287.39
604.268	13353.6
604.625	13300.5
604.983	13284.68
605.341	13366.26
605.698	13327.84
606.056	13386.82
606.413	13401.29
606.771	13373.26
607.128	13362.19
607.485	13398.12
607.843	13354.06
608.2	13397.67
608.557	13485.8
608.914	13391.79
609.272	13428.63
609.629	13504.11
609.986	13582.07
610.343	13411.91
610.7	13433.83
611.057	13495.75
611.414	13418.46
611.771	13446.03
612.127	13535.29
612.484	13547.04
612.841	13613.26
613.198	13484.45
613.554	13541.17
613.911	13681.05
614.267	13596.76
614.624	13582.75
614.98	13593.6
615.337	13702.3
615.693	13643.31
616.05	13634.27
616.406	13672.47
616.762	13663.65
617.118	13671.79
617.475	13671.34
617.831	13672.47
618.187	13706.36
618.543	13763.08
618.899	13792.69
619.255	13664.1
619.611	13705.46
619.967	13811.9
620.323	13791.11
620.678	13806.25
621.034	13720.15
621.39	13733.03
621.746	13745.68
622.101	13924.89
622.457	13815.29
622.812	13797.43
623.168	13823.65
623.523	13784.1
623.879	13820.26
624.234	13614.16
624.589	13763.31
624.945	13783.65
625.3	13764.89
625.655	13848.51
626.01	13786.13
626.365	13861.39
626.72	13744.78
627.075	13712.92
627.43	13763.08
627.785	13754.5
628.14	13728.06
628.495	13743.88
628.85	13763.76
629.205	13658.23
629.559	13745.68
629.914	13720.83
630.269	13728.96
630.623	13649.64
630.978	13642.64
631.332	13754.72
631.687	13678.57
632.041	13677.66
632.396	13570.32
632.75	13574.39
633.104	13632.47
633.459	13525.35
633.813	13626.59
634.167	13593.15
634.521	13492.36
634.875	13534.16
635.229	13525.8
635.583	13530.32
635.937	13482.87
636.291	13469.76
636.645	13518.12
636.999	13442.19
637.352	13507.05
637.706	13309.09
638.06	13391.57
638.413	13354.51
638.767	13305.02
639.121	13346.15
639.474	13302.31
639.828	13273.15
640.181	13292.81
640.534	13314.73
640.888	13264.34
641.241	13254.17
641.594	13207.17
641.947	13273.38
642.301	13187.96
642.654	13243.32
643.007	13247.62
643.36	13236.32
643.713	13233.83
644.066	13312.7
644.419	13136.43
644.771	13046.49
645.124	12935.08
645.477	12910.68
645.83	12898.7
646.182	12825.26
646.535	12832.26
646.888	12890.34
647.24	12719.5
647.593	12807.63
647.945	12816.44
648.298	12677.01
648.65	12589.33
649.002	12597.92
649.355	12712.04
649.707	12854.41
650.059	12740.29
650.411	12918.13
650.763	12877.91
651.115	13129.65
651.467	12973.27
651.819	12980.96
652.171	13081.29
652.523	12993.84
652.875	12998.36
653.227	12929.66
653.578	12980.51
653.93	13018.02
654.282	13026.38
654.633	12875.88
654.985	12958.36
655.337	12962.65
655.688	12931.92
656.039	13008.98
656.391	12841.75
656.742	12971.24
657.094	12954.07
657.445	13018.25
657.796	13055.98
658.147	12914.52
658.498	12981.41
658.849	13028.64
659.2	13002.65
659.551	12949.77
659.902	13054.18
660.253	13082.42
660.604	13072.03
660.955	13010.56
661.306	13026.83
661.656	13062.09
662.007	13058.24
662.358	13038.58
662.708	13011.24
663.059	13035.65
663.409	12993.16
663.76	13031.58
664.11	13037.68
664.461	13047.4
664.811	13027.74
665.161	13025.48
665.511	13025.93
665.862	13045.36
666.212	13080.62
666.562	13179.6
666.912	13027.06
667.262	13055.53
667.612	13006.49
667.962	13043.56
668.312	13016.89
668.662	13085.14
669.011	13069.09
669.361	12979.15
669.711	12975.76
670.06	12952.94
670.41	13019.15
670.76	12935.76
671.109	12995.2
671.459	12980.96
671.808	12973.95
672.157	12990.9
672.507	12939.15
672.856	12971.92
673.205	12934.18
673.554	12965.59
673.904	12895.08
674.253	13001.3
674.602	12940.96
674.951	12766.5
675.3	12645.6
675.649	12829.32
675.998	12882.2
676.346	12848.08
676.695	12903.45
677.044	12806.73
677.393	12881.53
677.741	12755.43
678.09	12789.1
678.438	12699.61
678.787	12780.06
679.135	12821.19
679.484	12695.54
679.832	12719.04
680.181	12766.95
680.529	12684.69
680.877	12742.09
681.225	12591.59
681.573	12682.66
681.922	12573.06
682.27	12559.05
682.618	12556.34
682.966	12480.63
683.314	12524.02
683.661	12518.15
684.009	12442.22
684.357	12429.11
684.705	12402.89
685.053	12385.72
685.4	12415.78
685.748	12352.73
686.095	12276.12
686.443	12271.15
686.79	12296.68
687.138	12271.37
687.485	12256.46
687.832	12185.95
688.18	12203.58
688.527	12087.87
688.874	12055.78
689.221	12037.03
689.568	11975.79
689.915	11997.93
690.262	11991.38
690.609	11957.03
690.956	11842.23
691.303	11867.54
691.65	11840.65
691.997	11728.11
692.344	11715
692.69	11697.83
693.037	11587.77
693.383	11569.47
693.73	11597.72
694.077	11573.09
694.423	11514.33
694.769	11465.74
695.116	11416.48
695.462	11423.94
695.808	11403.15
696.155	11412.64
696.501	11303.26
696.847	11361.79
697.193	11264.39
697.539	11248.57
697.885	11145.98
698.231	11100.56
698.577	11089.26
698.923	11039.77
699.269	10955.93
699.614	10919.32
699.96	10870.05
700.306	10901.46
700.651	10809.04
700.997	10797.51
701.342	10739.89
701.688	10790.06
702.033	10627.12
702.379	10710.28
702.724	10668.93
703.069	10618.99
703.415	10509.38
703.76	10447.92
704.105	10542.15
704.45	10554.13
704.795	10394.81
705.14	10348.26
705.485	10393.68
705.83	10354.36
706.175	10314.59
706.52	10204.08
706.865	10241.14
707.209	10238.88
707.554	10150.52
707.899	10188.94
708.243	10155.27
708.588	10080.02
708.932	10057.87
709.277	10065.78
709.621	10034.14
709.966	9973.35
710.31	9972.22
710.654	9879.12
710.998	9865.33
711.342	9913.47
711.687	9921.15
712.031	9842.96
712.375	9858.1
712.719	9827.59
713.063	9749.4
713.407	9840.48
713.75	9743.3
714.094	9774.94
714.438	9670.54
714.782	9693.13
715.125	9600.93
715.469	9644.32
715.812	9555.51
716.156	9540.14
716.499	9565
716.843	9582.18
717.186	9551.67
717.53	9592.12
717.873	9561.39
718.216	9456.98
718.559	9460.6
718.902	9431.22
719.246	9419.47
719.589	9441.84
719.932	9360.94
720.275	9363.43
720.617	9433.48
720.96	9430.77
721.303	9332.47
721.646	9313.03
721.989	9306.93
722.331	9380.15
722.674	9343.09
723.016	9299.7
723.359	9332.47
723.701	9336.99
724.044	9308.06
724.386	9252.24
724.729	9253.37
725.071	9224.67
725.413	9257.67
725.755	9249.3
726.097	9158.69
726.439	9198.91
726.782	9196.2
727.124	9155.75
727.465	9164.34
727.807	9155.97
728.149	9163.43
728.491	9157.56
728.833	9148.06
729.175	9137.67
729.516	9131.57
729.858	9142.64
730.199	9170.21
730.541	9065.13
730.882	9056.32
731.224	9148.97
731.565	9085.69
731.906	9165.24
732.248	9122.53
732.589	9083.89
732.93	9099.03
733.271	9057.45
733.612	9089.54
733.953	9088.18
734.294	9109.65
734.635	9053.15
734.976	9092.47
735.317	9000.95
735.658	9077.78
735.999	9068.74
736.339	8998.01
736.68	9085.47
737.021	9050.44
737.361	9028.07
737.702	9066.94
738.042	9074.62
738.383	9068.74
738.723	9111.68
739.063	9069.42
739.404	9128.4
739.744	9094.73
740.084	9159.14
740.424	9078.46
740.764	9111.68
741.104	9158.46
741.444	9170.44
741.784	9207.27
742.124	9114.17
742.464	9195.07
742.804	9134.96
743.143	9168.85
743.483	9275.97
743.823	9170.21
744.162	9314.61
744.502	9291.34
744.841	9316.65
745.181	9374.27
745.52	9408.4
745.86	9488.17
746.199	9505.8
746.538	9532.24
746.877	9568.17
747.216	9615.85
747.556	9673.25
747.895	9653.36
748.234	9728.84
748.573	9722.51
748.911	9779.01
749.25	9864.88
749.589	9898.55
749.928	10050.64
750.267	10038.21
750.605	10135.84
750.944	10133.12
751.283	10240.69
751.621	10312.78
751.96	10379.9
752.298	10494.7
752.636	10577.41
752.975	10618.53
753.313	10709.15
753.651	10840.9
753.989	10948.47
754.327	10987.34
754.666	11115.02
755.004	11264.85
755.342	11352.75
755.679	11522.01
756.017	11602.01
756.355	11769.69
756.693	11872.74
757.031	11992.74
757.368	12066.63
757.706	12202.45
758.044	12361.31
758.381	12591.59
