Data from hue_36_FLMS001491_00061.txt Node
Date: Tue Feb 07 17:30:07 GMT 2017
User: dcchb
Spectrometer: FLMS00149
Trigger mode: 0
Integration Time (sec): 2.000000E-2
Scans to average: 10
Electric dark correction enabled: true
Nonlinearity correction enabled: false
Boxcar width: 0
XAxis mode: Wavelengths
Number of Pixels in Spectrum: 2048
>>>>>Begin Spectral Data<<<<<
341.393	3.16
341.776	3.16
342.16	3.16
342.543	-71.64
342.927	-54.01
343.31	-64.18
343.693	-62.82
344.077	-68.25
344.46	-47.46
344.843	-64.86
345.226	-32.32
345.61	-25.08
345.993	-23.73
346.376	-4.07
346.759	13.78
347.142	35.71
347.525	48.59
347.908	48.81
348.291	57.85
348.674	86.78
349.057	101.24
349.44	125.19
349.823	133.33
350.206	142.37
350.588	174.91
350.971	195.02
351.354	228.24
351.737	251.74
352.119	246.1
352.502	254.23
352.884	282.48
353.267	285.87
353.65	303.49
354.032	292.65
354.414	323.16
354.797	297.62
355.179	301.01
355.562	345.08
355.944	328.8
356.326	328.35
356.709	349.37
357.091	338.75
357.473	344.4
357.855	336.26
358.238	362.48
358.62	334.45
359.002	342.59
359.384	346.43
359.766	332.65
360.148	336.26
360.53	324.51
360.912	325.19
361.294	343.95
361.676	327.68
362.057	320.44
362.439	327.45
362.821	331.97
363.203	327.68
363.584	336.49
363.966	342.36
364.348	329.03
364.729	318.86
365.111	326.09
365.493	325.42
365.874	323.38
366.256	305.08
366.637	317.96
367.019	293.78
367.4	340.33
367.781	316.15
368.163	304.17
368.544	306.43
368.925	314.34
369.306	326.55
369.688	309.14
370.069	312.31
370.45	283.61
370.831	310.73
371.212	290.84
371.593	325.87
371.974	314.57
372.355	311.86
372.736	316.38
373.117	345.3
373.498	314.57
373.879	310.05
374.26	302.82
374.641	315.25
375.021	296.26
375.402	310.27
375.783	310.05
376.163	331.29
376.544	321.8
376.925	323.61
377.305	316.83
377.686	350.95
378.066	320.44
378.447	322.48
378.827	327.68
379.208	327.9
379.588	325.19
379.968	325.19
380.349	330.16
380.729	335.13
381.109	325.87
381.489	330.39
381.87	333.1
382.25	335.36
382.63	324.06
383.01	332.42
383.39	348.24
383.77	349.14
384.15	347.34
384.53	364.51
384.91	342.82
385.29	336.26
385.67	352.99
386.049	349.14
386.429	359.31
386.809	336.04
387.189	339.2
387.568	364.06
387.948	342.59
388.328	359.54
388.707	376.04
389.087	363.38
389.466	359.09
389.846	355.47
390.225	360.89
390.605	362.93
390.984	362.02
391.363	352.76
391.743	345.98
392.122	349.14
392.501	355.7
392.881	352.53
393.26	376.94
393.639	368.13
394.018	355.92
394.397	371.52
394.776	378.3
395.155	381.68
395.534	369.26
395.913	350.05
396.292	373.55
396.671	393.66
397.05	358.18
397.429	362.93
397.808	370.16
398.186	383.04
398.565	359.99
398.944	402.48
399.323	381.23
399.701	376.49
400.08	391.63
400.458	384.4
400.837	400.22
401.215	375.81
401.594	391.63
401.972	387.11
402.351	383.49
402.729	395.92
403.107	374.91
403.486	397.28
403.864	396.83
404.242	391.18
404.62	390.05
404.999	395.02
405.377	414.9
405.755	404.28
406.133	412.64
406.511	407.67
406.889	426.88
407.267	406.09
407.645	406.32
408.023	416.03
408.401	418.07
408.779	420.78
409.156	410.61
409.534	418.07
409.912	442.93
410.29	450.16
410.667	452.87
411.045	435.92
411.422	428.92
411.8	441.8
412.178	458.75
412.555	447.9
412.933	467.33
413.31	469.14
413.687	453.55
414.065	448.12
414.442	459.65
414.819	456.94
415.197	490.83
415.574	475.69
415.951	495.81
416.328	460.1
416.705	467.56
417.082	496.71
417.46	476.82
417.837	484.06
418.214	483.15
418.591	492.87
418.967	479.08
419.344	482.02
419.721	506.65
420.098	475.24
420.475	507.33
420.852	509.37
421.228	500.1
421.605	530.16
421.982	516.37
422.358	509.59
422.735	516.6
423.111	514.56
423.488	517.27
423.864	530.38
424.241	545.97
424.617	530.16
424.994	539.19
425.37	543.71
425.746	546.43
426.123	526.31
426.499	533.77
426.875	559.76
427.251	563.15
427.627	548.91
428.003	543.04
428.379	581.91
428.756	572.19
429.132	585.3
429.507	595.69
429.883	580.55
430.259	583.71
430.635	608.8
431.011	585.3
431.387	578.52
431.763	620.55
432.138	599.08
432.514	597.27
432.89	620.32
433.265	614
433.641	604.73
434.016	618.29
434.392	628.01
434.767	647.21
435.143	628.91
435.518	642.02
435.894	629.81
436.269	671.62
436.644	657.84
437.02	664.16
437.395	659.19
437.77	679.53
438.145	696.25
438.52	685.86
438.895	692.86
439.271	682.69
439.646	687.67
440.021	705.07
440.395	728.34
440.77	703.94
441.145	694.9
441.52	719.53
441.895	727.44
442.27	734.22
442.645	730.38
443.019	722.24
443.394	713.88
443.769	733.54
444.143	721.11
444.518	746.42
444.892	722.24
445.267	744.39
445.641	752.75
446.016	722.69
446.39	744.84
446.764	766.53
447.139	759.98
447.513	776.93
447.887	766.99
448.262	754.78
448.636	773.76
449.01	789.58
449.384	788.45
449.758	794.78
450.132	786.42
450.506	811.28
450.88	808.57
451.254	797.49
451.628	817.61
452.002	836.14
452.376	839.07
452.75	821.67
453.123	827.1
453.497	845.4
453.871	856.02
454.244	849.24
454.618	882.24
454.992	897.38
455.365	886.53
455.739	903.48
456.112	914.33
456.486	910.94
456.859	936.02
457.232	928.34
457.606	934.89
457.979	954.33
458.352	956.36
458.725	977.83
459.099	959.75
459.472	989.13
459.845	1006.08
460.218	981.22
460.591	1037.71
460.964	982.12
461.337	1016.02
461.71	1067.99
462.083	1061.22
462.456	1067.09
462.829	1068.22
463.201	1064.15
463.574	1082.23
463.947	1126.3
464.32	1156.35
464.692	1127.65
465.065	1135.34
465.438	1170.14
465.81	1179.63
466.183	1176.24
466.555	1199.06
466.928	1200.42
467.3	1237.93
467.672	1250.81
468.045	1270.7
468.417	1298.27
468.789	1279.74
469.161	1334.65
469.534	1322
469.906	1357.25
470.278	1375.78
470.65	1401.55
471.022	1442.9
471.394	1432.5
471.766	1419.85
472.138	1501.66
472.51	1545.72
472.882	1534.65
473.253	1583.69
473.625	1596.57
473.997	1661.88
474.369	1662.56
474.74	1691.25
475.112	1727.86
475.484	1764.7
475.855	1805.38
476.227	1810.35
476.598	1887.18
476.97	1942.1
477.341	1969.89
477.713	2019.61
478.084	2008.76
478.455	2091.7
478.827	2149.1
479.198	2204.91
479.569	2189.55
479.94	2316.55
480.311	2336.66
480.682	2414.17
481.053	2492.59
481.424	2557.45
481.795	2603.1
482.166	2668.18
482.537	2707.5
482.908	2843.09
483.279	2856.42
483.65	2937.32
484.021	3030.2
484.391	3133.7
484.762	3149.75
485.133	3228.62
485.503	3323.3
485.874	3430.42
486.244	3480.81
486.615	3536.86
486.985	3657.98
487.356	3771.65
487.726	3808.49
488.097	3918.32
488.467	3997.86
488.837	4080.8
489.207	4172.32
489.578	4326.89
489.948	4375.03
490.318	4462.03
490.688	4546.77
491.058	4635.36
491.428	4783.83
491.798	4854.34
492.168	5004.16
492.538	5051.84
492.908	5151.95
493.278	5236.47
493.648	5266.53
494.017	5421.78
494.387	5519.4
494.757	5614.99
495.126	5673.75
495.496	5743.8
495.866	5852.95
496.235	5936.12
496.605	6054.3
496.974	6099.5
497.344	6186.05
497.713	6225.83
498.082	6324.81
498.452	6428.31
498.821	6489.09
499.19	6582.88
499.559	6685.47
499.928	6763.89
500.298	6807.05
500.667	6915.07
501.036	6909.87
501.405	7067.84
501.774	7081.4
502.143	7167.72
502.512	7229.64
502.88	7346.25
503.249	7394.38
503.618	7436.87
503.987	7557.09
504.356	7523.64
504.724	7711.44
505.093	7713.92
505.462	7828.95
505.83	7858.55
506.199	7974.25
506.567	8080.69
506.936	8056.06
507.304	8200.46
507.672	8246.56
508.041	8311.65
508.409	8346.45
508.777	8385.77
509.145	8509.15
509.514	8519.55
509.882	8600
510.25	8638.19
510.618	8663.73
510.986	8698.08
511.354	8839.32
511.722	8916.15
512.09	8977.62
512.458	8998.18
512.826	9017.39
513.193	9120.66
513.561	9191.85
513.929	9250.6
514.297	9353.88
514.664	9379.64
515.032	9413.54
515.4	9476.14
515.767	9625.51
516.135	9593.19
516.502	9601.56
516.869	9771.95
517.237	9811.27
517.604	9755.22
517.972	9890.36
518.339	9923.13
518.706	10007.87
519.073	10000.64
519.44	10100.53
519.808	10151.37
520.175	10133.74
520.542	10275.21
520.909	10371.25
521.276	10319.05
521.643	10480.85
522.009	10555.2
522.376	10637.91
522.743	10599.72
523.11	10705.03
523.477	10820.28
523.843	10874.29
524.21	10929.66
524.577	11081.06
524.943	11081.29
525.31	11141.18
525.676	11273.38
526.043	11283.32
526.409	11365.35
526.776	11478.12
527.142	11434.73
527.508	11550.2
527.874	11599.47
528.241	11683.08
528.607	11668.17
528.973	11834.04
529.339	11895.28
529.705	12012.79
530.071	12083.75
530.437	12100.7
530.803	12208.94
531.169	12206.91
531.535	12257.98
531.901	12292.33
532.267	12343.18
532.632	12411.43
532.998	12489.62
533.364	12617.97
533.73	12635.37
534.095	12664.53
534.461	12677.18
534.826	12791.98
535.192	12886.89
535.557	13029.26
535.923	12936.83
536.288	13056.15
536.653	12988.59
537.019	12981.35
537.384	13094.12
537.749	13176.38
538.114	13255.47
538.479	13317.84
538.845	13395.35
539.21	13267.22
539.575	13478.97
539.94	13461.11
540.305	13521.23
540.67	13548.8
541.034	13625.18
541.399	13657.04
541.764	13712.41
542.129	13753.31
542.494	13721.22
542.858	13882.8
543.223	13919.63
543.587	14053.87
543.952	14026.07
544.316	14129.12
544.681	14135.67
545.045	14268.33
545.41	14249.12
545.774	14332.96
546.138	14374.09
546.503	14402.79
546.867	14429.68
547.231	14494.53
547.595	14501.54
547.959	14558.04
548.324	14584.02
548.688	14655.66
549.052	14783.34
549.416	14732.04
549.779	14823.57
550.143	14844.13
550.507	14960.96
550.871	15033.73
551.235	15033.73
551.599	15101.98
551.962	15184.69
552.326	15193.5
552.689	15240.73
553.053	15234.4
553.417	15245.93
553.78	15526.15
554.143	15354.62
554.507	15495.19
554.87	15512.81
555.234	15583.55
555.597	15666.71
555.96	15566.14
556.323	15755.52
556.686	15759.59
557.05	15905.8
557.413	15912.58
557.776	16014.27
558.139	16101.05
558.502	16176.52
558.865	16152.34
559.228	16240.7
559.59	16230.53
559.953	16348.95
560.316	16439.12
560.679	16478.21
561.041	16503.97
561.404	16535.16
561.767	16633.91
562.129	16626.46
562.492	16796.62
562.854	16830.07
563.217	16872.55
563.579	16906.9
563.941	16991.64
564.304	16989.61
564.666	17141.02
565.028	17210.17
565.39	17175.37
565.753	17272.54
566.115	17438.64
566.477	17402.93
566.839	17440.67
567.201	17628.01
567.563	17679.76
567.925	17752.75
568.287	17768.57
568.648	17769.93
569.01	17943.48
569.372	18135.34
569.734	17942.35
570.095	18167.21
570.457	18227.09
570.819	18303.7
571.18	18286.3
571.542	18382.34
571.903	18447.65
572.265	18516.12
572.626	18596.12
572.987	18667.31
573.349	18807.64
573.71	18824.82
574.071	18962.89
574.432	19000.86
574.794	19228.87
575.155	19180.51
575.516	19225.48
575.877	19544.12
576.238	19501.86
576.599	19676.54
576.96	19787.5
577.32	19784.56
577.681	20037.67
578.042	20110.66
578.403	20164.44
578.763	20281.27
579.124	20449.41
579.485	20508.16
579.845	20683.07
580.206	20814.14
580.566	20941.82
580.927	21073.8
581.287	21340
581.648	21339.1
582.008	21675.81
582.368	21710.84
582.728	21930.27
583.089	21996.94
583.449	22163.03
583.809	22346.31
584.169	22677.82
584.529	22839.63
584.889	23078.04
585.249	23174.31
585.609	23245.49
585.969	23588.98
586.329	23735.65
586.688	23923.89
587.048	24068.29
587.408	24249.53
587.768	24542.18
588.127	24684.1
588.487	24857.88
588.846	25322.95
589.206	25423.74
589.565	25513.91
589.925	25823.95
590.284	26070.95
590.643	26194.57
591.003	26654.44
591.362	26823.02
591.721	26934.66
592.08	27111.83
592.44	27507.53
592.799	27595.21
593.158	27809.66
593.517	28060.28
593.876	28428.41
594.235	28448.07
594.593	28687.16
594.952	28949.07
595.311	29178.89
595.67	29330.3
596.029	29710.63
596.387	29814.36
596.746	30176.61
597.104	30176.61
597.463	30446.43
597.822	30783.15
598.18	30919.41
598.538	30981.33
598.897	31505.39
599.255	31303.13
599.613	32018.37
599.972	31943.57
600.33	32318.92
600.688	32299.94
601.046	32613.38
601.404	33032.8
601.762	32899.25
602.12	33367.03
602.478	33376.75
602.836	33579.23
603.194	33502.4
603.552	33858.09
603.91	33912.33
604.268	34227.8
604.625	34343.28
604.983	34601.12
605.341	34529.04
605.698	34819.88
606.056	35022.58
606.413	35164.95
606.771	35344.16
607.128	35496.47
607.485	35521.1
607.843	35635
608.2	35907.08
608.557	36091.71
608.914	36203.34
609.272	36354.98
609.629	36645.82
609.986	36695.76
610.343	36670.67
610.7	37214.16
611.057	37081.74
611.414	37217.55
611.771	37403.31
612.127	37621.61
612.484	37602.85
612.841	37926.23
613.198	37799.91
613.554	38039.9
613.911	38243.74
614.267	38273.34
614.624	38392.21
614.98	38523.51
615.337	38775.03
615.693	38754.46
616.05	38660.9
616.406	38996.71
616.762	38926.21
617.118	39135.24
617.475	39222.02
617.831	39332.98
618.187	39334.78
618.543	39503.37
618.899	39814.55
619.255	39764.83
619.611	39638.51
619.967	39986.52
620.323	40106.29
620.678	39930.25
621.034	40008.21
621.39	40201.43
621.746	40107.19
622.101	40517.58
622.457	40117.14
622.812	40518.71
623.168	40645.71
623.523	40588.09
623.879	40741.53
624.234	40498.14
624.589	40685.48
624.945	40784.24
625.3	40841.64
625.655	40942.2
626.01	40902.2
626.365	40940.17
626.72	41017
627.075	41029.66
627.43	40991.01
627.785	41009.32
628.14	41040.5
628.495	41050.45
628.85	41133.38
629.205	41059.94
629.559	41350.55
629.914	41092.25
630.269	41150.33
630.623	41092.93
630.978	41053.16
631.332	41399.59
631.687	41362.53
632.041	41134.96
632.396	41294.06
632.75	41149.43
633.104	41183.1
633.459	41086.83
633.813	41134.29
634.167	41196.2
634.521	41115.98
634.875	41359.82
635.229	41224.45
635.583	41145.58
635.937	41160.5
636.291	40978.58
636.645	41141.29
636.999	41006.83
637.352	41219.71
637.706	40872.6
638.06	41074.63
638.413	40862.65
638.767	40850.68
639.121	40921.64
639.474	40767.52
639.828	40942.65
640.181	40771.13
640.534	40976.78
640.888	40796.89
641.241	40640.06
641.594	40668.08
641.947	40915.53
642.301	40851.58
642.654	40951.24
643.007	40804.58
643.36	40867.4
643.713	40835.99
644.066	40868.98
644.419	40700.17
644.771	40470.35
645.124	39921.89
645.477	40017.25
645.83	39748.11
646.182	39596.25
646.535	39555.8
646.888	39638.51
647.24	39384.5
647.593	39605.06
647.945	39540.66
648.298	39257.27
648.65	39250.27
649.002	39253.66
649.355	39478.74
649.707	39285.52
650.059	39479.19
650.411	39976.12
650.763	39954.88
651.115	40347.41
651.467	40137.7
651.819	40242.78
652.171	40190.13
652.523	40066.74
652.875	40159.62
653.227	39957.37
653.578	40294.08
653.93	40012.28
654.282	39901.32
654.633	39784.94
654.985	39976.12
655.337	40008.89
655.688	39984.71
656.039	40000.53
656.391	39746.3
656.742	39869.69
657.094	39794.66
657.445	39921.21
657.796	39891.83
658.147	39869.01
658.498	39769.35
658.849	39834.43
659.2	39795.34
659.551	39674.44
659.902	39960.08
660.253	39635.57
660.604	39733.19
660.955	39649.13
661.306	39763.93
661.656	39567.32
662.007	39658.17
662.358	39606.87
662.708	39563.71
663.059	39590.37
663.409	39527.55
663.76	39848.44
664.11	39682.12
664.461	39701.33
664.811	39793.08
665.161	39807.77
665.511	39579.98
665.862	39673.76
666.212	39833.98
666.562	39701.1
666.912	39501.33
667.262	39591.73
667.612	39657.26
667.962	39681.89
668.312	39687.54
668.662	39670.37
669.011	39536.14
669.361	39475.57
669.711	39538.85
670.06	39625.4
670.41	39387.89
670.76	39388.79
671.109	39530.49
671.459	39505.4
671.808	39382.92
672.157	39464.5
672.507	39344.28
672.856	39301.57
673.205	39436.03
673.554	39422.69
673.904	39279.87
674.253	39567.32
674.602	39485.29
674.951	38655.71
675.3	38594.24
675.649	39200.1
675.998	39273.54
676.346	39208.91
676.695	39287.33
677.044	39061.12
677.393	39236.03
677.741	39309.93
678.09	39128.46
678.438	39099.08
678.787	39137.95
679.135	39139.76
679.484	38814.35
679.832	39034.45
680.181	38760.34
680.529	38935.02
680.877	38635.37
681.225	38697.97
681.573	38954.91
681.922	38681.69
682.27	38533.45
682.618	38640.79
682.966	38526.9
683.314	38533.22
683.661	38570.74
684.009	38147.25
684.357	38079.45
684.705	38163.06
685.053	38086.68
685.4	38088.94
685.748	38047.81
686.095	37900.02
686.443	37832.9
686.79	37747.71
687.138	37782.51
687.485	37728.73
687.832	37613.7
688.18	37656.86
688.527	37480.14
688.874	37586.81
689.221	37384.33
689.568	37255.29
689.915	37121.74
690.262	37170.1
690.609	37121.06
690.956	37127.84
691.303	37110.89
691.65	36824.34
691.997	36776.43
692.344	36593.84
692.69	36639.49
693.037	36609.21
693.383	36365.6
693.73	36465.93
694.077	36132.61
694.423	36185.26
694.769	36023.91
695.116	36066.17
695.462	36018.26
695.808	35968.77
696.155	35857.14
696.501	35675.22
696.847	35629.35
697.193	35507.09
697.539	35526.3
697.885	35350.93
698.231	35238.85
698.577	35151.39
698.923	35112.3
699.269	35108.46
699.614	34954.79
699.96	34878.63
700.306	34898.97
700.651	34804.51
700.997	34578.07
701.342	34581.24
701.688	34562.48
702.033	34289.27
702.379	34384.63
702.724	34255.37
703.069	34264.18
703.415	33981.93
703.76	34052.66
704.105	33971.54
704.45	33901.03
704.795	33764.31
705.14	33680.24
705.485	33525.45
705.83	33477.76
706.175	33626.91
706.52	33313.47
706.865	33309.18
707.209	33258.33
707.554	32978.57
707.899	33228.28
708.243	33075.97
708.588	33094.27
708.932	32752.59
709.277	32774.96
709.621	32755.3
709.966	32634.17
710.31	32625.36
710.654	32414.29
710.998	32376.1
711.342	32394.85
711.687	32377.23
712.031	32207.51
712.375	32054.75
712.719	32119.61
713.063	32095.88
713.407	32074.18
713.75	31811.14
714.094	31917.35
714.438	31822.44
714.782	31799.62
715.125	31685.49
715.469	31672.84
715.812	31466.97
716.156	31285.51
716.499	31338.16
716.843	31395.78
717.186	31174.32
717.53	31323.92
717.873	31351.94
718.216	31162.8
718.559	31165.73
718.902	30784.73
719.246	30990.82
719.589	30735.92
719.932	30706.31
720.275	30750.83
720.617	30671.28
720.96	30625.18
721.303	30707.22
721.646	30653.66
721.989	30588.57
722.331	30541.8
722.674	30464.28
723.016	30476.94
723.359	30306.55
723.701	30482.81
724.044	30213.22
724.386	30028.81
724.729	30188.58
725.071	30162.6
725.413	30145.2
725.755	30127.8
726.097	30015.48
726.439	29940
726.782	29943.85
727.124	29928.7
727.465	29737.75
727.807	29623.18
728.149	29716.28
728.491	29696.17
728.833	29634.25
729.175	29507.47
729.516	29595.15
729.858	29481.71
730.199	29478.09
730.541	29449.17
730.882	29350.41
731.224	29460.47
731.565	29180.48
731.906	29338.66
732.248	29253.92
732.589	28984.55
732.93	28928.73
733.271	29071.1
733.612	28981.61
733.953	29065.9
734.294	29042.4
734.635	28905.45
734.976	28944.1
735.317	28733.93
735.658	28783.42
735.999	28718.34
736.339	28780.49
736.68	28778
737.021	28631.79
737.361	28508.85
737.702	28693.03
738.042	28463.88
738.383	28538.68
738.723	28621.62
739.063	28289.65
739.404	28363.1
739.744	28350.44
740.084	28247.17
740.424	28235.64
740.764	28186.15
741.104	28338.92
741.444	28183.44
741.784	28074.52
742.124	28149.54
742.464	28163.55
742.804	28051.01
743.143	27894.86
743.483	27907.74
743.823	27769.67
744.162	27726.28
744.502	27767.63
744.841	27614.64
745.181	27689.67
745.52	27759.5
745.86	27617.35
746.199	27678.82
746.538	27447.19
746.877	27453.52
747.216	27578.48
747.556	27466.85
747.895	27420.75
748.234	27256.01
748.573	27214.65
748.911	27245.16
749.25	27270.7
749.589	27081.77
749.928	27086.29
750.267	27126.52
750.605	27114.09
750.944	26985.96
751.283	26884.04
751.621	27007.65
751.96	26823.25
752.298	26834.55
752.636	26772.63
752.975	26710.26
753.313	26573.76
753.651	26711.61
753.989	26484.28
754.327	26483.15
754.666	26388.46
755.004	26470.49
755.342	26473.65
755.679	26260.78
756.017	26167.45
756.355	26302.81
756.693	26177.16
757.031	26296.71
757.368	25971.52
757.706	26029.15
