Data from hue_50_FLMS001491_8.txt Node
Date: Mon Feb 06 15:09:30 GMT 2017
User: dcchb
Spectrometer: FLMS00149
Trigger mode: 0
Integration Time (sec): 2.000000E-2
Scans to average: 10
Electric dark correction enabled: true
Nonlinearity correction enabled: false
Boxcar width: 0
XAxis mode: Wavelengths
Number of Pixels in Spectrum: 2048
>>>>>Begin Spectral Data<<<<<
341.393	1.2
341.776	1.2
342.16	1.2
342.543	-56.2
342.927	-62.53
343.31	-79.7
343.693	-79.93
344.077	-64.79
344.46	-45.13
344.843	-42.19
345.226	-43.09
345.61	-33.37
345.993	1.43
346.376	-29.31
346.759	-0.38
347.142	29.9
347.525	43.91
347.908	74.19
348.291	53.63
348.674	98.6
349.057	116.23
349.44	135.66
349.823	126.62
350.206	169.78
350.588	178.37
350.971	221.08
351.354	210.46
351.737	235.32
352.119	257.92
352.502	244.13
352.884	271.48
353.267	290.46
353.65	292.49
354.032	289.33
354.414	300.4
354.797	320.74
355.179	326.39
355.562	312.83
355.944	335.43
356.326	326.39
356.709	320.29
357.091	329.1
357.473	341.3
357.855	323.45
358.238	325.49
358.62	339.27
359.002	333.4
359.384	337.24
359.766	346.73
360.148	333.62
360.53	334.75
360.912	350.57
361.294	339.04
361.676	342.21
362.057	339.04
362.439	337.91
362.821	341.3
363.203	316.67
363.584	330.01
363.966	323.9
364.348	325.71
364.729	345.82
365.111	333.85
365.493	311.93
365.874	337.69
366.256	300.63
366.637	305.6
367.019	311.25
367.4	309.22
367.781	320.97
368.163	318.93
368.544	306.28
368.925	319.38
369.306	311.25
369.688	309.67
370.069	318.93
370.45	293.17
370.831	316.67
371.212	329.55
371.593	300.4
371.974	315.32
372.355	317.58
372.736	306.96
373.117	334.98
373.498	316.45
373.879	322.1
374.26	300.18
374.641	305.37
375.021	323.68
375.402	309.44
375.783	300.18
376.163	325.49
376.544	336.78
376.925	337.91
377.305	332.49
377.686	322.32
378.066	312.6
378.447	333.62
378.827	306.96
379.208	332.94
379.588	327.52
379.968	329.1
380.349	344.02
380.729	326.62
381.109	337.01
381.489	344.24
381.87	326.62
382.25	340.17
382.63	348.54
383.01	337.01
383.39	329.78
383.77	333.85
384.15	351.02
384.53	335.88
384.91	349.21
385.29	330.68
385.67	340.63
386.049	349.44
386.429	339.95
386.809	356.45
387.189	343.56
387.568	356.67
387.948	352.38
388.328	357.12
388.707	354.64
389.087	356.67
389.466	372.26
389.846	345.6
390.225	379.27
390.605	339.95
390.984	367.74
391.363	352.6
391.743	359.84
392.122	369.55
392.501	364.81
392.881	381.3
393.26	372.49
393.639	360.74
394.018	350.12
394.397	374.52
394.776	371.36
395.155	365.71
395.534	368.42
395.913	372.49
396.292	389.66
396.671	376.11
397.05	362.32
397.429	377.69
397.808	376.33
398.186	381.53
398.565	366.16
398.944	364.13
399.323	385.15
399.701	391.02
400.08	388.31
400.458	361.19
400.837	367.07
401.215	396.67
401.594	376.33
401.972	377.46
402.351	393.28
402.729	379.04
403.107	378.14
403.486	384.92
403.864	390.34
404.242	397.57
404.62	391.47
404.999	414.07
405.377	394.41
405.755	413.39
406.133	373.62
406.511	412.04
406.889	387.18
407.267	404.13
407.645	391.92
408.023	438.03
408.401	387.63
408.779	423.11
409.156	425.37
409.534	398.03
409.912	427.4
410.29	430.34
410.667	453.17
411.045	424.01
411.422	405.71
411.8	416.1
412.178	439.38
412.555	405.94
412.933	426.95
413.31	421.08
413.687	449.78
414.065	457.69
414.442	454.52
414.819	446.16
415.197	444.35
415.574	454.07
415.951	463.56
416.328	465.37
416.705	461.75
417.082	477.8
417.46	489.1
417.837	491.36
418.214	481.64
418.591	469.21
418.967	488.65
419.344	451.36
419.721	472.15
420.098	480.96
420.475	479.61
420.852	483
421.228	504.01
421.605	485.26
421.982	500.85
422.358	514.86
422.735	498.14
423.111	495.42
423.488	521.86
423.864	510.79
424.241	506.05
424.617	505.14
424.994	527.51
425.37	523.22
425.746	533.62
426.123	526.84
426.499	527.29
426.875	527.06
427.251	520.73
427.627	543.33
428.003	537.23
428.379	549.66
428.756	549.89
429.132	555.54
429.507	547.4
429.883	550.79
430.259	561.64
430.635	568.64
431.011	578.36
431.387	580.85
431.763	568.87
432.138	580.85
432.514	595.08
432.89	576.33
433.265	607.06
433.641	609.32
434.016	602.09
434.392	589.21
434.767	604.8
435.143	623.11
435.518	608.64
435.894	610.9
436.269	625.36
436.644	641.41
437.02	637.12
437.395	641.64
437.77	645.93
438.145	661.3
438.52	657
438.895	654.06
439.271	662.2
439.646	675.99
440.021	695.87
440.395	691.35
440.77	678.7
441.145	675.99
441.52	688.41
441.895	681.41
442.27	713.72
442.645	684.12
443.019	697.45
443.394	697.23
443.769	727.74
444.143	695.87
444.518	708.3
444.892	708.98
445.267	713.72
445.641	720.5
446.016	740.39
446.39	750.11
446.764	721.86
447.139	731.8
447.513	710.11
447.887	734.97
448.262	755.08
448.636	751.01
449.01	755.76
449.384	755.3
449.758	762.76
450.132	766.6
450.506	761.86
450.88	756.89
451.254	780.39
451.628	800.73
452.002	787.17
452.376	779.03
452.75	809.77
453.123	825.59
453.497	827.85
453.871	836.21
454.244	838.24
454.618	829.2
454.992	847.51
455.365	842.53
455.739	851.8
456.112	877.34
456.486	898.8
456.859	881.18
457.232	878.24
457.606	907.84
457.979	890.44
458.352	896.32
458.725	911.46
459.099	937.9
459.472	957.56
459.845	965.47
460.218	960.95
460.591	951.01
460.964	983.55
461.337	1018.35
461.71	996.2
462.083	1013.15
462.456	1023.32
462.829	1026.94
463.201	1062.19
463.574	1054.28
463.947	1082.53
464.32	1067.61
464.692	1110.32
465.065	1108.74
465.438	1113.71
465.81	1155.29
466.183	1162.3
466.555	1190.1
466.928	1185.12
467.3	1172.47
467.672	1225.12
468.045	1233.26
468.417	1252.92
468.789	1258.57
469.161	1272.81
469.534	1309.87
469.906	1336.08
470.278	1360.26
470.65	1386.7
471.022	1367.27
471.394	1425.8
471.766	1433.93
472.138	1472.57
472.51	1496.98
472.882	1551.67
473.253	1569.29
473.625	1581.95
473.997	1624.21
474.369	1659.01
474.74	1661.04
475.112	1731.55
475.484	1753.47
475.855	1786.92
476.227	1845.22
476.598	1910.98
476.97	1917.31
477.341	1976.74
477.713	2025.33
478.084	2078.43
478.455	2137.19
478.827	2149.62
479.198	2233.23
479.569	2286.56
479.94	2387.58
480.311	2422.15
480.682	2478.42
481.053	2607.69
481.424	2669.83
481.795	2798.19
482.166	2807.45
482.537	2906.89
482.908	2962.7
483.279	3040.22
483.65	3097.39
484.021	3201.12
484.391	3319.08
484.762	3391.39
485.133	3462.35
485.503	3531.28
485.874	3662.8
486.244	3747.54
486.615	3889.23
486.985	3947.99
487.356	4096.46
487.726	4170.58
488.097	4353.63
488.467	4426.17
488.837	4530.8
489.207	4614.19
489.578	4719.04
489.948	4923.11
490.318	5021.86
490.688	5064.57
491.058	5217.56
491.428	5398.35
491.798	5414.39
492.168	5609.19
492.538	5698
492.908	5822.06
493.278	6016.18
493.648	6060.25
494.017	6188.16
494.387	6317.64
494.757	6437.87
495.126	6608.71
495.496	6740.68
495.866	6865.2
496.235	6948.81
496.605	7091.18
496.974	7170.96
497.344	7327.56
497.713	7402.81
498.082	7518.07
498.452	7672.64
498.821	7826.53
499.19	7827.44
499.559	8021.1
499.928	8169.8
500.298	8308.33
500.667	8418.38
501.036	8492.05
501.405	8681.2
501.774	8655.89
502.143	8816.11
502.512	8936.33
502.88	9061.75
503.249	9148.08
503.618	9256.32
503.987	9375.87
504.356	9482.99
504.724	9629.42
505.093	9638.46
505.462	9729.08
505.83	9956.19
506.199	10011.11
506.567	10137.88
506.936	10193.02
507.304	10343.98
507.672	10444.99
508.041	10542.39
508.409	10658.32
508.777	10741.94
509.145	10896.51
509.514	10989.61
509.882	11054.47
510.25	11165.88
510.618	11223.96
510.986	11314.12
511.354	11478.41
511.722	11579.88
512.09	11686.09
512.458	11741.23
512.826	11839.53
513.193	11941.9
513.561	12069.58
513.929	12157.49
514.297	12352.51
514.664	12444.72
515.032	12475.22
515.4	12640.42
515.767	12697.36
516.135	12794.31
516.502	12738.04
516.869	13057.35
517.237	13132.61
517.604	13055.55
517.972	13253.28
518.339	13302.77
518.706	13373.5
519.073	13560.17
519.44	13551.13
519.808	13801.97
520.175	13721.74
520.542	14020.72
520.909	13976.88
521.276	14078.8
521.643	14273.37
522.009	14375.06
522.376	14405.34
522.743	14496.86
523.11	14713.81
523.477	14779.34
523.843	14907.7
524.21	15003.52
524.577	15215.04
524.943	15352.21
525.31	15354.47
525.676	15516.27
526.043	15462.49
526.409	15680.34
526.776	15853.89
527.142	15921.91
527.508	16011.18
527.874	16174.11
528.241	16269.25
528.607	16300.21
528.973	16507.66
529.339	16453.88
529.705	16575.45
530.071	16749.01
530.437	16869.91
530.803	16996.01
531.169	17043.46
531.535	16986.06
531.901	17092.95
532.267	17161.65
532.632	17341.54
532.998	17491.81
533.364	17516.22
533.73	17592.15
534.095	17671.92
534.461	17776.33
534.826	17882.99
535.192	17926.6
535.557	18114.4
535.923	18020.16
536.288	18229.42
536.653	18257.9
537.019	18259.93
537.384	18301.74
537.749	18506.25
538.114	18438.46
538.479	18551.22
538.845	18726.58
539.21	18613.59
539.575	18729.97
539.94	18737.43
540.305	18888.39
540.67	18811.55
541.034	19038.44
541.399	19059.23
541.764	19171.77
542.129	19229.17
542.494	19221.94
542.858	19328.6
543.223	19394.59
543.587	19511.87
543.952	19502.16
544.316	19626.67
544.681	19620.57
545.045	19742.15
545.41	19752.77
545.774	19923.39
546.138	19922.71
546.503	19952.54
546.867	19968.13
547.231	20108.24
547.595	20181.46
547.959	20254.45
548.324	20261.68
548.688	20398.4
549.052	20427.1
549.416	20537.38
549.779	20488.57
550.143	20587.1
550.507	20687.44
550.871	20782.8
551.235	20742.12
551.599	21062.34
551.962	21077.03
552.326	21079.97
552.689	21136.46
553.053	21163.81
553.417	21067.54
553.78	21418.26
554.143	21382.79
554.507	21433.18
554.87	21499.17
555.234	21838.37
555.597	21630.46
555.96	21726.28
556.323	21829.33
556.686	21875.2
557.05	22047.85
557.413	22120.17
557.776	22175.08
558.139	22388.18
558.502	22253.95
558.865	22399.93
559.228	22658.01
559.59	22596.31
559.953	22746.14
560.316	22937.09
560.679	22974.83
561.041	23085.57
561.404	23159.91
561.767	23231.32
562.129	23241.27
562.492	23466.12
562.854	23352.22
563.217	23519.45
563.579	23558.1
563.941	23720.8
564.304	23772.55
564.666	23962.6
565.028	24056.61
565.39	24159.21
565.753	24227.46
566.115	24340.67
566.477	24342.48
566.839	24575.47
567.201	24724.84
567.563	24636.94
567.925	24901.56
568.287	24791.06
568.648	24918.51
569.01	24984.72
569.372	25233.76
569.734	25205.51
570.095	25401.66
570.457	25426.07
570.819	25563.92
571.18	25595.56
571.542	25688.66
571.903	25802.56
572.265	25836.23
572.626	25890.01
572.987	26019.73
573.349	26143.79
573.71	26165.26
574.071	26293.84
574.432	26325.93
574.794	26596.43
575.155	26555.3
575.516	26575.42
575.877	26677.56
576.238	26748.52
576.599	26964.33
576.96	27063.77
577.32	27077.55
577.681	27117.1
578.042	27314.38
578.403	27344.21
578.763	27347.15
579.124	27551.44
579.485	27626.46
579.845	27743.97
580.206	27802.5
580.566	27818.32
580.927	27956.17
581.287	28056.96
581.648	28055.38
582.008	28230.51
582.368	28328.82
582.728	28427.35
583.089	28465.99
583.449	28531.75
583.809	28765.64
584.169	28802.25
584.529	28855.13
584.889	29266.87
585.249	29060.1
585.609	29145.97
585.969	29397.49
586.329	29227.78
586.688	29490.82
587.048	29504.15
587.408	29568.33
587.768	29787.31
588.127	29726.97
588.487	29823.69
588.846	30036.12
589.206	29972.62
589.565	30091.71
589.925	30310.23
590.284	30274.3
590.643	30463.9
591.003	30599.94
591.362	30723.33
591.721	30801.75
592.08	30934.4
592.44	31145.24
592.799	31178.46
593.158	31184.11
593.517	31212.13
593.876	31331.68
594.235	31385.91
594.593	31549.98
594.952	31731.67
595.311	31663.64
595.67	31828.39
596.029	32123.97
596.387	32078.78
596.746	32192.9
597.104	32108.83
597.463	32238.32
597.822	32425.21
598.18	32471.31
598.538	32546.79
598.897	32783.39
599.255	32366
599.613	33079.65
599.972	32989.03
600.33	32967.57
600.688	32970.28
601.046	33115.81
601.404	33252.98
601.762	33221.34
602.12	33542.01
602.478	33610.26
602.836	33665.63
603.194	33505.4
603.552	33641.22
603.91	33689.58
604.268	33764.83
604.625	33675.8
604.983	33996.24
605.341	33933.64
605.698	34164.14
606.056	34243.69
606.413	34338.83
606.771	34509.67
607.128	34505.83
607.485	34346.74
607.843	34635.09
608.2	34685.71
608.557	34896.78
608.914	34765.94
609.272	35075.53
609.629	35089.09
609.986	35153.5
610.343	35113.05
610.7	35437.78
611.057	35406.15
611.414	35387.39
611.771	35591.9
612.127	35659.25
612.484	35573.6
612.841	35883.65
613.198	35670.32
613.554	35785.12
613.911	35966.36
614.267	36080.7
614.624	35960.48
614.98	36134.71
615.337	36295.39
615.693	36248.84
616.05	36274.82
616.406	36598.43
616.762	36401.6
617.118	36453.58
617.475	36494.25
617.831	36736.96
618.187	36598.43
618.543	36695.38
618.899	36984.41
619.255	36925.2
619.611	37052.66
619.967	36950.96
620.323	37168.36
620.678	37091.75
621.034	36953
621.39	37103.28
621.746	37101.02
622.101	37463.04
622.457	37097.4
622.812	37268.92
623.168	37445.87
623.523	37405.64
623.879	37494.23
624.234	37326.77
624.589	37426.43
624.945	37475.47
625.3	37574.45
625.655	37571.96
626.01	37616.03
626.365	37643.37
626.72	37602.02
627.075	37593.21
627.43	37701.45
627.785	37637.95
628.14	37585.97
628.495	37721.79
628.85	37587.1
629.205	37577.84
629.559	37787.78
629.914	37602.47
630.269	37681.34
630.623	37764.73
630.978	37568.8
631.332	37751.85
631.687	37838.4
632.041	37782.35
632.396	37728.34
632.75	37601.57
633.104	37679.98
633.459	37537.16
633.813	37571.96
634.167	37597.95
634.521	37508.91
634.875	37618.74
635.229	37580.33
635.583	37446.09
635.937	37475.24
636.291	37390.27
636.645	37325.42
636.999	37424.62
637.352	37580.55
637.706	37358.18
638.06	37421.01
638.413	37353.66
638.767	37214.69
639.121	37403.83
639.474	37094.24
639.828	37225.98
640.181	37271.41
640.534	37447.22
640.888	37223.27
641.241	37110.51
641.594	37097.63
641.947	37215.14
642.301	37215.59
642.654	37036.61
643.007	37120.45
643.36	37079.32
643.713	37032.54
644.066	37223.27
644.419	36910.74
644.771	36710.97
645.124	36331.77
645.477	36283.18
645.83	36001.84
646.182	35923.19
646.535	35765.23
646.888	35924.55
647.24	35582.41
647.593	35856.75
647.945	35976.53
648.298	35658.79
648.65	35683.65
649.002	35546.71
649.355	35786.47
649.707	35698.12
650.059	35798.68
650.411	36133.81
650.763	36226.69
651.115	36717.98
651.467	36489.51
651.819	36465.78
652.171	36320.47
652.523	36265.11
652.875	36379
653.227	36148.95
653.578	36391.43
653.93	36406.8
654.282	36215.16
654.633	36173.58
654.985	36187.59
655.337	36165.22
655.688	36142.85
656.039	36463.29
656.391	36080.48
656.742	36042.51
657.094	36207.71
657.445	36290.19
657.796	36167.93
658.147	36053.59
658.498	35897.66
658.849	36245.45
659.2	35958
659.551	35881.61
659.902	36114.6
660.253	36115.05
660.604	36098.56
660.955	35820.82
661.306	36094.71
661.656	35978.56
662.007	36017.43
662.358	35863.08
662.708	35959.35
663.059	36075.73
663.409	35785.34
663.76	36053.81
664.11	36031.44
664.461	36080.93
664.811	35877.77
665.161	35832.8
665.511	35923.42
665.862	35914.15
666.212	36015.62
666.562	36001.61
666.912	35959.58
667.262	35811.33
667.612	35816.76
667.962	35901.27
668.312	35801.62
668.662	35961.16
669.011	35703.54
669.361	35777.89
669.711	35857.21
670.06	35686.14
670.41	35639.59
670.76	35602.3
671.109	35759.13
671.459	35762.75
671.808	35622.64
672.157	35686.82
672.507	35475.52
672.856	35487.27
673.205	35537.89
673.554	35711.45
673.904	35529.31
674.253	35658.34
674.602	35626.48
674.951	35081.18
675.3	34990.34
675.649	35432.81
675.998	35385.13
676.346	35503.09
676.695	35588.06
677.044	35268.97
677.393	35387.16
677.741	35518.01
678.09	35312.14
678.438	35203.21
678.787	35300.16
679.135	35193.04
679.484	35095.19
679.832	35194.17
680.181	34985.59
680.529	35102.65
680.877	35003.22
681.225	35040.51
681.573	35204.12
681.922	34925.48
682.27	34847.52
682.618	34854.52
682.966	34738.14
683.314	34821.53
683.661	34772.26
684.009	34611.36
684.357	34482.1
684.705	34588.54
685.053	34346.51
685.4	34415.44
685.748	34251.6
686.095	34302.9
686.443	34251.83
686.79	34144.48
687.138	34313.29
687.485	34071.27
687.832	34085.05
688.18	33956.47
688.527	33897.26
688.874	33744.95
689.221	33799.63
689.568	33692.29
689.915	33538.17
690.262	33674.44
690.609	33513.99
690.956	33488.23
691.303	33384.05
691.65	33181.35
691.997	33266.99
692.344	33089.6
692.69	33095.25
693.037	33135.24
693.383	32700.91
693.73	32931.41
694.077	32617.07
694.423	32780.23
694.769	32645.54
695.116	32590.17
695.462	32376.85
695.808	32410.29
696.155	32433.12
696.501	32274.7
696.847	32116.74
697.193	31989.96
697.539	32032.45
697.885	31784.09
698.231	31856.18
698.577	31693.02
698.923	31643.76
699.269	31563.53
699.614	31491.45
699.96	31307.5
700.306	31339.59
700.651	31302.07
700.997	31306.37
701.342	31200.83
701.688	31111.34
702.033	30965.36
702.379	30943.66
702.724	30798.58
703.069	30929.2
703.415	30539.61
703.76	30571.24
704.105	30613.95
704.45	30550.45
704.795	30314.08
705.14	30215.77
705.485	30193.63
705.83	30204.93
706.175	30203.57
706.52	30071.37
706.865	29985.95
707.209	29946.85
707.554	29891.26
707.899	29906.4
708.243	29763.81
708.588	29713.87
708.932	29559.97
709.277	29603.36
709.621	29524.49
709.966	29192.98
710.31	29442.46
710.654	29202.92
710.998	29197.95
711.342	29099.42
711.687	29070.72
712.031	28927.67
712.375	28835.02
712.719	28858.07
713.063	28831.18
713.407	28889.93
713.75	28786.66
714.094	28666.66
714.438	28659.88
714.782	28621.24
715.125	28494.91
715.469	28563.84
715.812	28374.01
716.156	28307.35
716.499	28195.71
716.843	28306.22
717.186	28150.29
717.53	28437.29
717.873	28167.92
718.216	28082.72
718.559	27965.89
718.902	27742.62
719.246	27872.11
719.589	27867.36
719.932	27619.68
720.275	27748.27
720.617	27552.57
720.96	27637.08
721.303	27677.99
721.646	27637.31
721.989	27466.02
722.331	27517.99
722.674	27341.27
723.016	27496.52
723.359	27408.16
723.701	27386.47
724.044	27133.59
724.386	27124.33
724.729	27266.92
725.071	27143.99
725.413	27233.25
725.755	27057.66
726.097	26916.88
726.439	26908.74
726.782	26805.24
727.124	26901.06
727.465	26849.99
727.807	26778.12
728.149	26707.84
728.491	26715.07
728.833	26756.2
729.175	26495.87
729.516	26425.36
729.858	26456.32
730.199	26497
730.541	26348.53
730.882	26375.42
731.224	26433.27
731.565	26313.05
731.906	26219.04
732.248	26343.56
732.589	26082.55
732.93	26117.35
733.271	26144.02
733.612	26175.43
733.953	26160.29
734.294	26005.94
734.635	26050.01
734.976	26122.77
735.317	25805.49
735.658	25753.74
735.999	25817.92
736.339	25776.79
736.68	25824.48
737.021	25786.06
737.361	25678.72
737.702	25740.18
738.042	25548.78
738.383	25568.66
738.723	25633.75
739.063	25444.6
739.404	25581.77
739.744	25416.13
740.084	25388.78
740.424	25444.37
740.764	25308.56
741.104	25366.86
741.444	25222.46
741.784	25190.14
742.124	25263.81
742.464	25055.68
742.804	25045.97
743.143	25026.53
743.483	25013.88
743.823	24960.09
744.162	24955.12
744.502	25021.56
744.841	24773.66
745.181	24973.2
745.52	24653.43
745.86	24871.51
746.199	24851.62
746.538	24701.12
746.877	24833.77
747.216	24805.07
747.556	24777.95
747.895	24523.27
748.234	24569.37
748.573	24463.83
748.911	24362.37
749.25	24424.74
749.589	24298.64
749.928	24300.45
750.267	24365.08
750.605	24278.3
750.944	24205.76
751.283	24216.83
751.621	24189.27
751.96	24044.18
752.298	24127.57
752.636	24099.32
752.975	23947.24
753.313	23871.31
753.651	23911.76
753.989	23831.53
754.327	23793.57
754.666	23495.5
755.004	23716.06
755.342	23705.21
755.679	23664.31
756.017	23467.02
756.355	23563.74
756.693	23424.09
757.031	23564.87
