Data from hue_220_FLMS001491_00039.txt Node
Date: Tue Feb 07 16:39:23 GMT 2017
User: dcchb
Spectrometer: FLMS00149
Trigger mode: 0
Integration Time (sec): 2.000000E-2
Scans to average: 10
Electric dark correction enabled: true
Nonlinearity correction enabled: false
Boxcar width: 0
XAxis mode: Wavelengths
Number of Pixels in Spectrum: 2048
>>>>>Begin Spectral Data<<<<<
341.393	-2.02
341.776	-2.02
342.16	-2.02
342.543	-42.02
342.927	-59.87
343.31	-65.07
343.693	-55.13
344.077	-53.77
344.46	-75.69
344.843	-47.44
345.226	-43.37
345.61	-44.96
345.993	-25.75
346.376	0.92
346.759	-2.02
347.142	42.27
347.525	38.43
347.908	69.16
348.291	76.17
348.674	76.85
349.057	109.39
349.44	103.74
349.823	131.31
350.206	159.78
350.588	189.16
350.971	195.94
351.354	228.93
351.737	228.48
352.119	257.63
352.502	267.8
352.884	270.97
353.267	271.65
353.65	286.56
354.032	294.24
354.414	291.53
354.797	315.94
355.179	319.55
355.562	348.71
355.944	316.39
356.326	293.11
356.709	330.4
357.091	334.92
357.473	352.55
357.855	323.62
358.238	324.3
358.62	315.26
359.002	342.15
359.384	335.82
359.766	329.5
360.148	338.99
360.53	319.33
360.912	340.34
361.294	331.3
361.676	336.73
362.057	333.79
362.439	329.72
362.821	338.99
363.203	322.72
363.584	319.1
363.966	322.94
364.348	340.34
364.729	306.67
365.111	304.86
365.493	316.39
365.874	315.71
366.256	313.68
366.637	306.22
367.019	313.9
367.4	308.25
367.781	309.84
368.163	333.34
368.544	296.5
368.925	298.54
369.306	296.05
369.688	300.57
370.069	302.61
370.45	311.64
370.831	306.67
371.212	324.53
371.593	301.25
371.974	301.25
372.355	303.06
372.736	302.38
373.117	311.19
373.498	318.65
373.879	319.55
374.26	316.84
374.641	300.8
375.021	318.88
375.402	325.43
375.783	328.59
376.163	318.65
376.544	324.98
376.925	327.24
377.305	317.29
377.686	303.51
378.066	302.38
378.447	320.91
378.827	322.04
379.208	305.77
379.588	330.63
379.968	336.28
380.349	316.84
380.729	330.63
381.109	327.92
381.489	331.3
381.87	318.88
382.25	344.41
382.63	345.09
383.01	324.3
383.39	332.43
383.77	329.95
384.15	346.9
384.53	336.5
384.91	337.63
385.29	346.67
385.67	346.67
386.049	319.78
386.429	349.38
386.809	341.25
387.189	353.45
387.568	354.13
387.948	340.57
388.328	356.84
388.707	348.71
389.087	349.38
389.466	347.35
389.846	362.04
390.225	362.94
390.605	362.26
390.984	367.69
391.363	358.87
391.743	372.66
392.122	373.56
392.501	367.01
392.881	390.51
393.26	376.95
393.639	364.52
394.018	388.48
394.397	370.85
394.776	381.47
395.155	372.89
395.534	381.25
395.913	386.22
396.292	387.57
396.671	388.03
397.05	395.94
397.429	378.99
397.808	395.48
398.186	363.17
398.565	374.69
398.944	394.13
399.323	410.62
399.701	371.53
400.08	409.95
400.458	404.52
400.837	415.37
401.215	431.87
401.594	399.33
401.972	413.34
402.351	427.35
402.729	411.08
403.107	419.66
403.486	422.38
403.864	413.56
404.242	419.21
404.62	431.42
404.999	414.47
405.377	437.74
405.755	434.35
406.133	439.55
406.511	454.47
406.889	461.7
407.267	460.12
407.645	449.72
408.023	458.31
408.401	479.1
408.779	473
409.156	456.95
409.534	495.59
409.912	488.81
410.29	498.31
410.667	494.01
411.045	509.83
411.422	508.93
411.8	531.53
412.178	532.66
412.555	537.85
412.933	551.86
413.31	559.55
413.687	554.12
414.065	585.54
414.442	561.13
414.819	574.01
415.197	612.2
415.574	602.26
415.951	599.09
416.328	609.49
416.705	633.67
417.082	601.81
417.46	625.99
417.837	629.83
418.214	646.78
418.591	647.45
418.967	650.17
419.344	663.27
419.721	693.56
420.098	690.62
420.475	698.07
420.852	691.97
421.228	688.36
421.605	739.2
421.982	734.01
422.358	752.76
422.735	738.75
423.111	771.07
423.488	784.63
423.864	793.67
424.241	806.55
424.617	827.56
424.994	842.7
425.37	870.95
425.746	844.51
426.123	866.66
426.499	868.47
426.875	896.49
427.251	912.53
427.627	891.97
428.003	914.34
428.379	957.96
428.756	936.94
429.132	937.16
429.507	961.34
429.883	974.9
430.259	974.9
430.635	1001.8
431.011	988.91
431.387	1030.5
431.763	1046.99
432.138	1040.66
432.514	1057.84
432.89	1098.29
433.265	1091.28
433.641	1110.72
434.016	1151.4
434.392	1144.84
434.767	1213.77
435.143	1185.52
435.518	1201.11
435.894	1237.04
436.269	1272.52
436.644	1258.96
437.02	1286.99
437.395	1330.83
437.77	1327.21
438.145	1378.51
438.52	1384.61
438.895	1382.8
439.271	1402.92
439.646	1437.72
440.021	1469.81
440.395	1473.2
440.77	1479.98
441.145	1501.22
441.52	1520.43
441.895	1523.59
442.27	1543.25
442.645	1552.29
443.019	1606.75
443.394	1582.57
443.769	1616.02
444.143	1613.31
444.518	1626.86
444.892	1652.85
445.267	1625.96
445.641	1696.24
446.016	1658.73
446.39	1682.91
446.764	1714.77
447.139	1726.52
447.513	1744.6
447.887	1744.38
448.262	1743.92
448.636	1748.89
449.01	1760.19
449.384	1770.14
449.758	1812.62
450.132	1851.49
450.506	1832.73
450.88	1843.81
451.254	1840.42
451.628	1903.69
452.002	1901.89
452.376	1961.32
452.75	1928.1
453.123	1946.86
453.497	1985.95
453.871	1994.31
454.244	2042.9
454.618	2030.7
454.992	2056.91
455.365	2064.14
455.739	2133.07
456.112	2151.6
456.486	2171.93
456.859	2140.3
457.232	2190.69
457.606	2192.95
457.979	2222.78
458.352	2240.41
458.725	2283.57
459.099	2325.83
459.472	2342.33
459.845	2346.17
460.218	2357.24
460.591	2394.3
460.964	2374.19
461.337	2449.44
461.71	2485.6
462.083	2522.66
462.456	2488.76
462.829	2505.71
463.201	2567.86
463.574	2587.06
463.947	2620.74
464.32	2650.11
464.692	2671.81
465.065	2664.8
465.438	2714.75
465.81	2774.4
466.183	2794.29
466.555	2834.29
466.928	2837.68
467.3	2859.15
467.672	2887.85
468.045	2959.26
468.417	2981.4
468.789	2996.09
469.161	3001.07
469.534	3064.79
469.906	3119.48
470.278	3143.66
470.65	3149.76
471.022	3216.88
471.394	3239.7
471.766	3318.12
472.138	3352.92
472.51	3395.63
472.882	3431.56
473.253	3478.11
473.625	3478.34
473.997	3519.92
474.369	3634.04
474.74	3604.67
475.112	3660.48
475.484	3741.16
475.855	3781.38
476.227	3775.28
476.598	3914.71
476.97	3932.34
477.341	3983.41
477.713	4048.04
478.084	4041.94
478.455	4159.23
478.827	4173.92
479.198	4305.21
479.569	4330.52
479.94	4417.75
480.311	4445.09
480.682	4456.85
481.053	4594.24
481.424	4656.16
481.795	4666.56
482.166	4740
482.537	4802.15
482.908	4871.52
483.279	4959.43
483.65	4970.28
484.021	5081.01
484.391	5161.01
484.762	5120.33
485.133	5188.13
485.503	5216.83
485.874	5323.26
486.244	5377.27
486.615	5502.69
486.985	5496.59
487.356	5583.37
487.726	5594.9
488.097	5744.72
488.467	5680.09
488.837	5828.79
489.207	5859.07
489.578	5943.36
489.948	5942.91
490.318	6058.84
490.688	6017.03
491.058	6159.17
491.428	6208.44
491.798	6281.88
492.168	6412.27
492.538	6367.3
492.908	6415.66
493.278	6502.44
493.648	6507.19
494.017	6590.58
494.387	6659.5
494.757	6667.64
495.126	6710.57
495.496	6786.73
495.866	6798.48
496.235	6802.55
496.605	6876.22
496.974	6894.97
497.344	6923.22
497.713	6956.44
498.082	6985.37
498.452	7050.68
498.821	7064.24
499.19	7047.74
499.559	7149.66
499.928	7147.85
500.298	7176.32
500.667	7222.65
501.036	7190.79
501.405	7291.35
501.774	7254.74
502.143	7346.26
502.512	7345.13
502.88	7369.76
503.249	7361.4
503.618	7368.63
503.987	7446.82
504.356	7434.17
504.724	7461.96
505.093	7450.44
505.462	7473.72
505.83	7538.57
506.199	7499.48
506.567	7664.9
506.936	7689.98
507.304	7667.16
507.672	7633.71
508.041	7704.22
508.409	7717.55
508.777	7743.77
509.145	7773.37
509.514	7783.54
509.882	7852.01
510.25	7812.24
510.618	7801.39
510.986	7836.42
511.354	7892.46
511.722	7888.17
512.09	7963.42
512.458	7898.56
512.826	7969.3
513.193	7962.74
513.561	7986.92
513.929	7968.39
514.297	8042.06
514.664	8077.54
515.032	8002.97
515.4	8119.57
515.767	8058.56
516.135	8059.69
516.502	8004.1
516.869	8073.7
517.237	8116.86
517.604	8033.7
517.972	8107.6
518.339	8126.81
518.706	8121.61
519.073	8125.22
519.44	8107.15
519.808	8192.79
520.175	8125.9
520.542	8215.62
520.909	8182.62
521.276	8167.26
521.643	8176.75
522.009	8204.54
522.376	8200.25
522.743	8265.79
523.11	8276.63
523.477	8271.21
523.843	8329.29
524.21	8399.12
524.577	8345.78
524.943	8425.33
525.31	8410.87
525.676	8388.27
526.043	8380.36
526.409	8406.57
526.776	8416.29
527.142	8358.21
527.508	8404.54
527.874	8444.31
528.241	8398.21
528.607	8429.62
528.973	8428.49
529.339	8376.97
529.705	8413.8
530.071	8433.46
530.437	8405.22
530.803	8470.75
531.169	8407.7
531.535	8385.78
531.901	8464.65
532.267	8372.22
532.632	8356.4
532.998	8385.56
533.364	8449.96
533.73	8346.46
534.095	8376.52
534.461	8404.54
534.826	8444.09
535.192	8379.45
535.557	8393.69
535.923	8347.82
536.288	8320.47
536.653	8355.73
537.019	8314.37
537.384	8283.19
537.749	8293.58
538.114	8284.09
538.479	8237.31
538.845	8253.36
539.21	8186.92
539.575	8214.04
539.94	8130.65
540.305	8176.3
540.67	8126.35
541.034	8111.89
541.399	8096.98
541.764	8080.71
542.129	8088.39
542.494	8068.28
542.858	8032.8
543.223	7986.92
543.587	8017.43
543.952	8012.01
544.316	7980.6
544.681	7953.7
545.045	7974.49
545.41	7932.69
545.774	7878
546.138	7884.55
546.503	7836.87
546.867	7836.19
547.231	7828.96
547.595	7790.32
547.959	7828.28
548.324	7783.54
548.688	7682.52
549.052	7679.59
549.416	7732.92
549.779	7641.85
550.143	7695.63
550.507	7684.11
550.871	7659.02
551.235	7591
551.599	7659.25
551.962	7577.67
552.326	7618.8
552.689	7536.54
553.053	7525.69
553.417	7485.92
553.78	7528.63
554.143	7505.35
554.507	7527.05
554.87	7463.09
555.234	7478.24
555.597	7447.95
555.96	7449.08
556.323	7398.92
556.686	7478.46
557.05	7431.23
557.413	7430.78
557.776	7367.5
558.139	7425.13
558.502	7312.36
558.865	7370.67
559.228	7401.18
559.59	7394.62
559.953	7297.9
560.316	7355.98
560.679	7355.07
561.041	7438.46
561.404	7400.95
561.767	7376.77
562.129	7323.21
562.492	7442.98
562.854	7381.51
563.217	7357.56
563.579	7393.27
563.941	7358.01
564.304	7396.2
564.666	7406.15
565.028	7441.4
565.39	7424.68
565.753	7440.5
566.115	7468.07
566.477	7488.18
566.839	7455.64
567.201	7469.2
567.563	7446.6
567.925	7483.21
568.287	7452.93
568.648	7520.49
569.01	7514.84
569.372	7491.57
569.734	7479.59
570.095	7537.44
570.457	7487.27
570.819	7556.2
571.18	7522.53
571.542	7536.54
571.903	7584.9
572.265	7545.8
572.626	7558.46
572.987	7604.56
573.349	7592.13
573.71	7641.85
574.071	7662.64
574.432	7685.91
574.794	7742.86
575.155	7671
575.516	7628.29
575.877	7699.25
576.238	7767.04
576.599	7780.37
576.96	7735.4
577.32	7769.98
577.681	7822.41
578.042	7889.98
578.403	7785.8
578.763	7833.71
579.124	7818.11
579.485	7923.42
579.845	7871.22
580.206	7934.95
580.566	7908.28
580.927	7889.3
581.287	7960.71
581.648	7898.79
582.008	7995.51
582.368	7978.79
582.728	7987.37
583.089	8014.04
583.449	8013.14
583.809	8060.59
584.169	8081.84
584.529	8058.33
584.889	8061.27
585.249	8024.89
585.609	8064.89
585.969	8144.88
586.329	8130.87
586.688	8103.76
587.048	8125
587.408	8132.46
587.768	8120.48
588.127	8173.58
588.487	8061.05
588.846	8223.53
589.206	8230.31
589.565	8188.27
589.925	8248.38
590.284	8237.99
590.643	8278.21
591.003	8268.27
591.362	8341.04
591.721	8307.59
592.08	8256.52
592.44	8383.07
592.799	8384.65
593.158	8346.01
593.517	8354.37
593.876	8322.51
594.235	8349.4
594.593	8331.09
594.952	8391.21
595.311	8348.04
595.67	8384.43
596.029	8446.57
596.387	8462.62
596.746	8434.14
597.104	8435.27
597.463	8433.01
597.822	8443.18
598.18	8444.99
598.538	8428.72
598.897	8481.6
599.255	8477.53
599.613	8539
599.972	8483.86
600.33	8523.18
600.688	8514.37
601.046	8500.13
601.404	8601.6
601.762	8549.62
602.12	8640.92
602.478	8569.96
602.836	8600.47
603.194	8551.65
603.552	8634.82
603.91	8562.27
604.268	8620.58
604.625	8552.56
604.983	8659.22
605.341	8571.77
605.698	8631.65
606.056	8584.87
606.413	8604.76
606.771	8680.46
607.128	8532.67
607.485	8563.86
607.843	8586.46
608.2	8609.51
608.557	8634.59
608.914	8670.52
609.272	8681.14
609.629	8760.46
609.986	8691.54
610.343	8717.07
610.7	8760.24
611.057	8675.72
611.414	8703.74
611.771	8704.64
612.127	8790.97
612.484	8748.26
612.841	8745.32
613.198	8782.61
613.554	8781.25
613.911	8787.81
614.267	8821.03
614.624	8807.47
614.98	8832.55
615.337	8911.64
615.693	8834.58
616.05	8826.9
616.406	8968.59
616.762	8851.31
617.118	8805.43
617.475	8893.11
617.831	8907.12
618.187	8881.36
618.543	8874.13
618.899	8931.3
619.255	8962.26
619.611	8913.68
619.967	8970.63
620.323	8927.01
620.678	8886.56
621.034	8941.02
621.39	8861.7
621.746	8919.55
622.101	9013.56
622.457	8897.41
622.812	8956.16
623.168	8936.5
623.523	8976.5
623.879	8987.57
624.234	8953
624.589	8899.67
624.945	8970.85
625.3	8958.42
625.655	8932.43
626.01	8916.39
626.365	8967.46
626.72	8933.79
627.075	8990.51
627.43	8953.68
627.785	8895.6
628.14	8957.97
628.495	8951.19
628.85	8932.43
629.205	8908.03
629.559	8942.15
629.914	8917.07
630.269	8926.33
630.623	8913.23
630.978	8831.65
631.332	8889.27
631.687	8848.82
632.041	8888.14
632.396	8838.65
632.75	8830.97
633.104	8841.82
633.459	8825.32
633.813	8807.24
634.167	8803.4
634.521	8687.24
634.875	8769.95
635.229	8796.39
635.583	8682.05
635.937	8763.63
636.291	8726.34
636.645	8719.11
636.999	8750.29
637.352	8737.41
637.706	8708.03
638.06	8671.65
638.413	8696.73
638.767	8678.2
639.121	8689.05
639.474	8660.35
639.828	8628.94
640.181	8617.19
640.534	8605.21
640.888	8610.18
641.241	8590.3
641.594	8519.79
641.947	8656.51
642.301	8615.61
642.654	8554.59
643.007	8621.48
643.36	8614.7
643.713	8577.87
644.066	8623.97
644.419	8534.93
644.771	8444.31
645.124	8413.58
645.477	8395.05
645.83	8394.37
646.182	8389.4
646.535	8276.41
646.888	8301.94
647.24	8256.75
647.593	8330.19
647.945	8280.02
648.298	8325.67
648.65	8263.98
649.002	8259.01
649.355	8256.07
649.707	8273.92
650.059	8280.93
650.411	8359.12
650.763	8418.1
651.115	8460.81
651.467	8421.26
651.819	8470.07
652.171	8449.28
652.523	8438.89
652.875	8435.72
653.227	8438.44
653.578	8421.71
653.93	8453.8
654.282	8437.53
654.633	8423.07
654.985	8457.42
655.337	8443.18
655.688	8445.67
656.039	8484.99
656.391	8392.34
656.742	8446.57
657.094	8457.19
657.445	8543.07
657.796	8513.01
658.147	8474.82
658.498	8507.81
658.849	8452.67
659.2	8487.25
659.551	8539.9
659.902	8440.7
660.253	8502.84
660.604	8529.51
660.955	8449.96
661.306	8531.32
661.656	8524.99
662.007	8512.33
662.358	8553.01
662.708	8552.56
663.059	8573.57
663.409	8426.01
663.76	8595.49
664.11	8535.61
664.461	8524.99
664.811	8544.65
665.161	8551.43
665.511	8500.58
665.862	8514.14
666.212	8552.56
666.562	8573.12
666.912	8538.77
667.262	8546.23
667.612	8537.87
667.962	8528.83
668.312	8530.41
668.662	8590.75
669.011	8517.76
669.361	8480.7
669.711	8491.54
670.06	8578.32
670.41	8473.46
670.76	8545.1
671.109	8507.81
671.459	8461.71
671.808	8479.79
672.157	8490.64
672.507	8481.37
672.856	8460.81
673.205	8498.32
673.554	8529.28
673.904	8505.33
674.253	8499
674.602	8454.26
674.951	8367.25
675.3	8301.72
675.649	8425.1
675.998	8421.49
676.346	8448.15
676.695	8443.86
677.044	8403.86
677.393	8395.5
677.741	8373.58
678.09	8363.64
678.438	8329.96
678.787	8397.99
679.135	8352.34
679.484	8304.65
679.832	8382.62
680.181	8289.74
680.529	8284.54
680.877	8281.83
681.225	8281.83
681.573	8275.28
681.922	8265.79
682.27	8185.56
682.618	8191.21
682.966	8187.6
683.314	8229.18
683.661	8159.35
684.009	8124.09
684.357	8072.34
684.705	8093.36
685.053	8073.25
685.4	8121.61
685.748	7974.49
686.095	8004.78
686.443	7985.79
686.79	7961.84
687.138	8003.87
687.485	8034.15
687.832	7975.62
688.18	7964.32
688.527	7893.14
688.874	7893.37
689.221	7897.89
689.568	7938.56
689.915	7820.83
690.262	7881.39
690.609	7762.97
690.956	7809.75
691.303	7767.72
691.65	7661.51
691.997	7705.57
692.344	7618.34
692.69	7583.32
693.037	7651.79
693.383	7569.08
693.73	7611.34
694.077	7527.73
694.423	7497.22
694.769	7478.69
695.116	7450.67
695.462	7453.15
695.808	7404.79
696.155	7426.71
696.501	7307.84
696.847	7320.95
697.193	7259.71
697.539	7348.75
697.885	7228.52
698.231	7167.51
698.577	7269.65
698.923	7205.93
699.269	7139.94
699.614	7059.49
699.96	7099.26
700.306	7075.99
700.651	7047.96
700.997	7084.12
701.342	7032.15
701.688	6969.55
702.033	6914.63
702.379	6951.47
702.724	6917.57
703.069	6928.87
703.415	6851.13
703.76	6827.41
704.105	6912.15
704.45	6838.03
704.795	6737.24
705.14	6770.23
705.485	6721.42
705.83	6735.66
706.175	6705.37
706.52	6668.31
706.865	6703.11
707.209	6616.79
707.554	6591.03
707.899	6612.5
708.243	6551.93
708.588	6518.49
708.932	6478.49
709.277	6483.69
709.621	6454.99
709.966	6438.94
710.31	6402.56
710.654	6401.88
710.998	6403.01
711.342	6408.21
711.687	6376.8
712.031	6349.68
712.375	6384.71
712.719	6330.7
713.063	6282.79
713.407	6356.68
713.75	6295.22
714.094	6260.87
714.438	6249.34
714.782	6321.66
715.125	6268.32
715.469	6290.7
715.812	6205.27
716.156	6239.17
716.499	6217.48
716.843	6201.88
717.186	6201.21
717.53	6185.84
717.873	6136.58
718.216	6166.86
718.559	6102.68
718.902	6132.96
719.246	6077.37
719.589	6070.36
719.932	6072.17
720.275	6123.24
720.617	6091.61
720.96	6032.4
721.303	6056.58
721.646	6103.13
721.989	6009.12
722.331	6071.94
722.674	6059.29
723.016	6076.01
723.359	6029.01
723.701	6033.98
724.044	6019.29
724.386	5996.47
724.729	6024.71
725.071	6032.85
725.413	6068.78
725.755	6053.19
726.097	5960.08
726.439	5975.45
726.782	5955.56
727.124	6012.29
727.465	5952.63
727.807	5935.45
728.149	6012.96
728.491	5952.4
728.833	5982
729.175	5935
729.516	5966.18
729.858	5951.04
730.199	5994.43
730.541	5961.89
730.882	5884.15
731.224	5950.14
731.565	5990.59
731.906	5983.59
732.248	5936.81
732.589	5915.34
732.93	5947.43
733.271	5960.99
733.612	5951.95
733.953	5992.85
734.294	5962.8
734.635	5917.37
734.976	5897.03
735.317	5964.38
735.658	5937.71
735.999	5981.55
736.339	5942.91
736.68	6003.7
737.021	5987.43
737.361	5957.6
737.702	6011.38
738.042	5992.85
738.383	5976.81
738.723	6008.9
739.063	5980.65
739.404	6016.13
739.744	6053.41
740.084	6026.3
740.424	6069.01
740.764	6067.88
741.104	6102.45
741.444	6056.58
741.784	6081.66
742.124	6073.75
742.464	6119.18
742.804	6165.95
743.143	6149
743.483	6171.15
743.823	6191.72
744.162	6171.6
744.502	6281.43
744.841	6269.91
745.181	6329.79
745.52	6280.53
745.86	6346.29
746.199	6376.12
746.538	6402.11
746.877	6460.41
747.216	6464.25
747.556	6470.35
747.895	6510.58
748.234	6583.34
748.573	6650.46
748.911	6722.32
749.25	6798.71
749.589	6805.48
749.928	6897.69
750.267	6945.59
750.605	7015.2
750.944	7130.67
751.283	7169.09
751.621	7307.84
751.96	7270.78
752.298	7414.06
752.636	7480.5
752.975	7564.56
753.313	7625.12
753.651	7745.57
753.989	7840.71
754.327	7951.67
754.666	7973.59
755.004	8155.73
755.342	8267.82
755.679	8385.56
756.017	8529.73
756.355	8668.49
756.693	8784.19
757.031	8960.68
757.368	8947.12
757.706	9196.16
758.044	9256.72
758.381	9486.54
758.719	9547.11
759.056	9749.59
759.394	9877.27
759.731	9970.37
760.068	10118.62
760.405	10259.63
760.743	10461.21
761.08	10631.37
761.417	10757.25
761.754	10993.85
762.091	11050.35
762.428	11276.55
762.765	11430
763.102	11703.44
763.438	11779.82
763.775	11864.33
764.112	12099.13
764.449	12318.56
764.785	12460.93
765.122	12566.69
765.458	12695.73
765.795	12850.98
766.131	13067.02
766.467	13137.52
766.804	13329.16
767.14	13399.66
767.476	13593.56
767.812	13713.55
768.148	13986.99
768.485	13997.16
768.821	14041.23
769.157	14206.42
