Data from hue_20_FLMS001491_74.txt Node
Date: Mon Feb 06 15:34:37 GMT 2017
User: dcchb
Spectrometer: FLMS00149
Trigger mode: 0
Integration Time (sec): 2.000000E-2
Scans to average: 10
Electric dark correction enabled: true
Nonlinearity correction enabled: false
Boxcar width: 0
XAxis mode: Wavelengths
Number of Pixels in Spectrum: 2048
>>>>>Begin Spectral Data<<<<<
341.393	-0.34
341.776	-0.34
342.16	-0.34
342.543	-62.26
342.927	-60.45
343.31	-71.98
343.693	-62.03
344.077	-62.48
344.46	-47.12
344.843	-59.55
345.226	-49.38
345.61	-43.28
345.993	-5.31
346.376	8.25
346.759	14.8
347.142	35.37
347.525	43.73
347.908	49.6
348.291	50.28
348.674	81.92
349.057	117.17
349.44	125.31
349.823	127.34
350.206	160.11
350.588	190.62
350.971	197.85
351.354	223.38
351.737	239.2
352.119	259.54
352.502	249.15
352.884	282.37
353.267	291.18
353.65	290.5
354.032	297.96
354.414	295.02
354.797	317.84
355.179	323.27
355.562	309.48
355.944	311.52
356.326	341.57
356.709	341.12
357.091	346.77
357.473	344.51
357.855	346.54
358.238	343.15
358.62	363.72
359.002	336.38
359.384	335.25
359.766	352.87
360.148	350.84
360.53	341.35
360.912	346.54
361.294	329.14
361.676	342.02
362.057	359.43
362.439	331.4
362.821	332.76
363.203	333.66
363.584	353.78
363.966	322.14
364.348	322.59
364.729	325.08
365.111	325.3
365.493	350.61
365.874	318.75
366.256	315.81
366.637	312.65
367.019	303.38
367.4	321.91
367.781	320.56
368.163	338.41
368.544	318.97
368.925	316.49
369.306	344.74
369.688	328.47
370.069	322.82
370.45	331.86
370.831	327.11
371.212	335.02
371.593	313.55
371.974	331.86
372.355	318.75
372.736	315.58
373.117	316.49
373.498	305.87
373.879	337.96
374.26	327.11
374.641	314.91
375.021	319.88
375.402	329.82
375.783	328.69
376.163	352.19
376.544	341.8
376.925	346.32
377.305	356.94
377.686	345.19
378.066	325.75
378.447	343.83
378.827	337.73
379.208	344.74
379.588	332.99
379.968	319.65
380.349	338.64
380.729	357.84
381.109	353.1
381.489	344.74
381.87	330.05
382.25	356.71
382.63	351.74
383.01	330.27
383.39	354.23
383.77	361.46
384.15	377.05
384.53	365.75
384.91	364.4
385.29	351.97
385.67	354.45
386.049	367.11
386.429	362.14
386.809	371.4
387.189	370.72
387.568	364.17
387.948	362.82
388.328	355.13
388.707	370.72
389.087	354.23
389.466	370.05
389.846	390.16
390.225	380.67
390.605	376.83
390.984	364.85
391.363	358.52
391.743	384.74
392.122	389.71
392.501	370.27
392.881	378.41
393.26	395.13
393.639	396.49
394.018	408.92
394.397	402.59
394.776	381.12
395.155	394.68
395.534	394
395.913	401.46
396.292	400.78
396.671	392.42
397.05	390.61
397.429	424.28
397.808	394.45
398.186	391.74
398.565	417.28
398.944	386.32
399.323	402.14
399.701	431.51
400.08	400.1
400.458	415.7
400.837	417.5
401.215	429.71
401.594	419.31
401.972	423.38
402.351	424.96
402.729	424.51
403.107	431.51
403.486	441.23
403.864	439.65
404.242	420.67
404.62	416.83
404.999	433.55
405.377	459.54
405.755	439.65
406.133	450.27
406.511	434.45
406.889	446.65
407.267	460.89
407.645	471.74
408.023	444.85
408.401	467.45
408.779	455.02
409.156	463.15
409.534	458.86
409.912	464.51
410.29	475.35
410.667	466.99
411.045	476.03
411.422	490.27
411.8	496.15
412.178	477.84
412.555	493.89
412.933	498.4
413.31	493.66
413.687	510.61
414.065	515.81
414.442	500.21
414.819	511.29
415.197	511.29
415.574	523.49
415.951	510.38
416.328	521
416.705	523.49
417.082	543.15
417.46	543.38
417.837	541.79
418.214	543.15
418.591	520.55
418.967	539.08
419.344	556.93
419.721	554.45
420.098	557.39
420.475	549.03
420.852	553.54
421.228	572.08
421.605	596.93
421.982	586.09
422.358	572.3
422.735	572.3
423.111	556.93
423.488	590.15
423.864	584.96
424.241	584.73
424.617	601.23
424.994	583.37
425.37	570.49
425.746	602.58
426.123	608.46
426.499	610.49
426.875	614.33
427.251	606.42
427.627	613.43
428.003	621.34
428.379	634.67
428.756	650.94
429.132	653.43
429.507	641
429.883	656.14
430.259	662.92
430.635	662.24
431.011	687.55
431.387	662.24
431.763	683.03
432.138	697.72
432.514	697.04
432.89	693.43
433.265	718.29
433.641	699.3
434.016	711.28
434.392	728.68
434.767	737.27
435.143	727.55
435.518	737.72
435.894	759.42
436.269	777.04
436.644	759.87
437.02	749.7
437.395	766.42
437.77	781.79
438.145	783.37
438.52	781.34
438.895	809.81
439.271	788.79
439.646	806.87
440.021	822.92
440.395	796.93
440.77	803.48
441.145	793.99
441.52	865.63
441.895	822.46
442.27	842.12
442.645	832.41
443.019	809.36
443.394	857.27
443.769	840.54
444.143	852.75
444.518	841.67
444.892	859.07
445.267	839.41
445.641	864.27
446.016	880.09
446.39	912.63
446.764	899.3
447.139	887.55
447.513	913.31
447.887	907.66
448.262	914.21
448.636	908.79
449.01	933.87
449.384	940.88
449.758	942.69
450.132	925.51
450.506	945.62
450.88	934.33
451.254	961.22
451.628	961.44
452.002	965.29
452.376	974.78
452.75	986.3
453.123	971.61
453.497	998.96
453.871	986.98
454.244	1005.28
454.618	1028.56
454.992	1037.37
455.365	1040.99
455.739	1053.64
456.112	1073.08
456.486	1063.81
456.859	1093.64
457.232	1071.95
457.606	1108.56
457.979	1120.31
458.352	1135
458.725	1125.96
459.099	1164.83
459.472	1171.83
459.845	1163.7
460.218	1188.78
460.591	1197.14
460.964	1200.76
461.337	1221.55
461.71	1249.8
462.083	1234.88
462.456	1280.98
462.829	1246.18
463.201	1264.26
463.574	1282.11
463.947	1297.71
464.32	1325.95
464.692	1332.06
465.065	1331.6
465.438	1366.86
465.81	1380.19
466.183	1390.13
466.555	1410.25
466.928	1424.71
467.3	1432.39
467.672	1446.85
468.045	1485.72
468.417	1485.5
468.789	1503.12
469.161	1506.29
469.534	1529.56
469.906	1572.95
470.278	1580.64
470.65	1596.46
471.022	1621.99
471.394	1650.92
471.766	1674.19
472.138	1701.99
472.51	1717.58
472.882	1744.25
473.253	1750.8
473.625	1789.9
473.997	1797.58
474.369	1840.52
474.74	1835.32
475.112	1875.32
475.484	1910.12
475.855	1946.05
476.227	2000.29
476.598	2034.86
476.97	2054.3
477.341	2109.44
477.713	2164.12
478.084	2144.24
478.455	2217
478.827	2212.71
479.198	2291.13
479.569	2289.32
479.94	2387.17
480.311	2375.42
480.682	2447.51
481.053	2483.89
481.424	2583.32
481.795	2586.94
482.166	2620.84
482.537	2638.24
482.908	2723.66
483.279	2762.75
483.65	2817.44
484.021	2870.77
484.391	2898.12
484.762	2924.56
485.133	2928.85
485.503	2994.38
485.874	3093.14
486.244	3103.08
486.615	3170.43
486.985	3215.85
487.356	3269.41
487.726	3329.97
488.097	3374.26
488.467	3430.98
488.837	3518.89
489.207	3526.12
489.578	3557.76
489.948	3619.45
490.318	3678.43
490.688	3701.71
491.058	3747.36
491.428	3844.76
491.798	3868.49
492.168	3904.64
492.538	3904.64
492.908	4007.01
493.278	4098.08
493.648	4037.75
494.017	4155.71
494.387	4182.15
494.757	4192.09
495.126	4267.12
495.496	4322.03
495.866	4334.24
496.235	4369.26
496.605	4432.99
496.974	4470.73
497.344	4512.76
497.713	4582.59
498.082	4591.18
498.452	4590.05
498.821	4659.88
499.19	4686.77
499.559	4740.1
499.928	4720.21
500.298	4797.05
500.667	4836.6
501.036	4834.79
501.405	4891.96
501.774	4868.23
502.143	4969.7
502.512	4969.25
502.88	4999.3
503.249	5009.7
503.618	5057.16
503.987	5052.64
504.356	5168.11
504.724	5114.55
505.093	5164.05
505.462	5190.48
505.83	5191.61
506.199	5293.08
506.567	5304.61
506.936	5340.31
507.304	5377.6
507.672	5343.02
508.041	5404.26
508.409	5449.24
508.777	5505.96
509.145	5519.97
509.514	5481.32
509.882	5498.5
510.25	5558.84
510.618	5653.52
510.986	5611.49
511.354	5704.82
511.722	5713.41
512.09	5710.92
512.458	5721.54
512.826	5781.88
513.193	5792.5
513.561	5817.81
513.929	5831.82
514.297	5866.63
514.664	5894.65
515.032	5949.56
515.4	5954.08
515.767	5995.66
516.135	6045.6
516.502	6005.38
516.869	6133.74
517.237	6095.09
517.604	6127.64
517.972	6207.41
518.339	6202.21
518.706	6188.65
519.073	6221.64
519.44	6223.9
519.808	6306.39
520.175	6323.79
520.542	6383
520.909	6419.38
521.276	6400.85
521.643	6427.29
522.009	6531.92
522.376	6494.18
522.743	6577.34
523.11	6605.59
523.477	6660.73
523.843	6717.68
524.21	6737.56
524.577	6791.8
524.943	6781.4
525.31	6875.41
525.676	6902.53
526.043	6962.87
526.409	7012.13
526.776	7018.01
527.142	7028.18
527.508	7093.03
527.874	7062.53
528.241	7205.57
528.607	7214.61
528.973	7264.33
529.339	7297.55
529.705	7349.75
530.071	7408.51
530.437	7445.34
530.803	7463.19
531.169	7488.5
531.535	7466.58
531.901	7523.98
532.267	7525.56
532.632	7644.88
532.998	7681.04
533.364	7655.73
533.73	7771.43
534.095	7720.59
534.461	7771.21
534.826	7815.05
535.192	7850.3
535.557	7944.99
535.923	7920.81
536.288	7954.71
536.653	8006
537.019	7985.89
537.384	8050.07
537.749	8091.88
538.114	8128.94
538.479	8124.87
538.845	8203.97
539.21	8161.93
539.575	8275.83
539.94	8276.05
540.305	8278.09
540.67	8324.41
541.034	8355.6
541.399	8392.43
541.764	8374.81
542.129	8507.91
542.494	8481.7
542.858	8512.43
543.223	8498.65
543.587	8631.75
543.952	8543.39
544.316	8620.68
544.681	8680.79
545.045	8706.55
545.41	8783.38
545.774	8802.82
546.138	8812.54
546.503	8827.9
546.867	8787
547.231	8876.49
547.595	8901.8
547.959	8981.12
548.324	9045.52
548.688	9033.1
549.052	9045.07
549.416	9119.65
549.779	9053.43
550.143	9175.24
550.507	9265.86
550.871	9180.44
551.235	9296.59
551.599	9269.7
551.962	9353.09
552.326	9367.78
552.689	9396.02
553.053	9383.6
553.417	9415.68
553.78	9515.57
554.143	9460.66
554.507	9535.68
554.87	9542.69
555.234	9619.3
555.597	9544.27
555.96	9603.02
556.323	9741.1
556.686	9719.18
557.05	9745.39
557.413	9791.27
557.776	9777.71
558.139	9910.59
558.502	9909
558.865	9966.63
559.228	9934.32
559.59	9984.03
559.953	10019.06
560.316	10055.89
560.679	10202.78
561.041	10189.22
561.404	10222.9
561.767	10312.61
562.129	10204.14
562.492	10338.82
562.854	10331.37
563.217	10303.34
563.579	10375.21
563.941	10423.34
564.304	10468.99
564.666	10508.09
565.028	10570.46
565.39	10620.62
565.753	10661.98
566.115	10710.34
566.477	10708.08
566.839	10791.02
567.201	10886.15
567.563	10872.82
567.925	10918.02
568.287	10908.07
568.648	10998.47
569.01	11022.2
569.372	11109.43
569.734	11031.91
570.095	11174.28
570.457	11143.77
570.819	11215.64
571.18	11245.02
571.542	11314.17
571.903	11389.64
572.265	11428.97
572.626	11482.97
572.987	11538.79
573.349	11605.23
573.71	11691.11
574.071	11676.64
574.432	11768.84
574.794	11946.92
575.155	11926.81
575.516	11908.05
575.877	12077.31
576.238	12119.57
576.599	12209.74
576.96	12217.19
577.32	12345.1
577.681	12378.77
578.042	12493.34
578.403	12578.54
578.763	12623.96
579.124	12809.27
579.485	12831.19
579.845	13082.93
580.206	13083.84
580.566	13146.89
580.927	13327.9
581.287	13403.83
581.648	13499.42
582.008	13694.89
582.368	13843.14
582.728	13945.28
583.089	14080.19
583.449	14255.33
583.809	14366.29
584.169	14665.04
584.529	14750.01
584.889	15022.09
585.249	15048.53
585.609	15214.85
585.969	15623.43
586.329	15757.89
586.688	15988.85
587.048	16200.14
587.408	16312.23
587.768	16704.31
588.127	16809.61
588.487	16965.09
588.846	17415.93
589.206	17605.75
589.565	17899.08
589.925	18172.97
590.284	18431.04
590.643	18843.91
591.003	19027.86
591.362	19446.16
591.721	19683.21
592.08	19894.51
592.44	20284.33
592.799	20598.22
593.158	20897.19
593.517	21195.94
593.876	21468.02
594.235	21963.83
594.593	22116.59
594.952	22575.11
595.311	22776.46
595.67	23083.57
596.029	23554.75
596.387	23897.34
596.746	24278.34
597.104	24507.04
597.463	24811.66
597.822	25237.19
598.18	25456.84
598.538	25860.68
598.897	26333.88
599.255	26539.3
599.613	27135.44
599.972	27263.12
600.33	27697.92
600.688	27963.22
601.046	28407.05
601.404	28781.5
601.762	29094.04
602.12	29494.25
602.478	29694.02
602.836	30097.4
603.194	30199.77
603.552	30630.72
603.91	30839.53
604.268	31377.14
604.625	31578.94
604.983	32002.21
605.341	32114.75
605.698	32521.29
606.056	32960.15
606.413	33082.86
606.771	33596.97
607.128	33763.07
607.485	33895.27
607.843	34186.56
608.2	34730.95
608.557	35008.91
608.914	35022.69
609.272	35542.68
609.629	35718.72
609.986	36133.85
610.343	36214.08
610.7	36578.36
611.057	36821.52
611.414	37061.29
611.771	37334.5
612.127	37686.13
612.484	37888.16
612.841	38277.52
613.198	38318.43
613.554	38457.63
613.911	38870.05
614.267	39084.06
614.624	39176.26
614.98	39436.82
615.337	39839.07
615.693	39872.06
616.05	40074.99
616.406	40378.03
616.762	40392.95
617.118	40551.14
617.475	40710.45
617.831	40974.85
618.187	41245.58
618.543	41451
618.899	41712.91
619.255	41832.23
619.611	41846.02
619.967	42111.32
620.323	42276.97
620.678	42281.94
621.034	42334.14
621.39	42504.08
621.746	42532.55
622.101	43194.68
622.457	42910.85
622.812	43055.93
623.168	43282.14
623.523	43360.33
623.879	43625.86
624.234	43372.98
624.589	43554.22
624.945	43712.41
625.3	43818.62
625.655	43810.94
626.01	43948.34
626.365	44179.29
626.72	44120.76
627.075	44209.35
627.43	44208.89
627.785	44407.53
628.14	44382
628.495	44468.55
628.85	44631.03
629.205	44464.93
629.559	44942.21
629.914	44777.92
630.269	44886.39
630.623	44741.31
630.978	44751.93
631.332	44896.56
631.687	44883.23
632.041	44946.5
632.396	45014.3
632.75	44883.45
633.104	44867.41
633.459	44886.39
633.813	45004.81
634.167	45034.18
634.521	44960.74
634.875	45165.93
635.229	45116.21
635.583	44805.71
635.937	44957.35
636.291	44952.6
636.645	45099.94
636.999	44877.13
637.352	45097.46
637.706	44875.09
638.06	45044.8
638.413	45066.95
638.767	44802.55
639.121	45047.97
639.474	44841.19
639.828	44825.15
640.181	44991.02
640.534	45027.63
640.888	44946.95
641.241	44678.03
641.594	44938.59
641.947	44954.64
642.301	44811.14
642.654	44811.59
643.007	44876.22
643.36	44879.61
643.713	44917.35
644.066	45007.52
644.419	44726.39
644.771	44562.56
645.124	44092.96
645.477	44121.44
645.83	43775.46
646.182	43699.3
646.535	43626.99
646.888	43658.4
647.24	43571.85
647.593	43769.58
647.945	43724.39
648.298	43426.32
648.65	43385.64
649.002	43341.8
649.355	43514.68
649.707	43392.19
650.059	43602.58
650.411	43987.88
650.763	44133.64
651.115	44402.56
651.467	44413.63
651.819	44492.5
652.171	44342.22
652.523	44375.22
652.875	44321.66
653.227	44086.64
653.578	44397.59
653.93	44331.38
654.282	44264.49
654.633	43980.2
654.985	44227.42
655.337	44188.33
655.688	44065.62
656.039	44208.89
656.391	43922.57
656.742	44018.84
657.094	44077.15
657.445	44177.93
657.796	44098.16
658.147	44032.18
658.498	44002.12
658.849	44085.06
659.2	44027.66
659.551	43888.45
659.902	44218.61
660.253	44133.87
660.604	44083.25
660.955	43860.2
661.306	44036.02
661.656	43810.03
662.007	43773.43
662.358	43952.4
662.708	43880.77
663.059	43844.84
663.409	43653.43
663.76	43952.63
664.11	43888
664.461	43903.14
664.811	43812.29
665.161	43862.24
665.511	43846.19
665.862	43872.41
666.212	43992.85
666.562	43911.5
666.912	43813.42
667.262	43796.93
667.612	43854.33
667.962	43845.51
668.312	43783.14
668.662	43992.4
669.011	43906.76
669.361	43855.23
669.711	43750.15
670.06	43720.32
670.41	43730.94
670.76	43633.54
671.109	43771.17
671.459	43690.49
671.808	43666.76
672.157	43680.32
672.507	43455.24
672.856	43370.5
673.205	43589.7
673.554	43643.03
673.904	43533.66
674.253	43711.05
674.602	43570.94
674.951	42865.88
675.3	42805.32
675.649	43438.29
675.998	43341.8
676.346	43309.26
676.695	43577.72
677.044	43168.24
677.393	43369.14
677.741	43401.91
678.09	43249.82
678.438	43239.88
678.787	43277.62
679.135	43222.48
679.484	43038.53
679.832	43071.3
680.181	42985.2
680.529	43038.98
680.877	42899.32
681.225	42901.13
681.573	43122.37
681.922	42768.25
682.27	42754.7
682.618	42853.68
682.966	42677.63
683.314	42671.99
683.661	42472.89
684.009	42424.53
684.357	42303.63
684.705	42138.89
685.053	42262.05
685.4	42250.98
685.748	42076.75
686.095	41974.83
686.443	41848.73
686.79	41642.41
687.138	41988.61
687.485	41948.84
687.832	41670.2
688.18	41672.46
688.527	41511.34
688.874	41524.67
689.221	41404.22
689.568	41393.15
689.915	41295.07
690.262	41388.86
690.609	41006.49
690.956	41059.6
691.303	40948.64
691.65	40771.24
691.997	40882.43
692.344	40509.56
692.69	40583
693.037	40679.72
693.383	40354.31
693.73	40415.77
694.077	40139.85
694.423	40243.8
694.769	40048.33
695.116	39930.36
695.462	40033.41
695.808	39935.33
696.155	39893.53
696.501	39573.54
696.847	39634.33
697.193	39247.89
697.539	39488.11
697.885	39161.8
698.231	38942.37
698.577	38961.57
698.923	39001.35
699.269	38851.07
699.614	38514.13
699.96	38683.84
700.306	38569.95
700.651	38382.38
700.997	38315.94
701.342	38254.25
701.688	38156.4
702.033	38045.67
702.379	38102.84
702.724	37889.29
703.069	38035.72
703.415	37644.09
703.76	37740.14
704.105	37557.54
704.45	37532.91
704.795	37417.43
705.14	37354.39
705.485	37246.14
705.83	37239.13
706.175	37071.91
706.52	37160.49
706.865	36882.08
707.209	36703.55
707.554	36835.3
707.899	36746.49
708.243	36561.41
708.588	36548.53
708.932	36368.42
709.277	36334.75
709.621	36346.95
709.966	36069
710.31	36215.88
710.654	35812.28
710.998	36050.01
711.342	35928.89
711.687	35644.6
712.031	35719.63
712.375	35601.66
712.719	35692.28
713.063	35560.76
713.407	35598.72
713.75	35275.8
714.094	35326.19
714.438	35198.51
714.782	35359.86
715.125	35097.04
715.469	35125.74
715.812	34881.91
716.156	34760.33
716.499	34836.71
716.843	34834
717.186	34636.72
717.53	34842.13
717.873	34675.59
718.216	34682.82
718.559	34423.84
718.902	34293.22
719.246	34400.34
719.589	34317.18
719.932	34113.34
720.275	34045.77
720.617	34189.04
720.96	34028.6
721.303	33930.97
721.646	34041.48
721.989	33829.28
722.331	33924.87
722.674	33787.93
723.016	33775.27
723.359	33736.63
723.701	33695.72
724.044	33542.73
724.386	33335.51
724.729	33529.63
725.071	33429.52
725.413	33352.91
725.755	33336.86
726.097	33318.56
726.439	32950.89
726.782	33101.39
727.124	33221.16
727.465	33046.25
727.807	32989.98
728.149	32989.53
728.491	32770.78
728.833	32824.79
729.175	32723.32
729.516	32604.23
729.858	32657.79
730.199	32654.85
730.541	32643.32
730.882	32550.67
731.224	32515.64
731.565	32378.92
731.906	32318.36
732.248	32333.73
732.589	32180.96
732.93	32213.5
733.271	32101.42
733.612	32176.89
733.953	32204.92
734.294	32117.01
734.635	31860.52
734.976	31999.05
735.317	31831.14
735.658	31859.61
735.999	31803.57
736.339	31802.21
736.68	31833.63
737.021	31610.58
737.361	31600.19
737.702	31700.07
738.042	31566.74
738.383	31493.75
738.723	31534.88
739.063	31482.45
739.404	31481.55
739.744	31494.88
740.084	31259.18
740.424	31316.13
740.764	31137.15
741.104	31335.56
741.444	31209.46
741.784	31004.04
742.124	31001.11
742.464	30987.32
742.804	30934.44
743.143	30876.36
743.483	30815.12
743.823	30828.45
744.162	30693.54
744.502	30809.02
744.841	30625.97
745.181	30741.45
745.52	30503.94
745.86	30630.72
746.199	30593.21
746.538	30485.19
746.877	30448.8
747.216	30565.64
747.556	30432.08
747.895	30427.56
748.234	30306.66
748.573	30241.35
748.911	30232.76
749.25	30242.03
749.589	30046.1
749.928	30134.46
750.267	30149.15
750.605	29987.35
750.944	29940.34
751.283	29925.65
751.621	29939.21
751.96	29654.02
752.298	29771.76
752.636	29789.39
752.975	29652.89
753.313	29501.71
753.651	29552.1
753.989	29474.14
754.327	29417.64
754.666	29193.24
755.004	29216.52
755.342	29224.88
755.679	29341.04
756.017	29019.69
756.355	29142.17
756.693	28915.74
757.031	29070.31
757.368	28800.26
757.706	28786.25
758.044	28648.63
758.381	28675.52
758.719	28619.93
759.056	28701.28
759.394	28577.89
