Data from hue_24_FLMS001491_00090.txt Node
Date: Tue Feb 07 17:12:53 GMT 2017
User: dcchb
Spectrometer: FLMS00149
Trigger mode: 0
Integration Time (sec): 2.000000E-2
Scans to average: 10
Electric dark correction enabled: true
Nonlinearity correction enabled: false
Boxcar width: 0
XAxis mode: Wavelengths
Number of Pixels in Spectrum: 2048
>>>>>Begin Spectral Data<<<<<
341.393	-12.36
341.776	-12.36
342.16	-12.36
342.543	-82.64
342.927	-72.92
343.31	-74.5
343.693	-77.44
344.077	-67.95
344.46	-22.53
344.843	-42.19
345.226	-45.8
345.61	-45.13
345.993	-16.2
346.376	-4.22
346.759	18.6
347.142	39.17
347.525	27.87
347.908	42.78
348.291	77.58
348.674	90.69
349.057	99.28
349.44	91.82
349.823	144.93
350.206	134.08
350.588	200.29
350.971	226.05
351.354	230.8
351.737	237.8
352.119	256.79
352.502	258.82
352.884	265.15
353.267	270.12
353.65	288.65
354.032	312.6
354.414	289.78
354.797	313.96
355.179	327.97
355.562	339.95
355.944	326.62
356.326	318.71
356.709	338.37
357.091	338.82
357.473	342.89
357.855	354.41
358.238	363.22
358.62	330.23
359.002	335.2
359.384	338.14
359.766	300.85
360.148	349.21
360.53	348.76
360.912	312.15
361.294	335.88
361.676	338.14
362.057	328.88
362.439	344.24
362.821	326.84
363.203	309.44
363.584	322.55
363.966	339.27
364.348	325.26
364.729	330.91
365.111	339.5
365.493	327.52
365.874	337.69
366.256	329.55
366.637	339.72
367.019	305.83
367.4	318.25
367.781	308.76
368.163	301.31
368.544	319.84
368.925	320.97
369.306	310.8
369.688	326.84
370.069	331.36
370.45	327.97
370.831	306.96
371.212	311.25
371.593	297.69
371.974	329.78
372.355	321.42
372.736	302.66
373.117	303.79
373.498	314.64
373.879	325.71
374.26	310.34
374.641	300.85
375.021	317.58
375.402	330.01
375.783	308.99
376.163	344.92
376.544	321.64
376.925	335.43
377.305	335.2
377.686	337.46
378.066	328.2
378.447	337.91
378.827	329.33
379.208	348.76
379.588	347.63
379.968	347.86
380.349	343.11
380.729	344.92
381.109	345.15
381.489	363.9
381.87	332.94
382.25	329.33
382.63	341.76
383.01	346.73
383.39	321.64
383.77	343.11
384.15	343.34
384.53	361.19
384.91	339.5
385.29	360.29
385.67	351.7
386.049	386.28
386.429	362.32
386.809	356.9
387.189	361.87
387.568	360.74
387.948	381.53
388.328	368.65
388.707	343.11
389.087	359.16
389.466	374.07
389.846	382.21
390.225	368.42
390.605	348.76
390.984	381.76
391.363	363.45
391.743	383.56
392.122	374.52
392.501	376.11
392.881	375.65
393.26	367.74
393.639	392.83
394.018	377.24
394.397	384.69
394.776	380.63
395.155	381.53
395.534	384.02
395.913	371.13
396.292	392.38
396.671	387.63
397.05	396.67
397.429	403.68
397.808	369.1
398.186	413.62
398.565	405.48
398.944	396.22
399.323	388.53
399.701	412.04
400.08	418.36
400.458	399.83
400.837	378.59
401.215	411.36
401.594	406.61
401.972	428.76
402.351	413.17
402.729	431.25
403.107	413.85
403.486	426.73
403.864	429.89
404.242	412.49
404.62	421.53
404.999	436.44
405.377	424.01
405.755	400.74
406.133	429.21
406.511	434.41
406.889	440.51
407.267	440.96
407.645	455.2
408.023	441.19
408.401	452.71
408.779	467.63
409.156	451.36
409.534	467.85
409.912	476.67
410.29	449.1
410.667	466.27
411.045	445.71
411.422	459.95
411.8	479.83
412.178	468.98
412.555	474.41
412.933	485.03
413.31	454.3
413.687	512.15
414.065	500.17
414.442	466.73
414.819	511.92
415.197	491.13
415.574	499.27
415.951	508.31
416.328	495.88
416.705	521.41
417.082	494.52
417.46	501.75
417.837	536.55
418.214	520.51
418.591	517.35
418.967	540.62
419.344	539.27
419.721	526.84
420.098	519.6
420.475	547.4
420.852	550.79
421.228	509.44
421.605	547.4
421.982	539.27
422.358	563.22
422.735	554.63
423.111	550.56
423.488	567.97
423.864	573.39
424.241	557.57
424.617	594.86
424.994	572.48
425.37	568.64
425.746	550.79
426.123	578.13
426.499	578.59
426.875	575.87
427.251	573.84
427.627	612.03
428.003	618.13
428.379	608.42
428.756	614.07
429.132	600.96
429.507	594.41
429.883	632.14
430.259	629.21
430.635	626.27
431.011	658.81
431.387	659.71
431.763	667.17
432.138	675.76
432.514	656.32
432.89	688.87
433.265	693.61
433.641	666.72
434.016	704.68
434.392	706.94
434.767	716.21
435.143	720.96
435.518	706.04
435.894	724.35
436.269	731.35
436.644	720.5
437.02	750.33
437.395	749.66
437.77	742.88
438.145	742.42
438.52	746.27
438.895	764.8
439.271	750.11
439.646	786.04
440.021	785.59
440.395	795.08
440.77	760.73
441.145	806.15
441.52	819.03
441.895	796.21
442.27	802.54
442.645	801.86
443.019	837.11
443.394	791.24
443.769	835.08
444.143	832.37
444.518	844.57
444.892	856.32
445.267	838.92
445.641	838.47
446.016	833.04
446.39	871.91
446.764	820.84
447.139	867.39
447.513	854.96
447.887	886.6
448.262	866.71
448.636	859.71
449.01	886.15
449.384	904.45
449.758	897.9
450.132	904.45
450.506	904.23
450.88	928.63
451.254	905.81
451.628	928.63
452.002	902.19
452.376	946.49
452.75	926.83
453.123	960.27
453.497	952.36
453.871	960.5
454.244	987.62
454.618	996.88
454.992	995.98
455.365	987.84
455.739	1019.25
456.112	1025.58
456.486	1014.73
456.859	1040.04
457.232	1039.82
457.606	1064
457.979	1059.48
458.352	1088.4
458.725	1082.98
459.099	1111.23
459.472	1135.18
459.845	1141.96
460.218	1134.96
460.591	1125.69
460.964	1129.76
461.337	1174.73
461.71	1230.09
462.083	1205.91
462.456	1197.78
462.829	1231.68
463.201	1242.52
463.574	1267.38
463.947	1264.67
464.32	1257.44
464.692	1276.87
465.065	1307.83
465.438	1304.9
465.81	1298.34
466.183	1334.5
466.555	1355.97
466.928	1377.89
467.3	1394.84
467.672	1383.99
468.045	1430.54
468.417	1420.15
468.789	1458.79
469.161	1508.96
469.534	1525.23
469.906	1505.34
470.278	1545.34
470.65	1569.07
471.022	1600.48
471.394	1635.06
471.766	1625.56
472.138	1657.65
472.51	1658.56
472.882	1679.35
473.253	1723.42
473.625	1743.08
473.997	1796.18
474.369	1806.35
474.74	1799.12
475.112	1834.37
475.484	1835.5
475.855	1910.3
476.227	1919.57
476.598	2000.24
476.97	1985.1
477.341	2055.16
477.713	2108.04
478.084	2114.14
478.455	2184.42
478.827	2164.31
479.198	2243.18
479.569	2252.21
479.94	2307.13
480.311	2349.84
480.682	2413.79
481.053	2426.9
481.424	2507.58
481.795	2525.43
482.166	2573.11
482.537	2606.1
482.908	2670.06
483.279	2739.43
483.65	2767
484.021	2792.99
484.391	2831.63
484.762	2919.77
485.133	2917.96
485.503	2983.27
485.874	3053.55
486.244	3086.09
486.615	3123.83
486.985	3189.14
487.356	3245.18
487.726	3286.09
488.097	3416.25
488.467	3384.16
488.837	3434.56
489.207	3505.29
489.578	3535.12
489.948	3584.84
490.318	3693.08
490.688	3671.16
491.058	3743.93
491.428	3836.58
491.798	3857.82
492.168	3933.3
492.538	3950.93
492.908	4004.26
493.278	4074.09
493.648	4049.68
494.017	4151.6
494.387	4180.07
494.757	4231.6
495.126	4293.07
495.496	4331.93
495.866	4301.2
496.235	4417.58
496.605	4422.55
496.974	4442.44
497.344	4502.78
497.713	4581.42
498.082	4618.25
498.452	4617.35
498.821	4699.38
499.19	4687.63
499.559	4730.34
499.928	4839.94
500.298	4785.71
500.667	4832.26
501.036	4833.16
501.405	4925.14
501.774	4968.08
502.143	4977.79
502.512	4979.37
502.88	5026.83
503.249	5059.15
503.618	5039.26
503.987	5089.88
504.356	5154.74
504.724	5149.31
505.093	5175.53
505.462	5204.91
505.83	5258.24
506.199	5314.06
506.567	5314.73
506.936	5349.76
507.304	5395.63
507.672	5428.4
508.041	5437.44
508.409	5456.88
508.777	5486.48
509.145	5551.34
509.514	5536.65
509.882	5598.57
510.25	5580.71
510.618	5718.56
510.986	5627.72
511.354	5665.68
511.722	5704.78
512.09	5739.58
512.458	5705.23
512.826	5816.41
513.193	5833.59
513.561	5864.55
513.929	5870.42
514.297	5941.61
514.664	5949.07
515.032	6016.64
515.4	6047.37
515.767	6062.28
516.135	6027.26
516.502	6058.22
516.869	6117.88
517.237	6208.95
517.604	6123.75
517.972	6180.93
518.339	6245.56
518.706	6227.7
519.073	6241.71
519.44	6297.53
519.808	6333.92
520.175	6299.11
520.542	6394.48
520.909	6439.45
521.276	6407.36
521.643	6451.88
522.009	6488.94
522.376	6492.78
522.743	6575.94
523.11	6608.26
523.477	6688.03
523.843	6695.94
524.21	6797.18
524.577	6744.07
524.943	6802.83
525.31	6818.65
525.676	6938.42
526.043	6916.5
526.409	6923.05
526.776	7049.15
527.142	7032.65
527.508	7123.73
527.874	7184.29
528.241	7186.55
528.607	7171.86
528.973	7266.77
529.339	7299.77
529.705	7288.24
530.071	7350.84
530.437	7426.09
530.803	7363.49
531.169	7437.84
531.535	7501.12
531.901	7498.63
532.267	7486.2
532.632	7593.77
532.998	7562.36
533.364	7572.3
533.73	7630.38
534.095	7692.52
534.461	7708.12
534.826	7850.49
535.192	7749.7
535.557	7929.58
535.923	7849.58
536.288	7929.81
536.653	7942.46
537.019	7924.83
537.384	8016.13
537.749	8061.78
538.114	8040.76
538.479	8070.82
538.845	8130.93
539.21	8112.4
539.575	8202.11
539.94	8237.82
540.305	8231.49
540.67	8212.06
541.034	8320.53
541.399	8333.86
541.764	8356.24
542.129	8329.12
542.494	8317.14
542.858	8374.77
543.223	8445.95
543.587	8499.51
543.952	8541.54
544.316	8563.46
544.681	8562.56
545.045	8621.31
545.41	8716
545.774	8764.36
546.138	8714.87
546.503	8711.93
546.867	8838.93
547.231	8874.87
547.595	8879.84
547.959	8942.21
548.324	8951.25
548.688	8881.42
549.052	8927.97
549.416	8980.17
549.779	9021.98
550.143	9017.91
550.507	9120.06
550.871	9090.23
551.235	9123.9
551.599	9198.02
551.962	9197.79
552.326	9211.81
552.689	9329.99
553.053	9213.39
553.417	9310.56
553.78	9382.87
554.143	9386.26
554.507	9388.52
554.87	9410.22
555.234	9582.42
555.597	9516.66
555.96	9581.74
556.323	9546.26
556.686	9633.72
557.05	9688.86
557.413	9697.22
557.776	9648.86
558.139	9735.63
558.502	9767.95
558.865	9798.91
559.228	9782.41
559.59	9886.36
559.953	9880.71
560.316	9976.31
560.679	9918.23
561.041	9961.39
561.404	10075.29
561.767	10113.03
562.129	10097.88
562.492	10171.1
562.854	10193.7
563.217	10206.58
563.579	10251.1
563.941	10255.62
564.304	10309.18
564.666	10371.1
565.028	10403.64
565.39	10468.27
565.753	10561.15
566.115	10520.92
566.477	10530.87
566.839	10577.65
567.201	10664.65
567.563	10664.87
567.925	10715.95
568.287	10778.32
568.648	10853.57
569.01	10871.2
569.372	10878.65
569.734	10890.86
570.095	10950.52
570.457	10984.41
570.819	11067.35
571.18	11044.3
571.542	11118.65
571.903	11132.21
572.265	11245.65
572.626	11323.16
572.987	11297.85
573.349	11392.99
573.71	11377.4
574.071	11424.4
574.432	11583.95
574.794	11669.37
575.155	11700.78
575.516	11704.17
575.877	11745.52
576.238	11793.21
576.599	11932.86
576.96	11988.91
577.32	12081.33
577.681	12166.98
578.042	12275.91
578.403	12354.32
578.763	12471.16
579.124	12457.14
579.485	12695.56
579.845	12697.59
580.206	12834.99
580.566	12949.79
580.927	13051.03
581.287	13218.48
581.648	13334.64
582.008	13411.47
582.368	13563.1
582.728	13751.35
583.089	13923.32
583.449	13987.27
583.809	14204.89
584.169	14379.81
584.529	14495.73
584.889	14821.83
585.249	14874.71
585.609	15042.61
585.969	15319.22
586.329	15456.16
586.688	15756.27
587.048	15931.18
587.408	16111.96
587.768	16363.71
588.127	16555.79
588.487	16743.13
588.846	17176.34
589.206	17270.58
589.565	17568.42
589.925	17854.52
590.284	18053.38
590.643	18374.95
591.003	18630.99
591.362	18891.78
591.721	19171.54
592.08	19472.33
592.44	19785.54
592.799	20055.36
593.158	20315.69
593.517	20720.2
593.876	21028.22
594.235	21161.1
594.593	21512.05
594.952	21898.03
595.311	22120.84
595.67	22418.24
596.029	22874.72
596.387	23222.96
596.746	23582.5
597.104	23674.93
597.463	24020.46
597.822	24364.18
598.18	24481.46
598.538	24867.21
598.897	25277.82
599.255	25394.43
599.613	26096.56
599.972	26097.46
600.33	26485.7
600.688	26727.05
601.046	27134.95
601.404	27499.69
601.762	27677.99
602.12	28071.65
602.478	28455.14
602.836	28849.48
603.194	28882.93
603.552	29148.91
603.91	29386.19
604.268	29731.27
604.625	29995.44
604.983	30423.68
605.341	30506.39
605.698	30919.03
606.056	31291.9
606.413	31502.97
606.771	31746.13
607.128	32080.81
607.485	32135.5
607.843	32496.39
608.2	32833.11
608.557	33111.74
608.914	33204.17
609.272	33564.39
609.629	33844.83
609.986	34174.09
610.343	34179.74
610.7	34709.44
611.057	34819.72
611.414	35001.41
611.771	35180.61
612.127	35436.65
612.484	35577.21
612.841	35980.14
613.198	35917.54
613.554	36183.53
613.911	36628.94
614.267	36728.82
614.624	36747.8
614.98	37015.14
615.337	37407.45
615.693	37401.35
616.05	37481.57
616.406	38056.7
616.762	37986.64
617.118	38133.53
617.475	38133.08
617.831	38479.28
618.187	38642.67
618.543	38905.94
618.899	39038.59
619.255	39183.45
619.611	39250.11
619.967	39469.09
620.323	39606.49
620.678	39634.06
621.034	39653.94
621.39	39794.73
621.746	39963.31
622.101	40518.55
622.457	40255.28
622.812	40446.01
623.168	40667.93
623.523	40620.25
623.879	40821.82
624.234	40746.57
624.589	40868.83
624.945	41032.66
625.3	41106.56
625.655	41181.59
626.01	41232.88
626.365	41375.93
626.72	41304.75
627.075	41491.86
627.43	41461.58
627.785	41514.46
628.14	41530.05
628.495	41725.53
628.85	41704.06
629.205	41617.06
629.559	41969.59
629.914	41746.09
630.269	41864.51
630.623	41867.22
630.978	41857.5
631.332	42069.47
631.687	42296.81
632.041	42081.9
632.396	42161.9
632.75	41999.87
633.104	42106.08
633.459	42074.22
633.813	42074.67
634.167	42209.36
634.521	42224.05
634.875	42371.61
635.229	42163.03
635.583	42172.75
635.937	42178.85
636.291	42176.81
636.645	42114.22
636.999	42097.95
637.352	42192.18
637.706	42056.59
638.06	42211.39
638.413	42179.75
638.767	42056.37
639.121	42174.33
639.474	42066.31
639.828	41978.63
640.181	42191.5
640.534	42138.4
640.888	42036.93
641.241	41809.82
641.594	42029.25
641.947	42109.25
642.301	42033.77
642.654	42193.09
643.007	42063.6
643.36	42054.56
643.713	42087.55
644.066	42112.41
644.419	41813.66
644.771	41686.88
645.124	41326.22
645.477	41189.5
645.83	41151.3
646.182	40945.89
646.535	40885.32
646.888	40912.67
647.24	40835.83
647.593	40968.71
647.945	40884.19
648.298	40758.77
648.65	40681.26
649.002	40542.28
649.355	40799.9
649.707	40810.97
650.059	41058.43
650.411	41344.07
650.763	41323.96
651.115	41833.32
651.467	41679.88
651.819	41573.89
652.171	41531.86
652.523	41553.78
652.875	41403.73
653.227	41279.66
653.578	41643.04
653.93	41612.54
654.282	41344.75
654.633	41250.29
654.985	41443.05
655.337	41377.51
655.688	41547.68
656.039	41594.91
656.391	41202.38
656.742	41334.13
657.094	41323.5
657.445	41545.42
657.796	41277.86
658.147	41346.55
658.498	41315.37
658.849	41329.15
659.2	41420.68
659.551	41280.12
659.902	41500.22
660.253	41354.69
660.604	41351.3
660.955	41172.55
661.306	41376.16
661.656	41379.55
662.007	41254.35
662.358	41215.94
662.708	41272.43
663.059	41169.16
663.409	40974.13
663.76	41347.46
664.11	41292.54
664.461	41342.26
664.811	41255.03
665.161	41266.56
665.511	41144.75
665.862	41228.14
666.212	41222.72
666.562	41256.39
666.912	41068.14
667.262	41221.36
667.612	41169.16
667.962	41196.5
668.312	41135.71
668.662	41164.41
669.011	41178.65
669.361	40966.68
669.711	41089.84
670.06	41048.48
670.41	40939.33
670.76	40825.21
671.109	41059.1
671.459	41007.58
671.808	40896.4
672.157	40939.11
672.507	40736.63
672.856	40850.97
673.205	40848.94
673.554	40982.5
673.904	40865.66
674.253	41033.34
674.602	40974.59
674.951	40377.99
675.3	40150.65
675.649	40946.11
675.998	40874.93
676.346	40831.09
676.695	40979.78
677.044	40563.75
677.393	40632.9
677.741	40850.75
678.09	40648.04
678.438	40449.18
678.787	40605.1
679.135	40651.88
679.484	40403.08
679.832	40475.39
680.181	40272.01
680.529	40460.02
680.877	40359.69
681.225	40316.52
681.573	40362.85
681.922	40149.75
682.27	40047.38
682.618	40099.13
682.966	39890.32
683.314	40049.87
683.661	39921.73
684.009	39704.79
684.357	39668.18
684.705	39731.91
685.053	39800.15
685.4	39762.19
685.748	39600.39
686.095	39422.76
686.443	39408.3
686.79	39296.66
687.138	39350.67
687.485	39403.1
687.832	39241.52
688.18	39283.33
688.527	39033.39
688.874	39021.42
689.221	38911.36
689.568	38834.3
689.915	38780.52
690.262	38837.02
690.609	38748.66
690.956	38649
691.303	38660.3
691.65	38537.36
691.997	38385.5
692.344	38107.32
692.69	38157.49
693.037	38232.06
693.383	37918.4
693.73	37970.37
694.077	37757.95
694.423	37775.12
694.769	37632.53
695.116	37594.11
695.462	37482.25
695.808	37315.47
696.155	37418.52
696.501	37148.7
696.847	37146.89
697.193	36847.01
697.539	37066.44
697.885	36865.99
698.231	36617.86
698.577	36658.77
698.923	36625.77
699.269	36464.65
699.614	36339.68
699.96	36313.24
700.306	36303.75
700.651	36080.03
700.997	36003.87
701.342	36024.21
701.688	35979.01
702.033	35801.84
702.379	35697.66
702.724	35615.86
703.069	35675.74
703.415	35370.89
703.76	35364.11
704.105	35403.66
704.45	35299.26
704.795	34934.75
705.14	34965.25
705.485	34912.6
705.83	34812.49
706.175	34987.4
706.52	34845.71
706.865	34739.27
707.209	34716.67
707.554	34583.12
707.899	34599.61
708.243	34327.76
708.588	34319.62
708.932	34033.07
709.277	34132.05
709.621	34190.13
709.966	33980.65
710.31	34004.6
710.654	33728.68
710.998	33666.76
711.342	33722.8
711.687	33673.54
712.031	33602.35
712.375	33352.19
712.719	33561.9
713.063	33612.75
713.407	33416.59
713.75	33241.91
714.094	33104.51
714.438	33085.53
714.782	33222.02
715.125	32839.21
715.469	32856.83
715.812	32877.4
716.156	32631.3
716.499	32774.8
716.843	32685.54
717.186	32420.01
717.53	32742.94
717.873	32593.34
718.216	32487.58
718.559	32445.32
718.902	32207.13
719.246	32265.66
719.589	32213.91
719.932	32079
720.275	32062.28
720.617	32126.01
720.96	31994.71
721.303	32016.18
721.646	32088.72
721.989	31807.6
722.331	31864.32
722.674	31731.44
723.016	31815.05
723.359	31768.27
723.701	31787.48
724.044	31450.54
724.386	31316.31
724.729	31670.2
725.071	31388.17
725.413	31410.54
725.755	31422.07
726.097	31329.42
726.439	31149.99
726.782	31033.6
727.124	31224.33
727.465	30978.24
727.807	31001.97
728.149	30937.56
728.491	30914.96
728.833	30888.07
729.175	30745.48
729.516	30784.57
729.858	30648.98
730.199	30766.72
730.541	30619.83
730.882	30634.75
731.224	30665.25
731.565	30534.86
731.906	30530.12
732.248	30559.72
732.589	30379.61
732.93	30317.01
733.271	30244.93
733.612	30367.86
733.953	30246.05
734.294	30100.52
734.635	30016
734.976	30200.63
735.317	30016.23
735.658	29926.52
735.999	30058.26
736.339	29854.88
736.68	30076.34
737.021	29878.61
737.361	29778.5
737.702	29897.36
738.042	29794.09
738.383	29637.26
738.723	29645.84
739.063	29681.78
739.404	29658.05
739.744	29603.36
740.084	29494.89
740.424	29590.7
740.764	29383.25
741.104	29628.9
741.444	29378.06
741.784	29251.73
742.124	29381.44
742.464	29313.65
742.804	29164.05
743.143	29145.29
743.483	29207.66
743.823	29024.17
744.162	28980.55
744.502	29135.12
744.841	28958.63
745.181	29081.57
745.52	29050.83
745.86	28988.69
746.199	28865.75
746.538	28941.23
746.877	28932.87
747.216	28971.29
747.556	28766.32
747.895	28698.3
748.234	28555.48
748.573	28591.41
748.911	28547.57
749.25	28645.87
749.589	28515.03
749.928	28458.53
750.267	28484.52
750.605	28396.61
750.944	28386.22
751.283	28173.79
751.621	28416.5
751.96	28124.53
752.298	28183.96
752.636	28154.36
752.975	27966.79
753.313	27912.11
753.651	28106.9
753.989	27868.72
754.327	27928.83
754.666	27570.87
755.004	27734.71
755.342	27850.86
755.679	27683.64
756.017	27608.61
756.355	27564.54
756.693	27461.72
757.031	27545.79
757.368	27295.4
757.706	27365
758.044	27122.3
758.381	27268.28
758.719	27200.26
759.056	27127.72
759.394	27066.7
