Data from hue_00_FLMS001491_30.txt Node
Date: Mon Feb 06 15:29:30 GMT 2017
User: dcchb
Spectrometer: FLMS00149
Trigger mode: 0
Integration Time (sec): 2.000000E-2
Scans to average: 10
Electric dark correction enabled: true
Nonlinearity correction enabled: false
Boxcar width: 0
XAxis mode: Wavelengths
Number of Pixels in Spectrum: 2048
>>>>>Begin Spectral Data<<<<<
341.393	-13.74
341.776	-13.74
342.16	-13.74
342.543	-58.94
342.927	-63.23
343.31	-67.53
343.693	-67.53
344.077	-50.35
344.46	-69.11
344.843	-56.45
345.226	-32.5
345.61	-37.92
345.993	-29.56
346.376	7.05
346.759	12.47
347.142	33.26
347.525	35.97
347.908	61.28
348.291	64.67
348.674	82.98
349.057	113.26
349.44	141.51
349.823	142.86
350.206	163.88
350.588	186.93
350.971	186.93
351.354	219.47
351.737	256.98
352.119	225.35
352.502	268.96
352.884	270.77
353.267	278.91
353.65	295.63
354.032	285.46
354.414	311.45
354.797	329.98
355.179	306.47
355.562	315.29
355.944	321.16
356.326	318
356.709	333.14
357.091	336.08
357.473	347.83
357.855	322.52
358.238	345.8
358.62	350.09
359.002	331.79
359.384	345.34
359.766	335.63
360.148	342.41
360.53	336.53
360.912	333.59
361.294	313.71
361.676	332.24
362.057	313.48
362.439	335.4
362.821	335.17
363.203	309.86
363.584	318.23
363.966	329.07
364.348	324.55
364.729	322.29
365.111	337.21
365.493	308.96
365.874	316.19
366.256	289.75
366.637	305.57
367.019	303.99
367.4	323.65
367.781	313.48
368.163	328.4
368.544	299.24
368.925	315.97
369.306	309.19
369.688	298.34
370.069	306.93
370.45	307.38
370.831	303.54
371.212	318.68
371.593	314.38
371.974	304.89
372.355	325.01
372.736	325.01
373.117	309.86
373.498	324.78
373.879	308.28
374.26	301.96
374.641	327.94
375.021	317.32
375.402	306.25
375.783	324.78
376.163	338.56
376.544	318.45
376.925	309.41
377.305	339.92
377.686	334.04
378.066	330.2
378.447	334.72
378.827	320.71
379.208	309.64
379.588	321.62
379.968	308.73
380.349	317.55
380.729	312.58
381.109	326.81
381.489	337.43
381.87	319.13
382.25	327.49
382.63	330.43
383.01	329.75
383.39	354.61
383.77	329.07
384.15	338.34
384.53	342.86
384.91	339.69
385.29	334.72
385.67	360.03
386.049	359.81
386.429	372.24
386.809	334.5
387.189	351.67
387.568	334.5
387.948	361.84
388.328	376.53
388.707	335.4
389.087	341.5
389.466	379.47
389.846	362.29
390.225	351.22
390.605	366.59
390.984	348.06
391.363	375.17
391.743	357.32
392.122	352.8
392.501	373.59
392.881	363.2
393.26	403.2
393.639	358.23
394.018	359.58
394.397	362.52
394.776	363.65
395.155	382.86
395.534	375.4
395.913	369.75
396.292	382.86
396.671	375.85
397.05	369.07
397.429	388.96
397.808	379.69
398.186	390.09
398.565	367.94
398.944	374.27
399.323	372.01
399.701	378.56
400.08	406.36
400.458	386.47
400.837	413.59
401.215	393.48
401.594	397.77
401.972	384.89
402.351	400.71
402.729	399.35
403.107	395.29
403.486	392.8
403.864	413.14
404.242	409.98
404.62	416.98
404.999	398
405.377	407.72
405.755	427.15
406.133	405
406.511	425.34
406.889	393.7
407.267	423.76
407.645	430.99
408.023	441.16
408.401	426.02
408.779	413.82
409.156	433.93
409.534	441.61
409.912	435.51
410.29	455.17
410.667	435.51
411.045	457.88
411.422	461.73
411.8	480.03
412.178	460.14
412.555	473.7
412.933	468.73
413.31	470.54
413.687	458.11
414.065	475.51
414.442	493.59
414.819	482.97
415.197	483.42
415.574	469.63
415.951	487.26
416.328	505.57
416.705	491.1
417.082	484.78
417.46	531.78
417.837	513.93
418.214	509.18
418.591	489.75
418.967	508.5
419.344	511.67
419.721	507.6
420.098	514.83
420.475	529.97
420.852	537.88
421.228	501.5
421.605	520.48
421.982	537.43
422.358	535.85
422.735	534.94
423.111	539.92
423.488	535.62
423.864	528.62
424.241	557.32
424.617	562.06
424.994	571.78
425.37	555.96
425.746	560.71
426.123	561.84
426.499	580.14
426.875	581.04
427.251	554.38
427.627	582.17
428.003	598.9
428.379	600.93
428.756	597.54
429.132	609.07
429.507	589.86
429.883	600.93
430.259	597.77
430.635	615.85
431.011	633.02
431.387	618.33
431.763	627.37
432.138	648.84
432.514	635.05
432.89	649.52
433.265	668.95
433.641	661.04
434.016	656.07
434.392	661.04
434.767	662.62
435.143	669.18
435.518	673.47
435.894	698.33
436.269	705.56
436.644	696.3
437.02	709.4
437.395	713.7
437.77	731.77
438.145	721.38
438.52	743.3
438.895	732.68
439.271	752.79
439.646	766.58
440.021	753.02
440.395	761.83
440.77	739.68
441.145	730.19
441.52	789.17
441.895	743.98
442.27	791.89
442.645	783.75
443.019	775.62
443.394	802.06
443.769	771.55
444.143	763.64
444.518	776.07
444.892	800.02
445.267	829.4
445.641	801.15
446.016	796.86
446.39	798.67
446.764	827.14
447.139	844.54
447.513	794.15
447.887	811.32
448.262	845.44
448.636	831.88
449.01	842.51
449.384	854.71
449.758	853.81
450.132	844.31
450.506	852.9
450.88	875.27
451.254	842.28
451.628	863.3
452.002	892
452.376	877.76
452.75	912.56
453.123	885.67
453.497	913.92
453.871	912.56
454.244	911.88
454.618	949.85
454.992	932.9
455.365	931.09
455.739	957.53
456.112	976.51
456.486	973.35
456.859	996.17
457.232	987.81
457.606	974.48
457.979	988.94
458.352	1002.73
458.725	1015.38
459.099	1033.69
459.472	1044.53
459.845	1063.29
460.218	1063.29
460.591	1070.75
460.964	1056.51
461.337	1122.5
461.71	1109.39
462.083	1094.02
462.456	1119.33
462.829	1122.27
463.201	1138.77
463.574	1136.28
463.947	1163.18
464.32	1197.3
464.692	1197.3
465.065	1198.2
465.438	1218.32
465.81	1229.84
466.183	1228.26
466.555	1237.75
466.928	1287.69
467.3	1282.95
467.672	1268.26
468.045	1313.68
468.417	1308.93
468.789	1310.06
469.161	1362.49
469.534	1374.24
469.906	1384.86
470.278	1383.73
470.65	1415.37
471.022	1421.02
471.394	1461.47
471.766	1477.52
472.138	1473.9
472.51	1486.56
472.882	1558.19
473.253	1548.48
473.625	1553
473.997	1605.65
474.369	1600.9
474.74	1669.38
475.112	1657.63
475.484	1699.21
475.855	1689.94
476.227	1743.73
476.598	1753.67
476.97	1784.4
477.341	1798.19
477.713	1856.72
478.084	1870.73
478.455	1917.96
478.827	1936.04
479.198	1990.27
479.569	1990.27
479.94	2025.3
480.311	2062.14
480.682	2122.02
481.053	2166.77
481.424	2242.47
481.795	2209.48
482.166	2259.64
482.537	2312.07
482.908	2324.95
483.279	2363.14
483.65	2397.27
484.021	2454.22
484.391	2481.79
484.762	2526.53
485.133	2510.48
485.503	2582.12
485.874	2631.61
486.244	2665.96
486.615	2708.9
486.985	2753.87
487.356	2795
487.726	2804.71
488.097	2857.82
488.467	2875.22
488.837	2965.39
489.207	2998.61
489.578	3022.56
489.948	3059.85
490.318	3099.62
490.688	3129.68
491.058	3176.46
491.428	3216.91
491.798	3260.97
492.168	3302.78
492.538	3293.52
492.908	3392.27
493.278	3383.91
493.648	3438.82
494.017	3463
494.387	3559.04
494.757	3544.36
495.126	3588.2
495.496	3628.87
495.866	3605.6
496.235	3629.55
496.605	3706.16
496.974	3710.68
497.344	3722.88
497.713	3758.36
498.082	3823.9
498.452	3856.21
498.821	3878.13
499.19	3870
499.559	3966.04
499.928	3957.45
500.298	3969.66
500.667	4033.83
501.036	4020.28
501.405	4058.24
501.774	4055.08
502.143	4072.7
502.512	4121.52
502.88	4124.68
503.249	4189.08
503.618	4164
503.987	4194.73
504.356	4187.5
504.724	4208.52
505.093	4243.55
505.462	4282.87
505.83	4294.17
506.199	4303.66
506.567	4365.35
506.936	4380.72
507.304	4401.51
507.672	4420.04
508.041	4469.08
508.409	4452.81
508.777	4489.64
509.145	4515.86
509.514	4520.83
509.882	4542.52
510.25	4591.79
510.618	4564.22
510.986	4620.26
511.354	4640.37
511.722	4678.11
512.09	4689.86
512.458	4699.58
512.826	4747.94
513.193	4692.57
513.561	4770.76
513.929	4776.87
514.297	4771.67
514.664	4807.6
515.032	4828.84
515.4	4895.73
515.767	4880.14
516.135	4931.89
516.502	4921.04
516.869	4972.34
517.237	4951.78
517.604	4956.3
517.972	4983.64
518.339	5006.24
518.706	5014.83
519.073	4993.13
519.44	5030.87
519.808	5135.95
520.175	5090.3
520.542	5148.16
520.909	5150.64
521.276	5104.31
521.643	5168.72
522.009	5261.6
522.376	5236.29
522.743	5264.99
523.11	5282.39
523.477	5352.67
523.843	5349.05
524.21	5416.17
524.577	5486.23
524.943	5437.87
525.31	5452.33
525.676	5554.47
526.043	5543.63
526.409	5574.13
526.776	5596.73
527.142	5605.54
527.508	5600.8
527.874	5708.59
528.241	5712.66
528.607	5656.39
528.973	5769.38
529.339	5804.41
529.705	5809.61
530.071	5842.15
530.437	5842.37
530.803	5892.99
531.169	5918.3
531.535	5905.42
531.901	5958.08
532.267	6009.6
532.632	6063.16
532.998	6027.91
533.364	6076.94
533.73	6096.83
534.095	6134.34
534.461	6182.48
534.826	6195.13
535.192	6182.7
535.557	6234.68
535.923	6241.23
536.288	6317.84
536.653	6326.43
537.019	6298.18
537.384	6336.82
537.749	6357.62
538.114	6431.74
538.479	6374.79
538.845	6422.92
539.21	6475.35
539.575	6486.65
539.94	6459.31
540.305	6541.11
540.67	6556.93
541.034	6558.97
541.399	6599.87
541.764	6634.9
542.129	6605.07
542.494	6700.43
542.858	6667.89
543.223	6745.4
543.587	6792.63
543.952	6741.33
544.316	6822.69
544.681	6871.05
545.045	6856.13
545.41	6877.83
545.774	6953.76
546.138	6931.39
546.503	7005.73
546.867	7030.82
547.231	7071.04
547.595	7010.03
547.959	7034.89
548.324	7052.51
548.688	7142
549.052	7185.84
549.416	7110.59
549.779	7145.62
550.143	7216.35
550.507	7234.65
550.871	7263.35
551.235	7289.79
551.599	7352.84
551.962	7368.44
552.326	7351.49
552.689	7427.64
553.053	7377.7
553.417	7397.14
553.78	7530.47
554.143	7516.68
554.507	7505.16
554.87	7513.07
555.234	7577.92
555.597	7577.7
555.96	7638.94
556.323	7645.27
556.686	7604.14
557.05	7691.82
557.413	7709.22
557.776	7719.84
558.139	7758.93
558.502	7734.53
558.865	7793.28
559.228	7844.36
559.59	7872.83
559.953	7830.34
560.316	7941.08
560.679	7989.89
561.041	8037.35
561.404	8017.68
561.767	8051.36
562.129	8054.52
562.492	8103.11
562.854	8134.07
563.217	8134.97
563.579	8151.24
563.941	8227.17
564.304	8238.24
564.666	8334.74
565.028	8348.52
565.39	8323.89
565.753	8421.29
566.115	8370.9
566.477	8446.15
566.839	8457.67
567.201	8523.43
567.563	8489.99
567.925	8544.22
568.287	8585.35
568.648	8647.72
569.01	8610.21
569.372	8651.11
569.734	8678.46
570.095	8786.93
570.457	8789.19
570.819	8835.29
571.18	8850.66
571.542	8912.35
571.903	8881.39
572.265	8994.16
572.626	9021.05
572.987	9056.98
573.349	9164.1
573.71	9207.03
574.071	9175.39
574.432	9267.6
574.794	9323.64
575.155	9334.03
575.516	9374.03
575.877	9468.72
576.238	9578.77
576.599	9608.6
576.96	9649.73
577.32	9739
577.681	9804.3
578.042	9940.35
578.403	9932.89
578.763	10000.46
579.124	10094.01
579.485	10261.92
579.845	10334.46
580.206	10397.51
580.566	10557.05
580.927	10668.69
581.287	10823.49
581.648	10886.08
582.008	11011.5
582.368	11166.08
582.728	11272.74
583.089	11353.64
583.449	11533.3
583.809	11707.53
584.169	11850.58
584.529	11978.26
584.889	12250.12
585.249	12341.86
585.609	12467.29
585.969	12788.63
586.329	12980.27
586.688	13210.77
587.048	13344.1
587.408	13481.04
587.768	13681.72
588.127	13959.45
588.487	14177.07
588.846	14514.01
589.206	14600.34
589.565	14751.52
589.925	15166.2
590.284	15334.1
590.643	15643.02
591.003	15931.15
591.362	16155.55
591.721	16362.78
592.08	16662.2
592.44	17027.84
592.799	17258.35
593.158	17551.45
593.517	17728.62
593.876	18129.74
594.235	18309.62
594.593	18635.71
594.952	19014.01
595.311	19211.97
595.67	19517.5
596.029	19897.37
596.387	20178.27
596.746	20514.76
597.104	20750.01
597.463	20957.01
597.822	21362.87
598.18	21571.45
598.538	21790.66
598.897	22272.9
599.255	22281.49
599.613	22969.83
599.972	23119.89
600.33	23455.47
600.688	23573.66
601.046	24021.11
601.404	24286.41
601.762	24631.03
602.12	24936.34
602.478	25191.02
602.836	25282.09
603.194	25596.21
603.552	25886.59
603.91	26127.72
604.268	26484.54
604.625	26635.73
604.983	26947.13
605.341	27104.19
605.698	27544.63
606.056	27673.89
606.413	27949.14
606.771	28314.78
607.128	28476.81
607.485	28536.92
607.843	28832.5
608.2	29106.17
608.557	29427.74
608.914	29464.35
609.272	29910.22
609.629	30192.24
609.986	30450.09
610.343	30500.48
610.7	30878.33
611.057	31090.07
611.414	31166.91
611.771	31371.19
612.127	31620.45
612.484	31792.65
612.841	32092.53
613.198	32092.08
613.554	32336.59
613.911	32682.35
614.267	32737.71
614.624	32841.44
614.98	33178.83
615.337	33445.04
615.693	33536.79
616.05	33585.15
616.406	33947.4
616.762	33795.09
617.118	34066.72
617.475	34216.54
617.831	34460.83
618.187	34586.93
618.543	34751.9
618.899	35005.9
619.255	35145.78
619.611	35205.9
619.967	35423.29
620.323	35574.7
620.678	35391.88
621.034	35486.11
621.39	35824.64
621.746	35725.43
622.101	36152.31
622.457	35964.52
622.812	36092.65
623.168	36277.73
623.523	36434.79
623.879	36647.44
624.234	36468.24
624.589	36629.14
624.945	36828.9
625.3	36856.47
625.655	37066.86
626.01	36978.73
626.365	36970.82
626.72	37234.09
627.075	37157.03
627.43	37132.63
627.785	37388.44
628.14	37475.44
628.495	37455.33
628.85	37484.03
629.205	37437.93
629.559	37731.71
629.914	37538.26
630.269	37627.53
630.623	37632.05
630.978	37609.45
631.332	37781.65
631.687	37810.12
632.041	37706.62
632.396	37796.34
632.75	37676.34
633.104	37776.45
633.459	37696.23
633.813	37572.84
634.167	37761.54
634.521	37756.56
634.875	37787.98
635.229	37794.08
635.583	37694.42
635.937	37848.99
636.291	37834.75
636.645	37839.5
636.999	37739.39
637.352	37774.42
637.706	37690.12
638.06	37930.8
638.413	37877.46
638.767	37790.24
639.121	37802.66
639.474	37567.19
639.828	37832.49
640.181	37856.67
640.534	37748.43
640.888	37691.71
641.241	37557.92
641.594	37712.72
641.947	37804.47
642.301	37695.77
642.654	37587.98
643.007	37808.54
643.36	37624.82
643.713	37651.26
644.066	37698.71
644.419	37483.58
644.771	37353.18
645.124	36987.54
645.477	37042.68
645.83	36788.68
646.182	36670.04
646.535	36657.16
646.888	36705.52
647.24	36405.41
647.593	36731.73
647.945	36602.02
648.298	36482.47
648.65	36314.57
649.002	36378.97
649.355	36499.2
649.707	36542.81
650.059	36636.59
650.411	37051.5
650.763	37062.8
651.115	37353.41
651.467	37207.88
651.819	37329.46
652.171	37174.66
652.523	37222.57
652.875	37201.78
653.227	37011.5
653.578	37219.18
653.93	37223.47
654.282	36997.71
654.633	36931.27
654.985	37149.8
655.337	36981.44
655.688	37043.36
656.039	37128.11
656.391	36788.45
656.742	36961.33
657.094	37005.4
657.445	36977.38
657.796	36949.35
658.147	36892.41
658.498	36945.06
658.849	37187.09
659.2	37008.56
659.551	36755.46
659.902	37051.72
660.253	36893.99
660.604	37036.36
660.955	36784.39
661.306	36974.89
661.656	36757.72
662.007	36970.37
662.358	36865.74
662.708	36890.15
663.059	36840.88
663.409	36576.48
663.76	36851.28
664.11	36909.13
664.461	36909.81
664.811	36934.66
665.161	36891.5
665.511	36808.57
665.862	36863.48
666.212	36827.55
666.562	36813.76
666.912	36896.02
667.262	36779.19
667.612	36797.27
667.962	36852.41
668.312	36849.69
668.662	36863.71
669.011	36803.37
669.361	36812.63
669.711	36789.58
670.06	36795.01
670.41	36683.6
670.76	36785.97
671.109	36639.3
671.459	36633.43
671.808	36663.26
672.157	36700.09
672.507	36442.93
672.856	36439.08
673.205	36554.34
673.554	36576.71
673.904	36358.86
674.253	36718.62
674.602	36548.01
674.951	35999.32
675.3	35772.21
675.649	36513.88
675.998	36414.23
676.346	36481.12
676.695	36497.16
677.044	36164.29
677.393	36349.6
677.741	36405.86
678.09	36181.69
678.438	36224.4
678.787	36174.91
679.135	36238.41
679.484	35969.27
679.832	36105.76
680.181	35973.79
680.529	36093.33
680.877	35953.9
681.225	35901.25
681.573	36229.15
681.922	35824.64
682.27	35869.38
682.618	35796.62
682.966	35616.06
683.314	35778.54
683.661	35603.85
684.009	35422.39
684.357	35406.8
684.705	35465.1
685.053	35427.59
685.4	35323.63
685.748	35298.1
686.095	35251.77
686.443	35075.05
686.79	35082.51
687.138	35215.39
687.485	35112.11
687.832	34959.58
688.18	35015.17
688.527	34869.86
688.874	34832.57
689.221	34690.66
689.568	34644.78
689.915	34583.99
690.262	34577.89
690.609	34428.97
690.956	34234.4
691.303	34355.75
691.65	34143.78
691.997	34016.32
692.344	33927.96
692.69	33845.48
693.037	33946.49
693.383	33697.24
693.73	33704.69
694.077	33609.33
694.423	33541.08
694.769	33402.1
695.116	33283.46
695.462	33340.86
695.808	33246.85
696.155	33319.62
696.501	32992.4
696.847	33023.58
697.193	32816.58
697.539	32993.75
697.885	32666.3
698.231	32695.23
698.577	32568.68
698.923	32518.96
699.269	32485.29
699.614	32367.1
699.96	32353.09
700.306	32258.86
700.651	32190.83
700.997	32131.17
701.342	32149.71
701.688	31942.03
702.033	31945.87
702.379	31829.71
702.724	31691.19
703.069	31704.29
703.415	31386.79
703.76	31484.19
704.105	31421.36
704.45	31326.9
704.795	31214.36
705.14	30927.36
705.485	30980.02
705.83	31019.79
706.175	31048.72
706.52	30932.79
706.865	30793.81
707.209	30742.06
707.554	30639.01
707.899	30792.68
708.243	30545.45
708.588	30481.73
708.932	30313.37
709.277	30293.03
709.621	30373.26
709.966	30133.71
710.31	30312.69
710.654	29902.98
710.998	30088.52
711.342	29953.38
711.687	29866.15
712.031	29636.78
712.375	29676.78
712.719	29642.43
713.063	29571.24
713.407	29717.23
713.75	29488.98
714.094	29485.37
714.438	29477.91
714.782	29347.07
715.125	29251.48
715.469	29175.77
715.812	29162.44
716.156	28966.74
716.499	29086.74
716.843	28939.39
717.186	28847.87
717.53	28927.19
717.873	29093.97
718.216	29079.5
718.559	28653.98
718.902	28489.91
719.246	28700.3
719.589	28531.72
719.932	28332.63
720.275	28468.67
720.617	28365.62
720.96	28465.73
721.303	28347.32
721.646	28384.61
721.989	28129.02
722.331	28212.41
722.674	28090.6
723.016	28190.94
723.359	28096.03
723.701	28219.64
724.044	27941.68
724.386	27814.45
724.729	28040.21
725.071	27826.43
725.413	27844.96
725.755	27814.45
726.097	27730.84
726.439	27481.81
726.782	27611.75
727.124	27697.39
727.465	27509.6
727.807	27512.99
728.149	27411.3
728.491	27521.13
728.833	27444.74
729.175	27337.4
729.516	27260.57
729.858	27331.3
730.199	27299.21
730.541	27164.75
730.882	27128.37
731.224	27222.83
731.565	27037.52
731.906	27090.63
732.248	27099.22
732.589	26876.4
732.93	26855.38
733.271	26849.51
733.612	26840.01
733.953	26923.63
734.294	26724.76
734.635	26753.46
734.976	26743.75
735.317	26495.16
735.658	26606.12
735.999	26623.52
736.339	26508.5
736.68	26649.29
737.021	26369.97
737.361	26411.33
737.702	26447.71
738.042	26491.32
738.383	26379.24
738.723	26362.97
739.063	26274.61
739.404	26284.55
739.744	26073.93
740.084	25988.51
740.424	26128.62
740.764	26030.09
741.104	26211.78
741.444	25965.24
741.784	25826.48
742.124	25830.78
742.464	25892.47
742.804	25698.12
743.143	25716.65
743.483	25799.82
743.823	25593.95
744.162	25734.96
744.502	25666.94
744.841	25507.85
745.181	25656.99
745.52	25404.57
745.86	25541.29
746.199	25444.8
746.538	25448.41
746.877	25518.02
747.216	25478.24
747.556	25299.94
747.895	25228.53
748.234	25298.13
748.573	25311.24
748.911	25332.26
749.25	25257.68
749.589	25157.12
749.928	25120.06
750.267	25206.84
750.605	25020.4
750.944	25069.44
751.283	24886.17
751.621	24929.56
751.96	24797.81
752.298	24837.81
752.636	24828.32
752.975	24732.5
753.313	24547.87
753.651	24689.11
753.989	24584.93
754.327	24544.03
754.666	24397.37
755.004	24417.48
755.342	24382.23
755.679	24366.86
756.017	24281.66
756.355	24174.32
756.693	24181.55
757.031	24136.13
757.368	24161.67
757.706	23987.66
758.044	23950.15
758.381	23946.31
758.719	23905.4
759.056	23975.68
759.394	23749.7
759.731	23712.19
760.068	23529.14
760.405	23478.75
760.743	23405.53
