Data from hue_340_FLMS001491_99.txt Node
Date: Mon Feb 06 15:43:54 GMT 2017
User: dcchb
Spectrometer: FLMS00149
Trigger mode: 0
Integration Time (sec): 2.000000E-2
Scans to average: 10
Electric dark correction enabled: true
Nonlinearity correction enabled: false
Boxcar width: 0
XAxis mode: Wavelengths
Number of Pixels in Spectrum: 2048
>>>>>Begin Spectral Data<<<<<
341.393	-2.56
341.776	-2.56
342.16	-2.56
342.543	-46.62
342.927	-71.03
343.31	-71.48
343.693	-53.63
344.077	-72.39
344.46	-54.98
344.843	-49.33
345.226	-48.88
345.61	-40.07
345.993	-34.19
346.376	-8.43
346.759	14.84
347.142	37.22
347.525	44.9
347.908	48.97
348.291	90.1
348.674	98.23
349.057	99.14
349.44	125.35
349.823	148.4
350.206	170.09
350.588	197.66
350.971	219.13
351.354	229.53
351.737	254.16
352.119	249.87
352.502	231.56
352.884	254.39
353.267	282.41
353.65	292.58
354.032	311.56
354.414	313.14
354.797	309.07
355.179	303.65
355.562	316.53
355.944	333.25
356.326	317.66
356.709	330.99
357.091	341.84
357.473	344.1
357.855	334.61
358.238	339.58
358.62	351.33
359.002	336.42
359.384	338.9
359.766	344.33
360.148	328.28
360.53	349.52
360.912	352.91
361.294	336.19
361.676	304.33
362.057	343.2
362.439	326.7
362.821	316.98
363.203	321.73
363.584	317.21
363.966	322.18
364.348	312.24
364.729	302.52
365.111	309.75
365.493	319.24
365.874	303.65
366.256	307.94
366.637	303.42
367.019	299.81
367.4	300.71
367.781	303.65
368.163	329.41
368.544	292.58
368.925	312.24
369.306	325.12
369.688	309.07
370.069	307.94
370.45	298.23
370.831	303.88
371.212	310.2
371.593	302.75
371.974	330.99
372.355	316.76
372.736	317.44
373.117	307.27
373.498	326.7
373.879	324.44
374.26	308.17
374.641	321.05
375.021	303.88
375.402	311.33
375.783	330.09
376.163	308.17
376.544	310.88
376.925	332.8
377.305	318.34
377.686	304.1
378.066	339.81
378.447	323.99
378.827	331.67
379.208	319.47
379.588	314.27
379.968	328.28
380.349	314.72
380.729	348.39
381.109	328.06
381.489	324.89
381.87	325.57
382.25	309.98
382.63	334.61
383.01	326.25
383.39	355.17
383.77	333.25
384.15	336.87
384.53	325.34
384.91	339.13
385.29	343.2
385.67	356.08
386.049	341.84
386.429	318.57
386.809	362.86
387.189	332.35
387.568	328.73
387.948	328.51
388.328	347.94
388.707	330.32
389.087	348.39
389.466	346.59
389.846	328.06
390.225	362.41
390.605	347.26
390.984	360.15
391.363	353.37
391.743	372.57
392.122	331.45
392.501	352.46
392.881	389.75
393.26	380.26
393.639	333.25
394.018	332.35
394.397	365.34
394.776	348.39
395.155	358.11
395.534	362.18
395.913	368.28
396.292	360.37
396.671	361.05
397.05	384.55
397.429	362.18
397.808	376.64
398.186	361.73
398.565	362.18
398.944	381.39
399.323	368.06
399.701	358.56
400.08	373.03
400.458	368.73
400.837	379.35
401.215	389.75
401.594	381.16
401.972	382.74
402.351	384.78
402.729	401.05
403.107	388.62
403.486	392.01
403.864	378.9
404.242	392.01
404.62	397.43
404.999	392.69
405.377	402.86
405.755	391.11
406.133	417.55
406.511	399.01
406.889	422.29
407.267	394.04
407.645	407.38
408.023	405.12
408.401	410.31
408.779	412.57
409.156	406.47
409.534	434.04
409.912	418.9
410.29	411.22
410.667	440.82
411.045	410.99
411.422	441.27
411.8	448.05
412.178	434.04
412.555	476.3
412.933	454.38
413.31	461.84
413.687	449.41
414.065	482.85
414.442	468.84
414.819	468.17
415.197	467.49
415.574	499.58
415.951	482.63
416.328	474.72
416.705	496.41
417.082	488.5
417.46	500.93
417.837	509.29
418.214	506.81
418.591	509.75
418.967	519.92
419.344	512.91
419.721	524.66
420.098	526.24
420.475	558.33
420.852	537.32
421.228	505.45
421.605	536.86
421.982	540.93
422.358	564.66
422.735	569.41
423.111	574.83
423.488	574.6
423.864	537.54
424.241	565.11
424.617	564.21
424.994	562.85
425.37	573.25
425.746	575.06
426.123	589.74
426.499	600.14
426.875	599.24
427.251	583.42
427.627	621.83
428.003	608.05
428.379	629.29
428.756	624.55
429.132	603.08
429.507	622.96
429.883	634.94
430.259	647.37
430.635	645.11
431.011	662.28
431.387	665
431.763	677.65
432.138	686.92
432.514	670.19
432.89	683.08
433.265	706.13
433.641	691.66
434.016	738.22
434.392	698.67
434.767	736.18
435.143	693.24
435.518	719.23
435.894	741.38
436.269	746.58
436.644	751.1
437.02	737.76
437.395	746.8
437.77	744.99
438.145	744.99
438.52	761.27
438.895	773.02
439.271	791.32
439.646	767.14
440.021	770.76
440.395	783.19
440.77	787.25
441.145	806.91
441.52	809.85
441.895	820.25
442.27	815.05
442.645	812.11
443.019	835.61
443.394	842.39
443.769	841.04
444.143	808.95
444.518	843.97
444.892	826.57
445.267	847.59
445.641	852.34
446.016	849.62
446.39	846.69
446.764	853.01
447.139	847.59
447.513	831.09
447.887	839
448.262	874.26
448.636	876.52
449.01	885.33
449.384	864.31
449.758	870.19
450.132	868.83
450.506	899.57
450.88	890.53
451.254	873.35
451.628	909.74
452.002	922.62
452.376	933.92
452.75	880.81
453.123	918.1
453.497	947.7
453.871	943.63
454.244	970.53
454.618	947.93
454.992	952.67
455.365	949.51
455.739	973.01
456.112	973.69
456.486	1001.26
456.859	975.27
457.232	966.68
457.606	997.64
457.979	1012.56
458.352	1026.34
458.725	1053.69
459.099	1022.5
459.472	1046.46
459.845	1062.05
460.218	1054.59
460.591	1053.69
460.964	1065.89
461.337	1107.47
461.71	1088.26
462.083	1107.47
462.456	1112.89
462.829	1118.09
463.201	1104.31
463.574	1129.39
463.947	1152.89
464.32	1176.85
464.692	1153.35
465.065	1188.82
465.438	1182.27
465.81	1191.08
466.183	1175.49
466.555	1204.64
466.928	1190.18
467.3	1221.82
467.672	1243.29
468.045	1264.08
468.417	1278.77
468.789	1253.91
469.161	1272.66
469.534	1302.72
469.906	1341.36
470.278	1339.78
470.65	1368.25
471.022	1365.09
471.394	1377.75
471.766	1375.26
472.138	1414.81
472.51	1444.41
472.882	1437.41
473.253	1440.8
473.625	1469.04
473.997	1482.38
474.369	1514.01
474.74	1498.65
475.112	1528.7
475.484	1586.78
475.855	1563.28
476.227	1599.89
476.598	1634.01
476.97	1605.76
477.341	1640.34
477.713	1694.12
478.084	1711.52
478.455	1731.41
478.827	1747
479.198	1794.23
479.569	1781.35
479.94	1839.88
480.311	1820.67
480.682	1900.9
481.053	1915.36
481.424	1931.63
481.795	1958.75
482.166	2001.68
482.537	2028.12
482.908	2043.27
483.279	2052.76
483.65	2094.11
484.021	2131.62
484.391	2140.44
484.762	2178.86
485.133	2195.35
485.503	2188.8
485.874	2243.71
486.244	2297.5
486.615	2309.02
486.985	2363.48
487.356	2387.89
487.726	2391.73
488.097	2425.18
488.467	2430.6
488.837	2509.24
489.207	2519.86
489.578	2569.81
489.948	2575
490.318	2616.13
490.688	2588.34
491.058	2638.28
491.428	2673.08
491.798	2696.58
492.168	2784.49
492.538	2735.45
492.908	2803.47
493.278	2836.24
493.648	2822.23
494.017	2891.15
494.387	2880.53
494.757	2867.88
495.126	2919.85
495.496	2948.33
495.866	2945.16
496.235	2987.42
496.605	3026.74
496.974	3025.61
497.344	3030.36
497.713	3053.63
498.082	3083.24
498.452	3121.43
498.821	3125.5
499.19	3156.68
499.559	3156.23
499.928	3177.25
500.298	3170.02
500.667	3230.8
501.036	3226.96
501.405	3261.76
501.774	3246.17
502.143	3285.04
502.512	3312.61
502.88	3282.78
503.249	3275.32
503.618	3313.06
503.987	3321.65
504.356	3386.96
504.724	3381.99
505.093	3380.41
505.462	3404.36
505.83	3409.56
506.199	3447.97
506.567	3494.53
506.936	3421.53
507.304	3476.45
507.672	3485.26
508.041	3515.32
508.409	3556.45
508.777	3550.8
509.145	3588.76
509.514	3553.96
509.882	3576.11
510.25	3607.52
510.618	3575.43
510.986	3605.94
511.354	3608.87
511.722	3683.67
512.09	3666.95
512.458	3691.81
512.826	3720.51
513.193	3718.48
513.561	3725.03
513.929	3728.42
514.297	3752.15
514.664	3763.45
515.032	3748.98
515.4	3758.7
515.767	3774.29
516.135	3767.06
516.502	3787.63
516.869	3811.58
517.237	3866.49
517.604	3820.39
517.972	3852.26
518.339	3816.33
518.706	3876.89
519.073	3871.24
519.44	3872.14
519.808	3901.3
520.175	3868.98
520.542	3932.48
520.909	3953.72
521.276	3949.43
521.643	3984.91
522.009	3954.63
522.376	4013.84
522.743	4003.67
523.11	4026.94
523.477	4023.78
523.843	4082.76
524.21	4091.35
524.577	4075.53
524.943	4112.82
525.31	4158.69
525.676	4178.8
526.043	4174.51
526.409	4226.03
526.776	4239.14
527.142	4274.85
527.508	4271.91
527.874	4286.6
528.241	4311.45
528.607	4271.46
528.973	4380.61
529.339	4372.92
529.705	4371.57
530.071	4433.03
530.437	4444.11
530.803	4413.37
531.169	4508.51
531.535	4441.17
531.901	4438.46
532.267	4506.48
532.632	4538.57
532.998	4560.26
533.364	4557.32
533.73	4603.2
534.095	4642.07
534.461	4631.9
534.826	4670.54
535.192	4691.56
535.557	4682.29
535.923	4665.34
536.288	4714.61
536.653	4725
537.019	4726.81
537.384	4757.54
537.749	4802.06
538.114	4828.05
538.479	4802.06
538.845	4814.27
539.21	4844.32
539.575	4816.07
539.94	4870.76
540.305	4882.96
540.67	4924.55
541.034	4970.65
541.399	5019.46
541.764	4998.44
542.129	4998.44
542.494	5026.01
542.858	5031.89
543.223	5044.32
543.587	5103.07
543.952	5094.48
544.316	5156.18
544.681	5106.24
545.045	5188.27
545.41	5194.6
545.774	5217.87
546.138	5212.22
546.503	5224.65
546.867	5233.46
547.231	5293.12
547.595	5287.7
547.959	5344.2
548.324	5333.12
548.688	5371.31
549.052	5432.33
549.416	5355.95
549.779	5368.83
550.143	5376.51
550.507	5444.76
550.871	5425.1
551.235	5475.49
551.599	5517.52
551.962	5527.47
552.326	5508.94
552.689	5567.01
553.053	5546.9
553.417	5589.61
553.78	5639.33
554.143	5576.51
554.507	5658.09
554.87	5611.53
555.234	5669.61
555.597	5677.97
555.96	5720.68
556.323	5718.2
556.686	5741.02
557.05	5723.39
557.413	5798.2
557.776	5757.52
558.139	5766.11
558.502	5794.13
558.865	5806.33
559.228	5862.15
559.59	5905.99
559.953	5906.21
560.316	5964.74
560.679	5909.83
561.041	5961.58
561.404	5968.13
561.767	6008.13
562.129	5950.51
562.492	6059.43
562.854	6043.61
563.217	5991.86
563.579	6056.04
563.941	6130.39
564.304	6130.84
564.666	6169.71
565.028	6152.31
565.39	6216.04
565.753	6144.85
566.115	6218.07
566.477	6245.41
566.839	6249.93
567.201	6305.3
567.563	6336.03
567.925	6348.91
568.287	6303.72
568.648	6315.24
569.01	6406.54
569.372	6402.92
569.734	6435.01
570.095	6422.81
570.457	6509.81
570.819	6475.24
571.18	6496.93
571.542	6582.36
571.903	6617.38
572.265	6637.04
572.626	6724.72
572.987	6766.76
573.349	6709.81
573.71	6824.38
574.071	6839.52
574.432	6874.55
574.794	6964.72
575.155	6960.88
575.516	6991.84
575.877	7093.3
576.238	7101.21
576.599	7185.5
576.96	7176.69
577.32	7250.81
577.681	7319.74
578.042	7457.13
578.403	7479.96
578.763	7553.86
579.124	7663.23
579.485	7730.8
579.845	7831.59
580.206	7910
580.566	8031.58
580.927	8094.18
581.287	8234.06
581.648	8266.83
582.008	8468.18
582.368	8568.74
582.728	8649.65
583.089	8833.6
583.449	8954.72
583.809	9151.33
584.169	9258.89
584.529	9357.42
584.889	9670.64
585.249	9693.01
585.609	9819.56
585.969	10084.18
586.329	10258.42
586.688	10473.1
587.048	10640.33
587.408	10807.55
587.768	11003.48
588.127	11216.13
588.487	11408.89
588.846	11745.84
589.206	11842.56
589.565	12019.5
589.925	12391.92
590.284	12514.85
590.643	12725.7
591.003	13082.98
591.362	13341.73
591.721	13588.05
592.08	13827.59
592.44	14109.61
592.799	14354.13
593.158	14577.63
593.517	14824.85
593.876	15152.75
594.235	15319.53
594.593	15658.95
594.952	15980.53
595.311	16196.34
595.67	16482.66
596.029	16826.38
596.387	17100.95
596.746	17379.81
597.104	17578.45
597.463	17875.84
597.822	18165.78
598.18	18400.8
598.538	18671.98
598.897	19051.41
599.255	19123.04
599.613	19829.24
599.972	19747.21
600.33	20254.54
600.688	20342.67
601.046	20715.32
601.404	20983.78
601.762	21261.52
602.12	21657.67
602.478	21819.02
602.836	22044.55
603.194	22125.68
603.552	22491.99
603.91	22608.15
604.268	22977.4
604.625	23143.05
604.983	23517.73
605.341	23561.8
605.698	23998.17
606.056	24265.05
606.413	24511.83
606.771	24705.27
607.128	24907.98
607.485	25031.59
607.843	25242.66
608.2	25471.8
608.557	25874.73
608.914	26046.93
609.272	26158.34
609.629	26530.98
609.986	26843.74
610.343	26871.31
610.7	27236.73
611.057	27295.03
611.414	27542.48
611.771	27702.93
612.127	27972.53
612.484	28046.65
612.841	28328.68
613.198	28432.85
613.554	28545.85
613.911	28850.7
614.267	28952.61
614.624	29125.04
614.98	29320.74
615.337	29548.76
615.693	29619.72
616.05	29785.36
616.406	30134.28
616.762	30052.47
617.118	30296.76
617.475	30351.45
617.831	30613.14
618.187	30738.56
618.543	30829.85
618.899	31099.22
619.255	31127.47
619.611	31202.27
619.967	31386.45
620.323	31675.93
620.678	31664.18
621.034	31602.26
621.39	31732.43
621.746	31898.07
622.101	32268.23
622.457	31985.08
622.812	32280.89
623.168	32456.7
623.523	32458.28
623.879	32578.73
624.234	32492.18
624.589	32762.01
624.945	32736.7
625.3	32922.45
625.655	32929.23
626.01	33123.13
626.365	33139.4
626.72	33053.52
627.075	33210.36
627.43	33167.64
627.785	33235.21
628.14	33401.54
628.495	33417.13
628.85	33500.07
629.205	33439.28
629.559	33740.06
629.914	33592.27
630.269	33691.92
630.623	33561.31
630.978	33563.57
631.332	33843.79
631.687	33818.48
632.041	33815.09
632.396	33916.55
632.75	33800.62
633.104	33893.95
633.459	33745.26
633.813	33829.32
634.167	33813.5
634.521	33814.86
634.875	33859.15
635.229	33877.46
635.583	33860.96
635.937	33751.58
636.291	33820.74
636.645	33970.34
636.999	33797.91
637.352	34019.83
637.706	33793.17
638.06	34002.43
638.413	34055.08
638.767	33838.14
639.121	33879.94
639.474	33681.98
639.828	33870.23
640.181	34066.6
640.534	33931.69
640.888	33860.73
641.241	33803.11
641.594	33765.37
641.947	33886.72
642.301	33932.37
642.654	33868.19
643.007	33853.05
643.36	33813.5
643.713	33851.47
644.066	33934.4
644.419	33825.25
644.771	33609.89
645.124	33212.62
645.477	33159.51
645.83	33090.58
646.182	32938.95
646.535	32857.37
646.888	32885.17
647.24	32741.67
647.593	32884.26
647.945	32869.35
648.298	32728.11
648.65	32732.4
649.002	32652.86
649.355	32797.49
649.707	32655.79
650.059	32768.11
650.411	33215.33
650.763	33225.72
651.115	33727.63
651.467	33473.63
651.819	33526.51
652.171	33452.84
652.523	33316.12
652.875	33478.6
653.227	33258.04
653.578	33545.04
653.93	33463
654.282	33300.75
654.633	33309.34
654.985	33449.9
655.337	33373.06
655.688	33327.64
656.039	33536.45
656.391	33125.16
656.742	33183.92
657.094	33239.28
657.445	33401.99
657.796	33168.55
658.147	33250.13
658.498	33234.08
658.849	33291.03
659.2	33138.04
659.551	33105.5
659.902	33293.74
660.253	33083.35
660.604	33233.18
660.955	33044.71
661.306	33182.33
661.656	33190.92
662.007	33240.64
662.358	33149.79
662.708	33084.94
663.059	33114.31
663.409	33015.11
663.76	33116.8
664.11	33241.09
664.461	33172.16
664.811	33185.95
665.161	32987.99
665.511	33175.33
665.862	33237.25
666.212	33272.73
666.562	33123.35
666.912	33199.28
667.262	33052.62
667.612	33142.79
667.962	33124.71
668.312	33068.89
668.662	33192.95
669.011	32949.8
669.361	33079.29
669.711	33011.49
670.06	32938.5
670.41	32969.46
670.76	32917.48
671.109	33025.28
671.459	32967.65
671.808	32937.37
672.157	32895.34
672.507	32907.76
672.856	32795.68
673.205	32949.8
673.554	32846.07
673.904	32779.41
674.253	32941.66
674.602	32914.54
674.951	32432.3
675.3	32313.88
675.649	32796.13
675.998	32736.92
676.346	32757.26
676.695	32916.8
677.044	32529.92
677.393	32693.31
677.741	32792.06
678.09	32746.86
678.438	32544.84
678.787	32734.21
679.135	32750.48
679.484	32453.54
679.832	32461.9
680.181	32385.97
680.529	32404.5
680.877	32415.8
681.225	32358.4
681.573	32513.2
681.922	32373.09
682.27	32209.25
682.618	32346.42
682.966	32277.72
683.314	32270.04
683.661	32115.02
684.009	31921.12
684.357	31990.27
684.705	31776.04
685.053	32096.71
685.4	31893.55
685.748	31917.06
686.095	31677.74
686.443	31584.86
686.79	31603.39
687.138	31505.77
687.485	31703.95
687.832	31455.37
688.18	31648.36
688.527	31466.45
688.874	31317.3
689.221	31294.93
689.568	31207.7
689.915	31071.43
690.262	31128.83
690.609	31013.58
690.956	30981.26
691.303	30947.59
691.65	30665.56
691.997	30849.97
692.344	30581.95
692.69	30580.82
693.037	30693.59
693.383	30345.12
693.73	30558.45
694.077	30198.68
694.423	30270.09
694.769	30166.82
695.116	30226.93
695.462	30065.58
695.808	30118.91
696.155	30052.02
696.501	29856.32
696.847	29919.82
697.193	29595.08
697.539	29746.27
697.885	29449.55
698.231	29449.55
698.577	29474.41
698.923	29395.54
699.269	29241.42
699.614	29163.46
699.96	29083.68
700.306	29240.29
700.651	28987.42
700.997	28845.05
701.342	28799.17
701.688	28835.56
702.033	28628.1
702.379	28699.74
702.724	28586.3
703.069	28646.41
703.415	28268.34
703.76	28452.74
704.105	28395.79
704.45	28268.56
704.795	28066.76
705.14	27921
705.485	27991.96
705.83	27974.56
706.175	27937.73
706.52	27869.93
706.865	27775.47
707.209	27765.3
707.554	27697.96
707.899	27720.78
708.243	27533.22
708.588	27520.79
708.932	27304.3
709.277	27373.45
709.621	27246.44
709.966	27149.27
710.31	27158.54
710.654	27019.33
710.998	27095.71
711.342	26999.9
711.687	26985.43
712.031	26702.5
712.375	26738.44
712.719	26814.14
713.063	26807.59
713.407	26782.73
713.75	26585.67
714.094	26688.72
714.438	26527.14
714.782	26547.48
715.125	26387.03
715.469	26379.57
715.812	26239.69
716.156	26122.41
716.499	26279.46
716.843	26181.84
717.186	26150.88
717.53	26151.33
717.873	26082.86
718.216	26089.19
718.559	25867.27
718.902	25766.71
719.246	25798.35
719.589	25707.95
719.932	25665.7
720.275	25646.03
720.617	25530.11
720.96	25538.47
721.303	25494.85
721.646	25590.89
721.989	25465.02
722.331	25508.86
722.674	25319.94
723.016	25307.29
723.359	25306.61
723.701	25406.27
724.044	25096.67
724.386	24953.62
724.729	25268.64
725.071	25189.78
725.413	25208.53
725.755	24990.46
726.097	24938.93
726.439	24882.89
726.782	24982.78
727.124	24902.33
727.465	24826.85
727.807	24809.9
728.149	24743.69
728.491	24646.51
728.833	24755.89
729.175	24703.46
729.516	24621.65
729.858	24607.42
730.199	24562
730.541	24603.35
730.882	24429.12
731.224	24618.72
731.565	24343.02
731.906	24314.09
732.248	24467.53
732.589	24284.26
732.93	24191.16
733.271	24242.91
733.612	24232.74
733.953	24214.89
734.294	24036.59
734.635	24062.8
734.976	24186.64
735.317	23955.01
735.658	23974.21
735.999	23949.36
736.339	23898.06
736.68	23960.2
737.021	23740.1
737.361	23776.93
737.702	23933.09
738.042	23786.87
738.383	23670.27
738.723	23706.42
739.063	23590.04
739.404	23680.66
739.744	23601.57
740.084	23559.76
740.424	23620.33
740.764	23506.88
741.104	23582.36
741.444	23469.14
741.784	23357.96
742.124	23447.22
742.464	23423.49
742.804	23306.89
743.143	23321.58
743.483	23359.99
743.823	23266.89
744.162	23241.13
744.502	23274.12
744.841	23096.05
745.181	23127.68
745.52	23051.98
745.86	23182.37
746.199	22936.28
746.538	22883.4
746.877	23087.01
747.216	23035.48
747.556	22817.18
747.895	22969.72
748.234	22751.87
748.573	22809.95
748.911	22785.32
749.25	22813.79
749.589	22633.23
749.928	22701.48
750.267	22778.77
750.605	22665.77
750.944	22463.97
751.283	22564.31
751.621	22510.3
751.96	22353.92
752.298	22380.13
752.636	22386.91
752.975	22327.48
753.313	22163.19
753.651	22271.89
753.989	22218.33
754.327	22146.01
754.666	22030.99
755.004	22085.68
755.342	22115.96
755.679	22036.86
756.017	21847.72
756.355	21906.92
756.693	21913.25
757.031	21866.7
757.368	21764.33
757.706	21697.89
758.044	21615.86
758.381	21663.99
758.719	21537.44
759.056	21495.18
759.394	21519.36
759.731	21254.96
760.068	21327.5
760.405	21231.46
760.743	21082.99
