Data from hue_38_FLMS001491_00018.txt Node
Date: Tue Feb 07 17:31:07 GMT 2017
User: dcchb
Spectrometer: FLMS00149
Trigger mode: 0
Integration Time (sec): 2.000000E-2
Scans to average: 10
Electric dark correction enabled: true
Nonlinearity correction enabled: false
Boxcar width: 0
XAxis mode: Wavelengths
Number of Pixels in Spectrum: 2048
>>>>>Begin Spectral Data<<<<<
341.393	-31.23
341.776	-31.23
342.16	-31.23
342.543	-57.22
342.927	-74.39
343.31	-47.95
343.693	-60.15
344.077	-73.26
344.46	-57.89
344.843	-64
345.226	-45.01
345.61	-52.47
345.993	-5.01
346.376	-6.6
346.759	18.94
347.142	32.73
347.525	35.89
347.908	53.52
348.291	79.28
348.674	90.35
349.057	101.65
349.44	145.49
349.823	147.52
350.206	141.2
350.588	176.45
350.971	212.61
351.354	244.7
351.737	243.34
352.119	273.17
352.502	271.81
352.884	269.78
353.267	302.55
353.65	301.19
354.032	305.49
354.414	325.15
354.797	329.89
355.179	328.08
355.562	325.15
355.944	320.4
356.326	330.12
356.709	323.11
357.091	333.28
357.473	340.51
357.855	341.42
358.238	349.55
358.62	348.65
359.002	338.25
359.384	372.83
359.766	355.65
360.148	335.77
360.53	323.56
360.912	332.15
361.294	358.59
361.676	322.21
362.057	319.05
362.439	311.36
362.821	326.73
363.203	318.82
363.584	333.96
363.966	342.1
364.348	333.06
364.729	318.82
365.111	315.66
365.493	325.15
365.874	318.14
366.256	322.89
366.637	321.31
367.019	303.68
367.4	308.65
367.781	329.21
368.163	323.34
368.544	323.34
368.925	304.58
369.306	320.85
369.688	321.53
370.069	326.28
370.45	333.51
370.831	292.61
371.212	310.91
371.593	305.26
371.974	316.33
372.355	285.15
372.736	334.64
373.117	323.79
373.498	315.2
373.879	311.59
374.26	326.05
374.641	335.32
375.021	298.03
375.402	316.79
375.783	332.83
376.163	328.76
376.544	313.85
376.925	342.32
377.305	332.38
377.686	324.69
378.066	334.41
378.447	333.96
378.827	353.85
379.208	343
379.588	333.51
379.968	318.37
380.349	329.67
380.729	334.86
381.109	348.42
381.489	347.75
381.87	353.17
382.25	347.07
382.63	331.7
383.01	339.61
383.39	345.26
383.77	341.42
384.15	359.95
384.53	349.33
384.91	355.88
385.29	320.85
385.67	345.71
386.049	346.16
386.429	351.36
386.809	351.81
387.189	355.88
387.568	363.79
387.948	366.05
388.328	368.08
388.707	360.85
389.087	347.52
389.466	353.62
389.846	349.33
390.225	367.63
390.605	366.5
390.984	376.67
391.363	344.81
391.743	364.24
392.122	372.15
392.501	363.34
392.881	372.83
393.26	371.93
393.639	372.15
394.018	385.48
394.397	373.51
394.776	368.99
395.155	387.97
395.534	391.59
395.913	372.15
396.292	378.93
396.671	378.7
397.05	392.49
397.429	381.87
397.808	390.46
398.186	393.39
398.565	372.6
398.944	364.92
399.323	394.75
399.701	382.09
400.08	386.39
400.458	401.75
400.837	392.72
401.215	400.85
401.594	393.85
401.972	382.55
402.351	403.56
402.729	416.9
403.107	405.37
403.486	385.71
403.864	410.79
404.242	400.4
404.62	429.32
404.999	399.72
405.377	420.29
405.755	407.4
406.133	412.6
406.511	429.32
406.889	432.26
407.267	433.62
407.645	408.08
408.023	403.11
408.401	401.08
408.779	457.12
409.156	450.34
409.534	444.69
409.912	444.47
410.29	459.38
410.667	477.69
411.045	444.24
411.422	483.79
411.8	458.48
412.178	470.68
412.555	475.88
412.933	463.9
413.31	478.82
413.687	472.26
414.065	472.49
414.442	462.54
414.819	475.88
415.197	467.29
415.574	500.51
415.951	486.72
416.328	496.44
416.705	511.13
417.082	499.15
417.46	500.06
417.837	509.55
418.214	494.86
418.591	502.09
418.967	498.48
419.344	514.52
419.721	521.07
420.098	531.24
420.475	543.9
420.852	540.73
421.228	544.12
421.605	539.6
421.982	532.82
422.358	535.99
422.735	541.41
423.111	546.84
423.488	543.9
423.864	551.81
424.241	531.92
424.617	558.36
424.994	552.49
425.37	554.29
425.746	572.15
426.123	551.58
426.499	547.06
426.875	575.99
427.251	577.34
427.627	582.32
428.003	593.84
428.379	585.03
428.756	594.29
429.132	586.83
429.507	604.01
429.883	610.79
430.259	615.76
430.635	624.12
431.011	629.55
431.387	623.67
431.763	647.4
432.138	641.3
432.514	653.05
432.89	627.74
433.265	662.31
433.641	665.93
434.016	662.31
434.392	665.25
434.767	676.1
435.143	662.77
435.518	677
435.894	684.69
436.269	709.32
436.644	704.57
437.02	693.95
437.395	696.21
437.77	699.15
438.145	711.58
438.52	707.28
438.895	718.81
439.271	734.18
439.646	739.6
440.021	764.46
440.395	701.86
440.77	747.96
441.145	741.41
441.52	761.75
441.895	768.98
442.27	748.19
442.645	771.24
443.019	817.34
443.394	788.19
443.769	799.03
444.143	786.38
444.518	775.08
444.892	800.39
445.267	801.52
445.641	807.62
446.016	790.9
446.39	810.78
446.764	804.23
447.139	805.59
447.513	829.77
447.887	832.25
448.262	838.81
448.636	842.65
449.01	848.07
449.384	872.7
449.758	834.06
450.132	853.95
450.506	880.39
450.88	876.77
451.254	869.09
451.628	865.7
452.002	898.24
452.376	900.05
452.75	910.22
453.123	905.7
453.497	905.47
453.871	929.65
454.244	930.1
454.618	951.12
454.992	959.25
455.365	965.13
455.739	983.89
456.112	966.71
456.486	974.17
456.859	994.51
457.232	1002.42
457.606	1029.08
457.979	1025.92
458.352	1049.42
458.725	1027.73
459.099	1050.55
459.472	1064.11
459.845	1064.11
460.218	1065.01
460.591	1075.86
460.964	1109.31
461.337	1101.17
461.71	1153.83
462.083	1154.28
462.456	1175.52
462.829	1186.82
463.201	1174.84
463.574	1194.73
463.947	1206.48
464.32	1231.79
464.692	1271.34
465.065	1262.52
465.438	1267.27
465.81	1291
466.183	1310.43
466.555	1348.62
466.928	1376.64
467.3	1353.37
467.672	1341.62
468.045	1396.76
468.417	1418.23
468.789	1428.17
469.161	1460.26
469.534	1467.94
469.906	1533.25
470.278	1512.01
470.65	1529.63
471.022	1573.7
471.394	1602.4
471.766	1650.31
472.138	1646.24
472.51	1707.94
472.882	1737.99
473.253	1730.99
473.625	1782.74
473.997	1806.69
474.369	1826.8
474.74	1886.91
475.112	1946.8
475.484	1954.26
475.855	1992.9
476.227	2025.89
476.598	2098.66
476.97	2131.65
477.341	2173.69
477.713	2224.98
478.084	2284.42
478.455	2327.81
478.827	2349.05
479.198	2448.93
479.569	2493.45
479.94	2563.96
480.311	2599.44
480.682	2735.93
481.053	2777.74
481.424	2849.83
481.795	2897.73
482.166	3001.01
482.537	3041.69
482.908	3133.21
483.279	3184.96
483.65	3272.19
484.021	3356.48
484.391	3452.97
484.762	3510.6
485.133	3574.55
485.503	3669.47
485.874	3772.29
486.244	3890.02
486.615	3951.49
486.985	4053.86
487.356	4168.44
487.726	4231.03
488.097	4371.14
488.467	4379.05
488.837	4553.74
489.207	4643.45
489.578	4732.04
489.948	4859.94
490.318	4961.18
490.688	5010.67
491.058	5137
491.428	5226.03
491.798	5320.04
492.168	5535.63
492.538	5582.18
492.908	5650.66
493.278	5808.84
493.648	5908.5
494.017	5974.49
494.387	6122.73
494.757	6190.53
495.126	6331.09
495.496	6386.23
495.866	6470.97
496.235	6599.56
496.605	6662.38
496.974	6770.85
497.344	6879.55
497.713	6979.66
498.082	7111.41
498.452	7191.63
498.821	7274.57
499.19	7251.74
499.559	7424.4
499.928	7524.51
500.298	7593.43
500.667	7730.83
501.036	7724.73
501.405	7820.99
501.774	7928.79
502.143	8033.42
502.512	8104.83
502.88	8190.93
503.249	8209.46
503.618	8345.05
503.987	8437.93
504.356	8468.44
504.724	8611.71
505.093	8623.69
505.462	8724.47
505.83	8816
506.199	8884.47
506.567	9067.52
506.936	9065.71
507.304	9228.42
507.672	9211.47
508.041	9295.53
508.409	9424.79
508.777	9440.61
509.145	9526.49
509.514	9650.1
509.882	9721.74
510.25	9736.65
510.618	9772.81
510.986	9818
511.354	9962.86
511.722	10068.17
512.09	10106.13
512.458	10131.22
512.826	10212.12
513.193	10275.39
513.561	10356.97
513.929	10501.83
514.297	10565.56
514.664	10698.43
515.032	10630.41
515.4	10748.6
515.767	10867.69
516.135	10895.72
516.502	10817.98
516.869	10992.66
517.237	11031.53
517.604	11060.68
517.972	11160.34
518.339	11321.24
518.706	11334.12
519.073	11359.66
519.44	11452.09
519.808	11636.94
520.175	11588.58
520.542	11688.92
520.909	11785.64
521.276	11782.92
521.643	11927.1
522.009	11976.14
522.376	12048
522.743	12038.29
523.11	12221.78
523.477	12391.04
523.843	12417.03
524.21	12560.98
524.577	12638.04
524.943	12690.02
525.31	12727.08
525.676	12860.64
526.043	12885.49
526.409	12974.08
526.776	13138.14
527.142	13104.25
527.508	13181.31
527.874	13311.7
528.241	13421.3
528.607	13482.99
528.973	13605.02
529.339	13535.87
529.705	13717.11
530.071	13760.27
530.437	13924.34
530.803	14017.22
531.169	13997.1
531.535	14000.04
531.901	14117.1
532.267	14193.26
532.632	14223.09
532.998	14312.35
533.364	14386.7
533.73	14384.44
534.095	14582.85
534.461	14680.02
534.826	14689.74
535.192	14755.73
535.557	14801.6
535.923	14776.07
536.288	14891.09
536.653	14979.68
537.019	14988.94
537.384	15019
537.749	15055.38
538.114	15139.22
538.479	15153.23
538.845	15244.3
539.21	15197.75
539.575	15384.64
539.94	15350.06
540.305	15628.47
540.67	15525.65
541.034	15656.95
541.399	15735.59
541.764	15741.01
542.129	15829.37
542.494	15856.26
542.858	15864.63
543.223	15870.95
543.587	16027.11
543.952	16014.9
544.316	16141.68
544.681	16052.87
545.045	16201.11
545.41	16364.73
545.774	16388.45
546.138	16418.28
546.503	16412.18
546.867	16369.7
547.231	16653.76
547.595	16563.14
547.959	16628.67
548.324	16717.26
548.688	16738.5
549.052	16803.13
549.416	16833.41
549.779	16894.2
550.143	16973.75
550.507	17101.43
550.871	17185.27
551.235	17202.22
551.599	17315.66
551.962	17328.09
552.326	17288.99
552.689	17475.2
553.053	17393.4
553.417	17433.4
553.78	17657.57
554.143	17700.51
554.507	17715.2
554.87	17773.73
555.234	17966.04
555.597	17844.46
555.96	17953.38
556.323	18031.35
556.686	18069.54
557.05	18135.98
557.413	18099.37
557.776	18211.23
558.139	18365.35
558.502	18371
558.865	18392.24
559.228	18543.88
559.59	18571.67
559.953	18601.05
560.316	18893.92
560.679	18755.62
561.041	18886.47
561.404	19021.15
561.767	19013.02
562.129	18938.44
562.492	19244.88
562.854	19290.3
563.217	19257.08
563.579	19303.86
563.941	19511.53
564.304	19498.43
564.666	19628.82
565.028	19566
565.39	19773.22
565.753	19866.33
566.115	19837.4
566.477	19961.92
566.839	20116.72
567.201	20180.22
567.563	20186.55
567.925	20429.25
568.287	20244.17
568.648	20473.09
569.01	20466.99
569.372	20652.3
569.734	20594.9
570.095	20705.4
570.457	20804.38
570.819	20918.05
571.18	21065.17
571.542	21061.78
571.903	21091.61
572.265	21171.83
572.626	21256.35
572.987	21273.3
573.349	21396.91
573.71	21569.33
574.071	21594.64
574.432	21719.84
574.794	21810.46
575.155	21984.69
575.516	22002.99
575.877	22025.37
576.238	22192.59
576.599	22277.34
576.96	22447.95
577.32	22496.99
577.681	22628.29
578.042	22807.27
578.403	22875.06
578.763	23018.56
579.124	23162.29
579.485	23372.68
579.845	23483.63
580.206	23608.83
580.566	23708.49
580.927	23788.26
581.287	23999.33
581.648	23954.81
582.008	24352.31
582.368	24432.99
582.728	24683.83
583.089	24678.18
583.449	24897.16
583.809	25157.49
584.169	25221.44
584.529	25405.39
584.889	25635.44
585.249	25726.51
585.609	25875.66
585.969	26123.56
586.329	26277.01
586.688	26523.78
587.048	26600.61
587.408	26841.74
587.768	27014.84
588.127	27231.33
588.487	27322.18
588.846	27685.56
589.206	27779.11
589.565	27913.35
589.925	28383.84
590.284	28527.34
590.643	28653.67
591.003	28789.71
591.362	29075.8
591.721	29205.07
592.08	29437.38
592.44	29811.38
592.799	29927.08
593.158	30036.46
593.517	30229.9
593.876	30565.93
594.235	30627.85
594.593	30858.36
594.952	31061.97
595.311	31220.61
595.67	31493.14
596.029	31802.29
596.387	31876.63
596.746	32205.21
597.104	32146.01
597.463	32311.88
597.822	32605.65
598.18	32873.44
598.538	32895.36
598.897	33315.69
599.255	33253.09
599.613	33840.88
599.972	33767.66
600.33	34013.3
600.688	33940.53
601.046	34312.95
601.404	34576.68
601.762	34821.87
602.12	34915.42
602.478	35045.59
602.836	35214.62
603.194	35169.43
603.552	35486.26
603.91	35595.86
604.268	35832.01
604.625	35773.71
604.983	36119.91
605.341	36043.76
605.698	36383.63
606.056	36609.39
606.413	36551.31
606.771	36941.36
607.128	37050.28
607.485	36954.47
607.843	37183.16
608.2	37514.9
608.557	37715.8
608.914	37580.66
609.272	37845.06
609.629	38013.42
609.986	38206.41
610.343	38201.67
610.7	38457.25
611.057	38527.31
611.414	38652.95
611.771	38775.21
612.127	38825.15
612.484	38974.75
612.841	39245.71
613.198	39170.68
613.554	39372.26
613.911	39572.25
614.267	39517.11
614.624	39521.18
614.98	39850.89
615.337	40002.52
615.693	40049.98
616.05	39947.83
616.406	40282.06
616.762	40181.27
617.118	40430.76
617.475	40411.78
617.831	40579.91
618.187	40727.93
618.543	40657.42
618.899	40942.61
619.255	40821.71
619.611	41062.61
619.967	41073.68
620.323	41271.19
620.678	41288.82
621.034	41114.13
621.39	41279.55
621.746	41138.54
622.101	41718.41
622.457	41470.73
622.812	41638.41
623.168	41730.84
623.523	41821.23
623.879	41967.44
624.234	41686.32
624.589	41828.24
624.945	41900.1
625.3	42068
625.655	41996.59
626.01	42215.57
626.365	42162.24
626.72	42155.91
627.075	42167.21
627.43	42233.2
627.785	42157.49
628.14	42190.26
628.495	42307.77
628.85	42280.65
629.205	42156.82
629.559	42493.53
629.914	42268.22
630.269	42416.47
630.623	42276.36
630.978	42135.12
631.332	42366.53
631.687	42483.81
632.041	42242.24
632.396	42449.69
632.75	42271.84
633.104	42475.9
633.459	42240.43
633.813	42318.39
634.167	42267.09
634.521	42307.77
634.875	42414.66
635.229	42411.5
635.583	42171.28
635.937	42223.03
636.291	42134.44
636.645	42217.38
636.999	42270.94
637.352	42164.27
637.706	42104.84
638.06	42316.81
638.413	42195.68
638.767	42076.82
639.121	42053.32
639.474	41972.64
639.828	42039.08
640.181	42069.36
640.534	41967.67
640.888	41828.01
641.241	41719.99
641.594	42020.1
641.947	41947.78
642.301	41935.58
642.654	41944.62
643.007	41902.36
643.36	41881.79
643.713	41782.81
644.066	41944.62
644.419	41694.68
644.771	41456.04
645.124	41126.56
645.477	41079.56
645.83	40729.51
646.182	40785.55
646.535	40689.51
646.888	40739.23
647.24	40492.23
647.593	40809.05
647.945	40657.19
648.298	40535.84
648.65	40463.07
649.002	40477.54
649.355	40621.71
649.707	40521.83
650.059	40752.78
650.411	41195.71
650.763	41114.58
651.115	41555.48
651.467	41480
651.819	41390.73
652.171	41319.1
652.523	41262.15
652.875	41302.83
653.227	41013.12
653.578	41358.64
653.93	41127.69
654.282	41050.18
654.633	41016.96
654.985	41037.97
655.337	41040.46
655.688	41084.3
656.039	41161.14
656.391	40954.59
656.742	41012.44
657.094	41155.94
657.445	41210.63
657.796	41032.55
658.147	41018.54
658.498	40936.96
658.849	41140.12
659.2	41051.53
659.551	40948.49
659.902	41108.48
660.253	40924.98
660.604	41144.41
660.955	40819.22
661.306	41054.02
661.656	40941.03
662.007	40924.08
662.358	40926.34
662.708	41037.75
663.059	40828.94
663.409	40643.86
663.76	40993.91
664.11	41004.08
664.461	40860.8
664.811	40736.29
665.161	40802.73
665.511	40769.73
665.862	40751.88
666.212	40913.91
666.562	40811.99
666.912	40818.77
667.262	40794.59
667.612	40838.66
667.962	40870.3
668.312	40824.87
668.662	41033.91
669.011	40795.95
669.361	40774.03
669.711	40694.03
670.06	40692.45
670.41	40574.26
670.76	40526.12
671.109	40584.2
671.459	40604.09
671.808	40459.23
672.157	40691.32
672.507	40418.78
672.856	40393.7
673.205	40467.82
673.554	40607.93
673.904	40481.61
674.253	40533.81
674.602	40526.8
674.951	40144.89
675.3	39823.09
675.649	40450.42
675.998	40441.38
676.346	40517.76
676.695	40567.25
677.044	40324.1
677.393	40419.69
677.741	40421.95
678.09	40270.09
678.438	40141.95
678.787	40294.72
679.135	40294.94
679.484	40005.23
679.832	40207.71
680.181	39846.14
680.529	40072.12
680.877	39811.11
681.225	39921.85
681.573	40009.53
681.922	39787.39
682.27	39748.29
682.618	39671.23
682.966	39554.4
683.314	39708.74
683.661	39622.42
684.009	39343.1
684.357	39359.15
684.705	39273.73
685.053	39409.54
685.4	39181.98
685.748	39054.98
686.095	38955.54
686.443	39012.94
686.79	38937.69
687.138	39045.94
687.485	39053.62
687.832	38874.87
688.18	38791.71
688.527	38643.24
688.874	38673.52
689.221	38618.38
689.568	38461.09
689.915	38397.59
690.262	38338.16
690.609	38457.03
690.956	38171.84
691.303	38254.32
691.65	38062.46
691.997	38037.15
692.344	37690.04
692.69	37838.96
693.037	37791.96
693.383	37447.11
693.73	37634.9
694.077	37280.79
694.423	37408.01
694.769	37288.02
695.116	37251.86
695.462	37259.99
695.808	36970.51
696.155	37049.83
696.501	36843.96
696.847	36885.99
697.193	36603.29
697.539	36815.03
697.885	36420.24
698.231	36454.59
698.577	36369.4
698.923	36345.44
699.269	36211.43
699.614	36119.23
699.96	35936.87
700.306	35959.46
700.651	35733.03
700.997	35704.56
701.342	35557.21
701.688	35507.72
702.033	35467.73
702.379	35415.3
702.724	35423.21
703.069	35507.95
703.415	35035.65
703.76	34984.35
704.105	34995.87
704.45	34876.33
704.795	34780.51
705.14	34619.61
705.485	34624.36
705.83	34547.75
706.175	34528.32
706.52	34507.75
706.865	34345.72
707.209	34224.82
707.554	34255.78
707.899	34194.54
708.243	34038.16
708.588	34020.76
708.932	33843.59
709.277	33625.06
709.621	33698.51
709.966	33727.88
710.31	33603.14
710.654	33278.63
710.998	33506.87
711.342	33445.41
711.687	33302.13
712.031	33178.97
712.375	33050.84
712.719	32965.19
713.063	32915.02
713.407	33176.94
713.75	32894.01
714.094	32888.58
714.438	32781.02
714.782	32815.14
715.125	32646.56
715.469	32665.09
715.812	32480.01
716.156	32417.64
716.499	32483.4
716.843	32357.98
717.186	32214.25
717.53	32378.77
717.873	32411.53
718.216	32288.37
718.559	32224.2
718.902	31885.67
719.246	31937.65
719.589	31954.15
719.932	31786.24
720.275	31759.35
720.617	31735.62
720.96	31724.77
721.303	31703.3
721.646	31676.64
721.989	31455.85
722.331	31560.94
722.674	31488.62
723.016	31377.89
723.359	31315.07
723.701	31373.37
724.044	31110.1
724.386	31127.73
724.729	31172.02
725.071	31157.78
725.413	30994.62
725.755	31012.02
726.097	31003.89
726.439	30714.86
726.782	30801.86
727.124	31005.92
727.465	30785.59
727.807	30768.19
728.149	30661.52
728.491	30456.56
728.833	30630.11
729.175	30468.54
729.516	30522.54
729.858	30421.76
730.199	30396.9
730.541	30354.64
730.882	30338.14
731.224	30411.36
731.565	30131.82
731.906	30244.81
732.248	30169.33
732.589	30022.45
732.93	29888.66
733.271	29951.71
733.612	30045.04
733.953	30051.6
734.294	29922.79
734.635	29824.94
734.976	29878.27
735.317	29757.14
735.658	29810.25
735.999	29598.73
736.339	29647.31
736.68	29719.85
737.021	29533.64
737.361	29463.59
737.702	29642.34
738.042	29483.7
738.383	29480.31
738.723	29347.43
739.063	29202.81
739.404	29384.27
739.744	29252.75
740.084	29133.2
740.424	29233.99
740.764	29205.74
741.104	29285.06
741.444	29015.47
741.784	29019.31
742.124	28966.43
742.464	28921.46
742.804	28958.97
743.143	28838.75
743.483	28881.68
743.823	28686.66
744.162	28763.5
744.502	28681.69
744.841	28531.41
745.181	28657.96
745.52	28555.36
745.86	28660
746.199	28473.11
746.538	28457.74
746.877	28603.27
747.216	28427.91
747.556	28340.46
747.895	28386.78
748.234	28275.82
748.573	28284.41
748.911	28221.36
749.25	28112.44
749.589	28044.87
749.928	28046.68
750.267	27997.64
750.605	28005.77
750.944	27901.6
751.283	27803.29
751.621	27804.2
751.96	27717.87
752.298	27752.67
752.636	27785.67
752.975	27660.47
753.313	27541.61
753.651	27502.96
753.989	27323.53
754.327	27271.78
754.666	27231.33
755.004	27262.74
755.342	27328.05
755.679	27179.58
756.017	27039.7
756.355	27130.54
756.693	27041.28
757.031	27203.31
