Data from hue_130_FLMS001491_00040.txt Node
Date: Tue Feb 07 16:57:32 GMT 2017
User: dcchb
Spectrometer: FLMS00149
Trigger mode: 0
Integration Time (sec): 2.000000E-2
Scans to average: 10
Electric dark correction enabled: true
Nonlinearity correction enabled: false
Boxcar width: 0
XAxis mode: Wavelengths
Number of Pixels in Spectrum: 2048
>>>>>Begin Spectral Data<<<<<
341.393	-13.59
341.776	-13.59
342.16	-13.59
342.543	-76.41
342.927	-65.79
343.31	-75.28
343.693	-81.38
344.077	-73.47
344.46	-70.08
344.843	-63.53
345.226	-40.48
345.61	-29.41
345.993	-13.81
346.376	-9.52
346.759	18.73
347.142	22.12
347.525	40.87
347.908	57.82
348.291	85.62
348.674	96.01
349.057	135.79
349.44	123.36
349.823	145.05
350.206	170.81
350.588	183.02
350.971	208.33
351.354	225.28
351.737	249.91
352.119	228.67
352.502	257.59
352.884	262.79
353.267	278.16
353.65	282.9
354.032	281.09
354.414	299.62
354.797	312.51
355.179	316.12
355.562	319.29
355.944	322
356.326	324.71
356.709	350.02
357.091	329.91
357.473	339.17
357.855	338.27
358.238	344.14
358.62	328.78
359.002	350.25
359.384	335.78
359.766	326.97
360.148	332.62
360.53	329.45
360.912	334.65
361.294	321.09
361.676	337.82
362.057	342.11
362.439	334.65
362.821	324.71
363.203	327.87
363.584	345.05
363.966	309.34
364.348	315.44
364.729	324.48
365.111	319.96
365.493	319.74
365.874	290.13
366.256	325.39
366.637	321.09
367.019	333.07
367.4	309.79
367.781	302.11
368.163	306.86
368.544	319.06
368.925	314.54
369.306	302.79
369.688	319.29
370.069	333.3
370.45	338.72
370.831	300.53
371.212	308.66
371.593	326.97
371.974	310.02
372.355	329.91
372.736	306.18
373.117	309.79
373.498	325.16
373.879	329.68
374.26	320.87
374.641	307.31
375.021	302.34
375.402	320.87
375.783	333.75
376.163	307.76
376.544	322.68
376.925	317.03
377.305	319.29
377.686	305.5
378.066	326.06
378.447	320.64
378.827	304.82
379.208	321.55
379.588	309.34
379.968	324.48
380.349	350.25
380.729	333.52
381.109	316.8
381.489	312.05
381.87	320.19
382.25	336.23
382.63	336.01
383.01	328.32
383.39	350.92
383.77	332.62
384.15	356.35
384.53	336.69
384.91	342.56
385.29	329.45
385.67	325.61
386.049	342.56
386.429	344.82
386.809	354.76
387.189	363.58
387.568	355.67
387.948	344.82
388.328	355.44
388.707	373.52
389.087	336.91
389.466	352.05
389.846	379.85
390.225	365.84
390.605	371.49
390.984	388.66
391.363	355.22
391.743	369
392.122	374.88
392.501	363.35
392.881	376.23
393.26	361.54
393.639	388.44
394.018	359.06
394.397	374.65
394.776	388.21
395.155	387.08
395.534	385.27
395.913	367.42
396.292	393.63
396.671	366.06
397.05	392.96
397.429	385.72
397.808	394.76
398.186	384.14
398.565	381.88
398.944	390.47
399.323	381.2
399.701	402
400.08	398.83
400.458	395.22
400.837	406.29
401.215	418.49
401.594	420.07
401.972	406.97
402.351	395.89
402.729	396.8
403.107	416.01
403.486	410.81
403.864	408.77
404.242	407.64
404.62	425.95
404.999	425.05
405.377	410.13
405.755	434.54
406.133	416.46
406.511	434.99
406.889	438.15
407.267	440.41
407.645	458.04
408.023	446.29
408.401	443.12
408.779	445.61
409.156	433.18
409.534	447.19
409.912	438.83
410.29	451.71
410.667	444.25
411.045	450.36
411.422	473.63
411.8	465.95
412.178	479.28
412.555	466.63
412.933	480.64
413.31	475.44
413.687	492.39
414.065	484.48
414.442	490.35
414.819	491.26
415.197	507.08
415.574	473.18
415.951	492.16
416.328	486.74
416.705	487.19
417.082	514.53
417.46	522.44
417.837	530.13
418.214	529.68
418.591	521.54
418.967	547.53
419.344	524.48
419.721	545.72
420.098	537.36
420.475	543.69
420.852	541.2
421.228	544.36
421.605	542.1
421.982	540.97
422.358	550.69
422.735	535.55
423.111	564.7
423.488	573.06
423.864	554.08
424.241	580.75
424.617	575.32
424.994	601.09
425.37	571.93
425.746	574.42
426.123	575.32
426.499	584.59
426.875	585.27
427.251	608.09
427.627	620.75
428.003	615.77
428.379	617.13
428.756	602.67
429.132	630.92
429.507	646.06
429.883	629.79
430.259	647.41
430.635	649.9
431.011	646.06
431.387	646.06
431.763	669.11
432.138	698.71
432.514	679.95
432.89	686.06
433.265	691.03
433.641	698.48
434.016	707.75
434.392	728.09
434.767	733.51
435.143	726.28
435.518	707.52
435.894	727.18
436.269	752.27
436.644	734.42
437.02	769.22
437.395	732.83
437.77	757.47
438.145	775.09
438.52	770.8
438.895	801.08
439.271	787.75
439.646	788.2
440.021	801.53
440.395	801.98
440.77	794.08
441.145	812.38
441.52	827.07
441.895	817.13
442.27	832.49
442.645	837.46
443.019	846.28
443.394	834.75
443.769	830.91
444.143	852.83
444.518	861.64
444.892	858.03
445.267	874.07
445.641	867.29
446.016	891.25
446.39	891.7
446.764	862.77
447.139	894.64
447.513	898.03
447.887	909.55
448.262	910.68
448.636	895.09
449.01	933.73
449.384	920.17
449.758	928.53
450.132	937.35
450.506	933.96
450.88	962.21
451.254	958.82
451.628	976.22
452.002	976.9
452.376	976.9
452.75	975.99
453.123	997.01
453.497	1035.88
453.871	1027.52
454.244	1026.61
454.618	1050.34
454.992	1023.67
455.365	1041.98
455.739	1075.2
456.112	1107.97
456.486	1098.93
456.859	1097.12
457.232	1137.79
457.606	1138.47
457.979	1148.42
458.352	1156.55
458.725	1190.67
459.099	1186.61
459.472	1208.3
459.845	1187.51
460.218	1215.08
460.591	1234.29
460.964	1223.22
461.337	1295.08
461.71	1301.41
462.083	1317.9
462.456	1301.41
462.829	1314.29
463.201	1352.03
463.574	1330.11
463.947	1394.74
464.32	1403.55
464.692	1408.3
465.065	1429.31
465.438	1432.25
465.81	1446.94
466.183	1509.31
466.555	1534.62
466.928	1552.25
467.3	1582.53
467.672	1597.9
468.045	1611.68
468.417	1640.15
468.789	1653.49
469.161	1696.65
469.534	1722.41
469.906	1731.68
470.278	1767.83
470.65	1792.47
471.022	1841.05
471.394	1890.32
471.766	1909.3
472.138	1923.99
472.51	1966.47
472.882	2017.09
473.253	2069.3
473.625	2102.29
473.997	2138.45
474.369	2223.19
474.74	2240.14
475.112	2279.69
475.484	2333.47
475.855	2356.07
476.227	2431.32
476.598	2501.83
476.97	2561.26
477.341	2647.13
477.713	2698.66
478.084	2770.52
478.455	2857.52
478.827	2891.2
479.198	3001.93
479.569	3066.56
479.94	3089.38
480.311	3174.8
480.682	3300.45
481.053	3438.75
481.424	3472.2
481.795	3523.27
482.166	3638.97
482.537	3776.82
482.908	3854.79
483.279	3912.41
483.65	4045.06
484.021	4190.82
484.391	4250.03
484.762	4375.22
485.133	4504.26
485.503	4524.37
485.874	4676.23
486.244	4850.01
486.615	4985.83
486.985	5024.47
487.356	5182.21
487.726	5309.44
488.097	5462.2
488.467	5556.66
488.837	5757.33
489.207	5837.56
489.578	6008.85
489.948	6135.4
490.318	6285.46
490.688	6308.05
491.058	6532.91
491.428	6634.83
491.798	6779.68
492.168	6997.53
492.538	7111.65
492.908	7204.08
493.278	7369.04
493.648	7465.09
494.017	7597.06
494.387	7743.95
494.757	7892.19
495.126	8049.25
495.496	8096.48
495.866	8254.22
496.235	8383.71
496.605	8476.36
496.974	8574.21
497.344	8733.98
497.713	8851.94
498.082	9009.68
498.452	9124.25
498.821	9190.24
499.19	9271.37
499.559	9360.18
499.928	9569.66
500.298	9593.84
500.667	9788.19
501.036	9803.1
501.405	9908.86
501.774	9948.18
502.143	10079.48
502.512	10234.5
502.88	10318.8
503.249	10368.74
503.618	10454.39
503.987	10540.26
504.356	10669.07
504.724	10716.75
505.093	10747.71
505.462	10874.26
505.83	11006.24
506.199	11068.38
506.567	11131.2
506.936	11290.3
507.304	11301.37
507.672	11413.91
508.041	11440.8
508.409	11528.48
508.777	11628.59
509.145	11669.04
509.514	11808.02
509.882	11848.7
510.25	11840.79
510.618	11906.78
510.986	11980.67
511.354	12111.29
511.722	12177.05
512.09	12174.57
512.458	12267.45
512.826	12234
513.193	12371.62
513.561	12415.46
513.929	12520.55
514.297	12544.95
514.664	12643.48
515.032	12702.69
515.4	12758.28
515.767	12797.15
516.135	12800.09
516.502	12743.37
516.869	12960.08
517.237	12965.51
517.604	12961.21
517.972	13086.18
518.339	12949.24
518.706	13075.56
519.073	13149.91
519.44	13183.58
519.808	13268.32
520.175	13139.51
520.542	13341.32
520.909	13377.7
521.276	13355.1
521.643	13474.65
522.009	13473.06
522.376	13527.07
522.743	13586.73
523.11	13746.5
523.477	13670.12
523.843	13671.48
524.21	13851.13
524.577	13804.35
524.943	13902.66
525.31	13848.2
525.676	13909.66
526.043	14065.14
526.409	14010.9
526.776	14038.92
527.142	14098.13
527.508	14156.21
527.874	14127.74
528.241	14126.15
528.607	14213.38
528.973	14317.79
529.339	14156.89
529.705	14249.99
530.071	14261.74
530.437	14304
530.803	14339.03
531.169	14341.29
531.535	14250.22
531.901	14254.29
532.267	14205.47
532.632	14292.93
532.998	14226.26
533.364	14298.58
533.73	14278.92
534.095	14400.72
534.461	14336.32
534.826	14291.12
535.192	14314.62
535.557	14349.65
535.923	14287.28
536.288	14282.08
536.653	14351.01
537.019	14247.51
537.384	14191.69
537.749	14207.96
538.114	14236.43
538.479	14112.37
538.845	14108.98
539.21	14046.61
539.575	14058.81
539.94	14078.02
540.305	14021.52
540.67	14003.45
541.034	14044.8
541.399	13978.36
541.764	14045.25
542.129	13996.44
542.494	13873.73
542.858	13863.11
543.223	13872.83
543.587	13837.12
543.952	13786.95
544.316	13736.11
544.681	13665.15
545.045	13754.19
545.41	13772.72
545.774	13704.24
546.138	13749.44
546.503	13663.57
546.867	13639.84
547.231	13713.51
547.595	13617.01
547.959	13575.43
548.324	13500.41
548.688	13452.5
549.052	13496.79
549.416	13434.42
549.779	13427.64
550.143	13368.66
550.507	13461.54
550.871	13374.54
551.235	13273.97
551.599	13319.4
551.962	13259.51
552.326	13215.67
552.689	13308.77
553.053	13201.21
553.417	13112.85
553.78	13235.1
554.143	13098.61
554.507	13123.02
554.87	13138.38
555.234	13174.09
555.597	13124.6
555.96	13134.32
556.323	13085.5
556.686	13073.53
557.05	13103.81
557.413	13090.25
557.776	13078.5
558.139	13056.13
558.502	13097.48
558.865	13033.98
559.228	13089.57
559.59	13046.63
559.953	13128.89
560.316	13111.49
560.679	13119.85
561.041	13106.07
561.404	13124.82
561.767	13179.29
562.129	13163.02
562.492	13200.75
562.854	13162.11
563.217	13113.3
563.579	13061.1
563.941	13139.51
564.304	13149.46
564.666	13242.11
565.028	13195.33
565.39	13229.23
565.753	13191.49
566.115	13278.94
566.477	13254.76
566.839	13147.42
567.201	13325.27
567.563	13300.64
567.925	13324.82
568.287	13383.8
568.648	13341.99
569.01	13388.77
569.372	13431.71
569.734	13297.93
570.095	13360.52
570.457	13392.16
570.819	13483.01
571.18	13411.14
571.542	13497.02
571.903	13475.78
572.265	13521.42
572.626	13554.19
572.987	13457.02
573.349	13558.26
573.71	13571.59
574.071	13496.11
574.432	13570.91
574.794	13655.88
575.155	13624.25
575.516	13562.33
575.877	13526.17
576.238	13584.02
576.599	13594.87
576.96	13603.91
577.32	13570.69
577.681	13565.94
578.042	13679.39
578.403	13561.88
578.763	13647.75
579.124	13597.35
579.485	13609.11
579.845	13658.82
580.206	13652.04
580.566	13606.17
580.927	13677.58
581.287	13683.45
581.648	13598.94
582.008	13644.58
582.368	13658.37
582.728	13674.87
583.089	13675.77
583.449	13618.6
583.809	13609.11
584.169	13666.96
584.529	13580.18
584.889	13642.55
585.249	13553.74
585.609	13579.28
585.969	13616.79
586.329	13627.86
586.688	13563
587.048	13567.75
587.408	13512.61
587.768	13500.86
588.127	13443.69
588.487	13493.18
588.846	13607.07
589.206	13395.1
589.565	13428.32
589.925	13469.9
590.284	13466.51
590.643	13497.47
591.003	13417.47
591.362	13535.89
591.721	13370.69
592.08	13455.21
592.44	13487.98
592.799	13454.08
593.158	13408.66
593.517	13443.23
593.876	13444.14
594.235	13427.87
594.593	13421.09
594.952	13467.41
595.311	13362.78
595.67	13380.64
596.029	13465.61
596.387	13457.25
596.746	13410.69
597.104	13400.98
597.463	13334.99
597.822	13399.62
598.18	13325.72
598.538	13317.59
598.897	13468.54
599.255	13286.63
599.613	13493.63
599.972	13389.68
600.33	13318.94
600.688	13269
601.046	13362.33
601.404	13400.75
601.762	13317.59
602.12	13452.95
602.478	13323.01
602.836	13394.2
603.194	13309.45
603.552	13397.81
603.91	13251.6
604.268	13308.55
604.625	13236.46
604.983	13321.2
605.341	13273.52
605.698	13366.63
606.056	13334.08
606.413	13295.22
606.771	13438.04
607.128	13366.17
607.485	13320.07
607.843	13283.01
608.2	13405.49
608.557	13416.12
608.914	13343.58
609.272	13490.24
609.629	13473.29
609.986	13490.92
610.343	13394.42
610.7	13467.87
611.057	13468.32
611.414	13452.5
611.771	13463.35
612.127	13538.15
612.484	13569.33
612.841	13550.8
613.198	13579.05
613.554	13577.47
613.911	13664.47
614.267	13591.93
614.624	13603.23
614.98	13633.51
615.337	13641.65
615.693	13606.39
616.05	13549.45
616.406	13650.01
616.762	13592.83
617.118	13701.98
617.475	13664.02
617.831	13648.88
618.187	13716.67
618.543	13780.85
618.899	13759.16
619.255	13678.93
619.611	13701.31
619.967	13705.6
620.323	13788.76
620.678	13744.02
621.034	13697.92
621.39	13719.84
621.746	13785.6
622.101	13918.48
622.457	13721.19
622.812	13731.36
623.168	13737.01
623.523	13798.48
623.879	13770.91
624.234	13687.07
624.589	13823.34
624.945	13765.71
625.3	13862.21
625.655	13773.17
626.01	13785.6
626.365	13781.98
626.72	13740.18
627.075	13728.2
627.43	13766.84
627.785	13644.13
628.14	13795.77
628.495	13749.44
628.85	13709.44
629.205	13684.36
629.559	13883.45
629.914	13783.11
630.269	13693.62
630.623	13643.45
630.978	13636
631.332	13633.06
631.687	13739.95
632.041	13613.85
632.396	13676.45
632.75	13587.64
633.104	13556.45
633.459	13584.7
633.813	13562.55
634.167	13511.71
634.521	13558.03
634.875	13496.11
635.229	13577.24
635.583	13454.76
635.937	13415.44
636.291	13542.44
636.645	13441.2
636.999	13450.24
637.352	13479.17
637.706	13322.56
638.06	13352.62
638.413	13394.42
638.767	13316.91
639.121	13301.77
639.474	13204.82
639.828	13293.63
640.181	13304.03
640.534	13244.37
640.888	13226.74
641.241	13149.91
641.594	13252.73
641.947	13326.63
642.301	13196.46
642.654	13276.01
643.007	13228.1
643.36	13175.9
643.713	13207.08
644.066	13231.26
644.419	13138.61
644.771	13046.41
645.124	12966.86
645.477	12946.3
645.83	12906.75
646.182	12839.63
646.535	12720.32
646.888	12887.99
647.24	12723.03
647.593	12835.57
647.945	12776.58
648.298	12744.27
648.65	12612.52
649.002	12606.19
649.355	12728.9
649.707	12795.12
650.059	12814.1
650.411	12969.35
650.763	12971.83
651.115	13062
651.467	12973.87
651.819	12954.21
652.171	12923.25
652.523	12990.14
652.875	12965.96
653.227	12964.83
653.578	13012.06
653.93	12937.26
654.282	12931.16
654.633	12875.79
654.985	13029.23
655.337	12909.91
655.688	13007.77
656.039	12909.91
656.391	12941.78
656.742	12961.89
657.094	12976.81
657.445	13028.78
657.796	12946.52
658.147	12898.62
658.498	12959.63
658.849	12995.11
659.2	13038.27
659.551	13016.58
659.902	12999.4
660.253	13032.4
660.604	13000.31
660.955	12946.52
661.306	13041.66
661.656	13005.51
662.007	12970.7
662.358	13030.82
662.708	13053.87
663.059	13030.59
663.409	12941.55
663.76	13031.95
664.11	12965.73
664.461	13089.12
664.811	13018.39
665.161	13057.48
665.511	13050.48
665.862	12984.49
666.212	13111.04
666.562	13094.54
666.912	13117.37
667.262	13061.78
667.612	13073.3
667.962	13050.02
668.312	13068.55
668.662	13097.03
669.011	13108.1
669.361	12971.61
669.711	13012.74
670.06	13022
670.41	12892.74
670.76	12945.39
671.109	12921.89
671.459	12957.15
671.808	13037.6
672.157	13040.31
672.507	12910.37
672.856	12926.64
673.205	12981.1
673.554	13001.66
673.904	12968.44
674.253	12967.99
674.602	12963.25
674.951	12792.4
675.3	12705.63
675.649	12923.02
675.998	12887.32
676.346	12896.58
676.695	12856.36
677.044	12808.45
677.393	12800.31
677.741	12828.79
678.09	12757.83
678.438	12793.31
678.787	12759.64
679.135	12790.37
679.484	12690.71
679.832	12736.81
680.181	12676.93
680.529	12693.2
680.877	12629.7
681.225	12638.28
681.573	12690.49
681.922	12611.17
682.27	12598.06
682.618	12536.37
682.966	12479.42
683.314	12532.52
683.661	12470.6
684.009	12342.47
684.357	12330.27
684.705	12384.05
685.053	12439.42
685.4	12454.33
685.748	12345.86
686.095	12295.02
686.443	12313.32
686.79	12255.47
687.138	12217.5
687.485	12242.59
687.832	12204.4
688.18	12164.85
688.527	12095.02
688.874	12113.78
689.221	12051.63
689.568	12021.8
689.915	11954.91
690.262	11966.21
690.609	11973.22
690.956	11841.02
691.303	11839.89
691.65	11785.88
691.997	11776.16
692.344	11753.11
692.69	11659.55
693.037	11732.32
693.383	11575.03
693.73	11696.61
694.077	11556.28
694.423	11528.71
694.769	11471.08
695.116	11512.66
695.462	11383.63
695.808	11320.58
696.155	11447.13
696.501	11310.18
696.847	11270.86
697.193	11326.23
697.539	11268.15
697.885	11133.24
698.231	11073.8
698.577	11090.75
698.923	11055.27
699.269	10973.47
699.614	10938.22
699.96	10891.44
700.306	10914.71
700.651	10805.11
700.997	10829.07
701.342	10743.64
701.688	10720.37
702.033	10812.12
702.379	10642.4
702.724	10612.8
703.069	10577.32
703.415	10487.83
703.76	10551.11
704.105	10494.84
704.45	10485.12
704.795	10432.47
705.14	10392.92
705.485	10371.9
705.83	10364.67
706.175	10340.72
706.52	10180.72
706.865	10259.14
707.209	10196.09
707.554	10187.5
707.899	10229.76
708.243	10159.03
708.588	10108.63
708.932	10113.38
709.277	10077.67
709.621	9935.3
709.966	9926.49
710.31	9994.29
710.654	9920.39
710.998	9934.17
711.342	9971.91
711.687	9827.74
712.031	9864.12
712.375	9811.92
712.719	9730.11
713.063	9823.67
713.407	9776.89
713.75	9748.19
714.094	9695.54
714.438	9646.95
714.782	9714.52
715.125	9635.42
715.469	9689.21
715.812	9648.53
716.156	9558.36
716.499	9566.05
716.843	9496.67
717.186	9495.54
717.53	9548.42
717.873	9580.51
718.216	9554.07
718.559	9484.02
718.902	9459.84
719.246	9499.38
719.589	9405.83
719.932	9359.73
720.275	9360.18
720.617	9413.74
720.96	9358.14
721.303	9312.72
721.646	9336.9
721.989	9283.12
722.331	9316.11
722.674	9284.25
723.016	9319.27
723.359	9321.76
723.701	9269.11
724.044	9249.22
724.386	9187.07
724.729	9285.6
725.071	9266.62
725.413	9283.57
725.755	9207.19
726.097	9211.71
726.439	9189.33
726.782	9136.91
727.124	9238.6
727.465	9161.99
727.807	9143.69
728.149	9156.57
728.491	9146.17
728.833	9173.97
729.175	9118.83
729.516	9135.1
729.858	9130.81
730.199	9099.17
730.541	9114.76
730.882	9123.57
731.224	9070.24
731.565	9093.07
731.906	9108.43
732.248	9129.45
732.589	9062.11
732.93	9058.04
733.271	9085.16
733.612	9130.35
733.953	9138.04
734.294	9057.13
734.635	9023.24
734.976	9069.79
735.317	9037.93
735.658	9080.18
735.999	9081.77
736.339	9016.23
736.68	9134.87
737.021	9042.67
737.361	9023.69
737.702	9139.39
738.042	9037.93
738.383	9059.17
738.723	9147.3
739.063	9018.94
739.404	9094.2
739.744	9126.96
740.084	9111.37
740.424	9160.63
740.764	9149.56
741.104	9237.24
741.444	9125.61
741.784	9121.09
742.124	9140.97
742.464	9192.5
742.804	9171.48
743.143	9251.25
743.483	9236.11
743.823	9178.49
744.162	9267.98
744.502	9321.53
744.841	9343.23
745.181	9371.48
745.52	9378.93
745.86	9472.49
746.199	9441.31
746.538	9539.16
746.877	9552.04
747.216	9613.28
747.556	9684.91
747.895	9692.37
748.234	9638.14
748.573	9813.27
748.911	9768.98
749.25	9870.45
749.589	9942.31
749.928	10014.62
750.267	10046.94
750.605	10127.16
750.944	10212.36
751.283	10220.49
751.621	10364.44
751.96	10369.42
752.298	10479.92
752.636	10570.99
752.975	10640.6
753.313	10684.89
753.651	10865.9
753.989	10874.04
754.327	11055.05
754.666	11050.75
755.004	11234.25
755.342	11415.04
755.679	11577.97
756.017	11601.93
756.355	11699.33
756.693	11855.93
757.031	12064.06
757.368	12117.85
757.706	12241.23
758.044	12473.77
758.381	12482.58
