Data from hue_300_FLMS001491_00087.txt Node
Date: Tue Feb 07 15:51:20 GMT 2017
User: dcchb
Spectrometer: FLMS00149
Trigger mode: 0
Integration Time (sec): 2.000000E-2
Scans to average: 10
Electric dark correction enabled: true
Nonlinearity correction enabled: false
Boxcar width: 0
XAxis mode: Wavelengths
Number of Pixels in Spectrum: 2048
>>>>>Begin Spectral Data<<<<<
341.393	7.01
341.776	7.01
342.16	7.01
342.543	-70.73
342.927	-42.26
343.31	-48.13
343.693	-79.77
344.077	-63.5
344.46	-79.55
344.843	-65.08
345.226	-40.45
345.61	-32.32
345.993	-18.3
346.376	5.65
346.759	7.68
347.142	51.52
347.525	29.15
347.908	43.84
348.291	88.59
348.674	88.59
349.057	112.09
349.44	114.8
349.823	149.83
350.206	154.57
350.588	178.75
350.971	210.39
351.354	232.31
351.737	240.67
352.119	260.56
352.502	261.91
352.884	296.04
353.267	283.38
353.65	305.3
354.032	291.07
354.414	287.45
354.797	328.8
355.179	299.65
355.562	317.28
355.944	327.9
356.326	336.94
356.709	333.32
357.091	332.65
357.473	340.1
357.855	331.06
358.238	342.59
358.62	360.44
359.002	338.07
359.384	343.72
359.766	332.87
360.148	340.1
360.53	345.53
360.912	318.64
361.294	349.37
361.676	308.69
362.057	331.97
362.439	348.69
362.821	345.08
363.203	306.21
363.584	345.08
363.966	328.35
364.348	344.62
364.729	333.1
365.111	314.57
365.493	331.29
365.874	331.97
366.256	312.53
366.637	298.52
367.019	331.06
367.4	312.31
367.781	319.54
368.163	302.59
368.544	338.07
368.925	304.85
369.306	315.02
369.688	316.83
370.069	330.84
370.45	321.35
370.831	316.38
371.212	351.18
371.593	313.89
371.974	322.48
372.355	333.78
372.736	309.37
373.117	311.86
373.498	338.97
373.879	312.31
374.26	313.21
374.641	311.4
375.021	338.97
375.402	339.2
375.783	339.88
376.163	315.02
376.544	328.8
376.925	333.32
377.305	345.3
377.686	340.33
378.066	349.6
378.447	353.89
378.827	353.66
379.208	335.58
379.588	332.42
379.968	343.49
380.349	348.47
380.729	338.97
381.109	361.8
381.489	318.18
381.87	325.42
382.25	369.71
382.63	362.25
383.01	349.6
383.39	357.28
383.77	353.89
384.15	355.02
384.53	374
384.91	333.78
385.29	351.18
385.67	355.47
386.049	368.35
386.429	371.29
386.809	363.61
387.189	376.49
387.568	393.89
387.948	376.04
388.328	381.46
388.707	363.38
389.087	344.4
389.466	382.81
389.846	405.64
390.225	387.11
390.605	369.71
390.984	395.92
391.363	384.62
391.743	396.37
392.122	399.09
392.501	392.98
392.881	394.34
393.26	395.47
393.639	421.68
394.018	409.71
394.397	414
394.776	427.11
395.155	398.41
395.534	405.64
395.913	405.19
396.292	423.04
396.671	428.24
397.05	410.84
397.429	425.53
397.808	438.18
398.186	418.52
398.565	443.83
398.944	425.07
399.323	436.15
399.701	446.54
400.08	441.8
400.458	453.1
400.837	459.2
401.215	451.97
401.594	452.19
401.972	456.03
402.351	450.84
402.729	446.32
403.107	477.5
403.486	449.93
403.864	480.44
404.242	490.38
404.62	461.91
404.999	501.91
405.377	473.21
405.755	482.7
406.133	510.95
406.511	504.62
406.889	532.87
407.267	514.11
407.645	524.96
408.023	520.44
408.401	544.39
408.779	539.19
409.156	562.02
409.534	552.75
409.912	569.25
410.29	584.62
410.667	589.36
411.045	586.88
411.422	583.04
411.8	597.27
412.178	626.42
412.555	616.48
412.933	618.29
413.31	636.82
413.687	675.91
414.065	660.1
414.442	688.12
414.819	676.59
415.197	708
415.574	705.29
415.951	696.25
416.328	707.33
416.705	738.29
417.082	763.82
417.46	750.04
417.837	791.84
418.214	799.08
418.591	775.8
418.967	797.04
419.344	795.23
419.721	813.09
420.098	817.61
420.475	837.04
420.852	847.66
421.228	858.28
421.605	878.85
421.982	876.81
422.358	882.24
422.735	893.08
423.111	906.19
423.488	919.52
423.864	919.52
424.241	934.21
424.617	953.2
424.994	940.31
425.37	955.46
425.746	960.43
426.123	997.94
426.499	996.36
426.875	1024.38
427.251	1038.16
427.627	1066.19
428.003	1045.4
428.379	1048.11
428.756	1077.03
429.132	1096.47
429.507	1112.51
429.883	1135.79
430.259	1142.12
430.635	1142.79
431.011	1159.74
431.387	1158.61
431.763	1194.54
432.138	1205.84
432.514	1227.76
432.89	1236.58
433.265	1262.11
433.641	1290.59
434.016	1285.62
434.392	1307.99
434.767	1326.97
435.143	1301.21
435.518	1362.45
435.894	1369.91
436.269	1359.06
436.644	1396.35
437.02	1378.72
437.395	1415.78
437.77	1415.56
438.145	1452.39
438.52	1450.58
438.895	1468.66
439.271	1482.67
439.646	1504.59
440.021	1496.01
440.395	1506.63
440.77	1538.72
441.145	1522.9
441.52	1563.8
441.895	1519.73
442.27	1560.64
442.645	1559.73
443.019	1576
443.394	1580.98
443.769	1589.56
444.143	1596.12
444.518	1602.44
444.892	1587.98
445.267	1625.27
445.641	1612.61
446.016	1618.49
446.39	1647.64
446.764	1660.3
447.139	1658.26
447.513	1680.18
447.887	1667.3
448.262	1654.65
448.636	1690.13
449.01	1651.03
449.384	1698.03
449.758	1694.42
450.132	1738.03
450.506	1711.14
450.88	1733.51
451.254	1721.08
451.628	1739.39
452.002	1773.29
452.376	1766.28
452.75	1775.77
453.123	1767.64
453.497	1778.94
453.871	1794.76
454.244	1821.87
454.618	1849.44
454.992	1856.67
455.365	1859.61
455.739	1900.74
456.112	1881.08
456.486	1918.37
456.859	1952.27
457.232	1954.07
457.606	1940.06
457.979	1991.81
458.352	2015.77
458.725	1997.46
459.099	2037.91
459.472	2043.79
459.845	2050.57
460.218	2057.12
460.591	2072.94
460.964	2083.11
461.337	2139.6
461.71	2137.57
462.083	2151.58
462.456	2153.39
462.829	2171.47
463.201	2207.63
463.574	2212.82
463.947	2246.27
464.32	2296.21
464.692	2256.89
465.065	2299.37
465.438	2286.04
465.81	2354.51
466.183	2340.28
466.555	2357.9
466.928	2379.37
467.3	2368.53
467.672	2411.46
468.045	2463.66
468.417	2451.91
468.789	2469.99
469.161	2460.27
469.534	2518.35
469.906	2544.79
470.278	2555.41
470.65	2601.97
471.022	2657.33
471.394	2646.03
471.766	2665.69
472.138	2683.77
472.51	2759.93
472.882	2764.22
473.253	2794.5
473.625	2818.91
473.997	2858
474.369	2895.74
474.74	2903.2
475.112	2932.58
475.484	2958.11
475.855	2996.53
476.227	3015.51
476.598	3099.13
476.97	3105
477.341	3158.79
477.713	3196.07
478.084	3191.33
478.455	3254.6
478.827	3226.36
479.198	3345.67
479.569	3366.69
479.94	3403.07
480.311	3405.56
480.682	3490.76
481.053	3493.92
481.424	3572.56
481.795	3569.17
482.166	3632.9
482.537	3662.5
482.908	3670.41
483.279	3731.65
483.65	3812.56
484.021	3829.96
484.391	3882.38
484.762	3879.45
485.133	3883.97
485.503	3948.6
485.874	4019.78
486.244	4043.96
486.615	4111.76
486.985	4157.86
487.356	4191.53
487.726	4217.06
488.097	4268.59
488.467	4263.84
488.837	4351.98
489.207	4393.33
489.578	4421.58
489.948	4433.33
490.318	4491.18
490.688	4503.61
491.058	4568.24
491.428	4622.7
491.798	4635.58
492.168	4708.8
492.538	4664.28
492.908	4748.58
493.278	4771.85
493.648	4827.44
494.017	4851.85
494.387	4871.06
494.757	4920.77
495.126	4930.94
495.496	4971.17
495.866	4931.62
496.235	5024.73
496.605	5105.63
496.974	5037.61
497.344	5116.02
497.713	5129.58
498.082	5162.58
498.452	5203.48
498.821	5270.82
499.19	5222.01
499.559	5242.12
499.928	5291.84
500.298	5307.66
500.667	5315.79
501.036	5325.28
501.405	5365.28
501.774	5350.59
502.143	5421.78
502.512	5451.61
502.88	5473.75
503.249	5480.31
503.618	5503.13
503.987	5518.72
504.356	5450.25
504.724	5587.2
505.093	5585.84
505.462	5591.04
505.83	5608.67
506.199	5627.42
506.567	5683.92
506.936	5664.48
507.304	5726.4
507.672	5716.46
508.041	5722.79
508.409	5803.69
508.777	5798.94
509.145	5840.98
509.514	5828.1
509.882	5827.87
510.25	5847.98
510.618	5873.97
510.986	5922.1
511.354	5963.68
511.722	6045.72
512.09	6037.36
512.458	6043.23
512.826	6027.64
513.193	6047.75
513.561	6061.31
513.929	6073.96
514.297	6127.97
514.664	6171.14
515.032	6168.88
515.4	6200.29
515.767	6189.89
516.135	6209.78
516.502	6235.54
516.869	6285.48
517.237	6352.83
517.604	6249.1
517.972	6288.87
518.339	6261.98
518.706	6340.62
519.073	6342.88
519.44	6364.35
519.808	6387.85
520.175	6439.38
520.542	6481.41
520.909	6527.06
521.276	6492.26
521.643	6530.68
522.009	6626.72
522.376	6615.42
522.743	6682.54
523.11	6677.11
523.477	6697.45
523.843	6708.52
524.21	6780.39
524.577	6753.04
524.943	6817.9
525.31	6862.19
525.676	6907.61
526.043	6931.8
526.409	6969.99
526.776	6984.68
527.142	7083.66
527.508	7056.54
527.874	7154.16
528.241	7120.72
528.607	7173.82
528.973	7261.96
529.339	7193.26
529.705	7250.66
530.071	7376.98
530.437	7332.69
530.803	7378.56
531.169	7412.69
531.535	7427.6
531.901	7420.82
532.267	7507.6
532.632	7517.77
532.998	7536.75
533.364	7617.65
533.73	7640.25
534.095	7697.2
534.461	7701.94
534.826	7767.93
535.192	7718.44
535.557	7806.8
535.923	7844.54
536.288	7846.35
536.653	7857.87
537.019	7893.58
537.384	7943.29
537.749	7976.51
538.114	8008.83
538.479	8007.93
538.845	8080.01
539.21	8037.98
539.575	8078.66
539.94	8170.18
540.305	8173.57
540.67	8162.05
541.034	8191.87
541.399	8263.29
541.764	8282.49
542.129	8305.54
542.494	8326.56
542.858	8393.9
543.223	8457.86
543.587	8472.77
543.952	8429.16
544.316	8545.09
544.681	8509.38
545.045	8563.39
545.41	8649.26
545.774	8661.92
546.138	8748.92
546.503	8687.46
546.867	8741.69
547.231	8783.95
547.595	8819.66
547.959	8801.12
548.324	8883.61
548.688	8839.54
549.052	8906.66
549.416	8924.06
549.779	8967
550.143	9019.88
550.507	9019.2
550.871	9106.65
551.235	9107.33
551.599	9106.2
551.962	9079.76
552.326	9187.78
552.689	9167.44
553.053	9200.89
553.417	9200.66
553.78	9321.34
554.143	9331.73
554.507	9385.52
554.87	9334.44
555.234	9423.03
555.597	9432.52
555.96	9414.44
556.323	9480.43
556.686	9477.04
557.05	9515.68
557.413	9565.4
557.776	9589.58
558.139	9594.32
558.502	9650.82
558.865	9658.73
559.228	9700.99
559.59	9792.28
559.953	9711.84
560.316	9881.1
560.679	9806.75
561.041	9916.35
561.404	9938.27
561.767	9964.94
562.129	9918.38
562.492	10089.45
562.854	10066.85
563.217	10010.81
563.579	10082.22
563.941	10147.3
564.304	10153.18
564.666	10152.5
565.028	10213.74
565.39	10244.48
565.753	10288.77
566.115	10259.39
566.477	10344.36
566.839	10411.7
567.201	10463.23
567.563	10492.15
567.925	10610.79
568.287	10544.36
568.648	10552.26
569.01	10652.38
569.372	10685.37
569.734	10726.72
570.095	10748.64
570.457	10844.46
570.819	10849.88
571.18	10900.5
571.542	10963.1
571.903	10968.53
572.265	11056.21
572.626	11021.18
572.987	11213.04
573.349	11189.99
573.71	11275.18
574.071	11373.94
574.432	11388.85
574.794	11516.76
575.155	11493.26
575.516	11560.15
575.877	11684.66
576.238	11745.23
576.599	11878.78
576.96	12001.72
577.32	12027.48
577.681	12179.34
578.042	12203.75
578.403	12361.03
578.763	12498.65
579.124	12613.23
579.485	12760.34
579.845	12900.45
580.206	13021.58
580.566	13093.89
580.927	13335.47
581.287	13483.71
581.648	13575.01
582.008	13918.05
582.368	13921.22
582.728	14210.7
583.089	14375.89
583.449	14565.72
583.809	14760.74
584.169	15065.82
584.529	15141.07
584.889	15501.51
585.249	15671
585.609	15783.77
585.969	16243.87
586.329	16353.69
586.688	16697.87
587.048	16906.45
587.408	17198.64
587.768	17449.71
588.127	17732.87
588.487	18014.22
588.846	18477.71
589.206	18668.44
589.565	18944.59
589.925	19368.76
590.284	19531.46
590.643	19896.43
591.003	20262.74
591.362	20716.07
591.721	20925.33
592.08	21364.86
592.44	21681.92
592.799	22012.3
593.158	22332.29
593.517	22592.17
593.876	22947.65
594.235	23250.91
594.593	23615.2
594.952	24072.81
595.311	24269.64
595.67	24716.19
596.029	25196.17
596.387	25266.68
596.746	25869.6
597.104	26012.2
597.463	26387.55
597.822	26744.61
598.18	27149.12
598.538	27331.94
598.897	27841.75
599.255	28108.87
599.613	28657.33
599.972	28780.26
600.33	29233.81
600.688	29393.8
601.046	29780.46
601.404	30088.47
601.762	30427.67
602.12	30911.73
602.478	31137.26
602.836	31451.38
603.194	31568.21
603.552	31974.98
603.91	32005.49
604.268	32580.16
604.625	32591.01
604.983	33039.13
605.341	33208.84
605.698	33541.49
606.056	33896.96
606.413	34188.93
606.771	34563.61
607.128	34907.56
607.485	34852.42
607.843	35035.46
608.2	35581.21
608.557	35951.6
608.914	35864.14
609.272	36280.85
609.629	36554.07
609.986	36832.25
610.343	36887.17
610.7	37441.05
611.057	37365.8
611.414	37685.34
611.771	37844.65
612.127	38217.98
612.484	38367.58
612.841	38683.05
613.198	38820.9
613.554	38846.66
613.911	39150.83
614.267	39231.51
614.624	39401.9
614.98	39605.96
615.337	40102.22
615.693	40000.53
616.05	40205.04
616.406	40595.32
616.762	40569.33
617.118	40717.35
617.475	40820.4
617.831	41127.28
618.187	41181.74
618.543	41387.39
618.899	41692.46
619.255	41650.2
619.611	41827.83
619.967	42031.44
620.323	42208.61
620.678	42236.86
621.034	42244.09
621.39	42348.94
621.746	42410.86
622.101	42964.75
622.457	42717.07
622.812	42886.33
623.168	43059.66
623.523	43102.14
623.879	43386.88
624.234	43057.62
624.589	43352.08
624.945	43435.24
625.3	43584.62
625.655	43526.99
626.01	43642.24
626.365	43882.24
626.72	43848.34
627.075	43828
627.43	43933.76
627.785	43910.48
628.14	43987.54
628.495	44117.94
628.85	44132.17
629.205	44082.46
629.559	44333.98
629.914	44113.64
630.269	44342.79
630.623	44281.1
630.978	44130.14
631.332	44373.3
631.687	44454.42
632.041	44288.55
632.396	44412.17
632.75	44210.14
633.104	44480.86
633.459	44275.22
633.813	44238.61
634.167	44331.94
634.521	44312.73
634.875	44454.2
635.229	44346.63
635.583	44290.36
635.937	44229.12
636.291	44217.59
636.645	44255.11
636.999	44315.9
637.352	44352.05
637.706	44342.11
638.06	44424.82
638.413	44269.8
638.767	44238.38
639.121	44253.75
639.474	44142.57
639.828	44133.08
640.181	44202
640.534	44295.33
640.888	44063.93
641.241	44032.06
641.594	43906.42
641.947	44309.8
642.301	44244.94
642.654	44260.31
643.007	44084.72
643.36	44092.4
643.713	43839.98
644.066	44267.76
644.419	43899.18
644.771	43845.4
645.124	43410.38
645.477	43421.23
645.83	43151.63
646.182	42912.09
646.535	42889.27
646.888	43041.13
647.24	42776.28
647.593	43037.74
647.945	42852.66
648.298	42748.03
648.65	42729.05
649.002	42673.91
649.355	42893.34
649.707	42717.75
650.059	42922.04
650.411	43342.36
650.763	43397.05
651.115	43844.27
651.467	43736.03
651.819	43767.21
652.171	43693.31
652.523	43587.33
652.875	43604.5
653.227	43509.36
653.578	43792.07
653.93	43669.81
654.282	43539.87
654.633	43407.67
654.985	43387.33
655.337	43489.48
655.688	43552.08
656.039	43593.43
656.391	43303.49
656.742	43411.29
657.094	43482.25
657.445	43553.43
657.796	43416.94
658.147	43360.22
658.498	43355.02
658.849	43545.52
659.2	43430.95
659.551	43282.25
659.902	43381.68
660.253	43235.7
660.604	43475.24
660.955	43070.73
661.306	43282.7
661.656	43230.5
662.007	43269.37
662.358	43249.94
662.708	43254.23
663.059	43226.43
663.409	43055.14
663.76	43264.63
664.11	43268.01
664.461	43295.13
664.811	43226.66
665.161	43270.5
665.511	43016.27
665.862	43150.28
666.212	43344.62
666.562	43346.66
666.912	43243.61
667.262	43225.3
667.612	43051.98
667.962	43252.87
668.312	43156.61
668.662	43385.75
669.011	43266.88
669.361	43064.18
669.711	43002.26
670.06	43039.32
670.41	42951.64
670.76	42992.54
671.109	43163.38
671.459	43041.35
671.808	42856.95
672.157	43197.28
672.507	42763.4
672.856	42825.99
673.205	42695.6
673.554	42973.11
673.904	42840.23
674.253	43077.51
674.602	42808.37
674.951	42249.06
675.3	41992.79
675.649	42723.85
675.998	42671.65
676.346	42592.78
676.695	42774.24
677.044	42544.87
677.393	42636.62
677.741	42696.73
678.09	42637.3
678.438	42373.58
678.787	42519.56
679.135	42503.74
679.484	42308.27
679.832	42300.58
680.181	42156.86
680.529	42249.28
680.877	42242.73
681.225	42122.96
681.573	42286.35
681.922	42023.98
682.27	41945.56
682.618	41981.04
682.966	41902.4
683.314	42120.7
683.661	41884.77
684.009	41635.52
684.357	41682.07
684.705	41633.26
685.053	41480.27
685.4	41512.58
685.748	41375.18
686.095	41391.23
686.443	41296.32
686.79	41151.46
687.138	41389.65
687.485	41248.18
687.832	41059.71
688.18	41150.1
688.527	40871.92
688.874	40964.12
689.221	40857.91
689.568	40829.89
689.915	40562.55
690.262	40614.98
690.609	40544.7
690.956	40256.12
691.303	40231.94
691.65	40134.99
691.997	40167.53
692.344	39979.97
692.69	39946.07
693.037	39798.5
693.383	39549.47
693.73	39766.41
694.077	39523.03
694.423	39455.01
694.769	39280.32
695.116	39275.35
695.462	39299.08
695.808	39105.19
696.155	39208.46
696.501	38861.35
696.847	38922.82
697.193	38674.46
697.539	38774.57
697.885	38505.2
698.231	38321.93
698.577	38322.38
698.923	38421.59
699.269	38155.83
699.614	37864.54
699.96	37801.49
700.306	37885.78
700.651	37619.35
700.997	37670.87
701.342	37486.47
701.688	37422.29
702.033	37302.75
702.379	37425
702.724	37057.78
703.069	37258.91
703.415	36950.44
703.76	36900.95
704.105	36963.55
704.45	36720.84
704.795	36620.05
705.14	36454.86
705.485	36495.54
705.83	36331.93
706.175	36265.26
706.52	36285.37
706.865	36166.28
707.209	36049
707.554	35903.01
707.899	36034.76
708.243	35773.07
708.588	35729
708.932	35587.31
709.277	35583.02
709.621	35563.81
709.966	35208.79
710.31	35406.53
710.654	35198.85
710.998	35132.41
711.342	35130.15
711.687	35194.1
712.031	34936.26
712.375	34859.2
712.719	34895.81
713.063	34807.67
713.407	34874.56
713.75	34694.68
714.094	34764.51
714.438	34607
714.782	34579.43
715.125	34336.95
715.469	34388.02
715.812	34154.13
716.156	34020.12
716.499	34103.74
716.843	34220.12
717.186	33951.65
717.53	33986.45
717.873	33974.25
718.216	33947.13
718.559	33729.51
718.902	33501.04
719.246	33655.16
719.589	33527.03
719.932	33343.3
720.275	33532.9
720.617	33407.94
720.96	33404.55
721.303	33307.37
721.646	33386.69
721.989	33169.07
722.331	33256.3
722.674	33135.17
723.016	33143.99
723.359	33054.72
723.701	32982.86
724.044	32814.73
724.386	32775.86
724.729	32758.46
725.071	32691.57
725.413	32669.2
725.755	32698.58
726.097	32635.98
726.439	32427.4
726.782	32480.28
727.124	32598.69
727.465	32370
727.807	32301.07
728.149	32310.56
728.491	32242.32
728.833	32288.19
729.175	32169.32
729.516	32091.13
729.858	32063.56
730.199	32061.08
730.541	31995.54
730.882	31984.92
731.224	32106.5
731.565	31837.35
731.906	31810.91
732.248	31801.2
732.589	31614.99
732.93	31450.7
733.271	31571.6
733.612	31547.87
733.953	31635.55
734.294	31382.45
734.635	31328.44
734.976	31437.59
735.317	31117.37
735.658	31310.36
735.999	31318.5
736.339	31184.26
736.68	31285.96
737.021	31108.33
737.361	30958.96
737.702	31167.09
738.042	31214.55
738.383	30988.34
738.723	30989.02
739.063	30846.42
739.404	31090.93
739.744	30942.92
740.084	30811.62
740.424	30791.73
740.764	30795.35
741.104	30819.53
741.444	30722.13
741.784	30548.35
742.124	30575.02
742.464	30613.21
742.804	30595.35
743.143	30464.96
743.483	30460.67
743.823	30284.63
744.162	30214.57
744.502	30306.32
744.841	30244.63
745.181	30304.97
745.52	30283.72
745.86	30237.17
746.199	30206.44
746.538	30134.8
746.877	30128.25
747.216	30127.8
747.556	30121.02
747.895	30059.1
748.234	29937.29
748.573	30000.12
748.911	29864.75
749.25	29929.61
749.589	29810.97
749.928	29875.6
750.267	29896.84
750.605	29718.54
750.944	29755.15
751.283	29574.82
751.621	29768.93
751.96	29612.78
752.298	29567.13
752.636	29531.2
752.975	29428.6
753.313	29238.55
753.651	29507.25
753.989	29295.05
754.327	29252.79
754.666	29143.41
755.004	29302.28
755.342	29212.57
755.679	29243.98
756.017	29083.08
756.355	29070.65
756.693	28980.71
757.031	29016.64
757.368	28850.54
757.706	28863.42
758.044	28773.48
758.381	28698.45
758.719	28774.38
