Data from hue_270_FLMS001491_00038.txt Node
Date: Tue Feb 07 15:57:07 GMT 2017
User: dcchb
Spectrometer: FLMS00149
Trigger mode: 0
Integration Time (sec): 2.000000E-2
Scans to average: 10
Electric dark correction enabled: true
Nonlinearity correction enabled: false
Boxcar width: 0
XAxis mode: Wavelengths
Number of Pixels in Spectrum: 2048
>>>>>Begin Spectral Data<<<<<
341.393	-14.08
341.776	-14.08
342.16	-14.08
342.543	-61.09
342.927	-59.28
343.31	-53.4
343.693	-66.06
344.077	-59.5
344.46	-52.27
344.843	-48.2
345.226	-54.76
345.61	-31.93
345.993	-28.54
346.376	-13.63
346.759	18.23
347.142	35.63
347.525	33.15
347.908	74.05
348.291	63.88
348.674	91.68
349.057	91.68
349.44	137.78
349.823	145.01
350.206	164.44
350.588	172.81
350.971	202.18
351.354	216.87
351.737	219.81
352.119	248.74
352.502	252.13
352.884	266.14
353.267	280.15
353.65	265.69
354.032	299.36
354.414	324.44
354.797	305.23
355.179	290.32
355.562	306.59
355.944	316.76
356.326	309.98
356.709	326.25
357.091	337.55
357.473	337.77
357.855	343.42
358.238	356.76
358.62	311.56
359.002	343.42
359.384	325.8
359.766	315.63
360.148	316.98
360.53	341.84
360.912	329.19
361.294	305.01
361.676	344.78
362.057	313.37
362.439	318.57
362.821	320.15
363.203	302.29
363.584	321.95
363.966	310.43
364.348	297.32
364.729	316.31
365.111	301.84
365.493	313.37
365.874	303.65
366.256	315.18
366.637	324.89
367.019	322.86
367.4	312.92
367.781	298.23
368.163	316.98
368.544	325.8
368.925	330.32
369.306	306.59
369.688	298.68
370.069	304.55
370.45	312.92
370.831	300.71
371.212	345.68
371.593	293.26
371.974	308.62
372.355	306.36
372.736	307.94
373.117	319.92
373.498	297.55
373.879	303.65
374.26	304.33
374.641	280.6
375.021	309.53
375.402	305.01
375.783	324.67
376.163	307.49
376.544	312.92
376.925	301.39
377.305	303.42
377.686	308.85
378.066	324.21
378.447	321.05
378.827	320.15
379.208	286.48
379.588	322.41
379.968	319.47
380.349	322.63
380.729	338.68
381.109	327.15
381.489	345.46
381.87	338.9
382.25	324.44
382.63	328.06
383.01	323.54
383.39	329.19
383.77	322.63
384.15	325.34
384.53	342.97
384.91	337.55
385.29	356.98
385.67	359.92
386.049	343.2
386.429	328.06
386.809	336.87
387.189	341.84
387.568	344.78
387.948	353.59
388.328	338.45
388.707	347.72
389.087	335.51
389.466	363.99
389.846	330.32
390.225	364.67
390.605	358.56
390.984	366.93
391.363	367.15
391.743	363.76
392.122	361.73
392.501	380.71
392.881	378.68
393.26	386.59
393.639	352.24
394.018	371.9
394.397	379.58
394.776	359.92
395.155	392.91
395.534	379.35
395.913	382.07
396.292	356.76
396.671	375.06
397.05	396.3
397.429	396.98
397.808	388.17
398.186	421.61
398.565	398.11
398.944	400.6
399.323	402.4
399.701	373.7
400.08	389.52
400.458	414.83
400.837	377.55
401.215	401.95
401.594	423.2
401.972	392.46
402.351	381.61
402.729	424.78
403.107	415.06
403.486	412.12
403.864	433.82
404.242	428.62
404.62	432.23
404.999	427.94
405.377	427.49
405.755	440.82
406.133	459.35
406.511	458.9
406.889	457.32
407.267	486.24
407.645	446.47
408.023	439.92
408.401	480.82
408.779	486.24
409.156	464.55
409.534	467.26
409.912	496.64
410.29	513.14
410.667	528.96
411.045	508.84
411.422	518.56
411.8	513.81
412.178	523.98
412.555	532.12
412.933	535.51
413.31	554.27
413.687	545.45
414.065	541.61
414.442	542.29
414.819	564.89
415.197	582.51
415.574	567.15
415.951	575.28
416.328	576.19
416.705	591.78
417.082	597.65
417.46	597.88
417.837	625.22
418.214	617.54
418.591	614.15
418.967	621.83
419.344	617.09
419.721	652.34
420.098	648.05
420.475	674.71
420.852	662.28
421.228	681.27
421.605	700.7
421.982	691.44
422.358	706.35
422.735	705
423.111	715.16
423.488	732.57
423.864	757.2
424.241	747.25
424.617	787.93
424.994	743.86
425.37	777.31
425.746	780.25
426.123	765.78
426.499	823.64
426.875	823.18
427.251	792.22
427.627	833.13
428.003	841.04
428.379	835.84
428.756	875.84
429.132	863.41
429.507	881.71
429.883	873.13
430.259	903.86
430.635	919.23
431.011	912.9
431.387	922.84
431.763	949.28
432.138	973.01
432.514	1002.16
432.89	963.97
433.265	1001.03
433.641	1005.55
434.016	1045.55
434.392	1022.73
434.767	1072.9
435.143	1070.41
435.518	1086.45
435.894	1082.16
436.269	1105.89
436.644	1151.54
437.02	1143.4
437.395	1147.02
437.77	1175.04
438.145	1212.78
438.52	1221.14
438.895	1211.42
439.271	1235.38
439.646	1247.13
440.021	1259.56
440.395	1279.22
440.77	1282.61
441.145	1278.54
441.52	1335.71
441.895	1326.9
442.27	1335.49
442.645	1344.75
443.019	1367.8
443.394	1358.31
443.769	1389.5
444.143	1391.98
444.518	1415.03
444.892	1390.4
445.267	1417.29
445.641	1446.9
446.016	1438.76
446.39	1463.39
446.764	1436.05
447.139	1501.81
447.513	1465.88
447.887	1473.34
448.262	1502.26
448.636	1529.15
449.01	1528.02
449.384	1534.13
449.758	1541.81
450.132	1516.5
450.506	1543.62
450.88	1544.97
451.254	1580.45
451.628	1577.74
452.002	1611.41
452.376	1596.27
452.75	1617.06
453.123	1617.29
453.497	1634.91
453.871	1682.6
454.244	1706.78
454.618	1714.01
454.992	1723.95
455.365	1724.63
455.739	1753.1
456.112	1772.09
456.486	1784.06
456.859	1775.93
457.232	1811.18
457.606	1822.25
457.979	1835.14
458.352	1859.77
458.725	1892.08
459.099	1897.96
459.472	1909.94
459.845	1955.58
460.218	1968.01
460.591	1976.15
460.964	1947.67
461.337	2021.35
461.71	2054.56
462.083	2048.01
462.456	2085.07
462.829	2059.31
463.201	2073.1
463.574	2078.52
463.947	2132.75
464.32	2186.09
464.692	2146.31
465.065	2205.52
465.438	2208.23
465.81	2250.72
466.183	2239.64
466.555	2284.62
466.928	2309.93
467.3	2289.36
467.672	2343.14
468.045	2378.62
468.417	2384.73
468.789	2411.17
469.161	2440.54
469.534	2455.68
469.906	2488
470.278	2518.96
470.65	2541.11
471.022	2550.82
471.394	2611.39
471.766	2623.59
472.138	2664.27
472.51	2696.13
472.882	2732.29
473.253	2752.17
473.625	2817.71
473.997	2822.68
474.369	2859.97
474.74	2841.21
475.112	2931.6
475.484	2977.7
475.855	3005.95
476.227	3031.94
476.598	3065.39
476.97	3075.55
477.341	3132.28
477.713	3189.68
478.084	3197.36
478.455	3257.24
478.827	3312.16
479.198	3372.72
479.569	3393.29
479.94	3437.13
480.311	3475.32
480.682	3535.2
481.053	3615.2
481.424	3622.43
481.795	3681.41
482.166	3683.67
482.537	3707.85
482.908	3796.21
483.279	3819.26
483.65	3888.64
484.021	3911.69
484.391	3991.46
484.762	4031.69
485.133	4000.95
485.503	4075.53
485.874	4147.39
486.244	4155.3
486.615	4203.21
486.985	4290.21
487.356	4356.2
487.726	4327.73
488.097	4404.33
488.467	4400.49
488.837	4524.33
489.207	4556.87
489.578	4599.58
489.948	4642.97
490.318	4709.41
490.688	4743.99
491.058	4759.35
491.428	4836.64
491.798	4818.11
492.168	4953.02
492.538	4924.32
492.908	5004.09
493.278	5050.19
493.648	4987.14
494.017	5045.45
494.387	5163.18
494.757	5180.36
495.126	5210.87
495.496	5184.43
495.866	5165.9
496.235	5258.1
496.605	5257.42
496.974	5343.29
497.344	5348.49
497.713	5375.16
498.082	5419.45
498.452	5428.04
498.821	5416.28
499.19	5478.66
499.559	5514.36
499.928	5545.32
500.298	5556.85
500.667	5563.85
501.036	5563.62
501.405	5642.94
501.774	5640.69
502.143	5640.91
502.512	5703.51
502.88	5657.18
503.249	5691.76
503.618	5752.32
503.987	5736.05
504.356	5782.83
504.724	5806.33
505.093	5774.69
505.462	5846.78
505.83	5874.13
506.199	5875.93
506.567	5942.6
506.936	5919.55
507.304	5970.17
507.672	5984.63
508.041	6008.81
508.409	5999.55
508.777	6008.81
509.145	6048.58
509.514	6025.53
509.882	6155.93
510.25	6136.04
510.618	6164.51
510.986	6115.02
511.354	6153.89
511.722	6178.98
512.09	6241.57
512.458	6199.54
512.826	6241.12
513.193	6256.94
513.561	6203.61
513.929	6241.35
514.297	6304.17
514.664	6328.12
515.032	6310.27
515.4	6344.62
515.767	6342.14
516.135	6349.14
516.502	6312.31
516.869	6406.99
517.237	6355.24
517.604	6331.97
517.972	6430.95
518.339	6423.26
518.706	6402.02
519.073	6427.78
519.44	6427.33
519.808	6474.11
520.175	6455.58
520.542	6490.83
520.909	6475.24
521.276	6515.69
521.643	6565.86
522.009	6572.41
522.376	6588.68
522.743	6598.63
523.11	6583.26
523.477	6689.02
523.843	6657.16
524.21	6699.19
524.577	6724.72
524.943	6713.43
525.31	6707.1
525.676	6799.3
526.043	6782.8
526.409	6816.93
526.776	6850.6
527.142	6854.21
527.508	6827.09
527.874	6920.88
528.241	6945.74
528.607	6889.24
528.973	7004.04
529.339	6925.17
529.705	6960.42
530.071	6991.61
530.437	7014.89
530.803	6977.83
531.169	7105.05
531.535	7039.97
531.901	7032.06
532.267	7072.29
532.632	7050.82
532.998	7105.28
533.364	7079.52
533.73	7091.49
534.095	7125.62
534.461	7112.74
534.826	7088.56
535.192	7092.4
535.557	7211.04
535.923	7066.41
536.288	7118.84
536.653	7140.53
537.019	7125.84
537.384	7177.59
537.749	7161.77
538.114	7141.44
538.479	7122.91
538.845	7169.46
539.21	7131.72
539.575	7187.99
539.94	7136.69
540.305	7202.45
540.67	7192.28
541.034	7234.77
541.399	7204.03
541.764	7246.52
542.129	7185.5
542.494	7195.22
542.858	7269.34
543.223	7197.93
543.587	7211.04
543.952	7261.43
544.316	7244.94
544.681	7237.03
545.045	7284.71
545.41	7314.77
545.774	7277.7
546.138	7263.47
546.503	7273.18
546.867	7268.66
547.231	7293.3
547.595	7258.27
547.959	7316.8
548.324	7282.45
548.688	7245.84
549.052	7279.06
549.416	7270.7
549.779	7289.46
550.143	7309.79
550.507	7343.01
550.871	7284.71
551.235	7306.4
551.599	7363.58
551.962	7301.43
552.326	7362.22
552.689	7365.61
553.053	7318.16
553.417	7316.35
553.78	7342.34
554.143	7352.28
554.507	7384.37
554.87	7398.83
555.234	7452.16
555.597	7356.35
555.96	7442.9
556.323	7425.04
556.686	7437.93
557.05	7538.71
557.413	7507.3
557.776	7462.33
558.139	7534.87
558.502	7482.44
558.865	7569.45
559.228	7579.39
559.59	7598.83
559.953	7545.27
560.316	7664.36
560.679	7583.01
561.041	7624.81
561.404	7645.83
561.767	7730.35
562.129	7762.44
562.492	7768.31
562.854	7780.74
563.217	7783
563.579	7770.8
563.941	7845.6
564.304	7830.46
564.666	7893.51
565.028	7865.71
565.39	7886.95
565.753	7862.55
566.115	7976.67
566.477	7958.36
566.839	7972.83
567.201	7961.75
567.563	8045.37
567.925	8152.94
568.287	8121.07
568.648	8140.51
569.01	8117
569.372	8164.91
569.734	8211.01
570.095	8262.31
570.457	8245.36
570.819	8238.81
571.18	8296.21
571.542	8319.26
571.903	8312.03
572.265	8334.4
572.626	8340.5
572.987	8338.69
573.349	8433.38
573.71	8404.68
574.071	8502.76
574.432	8503.89
574.794	8554.96
575.155	8564.9
575.516	8532.13
575.877	8567.39
576.238	8583.66
576.599	8611.23
576.96	8660.49
577.32	8688.74
577.681	8735.74
578.042	8780.72
578.403	8825.69
578.763	8794.73
579.124	8819.81
579.485	8886.02
579.845	8928.28
580.206	8868.85
580.566	8919.69
580.927	8908.4
581.287	9027.71
581.648	9036.75
582.008	9075.17
582.368	9050.76
582.728	9055.96
583.089	9144.55
583.449	9137.77
583.809	9145.9
584.169	9184.77
584.529	9228.39
584.889	9224.32
585.249	9227.71
585.609	9204.21
585.969	9303.87
586.329	9349.06
586.688	9378.67
587.048	9380.93
587.408	9386.35
587.768	9392.68
588.127	9418.44
588.487	9428.38
588.846	9506.35
589.206	9454.6
589.565	9566.46
589.925	9601.26
590.284	9542.96
590.643	9572.11
591.003	9678.77
591.362	9681.48
591.721	9654.59
592.08	9675.38
592.44	9772.78
592.799	9747.02
593.158	9772.1
593.517	9759.22
593.876	9782.05
594.235	9871.31
594.593	9794.7
594.952	9846.45
595.311	9793.12
595.67	9863.85
596.029	9922.61
596.387	9937.52
596.746	10001.47
597.104	9927.13
597.463	9972.1
597.822	10008.03
598.18	9988.37
598.538	9962.15
598.897	10014.13
599.255	9960.35
599.613	10201.24
599.972	10056.16
600.33	10132.32
600.688	10038.54
601.046	10069.95
601.404	10133.22
601.762	10136.61
602.12	10221.13
602.478	10219.32
602.836	10227.46
603.194	10232.65
603.552	10247.12
603.91	10194.46
604.268	10214.8
604.625	10193.11
604.983	10299.55
605.341	10248.25
605.698	10308.81
606.056	10298.87
606.413	10251.64
606.771	10354.01
607.128	10337.96
607.485	10240.79
607.843	10284.18
608.2	10400.11
608.557	10404.4
608.914	10374.35
609.272	10459.54
609.629	10430.62
609.986	10508.58
610.343	10403.27
610.7	10495.7
611.057	10500.44
611.414	10493.66
611.771	10499.77
612.127	10580.44
612.484	10552.42
612.841	10498.18
613.198	10480.78
613.554	10541.8
613.911	10575.02
614.267	10564.17
614.624	10631.29
614.98	10504.96
615.337	10607.79
615.693	10587.22
616.05	10679.42
616.406	10663.38
616.762	10659.99
617.118	10659.08
617.475	10627.22
617.831	10643.49
618.187	10677.16
618.543	10675.58
618.899	10703.6
619.255	10715.81
619.611	10712.19
619.967	10739.31
620.323	10787.67
620.678	10791.06
621.034	10714.68
621.39	10754.9
621.746	10699.08
622.101	10864.73
622.457	10659.76
622.812	10784.5
623.168	10779.76
623.523	10862.92
623.879	10757.39
624.234	10807.1
624.589	10813.43
624.945	10794.9
625.3	10851.85
625.655	10798.29
626.01	10745.18
626.365	10833.77
626.72	10734.79
627.075	10762.58
627.43	10741.57
627.785	10779.98
628.14	10766.43
628.495	10736.82
628.85	10686.65
629.205	10724.17
629.559	10819.53
629.914	10796.26
630.269	10732.3
630.623	10750.16
630.978	10651.17
631.332	10762.58
631.687	10787.67
632.041	10733.66
632.396	10742.7
632.75	10591.52
633.104	10703.6
633.459	10641.91
633.813	10600.1
634.167	10629.48
634.521	10625.19
634.875	10657.28
635.229	10609.59
635.583	10507.45
635.937	10571.85
636.291	10537.05
636.645	10565.98
636.999	10532.08
637.352	10526.43
637.706	10452.08
638.06	10509.26
638.413	10411.86
638.767	10432.88
639.121	10440.11
639.474	10361.92
639.828	10348.58
640.181	10434.23
640.534	10409.37
640.888	10357.62
641.241	10387.23
641.594	10302.71
641.947	10364.18
642.301	10378.64
642.654	10431.29
643.007	10306.33
643.36	10294.35
643.713	10351.97
644.066	10341.8
644.419	10286.66
644.771	10205.08
645.124	10104.52
645.477	10143.17
645.83	10123.96
646.182	10067.91
646.535	9953.11
646.888	10016.62
647.24	9922.83
647.593	9963.06
647.945	9932.1
648.298	9941.14
648.65	9881.03
649.002	9954.7
649.355	9997.18
649.707	9956.73
650.059	9967.35
650.411	10156.5
650.763	10152.66
651.115	10227.01
651.467	10167.8
651.819	10204.86
652.171	10205.08
652.523	10181.58
652.875	10151.75
653.227	10076.95
653.578	10165.54
653.93	10230.39
654.282	10139.78
654.633	10165.09
654.985	10109.27
655.337	10139.1
655.688	10205.54
656.039	10153.33
656.391	10110.4
656.742	10136.39
657.094	10129.15
657.445	10183.16
657.796	10178.42
658.147	10194.92
658.498	10156.05
658.849	10208.93
659.2	10210.06
659.551	10151.53
659.902	10108.14
660.253	10200.34
660.604	10207.57
660.955	10106.78
661.306	10130.74
661.656	10136.39
662.007	10157.63
662.358	10173
662.708	10131.41
663.059	10114.92
663.409	10066.56
663.76	10206.21
664.11	10163.73
664.461	10215.03
664.811	10210.73
665.161	10177.06
665.511	10155.37
665.862	10212.09
666.212	10228.59
666.562	10244.63
666.912	10180.9
667.262	10196.05
667.612	10180.23
667.962	10223.84
668.312	10140
668.662	10166.22
669.011	10141.81
669.361	10172.77
669.711	10163.28
670.06	10130.74
670.41	10141.81
670.76	10100.45
671.109	10169.61
671.459	10127.12
671.808	10120.57
672.157	10111.75
672.507	10025.65
672.856	10105.43
673.205	10041.93
673.554	10060.91
673.904	10036.05
674.253	10155.59
674.602	10045.54
674.951	9943.85
675.3	9851.42
675.649	10043.73
675.998	10008.93
676.346	9956.96
676.695	10044.41
677.044	9946.33
677.393	9980.23
677.741	9940.46
678.09	9991.08
678.438	9984.98
678.787	9927.58
679.135	9992.44
679.484	9888.03
679.832	9936.62
680.181	9844.19
680.529	9891.19
680.877	9895.26
681.225	9853
681.573	9884.87
681.922	9834.25
682.27	9759.45
682.618	9774.36
682.966	9741.82
683.314	9769.84
683.661	9711.54
684.009	9721.26
684.357	9711.76
684.705	9660.69
685.053	9647.13
685.4	9633.8
685.748	9629.73
686.095	9636.29
686.443	9592.9
686.79	9469.74
687.138	9540.92
687.485	9549.28
687.832	9467.93
688.18	9475.61
688.527	9432.9
688.874	9397.2
689.221	9363.52
689.568	9405.11
689.915	9316.52
690.262	9295.5
690.609	9321.27
690.956	9224.77
691.303	9221.16
691.65	9187.03
691.997	9171.21
692.344	9109.75
692.69	9121.27
693.037	9083.98
693.383	9010.77
693.73	9029.07
694.077	8994.5
694.423	8954.5
694.769	8893.48
695.116	8959.24
695.462	8925.57
695.808	8851.67
696.155	8888.74
696.501	8868.85
696.847	8788.62
697.193	8790.21
697.539	8773.03
697.885	8707.5
698.231	8727.84
698.577	8701.4
698.923	8585.47
699.269	8627.27
699.614	8547.5
699.96	8495.98
700.306	8506.82
700.651	8472.25
700.997	8469.99
701.342	8418.01
701.688	8386.38
702.033	8364
702.379	8334.4
702.724	8368.3
703.069	8314.51
703.415	8232.03
703.76	8225.02
704.105	8242.88
704.45	8244.68
704.795	8192.48
705.14	8141.86
705.485	8147.06
705.83	8100.28
706.175	8119.94
706.52	8061.41
706.865	8052.15
707.209	7985.26
707.554	7941.19
707.899	8034.97
708.243	7965.82
708.588	7929.21
708.932	7870
709.277	7858.48
709.621	7849.67
709.966	7831.36
710.31	7843.56
710.654	7696.9
710.998	7727.18
711.342	7772.15
711.687	7715.43
712.031	7734.64
712.375	7644.7
712.719	7673.4
713.063	7655.1
713.407	7653.74
713.75	7583.46
714.094	7588.43
714.438	7594.31
714.782	7632.95
715.125	7540.3
715.469	7635.66
715.812	7581.42
716.156	7477.7
716.499	7555.66
716.843	7561.76
717.186	7490.13
717.53	7439.73
717.873	7491.48
718.216	7486.06
718.559	7456
718.902	7405.16
719.246	7407.87
719.589	7337.14
719.932	7316.12
720.275	7371.26
720.617	7303.92
720.96	7357.25
721.303	7300.3
721.646	7373.29
721.989	7319.96
722.331	7361.09
722.674	7334.43
723.016	7284.26
723.359	7268.21
723.701	7323.13
724.044	7320.19
724.386	7234.99
724.729	7256.24
725.071	7249.46
725.413	7270.25
725.755	7261.89
726.097	7195.45
726.439	7185.96
726.782	7145.73
727.124	7238.84
727.465	7166.07
727.807	7150.25
728.149	7166.29
728.491	7186.41
728.833	7185.5
729.175	7203.81
729.516	7183.02
729.858	7166.29
730.199	7182.34
730.541	7196.8
730.882	7195.22
731.224	7179.63
731.565	7126.07
731.906	7138.72
732.248	7171.04
732.589	7130.59
732.93	7095.56
733.271	7107.54
733.612	7138.72
733.953	7161.32
734.294	7161.1
734.635	7141.21
734.976	7106.41
735.317	7096.92
735.658	7154.54
735.999	7081.55
736.339	7169.68
736.68	7193.64
737.021	7085.84
737.361	7081.78
737.702	7180.31
738.042	7171.27
738.383	7093.75
738.723	7157.03
739.063	7169.01
739.404	7139.85
739.744	7174.2
740.084	7238.38
740.424	7174.88
740.764	7228.21
741.104	7215.33
741.444	7196.12
741.784	7136.92
742.124	7230.93
742.464	7249
742.804	7240.64
743.143	7221.43
743.483	7272.73
743.823	7276.8
744.162	7251.72
744.502	7316.8
744.841	7327.19
745.181	7396.8
745.52	7373.07
745.86	7435.67
746.199	7463.24
746.538	7485.61
746.877	7553.86
747.216	7562.44
747.556	7569.45
747.895	7640.41
748.234	7622.33
748.573	7683.57
748.911	7732.38
749.25	7799.72
749.589	7811.7
749.928	7905.48
750.267	7980.28
750.605	8037.91
750.944	8060.28
751.283	8096.21
751.621	8211.46
751.96	8240.16
752.298	8337.34
752.636	8441.52
752.975	8444
753.313	8558.12
753.651	8665.24
753.989	8724.45
754.327	8826.36
754.666	8938
755.004	8953.82
755.342	9169.86
755.679	9247.6
756.017	9301.83
756.355	9450.08
756.693	9566.23
757.031	9721.71
757.368	9771.2
757.706	9948.14
758.044	10025.43
758.381	10194.46
758.719	10303.84
759.056	10451.41
759.394	10633.1
759.731	10744.96
760.068	10848.23
760.405	10910.15
760.743	11140.88
761.08	11237.37
761.417	11422.91
761.754	11538.16
762.091	11717.59
762.428	11840.07
762.765	11954.64
763.102	12172.04
763.438	12290.91
763.775	12417
764.112	12688.18
764.449	12788.07
764.785	12945.13
765.122	13039.36
765.458	13130.66
