Data from hue_200_FLMS001491_00081.txt Node
Date: Tue Feb 07 16:44:02 GMT 2017
User: dcchb
Spectrometer: FLMS00149
Trigger mode: 0
Integration Time (sec): 2.000000E-2
Scans to average: 10
Electric dark correction enabled: true
Nonlinearity correction enabled: false
Boxcar width: 0
XAxis mode: Wavelengths
Number of Pixels in Spectrum: 2048
>>>>>Begin Spectral Data<<<<<
341.393	-9.77
341.776	-9.77
342.16	-9.77
342.543	-73.5
342.927	-81.41
343.31	-87.51
343.693	-65.14
344.077	-58.59
344.46	-64.91
344.843	-71.92
345.226	-45.93
345.61	-23.78
345.993	-21.98
346.376	-7.51
346.759	-6.84
347.142	20.73
347.525	60.05
347.908	78.59
348.291	90.56
348.674	90.79
349.057	113.39
349.44	125.82
349.823	143.67
350.206	179.15
350.588	190.22
350.971	226.83
351.354	213.05
351.737	227.51
352.119	261.41
352.502	260.05
352.884	264.34
353.267	283.33
353.65	267.51
354.032	306.83
354.414	312.93
354.797	315.42
355.179	330.1
355.562	310.22
355.944	347.73
356.326	332.59
356.709	348.63
357.091	341.18
357.473	328.52
357.855	336.66
358.238	334.85
358.62	341.86
359.002	315.64
359.384	344.34
359.766	337.56
360.148	336.88
360.53	305.25
360.912	335.75
361.294	337.79
361.676	338.24
362.057	338.69
362.439	327.62
362.821	325.13
363.203	325.36
363.584	312.03
363.966	305.47
364.348	309.31
364.729	320.61
365.111	300.5
365.493	313.83
365.874	290.11
366.256	324.68
366.637	329.43
367.019	317.45
367.4	318.35
367.781	304.57
368.163	298.47
368.544	309.99
368.925	321.52
369.306	315.42
369.688	298.24
370.069	316.77
370.45	306.6
370.831	326.04
371.212	324.45
371.593	322.87
371.974	304.79
372.355	316.09
372.736	296.66
373.117	309.54
373.498	314.96
373.879	303.66
374.26	309.31
374.641	308.41
375.021	288.52
375.402	323.78
375.783	303.66
376.163	306.38
376.544	314.51
376.925	324.23
377.305	343.66
377.686	327.84
378.066	337.56
378.447	327.39
378.827	327.39
379.208	331.01
379.588	330.33
379.968	331.23
380.349	327.62
380.729	338.69
381.109	321.74
381.489	339.6
381.87	325.13
382.25	324.68
382.63	353.15
383.01	345.02
383.39	328.3
383.77	340.73
384.15	364.91
384.53	344.57
384.91	348.63
385.29	350.44
385.67	354.96
386.049	341.86
386.429	340.05
386.809	357.45
387.189	361.06
387.568	369.43
387.948	354.51
388.328	356.77
388.707	357.22
389.087	364.45
389.466	350.67
389.846	376.2
390.225	367.84
390.605	363.55
390.984	363.78
391.363	378.24
391.743	380.5
392.122	369.88
392.501	371.91
392.881	401.29
393.26	394.74
393.639	383.21
394.018	380.95
394.397	372.36
394.776	375.07
395.155	398.8
395.534	417.79
395.913	406.71
396.292	397.45
396.671	406.94
397.05	401.74
397.429	417.11
397.808	396.54
398.186	383.66
398.565	400.16
398.944	396.54
399.323	412.81
399.701	404
400.08	413.72
400.458	422.31
400.837	412.59
401.215	412.59
401.594	422.53
401.972	432.47
402.351	432.02
402.729	445.36
403.107	441.97
403.486	460.72
403.864	434.96
404.242	449.2
404.62	423.89
404.999	444.23
405.377	452.36
405.755	467.05
406.133	455.52
406.511	459.14
406.889	469.31
407.267	478.12
407.645	489.65
408.023	506.37
408.401	478.12
408.779	506.6
409.156	532.81
409.534	527.61
409.912	529.42
410.29	523.32
410.667	549.53
411.045	562.87
411.422	528.29
411.8	570.1
412.178	578.46
412.555	582.53
412.933	580.04
413.31	629.76
413.687	610.55
414.065	618.01
414.442	639.47
414.819	611.45
415.197	658.46
415.574	663.43
415.951	682.19
416.328	681.96
416.705	677.89
417.082	688.51
417.46	715.18
417.837	719.7
418.214	712.47
418.591	732.13
418.967	750.88
419.344	758.79
419.721	757.89
420.098	777.1
420.475	794.27
420.852	804.44
421.228	799.02
421.605	822.29
421.982	833.82
422.358	840.15
422.735	872.91
423.111	879.92
423.488	905.91
423.864	921.05
424.241	930.77
424.617	930.09
424.994	959.01
425.37	979.8
425.746	961.05
426.123	996.75
426.499	1007.37
426.875	1000.82
427.251	1046.24
427.627	1075.4
428.003	1074.27
428.379	1092.34
428.756	1108.39
429.132	1092.8
429.507	1142.29
429.883	1164.66
430.259	1172.79
430.635	1169.18
431.011	1164.21
431.387	1193.13
431.763	1242.17
432.138	1225.9
432.514	1266.12
432.89	1260.25
433.265	1320.59
433.641	1345.22
434.016	1357.87
434.392	1371.43
434.767	1399.23
435.143	1426.8
435.518	1442.84
435.894	1458.21
436.269	1524.65
436.644	1513.12
437.02	1579.56
437.395	1569.17
437.77	1599.68
438.145	1657.98
438.52	1648.26
438.895	1699.11
439.271	1725.55
439.646	1748.6
440.021	1780.46
440.395	1823.85
440.77	1779.11
441.145	1810.97
441.52	1875.37
441.895	1905.43
442.27	1921.7
442.645	1878.09
443.019	1955.37
443.394	1921.93
443.769	1999.89
444.143	1998.76
444.518	2035.82
444.892	2011.87
445.267	2031.3
445.641	2091.87
446.016	2086.89
446.39	2070.17
446.764	2135.93
447.139	2158.53
447.513	2142.49
447.887	2199.66
448.262	2200.11
448.636	2219.77
449.01	2192.2
449.384	2258.19
449.758	2316.72
450.132	2306.1
450.506	2310.84
450.88	2357.85
451.254	2345.42
451.628	2406.89
452.002	2388.81
452.376	2428.35
452.75	2459.54
453.123	2484.17
453.497	2476.26
453.871	2520.56
454.244	2597.84
454.618	2590.16
454.992	2657.73
455.365	2656.37
455.739	2707.67
456.112	2710.38
456.486	2764.62
456.859	2756.93
457.232	2805.07
457.606	2824.5
457.979	2876.93
458.352	2930.94
458.725	2937.49
459.099	2935.46
459.472	2993.76
459.845	3054.55
460.218	3094.78
460.591	3105.17
460.964	3090.71
461.337	3198.96
461.71	3212.97
462.083	3257.26
462.456	3269.69
462.829	3309.69
463.201	3338.39
463.574	3361.44
463.947	3436.24
464.32	3501.55
464.692	3527.31
465.065	3523.47
465.438	3615.89
465.81	3648.44
466.183	3684.14
466.555	3737.47
466.928	3786.51
467.3	3820.18
467.672	3800.97
468.045	3928.88
468.417	3944.47
468.789	3996
469.161	4040.97
469.534	4107.18
469.906	4127.97
470.278	4164.58
470.65	4209.78
471.022	4262.88
471.394	4365.7
471.766	4427.85
472.138	4446.83
472.51	4543.55
472.882	4629.43
473.253	4684.57
473.625	4754.62
473.997	4802.98
474.369	4837.1
474.74	4914.62
475.112	4955.07
475.484	5030.32
475.855	5124.1
476.227	5128.4
476.598	5297.88
476.97	5320.71
477.341	5449.74
477.713	5493.13
478.084	5533.81
478.455	5672.79
478.827	5731.77
479.198	5837.3
479.569	5851.54
479.94	6020.8
480.311	6016.51
480.682	6159.1
481.053	6315.26
481.424	6479.32
481.795	6435.48
482.166	6550.28
482.537	6621.46
482.908	6770.39
483.279	6814.45
483.65	6884.96
484.021	7006.54
484.391	7049.48
484.762	7147.78
485.133	7244.95
485.503	7263.93
485.874	7460.54
486.244	7552.06
486.615	7616.69
486.985	7667.99
487.356	7834.54
487.726	7908.66
488.097	8002.22
488.467	8037.92
488.837	8163.57
489.207	8319.95
489.578	8406.5
489.948	8357.92
490.318	8537.57
490.688	8583.45
491.058	8755.42
491.428	8745.25
491.798	8895.08
492.168	8973.49
492.538	8960.16
492.908	9080.16
493.278	9188.63
493.648	9222.98
494.017	9294.61
494.387	9458
494.757	9440.37
495.126	9490.32
495.496	9471.78
495.866	9535.96
496.235	9638.33
496.605	9651.22
496.974	9720.37
497.344	9837.42
497.713	9923.07
498.082	9888.5
498.452	10002.62
498.821	10042.39
499.19	9987.7
499.559	10121.49
499.928	10182.95
500.298	10091.2
500.667	10249.39
501.036	10257.53
501.405	10251.88
501.774	10298.66
502.143	10359.67
502.512	10384.76
502.88	10458.43
503.249	10444.87
503.618	10484.87
503.987	10494.36
504.356	10507.01
504.724	10551.53
505.093	10589.04
505.462	10592.43
505.83	10566.22
506.199	10666.33
506.567	10716.72
506.936	10809.6
507.304	10804.41
507.672	10896.38
508.041	10864.29
508.409	10934.8
508.777	10962.82
509.145	10988.13
509.514	10943.61
509.882	10991.29
510.25	10976.83
510.618	11032.42
510.986	11006.43
511.354	11152.87
511.722	11122.14
512.09	11214.79
512.458	11191.29
512.826	11230.61
513.193	11208.01
513.561	11164.4
513.929	11247.33
514.297	11342.92
514.664	11270.61
515.032	11389.25
515.4	11359.42
515.767	11368.01
516.135	11345.18
516.502	11306.54
516.869	11426.08
517.237	11401.23
517.604	11362.58
517.972	11463.6
518.339	11511.96
518.706	11483.71
519.073	11484.16
519.44	11482.35
519.808	11526.19
520.175	11438.74
520.542	11567.55
520.909	11691.39
521.276	11534.56
521.643	11639.19
522.009	11650.26
522.376	11649.13
522.743	11635.8
523.11	11697.26
523.477	11678.51
523.843	11778.39
524.21	11717.38
524.577	11818.39
524.943	11826.75
525.31	11771.84
525.676	11850.48
526.043	11800.31
526.409	11818.84
526.776	11873.98
527.142	11896.35
527.508	11902.23
527.874	11938.61
528.241	11908.1
528.607	11866.07
528.973	11926.18
529.339	11813.42
529.705	11957.82
530.071	11868.56
530.437	11838.95
530.803	11838.5
531.169	11783.59
531.535	11732.52
531.901	11766.19
532.267	11758.96
532.632	11744.04
532.998	11679.18
533.364	11742.69
533.73	11652.52
534.095	11754.44
534.461	11627.66
534.826	11634.89
535.192	11613.88
535.557	11673.53
535.923	11500.21
536.288	11481.68
536.653	11514.22
537.019	11369.36
537.384	11377.95
537.749	11404.39
538.114	11346.31
538.479	11264.96
538.845	11317.16
539.21	11169.37
539.575	11189.03
539.94	11119.2
540.305	11135.24
540.67	11115.36
541.034	11024.06
541.399	11051.4
541.764	10989.71
542.129	10962.14
542.494	10922.37
542.858	10916.72
543.223	10849.83
543.587	10787.68
543.952	10759.43
544.316	10739.32
544.681	10656.61
545.045	10718.98
545.41	10612.32
545.774	10577.29
546.138	10523.06
546.503	10508.59
546.867	10464.3
547.231	10468.59
547.595	10382.95
547.959	10403.29
548.324	10299.11
548.688	10271.31
549.052	10250.75
549.416	10204.65
549.779	10187.7
550.143	10096.4
550.507	10110.64
550.871	10107.02
551.235	10065.89
551.599	10058.89
551.962	9938.21
552.326	9975.05
552.689	9947.25
553.053	9794.26
553.417	9803.98
553.78	9903.19
554.143	9807.37
554.507	9808.73
554.87	9773.25
555.234	9724.66
555.597	9706.35
555.96	9641.27
556.323	9708.16
556.686	9593.36
557.05	9585.91
557.413	9569.41
557.776	9580.71
558.139	9576.41
558.502	9521.5
558.865	9505
559.228	9533.03
559.59	9528.51
559.953	9478.34
560.316	9488.51
560.679	9534.61
561.041	9478.34
561.404	9494.16
561.767	9498.22
562.129	9427.94
562.492	9459.81
562.854	9476.08
563.217	9453.25
563.579	9435.4
563.941	9434.27
564.304	9483.31
564.666	9514.27
565.028	9390.66
565.39	9487.15
565.753	9457.32
566.115	9485.8
566.477	9510.2
566.839	9476.53
567.201	9469.98
567.563	9441.28
567.925	9484.89
568.287	9486.02
568.648	9508.17
569.01	9537.32
569.372	9566.92
569.734	9453.03
570.095	9535.74
570.457	9545
570.819	9601.5
571.18	9563.99
571.542	9522.4
571.903	9518.56
572.265	9498.68
572.626	9573.7
572.987	9583.65
573.349	9540.71
573.71	9522.4
574.071	9563.31
574.432	9596.98
574.794	9637.43
575.155	9577.09
575.516	9560.6
575.877	9541.61
576.238	9600.37
576.599	9583.42
576.96	9624.1
577.32	9551.78
577.681	9606.92
578.042	9654.6
578.403	9589.07
578.763	9611.67
579.124	9567.83
579.485	9634.49
579.845	9697.99
580.206	9594.04
580.566	9558.34
580.927	9653.47
581.287	9609.18
581.648	9619.35
582.008	9656.19
582.368	9605.79
582.728	9697.09
583.089	9577.77
583.449	9569.18
583.809	9656.19
584.169	9612.12
584.529	9579.58
584.889	9657.77
585.249	9566.02
585.609	9595.62
585.969	9636.07
586.329	9575.06
586.688	9587.71
587.048	9582.97
587.408	9532.57
587.768	9607.37
588.127	9559.47
588.487	9508.62
588.846	9598.11
589.206	9472.91
589.565	9534.16
589.925	9518.79
590.284	9519.02
590.643	9549.07
591.003	9575.06
591.362	9512.46
591.721	9507.26
592.08	9575.74
592.44	9521.05
592.799	9562.86
593.158	9509.75
593.517	9530.31
593.876	9510.2
594.235	9480.82
594.593	9422.29
594.952	9407.38
595.311	9502.52
595.67	9461.62
596.029	9507.49
596.387	9486.25
596.746	9506.36
597.104	9424.1
597.463	9401.05
597.822	9494.16
598.18	9424.78
598.538	9348.4
598.897	9439.47
599.255	9360.83
599.613	9482.41
599.972	9451.22
600.33	9417.55
600.688	9379.13
601.046	9432.46
601.404	9455.74
601.762	9497.32
602.12	9502.07
602.478	9520.6
602.836	9448.06
603.194	9421.16
603.552	9376.42
603.91	9379.36
604.268	9453.71
604.625	9408.06
604.983	9423.65
605.341	9370.77
605.698	9436.08
606.056	9451.67
606.413	9403.31
606.771	9443.31
607.128	9433.14
607.485	9439.02
607.843	9392.24
608.2	9399.7
608.557	9549.75
608.914	9419.58
609.272	9542.97
609.629	9517.21
609.986	9493.48
610.343	9475.17
610.7	9561.27
611.057	9527.83
611.414	9504.78
611.771	9545
612.127	9573.93
612.484	9560.37
612.841	9566.7
613.198	9576.41
613.554	9568.96
613.911	9582.06
614.267	9560.37
614.624	9587.49
614.98	9610.54
615.337	9639.01
615.693	9647.6
616.05	9554.95
616.406	9686.47
616.762	9607.15
617.118	9593.36
617.475	9668.39
617.831	9656.86
618.187	9611.44
618.543	9618
618.899	9742.96
619.255	9620.26
619.611	9657.99
619.967	9665.68
620.323	9710.87
620.678	9722.17
621.034	9633.36
621.39	9657.54
621.746	9608.28
622.101	9679.91
622.457	9590.65
622.812	9651.67
623.168	9657.54
623.523	9728.5
623.879	9681.04
624.234	9643.53
624.589	9709.29
624.945	9607.83
625.3	9674.72
625.655	9750.2
626.01	9694.15
626.365	9715.62
626.72	9615.74
627.075	9652.35
627.43	9623.87
627.785	9634.04
628.14	9669.52
628.495	9632.68
628.85	9605.34
629.205	9606.92
629.559	9681.5
629.914	9579.35
630.269	9608.28
630.623	9602.4
630.978	9588.62
631.332	9608.28
631.687	9592.01
632.041	9601.5
632.396	9581.84
632.75	9546.81
633.104	9512.01
633.459	9506.81
633.813	9545.91
634.167	9515.85
634.521	9458.9
634.875	9505.91
635.229	9480.37
635.583	9444.44
635.937	9457.77
636.291	9406.02
636.645	9382.07
636.999	9390.66
637.352	9416.65
637.706	9291.22
638.06	9348.85
638.413	9328.51
638.767	9278.12
639.121	9323.99
639.474	9271.11
639.828	9297.55
640.181	9280.38
640.534	9277.89
640.888	9240.83
641.241	9204.22
641.594	9302.3
641.947	9246.93
642.301	9200.61
642.654	9233.83
643.007	9241.96
643.36	9183.88
643.713	9180.04
644.066	9256.88
644.419	9196.99
644.771	9199.02
645.124	9062.08
645.477	9025.69
645.83	8952.7
646.182	8976.88
646.535	8923.55
646.888	8942.53
647.24	8906.83
647.593	8889.2
647.945	8869.54
648.298	8848.98
648.65	8860.05
649.002	8875.87
649.355	8889.65
649.707	8890.33
650.059	8921.29
650.411	8987.96
650.763	9023.44
651.115	9113.38
651.467	9089.87
651.819	9153.15
652.171	9102.98
652.523	8971.01
652.875	9108.86
653.227	9022.98
653.578	9069.99
653.93	9079.25
654.282	9022.08
654.633	8992.93
654.985	9050.55
655.337	9074.96
655.688	9003.77
656.039	9027.5
656.391	9029.08
656.742	8989.54
657.094	9056.88
657.445	9135.07
657.796	9067.05
658.147	9086.94
658.498	9053.94
658.849	9107.95
659.2	9092.81
659.551	9083.09
659.902	9119.25
660.253	9036.54
660.604	9124.22
660.955	9131
661.306	9173.94
661.656	9100.5
662.007	9057.78
662.358	9100.95
662.708	9090.1
663.059	9124.22
663.409	9112.47
663.76	9140.95
664.11	9123.55
664.461	9182.75
664.811	9123.32
665.161	9099.59
665.511	9076.54
665.862	9153.38
666.212	9124.45
666.562	9141.62
666.912	9159.02
667.262	9144.79
667.612	9090.33
667.962	9175.07
668.312	9135.52
668.662	9144.56
669.011	9204.22
669.361	9160.15
669.711	9183.88
670.06	9129.87
670.41	9111.12
670.76	9116.99
671.109	9175.52
671.459	9125.35
671.808	9067.95
672.157	9098.69
672.507	9094.85
672.856	9019.82
673.205	9063.21
673.554	9062.98
673.904	8979.14
674.253	9099.37
674.602	9018.24
674.951	8912.7
675.3	8812.59
675.649	8964.91
675.998	9026.82
676.346	8988.63
676.695	9029.08
677.044	8907.05
677.393	9002.19
677.741	8947.73
678.09	8954.06
678.438	8942.99
678.787	8920.39
679.135	8891.69
679.484	8890.78
679.832	8864.34
680.181	8754.29
680.529	8872.25
680.877	8752.03
681.225	8767.85
681.573	8846.72
681.922	8751.35
682.27	8715.65
682.618	8772.14
682.966	8714.97
683.314	8692.14
683.661	8631.35
684.009	8689.21
684.357	8667.29
684.705	8660.96
685.053	8646.5
685.4	8693.5
685.748	8578.25
686.095	8508.19
686.443	8537.8
686.79	8548.42
687.138	8562.66
687.485	8545.71
687.832	8541.64
688.18	8532.15
688.527	8437.01
688.874	8413.28
689.221	8393.62
689.568	8326.28
689.915	8373.28
690.262	8356.33
690.609	8252.61
690.956	8244.7
691.303	8272.49
691.65	8185.49
691.997	8193.63
692.344	8154.98
692.69	8081.76
693.037	8116.79
693.383	8064.82
693.73	8107.75
694.077	8009
694.423	8058.94
694.769	8014.42
695.116	7935.78
695.462	7962.67
695.808	7941.2
696.155	7920.41
696.501	7888.55
696.847	7842.22
697.193	7800.87
697.539	7790.25
697.885	7787.54
698.231	7747.99
698.577	7704.83
698.923	7704.37
699.269	7621.66
699.614	7600.2
699.96	7568.56
700.306	7559.29
700.651	7512.51
700.997	7451.72
701.342	7477.04
701.688	7415.57
702.033	7493.98
702.379	7385.74
702.724	7380.09
703.069	7364.72
703.415	7317.27
703.76	7268.9
704.105	7307.32
704.45	7233.2
704.795	7242.92
705.14	7171.96
705.485	7235.01
705.83	7169.02
706.175	7126.54
706.52	7088.57
706.865	7109.59
707.209	7063.03
707.554	7054.9
707.899	7098.97
708.243	6972.87
708.588	7003.38
708.932	6913.21
709.277	6917.05
709.621	6890.84
709.966	6898.75
710.31	6909.37
710.654	6852.64
710.998	6826.66
711.342	6833.21
711.687	6831.4
712.031	6758.18
712.375	6753.44
712.719	6760.22
713.063	6774
713.407	6738.07
713.75	6715.47
714.094	6714.8
714.438	6697.39
714.782	6739.88
715.125	6669.37
715.469	6650.39
715.812	6634.12
716.156	6600
716.499	6569.26
716.843	6630.05
717.186	6616.27
717.53	6592.31
717.873	6578.3
718.216	6546.89
718.559	6581.69
718.902	6541.01
719.246	6562.93
719.589	6519.77
719.932	6524.74
720.275	6472.32
720.617	6554.8
720.96	6504.63
721.303	6467.57
721.646	6495.14
721.989	6449.94
722.331	6487
722.674	6481.81
723.016	6509.6
723.359	6448.59
723.701	6491.3
724.044	6422.15
724.386	6397.97
724.729	6418.31
725.071	6392.09
725.413	6403.62
725.755	6402.26
726.097	6394.13
726.439	6329.49
726.782	6342.6
727.124	6360.91
727.465	6341.02
727.807	6406.33
728.149	6372.43
728.491	6323.17
728.833	6358.42
729.175	6378.98
729.516	6363.62
729.858	6379.89
730.199	6350.29
730.541	6362.26
730.882	6401.13
731.224	6355.93
731.565	6397.74
731.906	6366.33
732.248	6376.5
732.589	6351.19
732.93	6277.07
733.271	6284.75
733.612	6390.51
733.953	6350.06
734.294	6331.53
734.635	6348.48
734.976	6398.65
735.317	6255.6
735.658	6352.54
735.999	6335.37
736.339	6333.34
736.68	6397.74
737.021	6400.45
737.361	6301.47
737.702	6354.8
738.042	6355.03
738.383	6376.27
738.723	6363.39
739.063	6399.55
739.404	6392.09
739.744	6390.96
740.084	6378.53
740.424	6406.78
740.764	6419.21
741.104	6466.21
741.444	6419.89
741.784	6459.21
742.124	6482.03
742.464	6451.53
742.804	6534.91
743.143	6519.55
743.483	6544.4
743.823	6474.35
744.162	6587.79
744.502	6642.48
744.841	6549.6
745.181	6638.86
745.52	6663.05
745.86	6710.5
746.199	6740.11
746.538	6756.6
746.877	6821.01
747.216	6908.69
747.556	6836.6
747.895	6976.71
748.234	6893.55
748.573	7035.24
748.911	7087.21
749.25	7117.72
749.589	7094.45
749.928	7216.48
750.267	7325.17
750.605	7355.68
750.944	7389.81
751.283	7457.37
751.621	7589.35
751.96	7625.51
752.298	7724.26
752.636	7801.32
752.975	7919.06
753.313	8027.3
753.651	8093.74
753.989	8260.07
754.327	8363.34
754.666	8400.17
755.004	8485.6
755.342	8760.17
755.679	8781.86
756.017	8963.55
756.355	9056.65
756.693	9096.2
757.031	9330.77
757.368	9422.97
757.706	9560.37
758.044	9690.08
758.381	9827.71
758.719	10002.17
759.056	10216.62
759.394	10352.44
759.731	10471.76
760.068	10661.36
760.405	10853.67
760.743	10989.26
761.08	11190.16
761.417	11344.5
761.754	11498.62
762.091	11652.52
762.428	11834.66
762.765	11959.4
763.102	12200.98
763.438	12363.23
763.775	12571.36
764.112	12750.12
764.449	12934.52
764.785	13063.33
765.122	13194.62
765.458	13428.29
765.795	13569.53
766.131	13696.53
