Data from hue_310_FLMS001491_59.txt Node
Date: Mon Feb 06 15:49:53 GMT 2017
User: dcchb
Spectrometer: FLMS00149
Trigger mode: 0
Integration Time (sec): 2.000000E-2
Scans to average: 10
Electric dark correction enabled: true
Nonlinearity correction enabled: false
Boxcar width: 0
XAxis mode: Wavelengths
Number of Pixels in Spectrum: 2048
>>>>>Begin Spectral Data<<<<<
341.393	-20.35
341.776	-20.35
342.16	-20.35
342.543	-76.4
342.927	-64.19
343.31	-81.14
343.693	-71.88
344.077	-66.23
344.46	-53.12
344.843	-59
345.226	-42.72
345.61	-25.1
345.993	-32.1
346.376	-0.01
346.759	23.94
347.142	21.68
347.525	46.54
347.908	58.74
348.291	79.08
348.674	87.44
349.057	113.88
349.44	120.66
349.823	124.73
350.206	166.31
350.588	173.54
350.971	204.05
351.354	209.47
351.737	236.14
352.119	251.05
352.502	254.44
352.884	281.79
353.267	289.7
353.65	282.24
354.032	303.03
354.414	304.61
354.797	307.32
355.179	302.8
355.562	322.46
355.944	321.56
356.326	326.53
356.709	326.08
357.091	323.14
357.473	344.16
357.855	317.49
358.238	344.38
358.62	332.86
359.002	308.9
359.384	335.34
359.766	347.1
360.148	318.62
360.53	331.95
360.912	321.33
361.294	349.58
361.676	318.62
362.057	332.18
362.439	310.26
362.821	318.4
363.203	325.4
363.584	297.83
363.966	314.1
364.348	330.82
364.729	311.39
365.111	325.18
365.493	315.91
365.874	322.46
366.256	298.06
366.637	312.07
367.019	309.81
367.4	303.48
367.781	301.22
368.163	299.64
368.544	300.54
368.925	314.1
369.306	323.82
369.688	316.81
370.069	299.19
370.45	306.19
370.831	314.78
371.212	313.2
371.593	317.04
371.974	318.17
372.355	309.13
372.736	322.46
373.117	326.53
373.498	327.21
373.879	335.57
374.26	306.87
374.641	322.92
375.021	312.75
375.402	310.26
375.783	343.25
376.163	304.84
376.544	319.98
376.925	332.18
377.305	319.07
377.686	314.1
378.066	331.5
378.447	344.16
378.827	348.68
379.208	334.89
379.588	312.07
379.968	332.86
380.349	342.58
380.729	324.27
381.109	330.15
381.489	338.06
381.87	333.76
382.25	331.5
382.63	332.18
383.01	342.58
383.39	344.38
383.77	342.12
384.15	352.29
384.53	352.97
384.91	339.41
385.29	359.3
385.67	335.34
386.049	340.54
386.429	370.15
386.809	362.01
387.189	348.9
387.568	342.58
387.948	359.07
388.328	355
388.707	332.41
389.087	360.43
389.466	380.77
389.846	349.58
390.225	361.33
390.605	362.69
390.984	383.48
391.363	380.09
391.743	362.91
392.122	394.33
392.501	362.01
392.881	373.08
393.26	373.08
393.639	351.62
394.018	356.36
394.397	376.02
394.776	367.66
395.155	371.28
395.534	394.1
395.913	361.78
396.292	407.21
396.671	389.13
397.05	409.92
397.429	415.12
397.808	392.07
398.186	381.67
398.565	402.46
398.944	413.31
399.323	408.79
399.701	390.94
400.08	410.82
400.458	428.22
400.837	420.99
401.215	426.19
401.594	415.12
401.972	420.54
402.351	417.83
402.729	417.6
403.107	418.51
403.486	426.42
403.864	422.8
404.242	429.13
404.62	441.56
404.999	421.44
405.377	446.08
405.755	455.12
406.133	436.58
406.511	438.39
406.889	477.49
407.267	467.09
407.645	478.84
408.023	459.63
408.401	483.14
408.779	472.97
409.156	484.04
409.534	491.5
409.912	513.19
410.29	491.5
410.667	519.75
411.045	504.38
411.422	536.47
411.8	523.59
412.178	527.43
412.555	540.54
412.933	542.8
413.31	556.13
413.687	564.94
414.065	571.04
414.442	567.65
414.819	570.59
415.197	605.17
415.574	607.88
415.951	605.17
416.328	632.29
416.705	607.88
417.082	620.76
417.46	642
417.837	670.25
418.214	651.04
418.591	691.95
418.967	658.95
419.344	684.71
419.721	676.58
420.098	696.92
420.475	705.28
420.852	718.39
421.228	719.06
421.605	713.19
421.982	745.95
422.358	743.92
422.735	741.21
423.111	792.28
423.488	777.37
423.864	792.06
424.241	794.09
424.617	788.44
424.994	817.82
425.37	821.21
425.746	818.5
426.123	819.17
426.499	820.08
426.875	864.14
427.251	858.95
427.627	884.48
428.003	895.56
428.379	895.1
428.756	900.3
429.132	916.57
429.507	902.79
429.883	945.05
430.259	925.39
430.635	951.15
431.011	986.85
431.387	964.03
431.763	994.99
432.138	964.48
432.514	1011.71
432.89	992.5
433.265	1056
433.641	1048.32
434.016	1060.75
434.392	1089.9
434.767	1111.82
435.143	1089.9
435.518	1113.85
435.894	1132.61
436.269	1137.13
436.644	1133.74
437.02	1146.85
437.395	1141.65
437.77	1197.92
438.145	1197.02
438.52	1190.01
438.895	1213.74
439.271	1218.94
439.646	1243.34
440.021	1255.77
440.395	1247.86
440.77	1219.84
441.145	1251.48
441.52	1280.4
441.895	1294.64
442.27	1273.85
442.645	1298.71
443.019	1298.48
443.394	1314.75
443.769	1305.49
444.143	1295.55
444.518	1321.53
444.892	1320.4
445.267	1332.83
445.641	1311.36
446.016	1328.99
446.39	1356.11
446.764	1324.47
447.139	1346.62
447.513	1382.1
447.887	1379.16
448.262	1352.94
448.636	1391.36
449.01	1403.56
449.384	1373.96
449.758	1408.54
450.132	1452.6
450.506	1418.71
450.88	1400.18
451.254	1415.09
451.628	1444.47
452.002	1432.04
452.376	1463.9
452.75	1445.15
453.123	1486.73
453.497	1478.82
453.871	1510
454.244	1515.2
454.618	1500.96
454.992	1522.88
455.365	1535.54
455.739	1553.84
456.112	1576.22
456.486	1550
456.859	1550.68
457.232	1598.36
457.606	1589.1
457.979	1586.16
458.352	1654.63
458.725	1646.27
459.099	1651.92
459.472	1696.44
459.845	1683.78
460.218	1675.42
460.591	1684.69
460.964	1729.21
461.337	1732.14
461.71	1774.63
462.083	1762.65
462.456	1784.57
462.829	1765.59
463.201	1814.63
463.574	1802.2
463.947	1819.37
464.32	1855.53
464.692	1838.81
465.065	1834.74
465.438	1877.68
465.81	1884.68
466.183	1904.12
466.555	1952.93
466.928	1935.75
467.3	1970.56
467.672	1954.74
468.045	2017.79
468.417	1981.18
468.789	2030.44
469.161	2042.87
469.534	2062.3
469.906	2089.65
470.278	2108.63
470.65	2113.6
471.022	2157.9
471.394	2182.75
471.766	2180.95
472.138	2200.38
472.51	2203.77
472.882	2252.81
473.253	2264.56
473.625	2295.74
473.997	2307.27
474.369	2313.6
474.74	2357.89
475.112	2352.24
475.484	2391.56
475.855	2451.67
476.227	2408.51
476.598	2489.86
476.97	2511.56
477.341	2567.15
477.713	2556.75
478.084	2555.62
478.455	2596.98
478.827	2616.41
479.198	2699.8
479.569	2695.73
479.94	2761.27
480.311	2748.61
480.682	2820.7
481.053	2876.07
481.424	2880.59
481.795	2916.97
482.166	2923.3
482.537	2940.02
482.908	3003.3
483.279	3003.75
483.65	3057.53
484.021	3105.44
484.391	3123.07
484.762	3171.43
485.133	3158.32
485.503	3175.72
485.874	3283.29
486.244	3263.63
486.615	3302.27
486.985	3358.32
487.356	3391.31
487.726	3420.01
488.097	3500.46
488.467	3440.57
488.837	3549.72
489.207	3522.83
489.578	3580.68
489.948	3608.25
490.318	3619.33
490.688	3647.35
491.058	3749.72
491.428	3714.01
491.798	3758.31
492.168	3821.13
492.538	3856.38
492.908	3836.95
493.278	3905.65
493.648	3908.58
494.017	3947
494.387	3940.9
494.757	3953.1
495.126	4040.78
495.496	4029.71
495.866	4064.96
496.235	4092.99
496.605	4143.38
496.974	4128.01
497.344	4124.17
497.713	4175.92
498.082	4169.82
498.452	4210.95
498.821	4181.12
499.19	4230.16
499.559	4297.73
499.928	4274.68
500.298	4313.32
500.667	4333.66
501.036	4302.02
501.405	4340.89
501.774	4351.51
502.143	4404.39
502.512	4391.06
502.88	4445.97
503.249	4431.06
503.618	4450.49
503.987	4464.05
504.356	4497.04
504.724	4539.53
505.093	4512.41
505.462	4552.41
505.83	4541.56
506.199	4581.56
506.567	4614.33
506.936	4648.9
507.304	4629.92
507.672	4668.11
508.041	4671.73
508.409	4704.27
508.777	4732.06
509.145	4749.24
509.514	4732.74
509.882	4784.94
510.25	4784.04
510.618	4801.44
510.986	4775.23
511.354	4803.25
511.722	4860.42
512.09	4879.18
512.458	4881.44
512.826	4947.88
513.193	4890.93
513.561	4903.81
513.929	4933.64
514.297	4929.35
514.664	5022.9
515.032	5017.71
515.4	4985.39
515.767	5026.97
516.135	5030.36
516.502	4997.82
516.869	5091.83
517.237	5092.73
517.604	5097.03
517.972	5129.12
518.339	5126.86
518.706	5110.13
519.073	5130.7
519.44	5129.34
519.808	5151.04
520.175	5190.58
520.542	5262.45
520.909	5283.01
521.276	5235.33
521.643	5274.42
522.009	5317.36
522.376	5323.46
522.743	5332.73
523.11	5328.43
523.477	5401.2
523.843	5464.93
524.21	5457.24
524.577	5476.45
524.943	5511.25
525.31	5501.08
525.676	5557.81
526.043	5603.45
526.409	5595.32
526.776	5623.11
527.142	5647.3
527.508	5726.84
527.874	5738.14
528.241	5728.65
528.607	5795.09
528.973	5826.95
529.339	5796.22
529.705	5843.9
530.071	5873.5
530.437	5897.01
530.803	5924.58
531.169	5996.66
531.535	5979.26
531.901	5984.46
532.267	6012.71
532.632	6054.06
532.998	6089.32
533.364	6127.06
533.73	6119.82
534.095	6160.5
534.461	6151.24
534.826	6217.22
535.192	6190.78
535.557	6312.81
535.923	6286.37
536.288	6265.81
536.653	6313.27
537.019	6323.44
537.384	6365.92
537.749	6429.87
538.114	6409.08
538.479	6397.78
538.845	6428.29
539.21	6455.41
539.575	6509.87
539.94	6561.17
540.305	6605.01
540.67	6564.79
541.034	6586.71
541.399	6692.01
541.764	6647.95
542.129	6702.63
542.494	6742.86
542.858	6734.27
543.223	6754.84
543.587	6781.28
543.952	6808.17
544.316	6888.62
544.681	6854.72
545.045	6925.68
545.41	6937.2
545.774	6925.23
546.138	6931.33
546.503	7018.56
546.867	7012.23
547.231	7104.43
547.595	7072.57
547.959	7098.78
548.324	7159.8
548.688	7128.84
549.052	7183.98
549.416	7175.39
549.779	7196.41
550.143	7223.3
550.507	7220.14
550.871	7317.99
551.235	7277.99
551.599	7350.08
551.962	7396.4
552.326	7380.81
552.689	7467.81
553.053	7420.13
553.417	7437.98
553.78	7500.58
554.143	7472.78
554.507	7499.68
554.87	7577.64
555.234	7610.41
555.597	7555.04
555.96	7594.81
556.323	7598.88
556.686	7662.16
557.05	7691.99
557.413	7647.69
557.776	7705.55
558.139	7747.35
558.502	7831.42
558.865	7769.05
559.228	7851.3
559.59	7855.6
559.953	7841.14
560.316	7964.52
560.679	7903.96
561.041	7956.84
561.404	8044.97
561.767	8048.14
562.129	7999.78
562.492	8068.02
562.854	8058.08
563.217	8081.13
563.579	8105.54
563.941	8179.43
564.304	8183.73
564.666	8264.4
565.028	8294.68
565.39	8222.37
565.753	8295.13
566.115	8346.43
566.477	8332.87
566.839	8431.85
567.201	8409.48
567.563	8454
567.925	8465.75
568.287	8505.52
568.648	8481.8
569.01	8575.35
569.372	8671.62
569.734	8628.69
570.095	8644.96
570.457	8691.96
570.819	8743.48
571.18	8807.66
571.542	8804.95
571.903	8815.57
572.265	8803.14
572.626	8950.71
572.987	9009.69
573.349	9027.09
573.71	9084.72
574.071	9106.19
574.432	9220.08
574.794	9250.36
575.155	9283.81
575.516	9343.69
575.877	9453.52
576.238	9500.75
576.599	9569.45
576.96	9696
577.32	9721.31
577.681	9877.47
578.042	9891.48
578.403	10059.16
578.763	10099.38
579.124	10121.53
579.485	10327.17
579.845	10420.05
580.206	10542.76
580.566	10664.11
580.927	10714.28
581.287	10949.3
581.648	11028.4
582.008	11197.88
582.368	11330.54
582.728	11523.3
583.089	11631.54
583.449	11850.52
583.809	12074.7
584.169	12149.04
584.529	12326.44
584.889	12664.06
585.249	12784.51
585.609	12883.26
585.969	13202.35
586.329	13445.06
586.688	13643.24
587.048	13838.94
587.408	14070.35
587.768	14388.76
588.127	14574.74
588.487	14829.43
588.846	15249.98
589.206	15294.5
589.565	15635.05
589.925	15999.34
590.284	16177.19
590.643	16416.5
591.003	16805.87
591.362	17143.49
591.721	17286.99
592.08	17609.69
592.44	17976.24
592.799	18343.23
593.158	18507.75
593.517	18828.19
593.876	19116.55
594.235	19472.47
594.593	19875.62
594.952	20077.65
595.311	20431.99
595.67	20685.09
596.029	21141.8
596.387	21412.76
596.746	21837.15
597.104	22089.35
597.463	22380.41
597.822	22593.52
598.18	23031.47
598.538	23311.24
598.897	23624.22
599.255	23869.41
599.613	24422.17
599.972	24528.61
600.33	24884.3
600.688	25042.27
601.046	25416.04
601.404	25783.04
601.762	26004.05
602.12	26374.89
602.478	26700.3
602.836	27040.18
603.194	27090.12
603.552	27477.46
603.91	27560.84
604.268	27999.48
604.625	28179.36
604.983	28575.05
605.341	28505.23
605.698	29020.24
606.056	29366.45
606.413	29588.81
606.771	29943.61
607.128	30232.19
607.485	30343.82
607.843	30541.78
608.2	30946.06
608.557	31196.68
608.914	31379.05
609.272	31693.16
609.629	31931.58
609.986	32249.08
610.343	32409.08
610.7	32780.14
611.057	32980.36
611.414	33020.59
611.771	33312.78
612.127	33623.28
612.484	33729.49
612.841	34066.21
613.198	34016.94
613.554	34261.68
613.911	34595.01
614.267	34723.14
614.624	34842.69
614.98	34849.69
615.337	35322.9
615.693	35464.82
616.05	35594.98
616.406	35861.87
616.762	35848.08
617.118	35995.2
617.475	36133.95
617.831	36487.84
618.187	36638.34
618.543	36615.07
618.899	36864.78
619.255	37001.27
619.611	37111.33
619.967	37431.32
620.323	37551.54
620.678	37543.18
621.034	37653.46
621.39	37714.7
621.746	37727.13
622.101	38280.11
622.457	38077.63
622.812	38186.1
623.168	38414.12
623.523	38494.34
623.879	38767.1
624.234	38616.37
624.589	38752.64
624.945	38825.18
625.3	38952.41
625.655	39012.29
626.01	39194.66
626.365	39178.62
626.72	39176.58
627.075	39363.7
627.43	39260.2
627.785	39373.41
628.14	39574.09
628.495	39637.36
628.85	39600.3
629.205	39582.45
629.559	39843.23
629.914	39713.74
630.269	39819.28
630.623	39665.84
630.978	39847.07
631.332	40012.72
631.687	40038.71
632.041	40041.42
632.396	40113.73
632.75	40052.72
633.104	40201.87
633.459	40013.4
633.813	40077.58
634.167	40043.23
634.521	40062.66
634.875	40038.48
635.229	39927.52
635.583	39878.26
635.937	40000.29
636.291	40012.49
636.645	40037.13
636.999	39965.49
637.352	40128.65
637.706	39946.73
638.06	40181.75
638.413	40091.14
638.767	40003.68
639.121	40115.32
639.474	39799.39
639.828	39896.11
640.181	39942.89
640.534	40037.13
640.888	39996
641.241	39723.46
641.594	39823.8
641.947	40043.9
642.301	39927.75
642.654	39933.85
643.007	39877.58
643.36	39838.71
643.713	39777.47
644.066	39939.95
644.419	39626.06
644.771	39626.29
645.124	39118.73
645.477	39235.79
645.83	39001.9
646.182	38820.89
646.535	38625.18
646.888	38831.28
647.24	38542.25
647.593	38926.19
647.945	38768.68
648.298	38659.99
648.65	38681.23
649.002	38519.65
649.355	38683.04
649.707	38602.13
650.059	38780.21
650.411	39190.82
650.763	39362.34
651.115	39637.14
651.467	39562.11
651.819	39613.63
652.171	39466.52
652.523	39380.19
652.875	39349.23
653.227	39280.76
653.578	39611.15
653.93	39442.34
654.282	39329.35
654.633	39196.7
654.985	39390.59
655.337	39370.02
655.688	39323.25
656.039	39420.42
656.391	39089.81
656.742	39120.99
657.094	39215.9
657.445	39282.34
657.796	39176.36
658.147	39245.51
658.498	39040.54
658.849	39338.84
659.2	39209.8
659.551	39121.9
659.902	39236.92
660.253	39313.75
660.604	39223.59
660.955	38981.79
661.306	39106.53
661.656	39055.46
662.007	39074.21
662.358	39122.8
662.708	39225.62
663.059	39070.37
663.409	38776.14
663.76	39146.75
664.11	39072.18
664.461	39118.05
664.811	39009.13
665.161	39059.07
665.511	39039.41
665.862	39025.4
666.212	39182.46
666.562	39123.48
666.912	38944.72
667.262	38942.46
667.612	39020.88
667.962	39057.72
668.312	39012.07
668.662	39051.61
669.011	38941.33
669.361	38923.93
669.711	38887.1
670.06	38827.67
670.41	38841.45
670.76	38793.99
671.109	39043.25
671.459	38864.5
671.808	38927.55
672.157	38893.43
672.507	38749.25
672.856	38759.87
673.205	38897.72
673.554	38988.57
673.904	38753.09
674.253	38965.06
674.602	38765.52
674.951	38287.11
675.3	37963.51
675.649	38649.59
675.998	38508.58
676.346	38659.53
676.695	38725.75
677.044	38502.7
677.393	38603.04
677.741	38770.04
678.09	38495.7
678.438	38490.05
678.787	38484.17
679.135	38598.97
679.484	38365.98
679.832	38445.08
680.181	38198.98
680.529	38417.73
680.877	38271.52
681.225	38119.66
681.573	38365.76
681.922	38064.75
682.27	38140.9
682.618	38071.53
682.966	37919.21
683.314	37959.21
683.661	37940.91
684.009	37609.17
684.357	37639.22
684.705	37626.34
685.053	37647.13
685.4	37638.09
685.748	37398.32
686.095	37512.9
686.443	37263.19
686.79	37194.04
687.138	37334.15
687.485	37418.21
687.832	37206.47
688.18	37290.76
688.527	37083.08
688.874	36993.82
689.221	37029.75
689.568	36917.89
689.915	36759.47
690.262	36882.41
690.609	36638.34
690.956	36580.49
691.303	36565.13
691.65	36437.67
691.997	36424.11
692.344	36152.48
692.69	36150.22
693.037	36206.49
693.383	35910
693.73	35943.67
694.077	35756.33
694.423	35761.53
694.769	35793.85
695.116	35522.89
695.462	35575.1
695.808	35457.36
696.155	35452.61
696.501	35296.23
696.847	35154.32
697.193	35022.79
697.539	35209
697.885	34829.13
698.231	34813.99
698.577	34730.15
698.923	34774.44
699.269	34496.48
699.614	34372.64
699.96	34423.71
700.306	34313.43
700.651	34162.7
700.997	34189.82
701.342	34109.6
701.688	34058.07
702.033	33989.15
702.379	33962.03
702.724	33825.54
703.069	33913.22
703.415	33468.48
703.76	33477.07
704.105	33636.39
704.45	33504.19
704.795	33401.37
705.14	33109.85
705.485	33172.9
705.83	32920.02
706.175	33116.4
706.52	33027.14
706.865	32809.97
707.209	32899.69
707.554	32666.92
707.899	32802.06
708.243	32596.64
708.588	32536.08
708.932	32339.25
709.277	32412.24
709.621	32349.64
709.966	32188.07
710.31	32145.13
710.654	31937.45
710.998	32024.23
711.342	32111.91
711.687	31928.19
712.031	31733.16
712.375	31694.52
712.719	31761.64
713.063	31698.81
713.407	31595.31
713.75	31608.19
714.094	31573.84
714.438	31536.33
714.782	31587.86
715.125	31175.44
715.469	31358.26
715.812	31166.17
716.156	30933.41
716.499	31098.15
716.843	30992.84
717.186	30874.65
717.53	30956.91
717.873	31001.43
718.216	30821.55
718.559	30767.09
718.902	30470.15
719.246	30649.12
719.589	30558.05
719.932	30324.61
720.275	30397.38
720.617	30353.31
720.96	30269.02
721.303	30322.35
721.646	30359.87
721.989	30129.36
722.331	30163.49
722.674	30085.07
723.016	30094.79
723.359	30063.15
723.701	29956.26
724.044	29845.08
724.386	29641.69
724.729	29917.17
725.071	29802.14
725.413	29704.74
725.755	29897.05
726.097	29631.07
726.439	29436.5
726.782	29453.22
727.124	29593.33
727.465	29455.71
727.807	29397.4
728.149	29324.64
728.491	29291.19
728.833	29302.49
729.175	29213.23
729.516	29161.03
729.858	29147.24
730.199	29079.22
730.541	29035.61
730.882	28970.75
731.224	29159.22
731.565	28745.9
731.906	28903.18
732.248	28906.34
732.589	28763.75
732.93	28599.91
733.271	28530.76
733.612	28718.78
733.953	28676.75
734.294	28443.76
734.635	28412.8
734.976	28549.74
735.317	28346.36
735.658	28443.53
735.999	28441.5
736.339	28309.98
736.68	28445.79
737.021	28278.79
737.361	28252.8
737.702	28261.39
738.042	28159.25
738.383	28114.95
738.723	28182.07
739.063	27967.39
739.404	28037.21
739.744	28030.44
740.084	28033.15
740.424	27979.59
740.764	27895.07
741.104	27925.58
741.444	27734.62
741.784	27545.48
742.124	27712.93
742.464	27709.31
742.804	27532.82
743.143	27533.05
743.483	27629.99
743.823	27483.56
744.162	27381.19
744.502	27491.01
744.841	27293.28
745.181	27382.99
745.52	27218.25
745.86	27208.99
746.199	27171.7
746.538	27328.98
746.877	27272.72
747.216	27137.8
747.556	26952.5
747.895	27051.93
748.234	26848.55
748.573	26902.56
748.911	26899.84
749.25	26772.16
749.589	26631.15
749.928	26790.47
750.267	26793.18
750.605	26730.81
750.944	26719.74
751.283	26591.15
751.621	26583.47
751.96	26403.81
752.298	26324.49
752.636	26361.55
752.975	26298.5
753.313	26132.18
753.651	26300.31
753.989	26104.38
754.327	26155.91
754.666	25999.08
755.004	26037.49
755.342	25986.2
755.679	25925.86
756.017	25817.16
756.355	25909.81
756.693	25707.56
757.031	25748.91
757.368	25613.1
757.706	25572.65
758.044	25588.92
758.381	25442.03
758.719	25373.56
759.056	25295.82
759.394	25208.14
759.731	25143.51
