Data from hue_120_FLMS001491_00060.txt Node
Date: Tue Feb 07 16:59:41 GMT 2017
User: dcchb
Spectrometer: FLMS00149
Trigger mode: 0
Integration Time (sec): 2.000000E-2
Scans to average: 10
Electric dark correction enabled: true
Nonlinearity correction enabled: false
Boxcar width: 0
XAxis mode: Wavelengths
Number of Pixels in Spectrum: 2048
>>>>>Begin Spectral Data<<<<<
341.393	17.49
341.776	17.49
342.16	17.49
342.543	-59.57
342.927	-52.57
343.31	-77.88
343.693	-76.52
344.077	-84.21
344.46	-50.99
344.843	-43.08
345.226	-48.73
345.61	-27.94
345.993	-17.09
346.376	-3.98
346.759	14.55
347.142	36.92
347.525	55.9
347.908	64.04
348.291	66.3
348.674	74.89
349.057	117.82
349.44	136.13
349.823	132.96
350.206	172.06
350.588	190.59
350.971	227.2
351.354	217.71
351.737	238.27
352.119	241.66
352.502	250.47
352.884	266.07
353.267	280.3
353.65	283.24
354.032	310.59
354.414	323.47
354.797	310.13
355.179	325.05
355.562	327.53
355.944	348.32
356.326	330.7
356.709	340.41
357.091	338.15
357.473	319.17
357.855	326.18
358.238	342.9
358.62	339.06
359.002	338.83
359.384	343.8
359.766	339.51
360.148	333.41
360.53	347.65
360.912	342.45
361.294	342
361.676	325.73
362.057	311.26
362.439	334.31
362.821	322.11
363.203	330.7
363.584	307.42
363.966	341.32
364.348	332.05
364.729	334.77
365.111	315.33
365.493	307.65
365.874	322.56
366.256	311.71
366.637	310.81
367.019	320.53
367.4	302.9
367.781	331.38
368.163	320.98
368.544	319.17
368.925	311.71
369.306	327.53
369.688	311.94
370.069	306.74
370.45	323.69
370.831	312.39
371.212	303.81
371.593	325.5
371.974	306.29
372.355	326.63
372.736	312.84
373.117	323.47
373.498	320.3
373.879	330.02
374.26	325.95
374.641	327.31
375.021	325.5
375.402	322.11
375.783	316.23
376.163	336.12
376.544	329.12
376.925	334.99
377.305	322.11
377.686	327.08
378.066	326.4
378.447	338.61
378.827	341.09
379.208	333.64
379.588	349.23
379.968	314.2
380.349	339.28
380.729	353.3
381.109	341.77
381.489	335.44
381.87	333.64
382.25	348.55
382.63	354.2
383.01	354.65
383.39	347.65
383.77	336.57
384.15	343.35
384.53	342.9
384.91	353.3
385.29	323.92
385.67	346.74
386.049	329.79
386.429	339.96
386.809	351.94
387.189	364.82
387.568	343.58
387.948	363.24
388.328	363.24
388.707	359.62
389.087	367.98
389.466	372.96
389.846	374.54
390.225	372.28
390.605	362.56
390.984	370.47
391.363	370.92
391.743	370.7
392.122	375.67
392.501	386.06
392.881	361.43
393.26	382.9
393.639	363.01
394.018	389.45
394.397	372.96
394.776	390.36
395.155	403.92
395.534	400.75
395.913	391.03
396.292	386.52
396.671	393.52
397.05	402.56
397.429	384.48
397.808	376.35
398.186	395.55
398.565	394.42
398.944	405.95
399.323	394.2
399.701	406.4
400.08	405.05
400.458	405.27
400.837	381.32
401.215	387.19
401.594	424.93
401.972	407.76
402.351	398.72
402.729	403.69
403.107	419.28
403.486	424.48
403.864	428.77
404.242	424.25
404.62	412.5
404.999	450.69
405.377	432.84
405.755	405.72
406.133	424.93
406.511	423.35
406.889	450.24
407.267	426.97
407.645	446.63
408.023	433.75
408.401	456.57
408.779	436.46
409.156	465.84
409.534	445.04
409.912	459.96
410.29	452.28
410.667	428.32
411.045	440.3
411.422	454.54
411.8	480.52
412.178	478.04
412.555	453.86
412.933	477.13
413.31	460.41
413.687	469.68
414.065	477.36
414.442	493.18
414.819	500.41
415.197	505.16
415.574	523.23
415.951	493.86
416.328	498.38
416.705	504.7
417.082	487.53
417.46	510.35
417.837	506.96
418.214	512.16
418.591	504.48
418.967	528.88
419.344	516.91
419.721	531.6
420.098	506.96
420.475	544.03
420.852	520.52
421.228	520.98
421.605	563.23
421.982	546.06
422.358	551.71
422.735	559.84
423.111	563.69
423.488	577.02
423.864	576.57
424.241	570.24
424.617	574.53
424.994	585.38
425.37	569.11
425.746	583.35
426.123	579.5
426.499	589.67
426.875	573.18
427.251	601.42
427.627	586.06
428.003	612.95
428.379	599.62
428.756	597.13
429.132	613.63
429.507	621.99
429.883	622.67
430.259	634.87
430.635	630.58
431.011	644.36
431.387	643.23
431.763	667.19
432.138	650.01
432.514	655.66
432.89	656.56
433.265	688.65
433.641	692.27
434.016	667.86
434.392	688.88
434.767	708.54
435.143	701.31
435.518	698.15
435.894	709.67
436.269	709.22
436.644	724.13
437.02	719.39
437.395	724.81
437.77	742.44
438.145	736.56
438.52	729.56
438.895	754.42
439.271	764.81
439.646	763.68
440.021	775.21
440.395	762.78
440.77	765.49
441.145	769.1
441.52	770.46
441.895	797.35
442.27	812.27
442.645	817.92
443.019	832.15
443.394	810.91
443.769	809.78
444.143	842.77
444.518	826.96
444.892	817.92
445.267	820.63
445.641	826.96
446.016	854.53
446.39	845.71
446.764	850.01
447.139	844.13
447.513	852.27
447.887	869.89
448.262	853.4
448.636	859.05
449.01	848.42
449.384	883
449.758	904.47
450.132	911.02
450.506	905.15
450.88	901.76
451.254	883.68
451.628	910.34
452.002	963.68
452.376	921.87
452.75	950.79
453.123	955.09
453.497	949.66
453.871	985.37
454.244	1000.74
454.618	996.89
454.992	991.7
455.365	1007.06
455.739	1009.1
456.112	1013.84
456.486	1025.37
456.859	1059.94
457.232	1056.55
457.606	1075.08
457.979	1049.77
458.352	1080.06
458.725	1102.43
459.099	1097.46
459.472	1128.87
459.845	1155.08
460.218	1159.83
460.591	1173.16
460.964	1190.79
461.337	1202.31
461.71	1192.6
462.083	1239.15
462.456	1213.61
462.829	1232.37
463.201	1266.49
463.574	1280.96
463.947	1298.13
464.32	1296.32
464.692	1313.27
465.065	1342.2
465.438	1377.9
465.81	1372.25
466.183	1387.84
466.555	1431.91
466.928	1444.79
467.3	1450.22
467.672	1445.47
468.045	1504
468.417	1544.9
468.789	1519.14
469.161	1568.41
469.534	1563.43
469.906	1617.22
470.278	1640.27
470.65	1642.53
471.022	1694.96
471.394	1739.93
471.766	1751.45
472.138	1786.93
472.51	1813.82
472.882	1842.07
473.253	1879.13
473.625	1919.36
473.997	1979.47
474.369	2017.66
474.74	2038.68
475.112	2098.79
475.484	2096.3
475.855	2187.6
476.227	2207.03
476.598	2314.83
476.97	2330.87
477.341	2374.49
477.713	2448.83
478.084	2488.61
478.455	2593.91
478.827	2647.25
479.198	2748.49
479.569	2778.54
479.94	2865.55
480.311	2901.48
480.682	3028.48
481.053	3142.83
481.424	3166.1
481.795	3227.34
482.166	3334.23
482.537	3428.47
482.908	3543.04
483.279	3611.29
483.65	3703.49
484.021	3817.61
484.391	3891.73
484.762	3995.69
485.133	4041.11
485.503	4148.9
485.874	4331.04
486.244	4378.73
486.615	4518.61
486.985	4649
487.356	4753.41
487.726	4923.57
488.097	4977.13
488.467	5072.27
488.837	5244.24
489.207	5405.37
489.578	5460.51
489.948	5633.38
490.318	5761.97
490.688	5837.9
491.058	6013.71
491.428	6100.26
491.798	6255.06
492.168	6430.88
492.538	6474.72
492.908	6619.8
493.278	6753.58
493.648	6848.72
494.017	7022.72
494.387	7122.61
494.757	7227.92
495.126	7391.3
495.496	7458.87
495.866	7588.13
496.235	7720.11
496.605	7894.34
496.974	7967.56
497.344	8122.13
497.713	8257.95
498.082	8291.84
498.452	8464.49
498.821	8547.2
499.19	8604.83
499.559	8773.41
499.928	8794.43
500.298	8950.81
500.667	9055.89
501.036	9123.46
501.405	9266.73
501.774	9259.28
502.143	9429.67
502.512	9459.95
502.88	9643.67
503.249	9668.31
503.618	9787.4
503.987	9822.2
504.356	9861.29
504.724	9980.61
505.093	10169.99
505.462	10120.72
505.83	10248.63
506.199	10301.06
506.567	10426.7
506.936	10495.18
507.304	10543.76
507.672	10646.36
508.041	10736.98
508.409	10774.72
508.777	10892.91
509.145	10895.62
509.514	10961.6
509.882	10971.1
510.25	11110.98
510.618	11133.58
510.986	11147.14
511.354	11294.7
511.722	11385.77
512.09	11448.37
512.458	11390.52
512.826	11564.75
513.193	11539.89
513.561	11531.53
513.929	11661.7
514.297	11713.68
514.664	11764.3
515.032	11863.95
515.4	11860.56
515.767	11867.34
516.135	11952.76
516.502	11887.68
516.869	12014.46
517.237	12030.95
517.604	12041.12
517.972	12129.48
518.339	12176.71
518.706	12178.97
519.073	12242.25
519.44	12200.22
519.808	12319.31
520.175	12300.1
520.542	12462.13
520.909	12384.39
521.276	12386.88
521.643	12436.37
522.009	12541
522.376	12613.76
522.743	12551.17
523.11	12649.47
523.477	12733.76
523.843	12747.77
524.21	12867.32
524.577	12836.81
524.943	12849.69
525.31	12899.18
525.676	12892.63
526.043	12983.92
526.409	12980.31
526.776	13117.03
527.142	13011.95
527.508	13035.67
527.874	13049.46
528.241	13022.12
528.607	13161.09
528.973	13173.52
529.339	13040.19
529.705	13187.53
530.071	13171.94
530.437	13245.39
530.803	13170.36
531.169	13136.46
531.535	13157.48
531.901	13159.51
532.267	13145.5
532.632	13163.13
532.998	13223.47
533.364	13136.24
533.73	13154.32
534.095	13232.28
534.461	13139.85
534.826	13120.87
535.192	13155.45
535.557	13248.78
535.923	13124.49
536.288	13096.01
536.653	13095.11
537.019	13040.42
537.384	12967.88
537.749	13004.26
538.114	13002
538.479	12974.21
538.845	12951.16
539.21	12854.21
539.575	12826.19
539.94	12808.79
540.305	12889.24
540.67	12823.93
541.034	12748
541.399	12781.44
541.764	12752.52
542.129	12713.2
542.494	12708.45
542.858	12684.05
543.223	12655.57
543.587	12670.49
543.952	12586.42
544.316	12537.83
544.681	12523.6
545.045	12537.16
545.41	12506.2
545.774	12496.48
546.138	12452.19
546.503	12403.37
546.867	12333.55
547.231	12371.28
547.595	12301.91
547.959	12339.2
548.324	12334
548.688	12234.79
549.052	12143.27
549.416	12262.59
549.779	12144.85
550.143	12115.92
550.507	12151.86
550.871	12159.99
551.235	12079.09
551.599	12070.28
551.962	12073.89
552.326	12018.98
552.689	11969.49
553.053	11947.34
553.417	11918.42
553.78	11902.6
554.143	11897.63
554.507	11937.17
554.87	11948.47
555.234	12003.84
555.597	11845.42
555.96	11892.88
556.323	11901.47
556.686	11825.08
557.05	11817.4
557.413	11891.3
557.776	11787.35
558.139	11888.36
558.502	11796.38
558.865	11826.89
559.228	11771.75
559.59	11826.44
559.953	11799.77
560.316	11921.58
560.679	11828.02
561.041	11840.23
561.404	11842.71
561.767	11870.06
562.129	11785.54
562.492	11844.52
562.854	11808.81
563.217	11820.79
563.579	11835.71
563.941	11849.72
564.304	11824.63
564.666	11943.27
565.028	11898.53
565.39	11880.22
565.753	11970.62
566.115	11931.07
566.477	11932.43
566.839	11948.92
567.201	12007
567.563	11948.02
567.925	12087
568.287	12023.05
568.648	11971.52
569.01	12075.02
569.372	12089.03
569.734	11975.82
570.095	12112.31
570.457	12033.67
570.819	12131.52
571.18	12091.07
571.542	12078.19
571.903	12172.19
572.265	12117.51
572.626	12139.43
572.987	12198.18
573.349	12297.61
573.71	12218.29
574.071	12181.01
574.432	12246.32
574.794	12262.36
575.155	12279.54
575.516	12189.37
575.877	12287.9
576.238	12239.99
576.599	12224.85
576.96	12231.85
577.32	12298.97
577.681	12247.67
578.042	12262.59
578.403	12391.4
578.763	12227.79
579.124	12372.64
579.485	12232.76
579.845	12342.36
580.206	12368.35
580.566	12286.09
580.927	12247.22
581.287	12342.59
581.648	12243.15
582.008	12274.11
582.368	12216.03
582.728	12327.22
583.089	12345.97
583.449	12304.39
583.809	12247.67
584.169	12305.07
584.529	12249.93
584.889	12389.36
585.249	12248.12
585.609	12236.37
585.969	12248.35
586.329	12244.51
586.688	12283.15
587.048	12192.98
587.408	12306.65
587.768	12273.89
588.127	12169.03
588.487	12175.13
588.846	12337.61
589.206	12181.01
589.565	12089.26
589.925	12211.97
590.284	12129.48
590.643	12226.66
591.003	12150.27
591.362	12226.43
591.721	12097.85
592.08	12159.54
592.44	12109.37
592.799	12132.42
593.158	12111.4
593.517	12067.56
593.876	12126.77
594.235	12077.06
594.593	12055.14
594.952	12090.84
595.311	12097.17
595.67	12103.95
596.029	12181.91
596.387	12084.74
596.746	12167
597.104	12045.19
597.463	12018.75
597.822	12054.01
598.18	12033.67
598.538	12033.21
598.897	12090.39
599.255	11951.18
599.613	12156.6
599.972	11988.24
600.33	11990.28
600.688	12030.28
601.046	12008.58
601.404	12084.51
601.762	12026.66
602.12	12135.81
602.478	12078.64
602.836	12088.58
603.194	11965.65
603.552	12044.51
603.91	11947.57
604.268	12011.29
604.625	12037.51
604.983	11967
605.341	11960.9
605.698	12021.01
606.056	12047.9
606.413	12043.16
606.771	12110.73
607.128	12098.98
607.485	12054.91
607.843	12053.55
608.2	12008.58
608.557	12152.31
608.914	12132.2
609.272	12165.41
609.629	12130.84
609.986	12175.36
610.343	12135.36
610.7	12138.52
611.057	12169.48
611.414	12173.1
611.771	12154.34
612.127	12206.32
612.484	12208.35
612.841	12228.92
613.198	12173.55
613.554	12254.9
613.911	12243.38
614.267	12258.29
614.624	12305.98
614.98	12301.23
615.337	12307.11
615.693	12303.72
616.05	12326.99
616.406	12351.62
616.762	12327.44
617.118	12357.73
617.475	12352.98
617.831	12344.39
618.187	12299.65
618.543	12339.65
618.899	12389.36
619.255	12374.67
619.611	12366.77
619.967	12468.68
620.323	12411.96
620.678	12390.72
621.034	12333.09
621.39	12375.35
621.746	12392.08
622.101	12512.98
622.457	12369.03
622.812	12431.4
623.168	12341
623.523	12460.77
623.879	12475.69
624.234	12372.87
624.589	12474.11
624.945	12467.55
625.3	12454.45
625.655	12488.12
626.01	12493.09
626.365	12421.23
626.72	12356.6
627.075	12461.68
627.43	12382.58
627.785	12355.69
628.14	12411.28
628.495	12438.18
628.85	12339.2
629.205	12342.36
629.559	12479.3
629.914	12336.48
630.269	12341
630.623	12340.55
630.978	12333.09
631.332	12372.19
631.687	12269.59
632.041	12243.6
632.396	12292.87
632.75	12255.58
633.104	12254
633.459	12206.77
633.813	12142.36
634.167	12123.38
634.521	12185.53
634.875	12197.5
635.229	12235.92
635.583	12104.17
635.937	12134.23
636.291	12123.61
636.645	12148.24
636.999	11968.36
637.352	12119.54
637.706	12062.14
638.06	12087.45
638.413	12034.57
638.767	12055.14
639.121	12051.29
639.474	11948.25
639.828	12015.14
640.181	11936.27
640.534	11902.14
640.888	11877.29
641.241	11834.58
641.594	11891.07
641.947	11942.82
642.301	11916.61
642.654	11881.35
643.007	11853.33
643.36	11900.79
643.713	11847.91
644.066	11850.39
644.419	11854.91
644.771	11783.28
645.124	11614.69
645.477	11644.75
645.83	11468.94
646.182	11493.12
646.535	11465.32
646.888	11506.67
647.24	11492.21
647.593	11476.62
647.945	11513.23
648.298	11385.55
648.65	11417.19
649.002	11454.7
649.355	11435.04
649.707	11424.42
650.059	11515.49
650.411	11642.49
650.763	11689.27
651.115	11769.27
651.467	11738.99
651.819	11766.78
652.171	11698.08
652.523	11734.01
652.875	11605.88
653.227	11684.75
653.578	11678.65
653.93	11668.03
654.282	11616.05
654.633	11556.62
654.985	11640.46
655.337	11673.45
655.688	11728.82
656.039	11712.77
656.391	11609.95
656.742	11702.15
657.094	11708.93
657.445	11766.56
657.796	11699.89
658.147	11683.39
658.498	11654.47
658.849	11694.92
659.2	11643.39
659.551	11653.79
659.902	11678.65
660.253	11698.76
660.604	11800.9
660.955	11741.47
661.306	11773.11
661.656	11811.98
662.007	11762.49
662.358	11777.85
662.708	11843.84
663.059	11705.09
663.409	11667.57
663.76	11747.12
664.11	11824.18
664.461	11714.58
664.811	11765.43
665.161	11750.51
665.511	11760.68
665.862	11790.28
666.212	11780.11
666.562	11851.98
666.912	11727.46
667.262	11751.87
667.612	11781.92
667.962	11701.7
668.312	11808.81
668.662	11804.52
669.011	11768.59
669.361	11786.22
669.711	11684.07
670.06	11730.17
670.41	11708.03
670.76	11644.07
671.109	11744.41
671.459	11677.97
671.808	11635.26
672.157	11733.56
672.507	11665.99
672.856	11630.06
673.205	11613.79
673.554	11628.71
673.904	11670.06
674.253	11726.78
674.602	11660.8
674.951	11464.87
675.3	11474.13
675.649	11683.85
675.998	11566.33
676.346	11529.73
676.695	11607.01
677.044	11499.44
677.393	11625.77
677.741	11574.92
678.09	11530.63
678.438	11445.89
678.787	11516.39
679.135	11537.18
679.484	11373.12
679.832	11467.81
680.181	11350.52
680.529	11432.33
680.877	11422.16
681.225	11284.99
681.573	11418.77
681.922	11284.76
682.27	11297.41
682.618	11326.79
682.966	11204.76
683.314	11206.12
683.661	11218.09
684.009	11119.79
684.357	11142.84
684.705	11102.17
685.053	11162.5
685.4	11074.6
685.748	11032.11
686.095	11036.63
686.443	10990.76
686.79	10978.1
687.138	11047.03
687.485	11002.51
687.832	10951.21
688.18	11006.35
688.527	10887.03
688.874	10848.61
689.221	10887.48
689.568	10826.47
689.915	10734.04
690.262	10772
690.609	10702.63
690.956	10690.43
691.303	10719.12
691.65	10605
691.997	10517.77
692.344	10575.85
692.69	10523.88
693.037	10549.86
693.383	10412.47
693.73	10496.76
694.077	10441.17
694.423	10386.48
694.769	10329.3
695.116	10341.51
695.462	10307.38
695.808	10209.08
696.155	10288.4
696.501	10186.03
696.847	10206.82
697.193	10132.25
697.539	10086.37
697.885	10031.69
698.231	10027.84
698.577	9999.14
698.923	10017.45
699.269	9983.1
699.614	9892.25
699.96	9786.95
700.306	9874.85
700.651	9793.27
700.997	9758.25
701.342	9689.77
701.688	9715.31
702.033	9650.23
702.379	9652.49
702.724	9630.34
703.069	9666.72
703.415	9428.99
703.76	9469.44
704.105	9490.68
704.45	9449.33
704.795	9342.89
705.14	9351.03
705.485	9347.86
705.83	9356.22
706.175	9286.17
706.52	9325.72
706.865	9231.93
707.209	9283.23
707.554	9146.06
707.899	9136.34
708.243	9181.31
708.588	9116.46
708.932	9076.68
709.277	9061.32
709.621	9128.88
709.966	9020.19
710.31	9041.65
710.654	8865.16
710.998	8916.23
711.342	8941.77
711.687	8948.32
712.031	8853.64
712.375	8852.73
712.719	8878.95
713.063	8833.98
713.407	8800.53
713.75	8773.41
714.094	8766.41
714.438	8798.5
714.782	8744.49
715.125	8697.48
715.469	8691.61
715.812	8736.8
716.156	8627.88
716.499	8640.76
716.843	8649.12
717.186	8597.15
717.53	8610.48
717.873	8653.64
718.216	8603.47
718.559	8538.62
718.902	8530.48
719.246	8548.56
719.589	8554.21
719.932	8457.26
720.275	8486.42
720.617	8486.87
720.96	8462.01
721.303	8485.96
721.646	8465.17
721.989	8494.55
722.331	8477.15
722.674	8422.24
723.016	8419.52
723.359	8441.9
723.701	8416.13
724.044	8327.32
724.386	8319.41
724.729	8437.83
725.071	8326.19
725.413	8376.36
725.755	8324.84
726.097	8309.02
726.439	8300.66
726.782	8270.83
727.124	8343.14
727.465	8250.26
727.807	8233.31
728.149	8263.37
728.491	8318.28
728.833	8266.99
729.175	8261.56
729.516	8263.37
729.858	8267.21
730.199	8248.91
730.541	8315.35
730.882	8223.6
731.224	8248.68
731.565	8184.28
731.906	8251.62
732.248	8233.99
732.589	8173.66
732.93	8229.92
733.271	8222.69
733.612	8224.95
733.953	8219.3
734.294	8203.48
734.635	8256.36
734.976	8241
735.317	8193.77
735.658	8175.91
735.999	8248.68
736.339	8229.7
736.68	8257.95
737.021	8177.27
737.361	8204.39
737.702	8250.26
738.042	8168.01
738.383	8260.88
738.723	8231.96
739.063	8261.56
739.404	8327.1
739.744	8307.44
740.084	8270.38
740.424	8309.02
740.764	8373.65
741.104	8350.83
741.444	8313.31
741.784	8306.08
742.124	8405.06
742.464	8355.57
742.804	8407.32
743.143	8328.45
743.483	8408.9
743.823	8429.47
744.162	8411.39
744.502	8535
744.841	8464.49
745.181	8593.31
745.52	8505.4
745.86	8614.55
746.199	8650.03
746.538	8572.06
746.877	8729.12
747.216	8720.76
747.556	8736.8
747.895	8768.22
748.234	8790.59
748.573	8884.37
748.911	8911.26
749.25	9018.38
749.589	9030.81
749.928	9106.06
750.267	9176.79
750.605	9214.53
750.944	9313.29
751.283	9308.31
751.621	9430.12
751.96	9462.89
752.298	9632.6
752.636	9737.91
752.975	9783.1
753.313	9813.61
753.651	10054.28
753.989	10040.27
754.327	10148.29
754.666	10310.1
755.004	10399.59
755.342	10557.32
755.679	10595.29
756.017	10735.85
756.355	10840.25
756.693	10975.62
757.031	11220.58
757.368	11258.09
757.706	11408.82
758.044	11529.5
758.381	11683.17
758.719	11823.05
759.056	12044.51
759.394	12121.8
759.731	12162.7
760.068	12397.5
