Data from hue_150_FLMS001491_00037.txt Node
Date: Tue Feb 07 16:53:58 GMT 2017
User: dcchb
Spectrometer: FLMS00149
Trigger mode: 0
Integration Time (sec): 2.000000E-2
Scans to average: 10
Electric dark correction enabled: true
Nonlinearity correction enabled: false
Boxcar width: 0
XAxis mode: Wavelengths
Number of Pixels in Spectrum: 2048
>>>>>Begin Spectral Data<<<<<
341.393	-2.37
341.776	-2.37
342.16	-2.37
342.543	-75.82
342.927	-59.77
343.31	-71.75
343.693	-86.21
344.077	-58.87
344.46	-70.39
344.843	-65.2
345.226	-26.55
345.61	-20.9
345.993	-24.07
346.376	6.44
346.759	17.29
347.142	19.32
347.525	35.59
347.908	49.15
348.291	85.99
348.674	93.67
349.057	116.49
349.44	134.57
349.823	145.42
350.206	198.07
350.588	187.68
350.971	201.01
351.354	225.42
351.737	243.27
352.119	239.2
352.502	252.31
352.884	274
353.267	290.05
353.65	292.31
354.032	289.14
354.414	318.75
354.797	299.31
355.179	310.84
355.562	335.92
355.944	330.27
356.326	320.33
356.709	339.77
357.091	326.66
357.473	354.45
357.855	344.28
358.238	350.16
358.62	322.14
359.002	331.18
359.384	315.58
359.766	316.26
360.148	344.06
360.53	332.08
360.912	326.21
361.294	340.89
361.676	330.27
362.057	312.2
362.439	328.01
362.821	301.35
363.203	334.79
363.584	344.06
363.966	305.19
364.348	299.99
364.729	314.23
365.111	322.59
365.493	317.39
365.874	311.74
366.256	322.36
366.637	286.21
367.019	310.39
367.4	318.75
367.781	330.27
368.163	316.94
368.544	301.35
368.925	304.96
369.306	310.16
369.688	318.3
370.069	309.26
370.45	302.48
370.831	334.79
371.212	300.67
371.593	315.58
371.974	301.8
372.355	322.59
372.736	320.1
373.117	330.05
373.498	306.77
373.879	306.77
374.26	308.13
374.641	330.27
375.021	316.94
375.402	329.14
375.783	325.08
376.163	321.69
376.544	323.49
376.925	326.66
377.305	335.92
377.686	327.79
378.066	316.71
378.447	355.13
378.827	329.6
379.208	337.51
379.588	326.43
379.968	314.23
380.349	340.44
380.729	317.62
381.109	344.51
381.489	344.28
381.87	333.21
382.25	318.97
382.63	327.56
383.01	332.31
383.39	351.52
383.77	337.51
384.15	332.99
384.53	351.97
384.91	364.17
385.29	332.53
385.67	356.04
386.049	361.91
386.429	348.58
386.809	368.69
387.189	363.95
387.568	366.21
387.948	336.6
388.328	357.62
388.707	374.57
389.087	366.88
389.466	347.22
389.846	351.52
390.225	363.72
390.605	358.3
390.984	351.29
391.363	376.15
391.743	374.34
392.122	371.18
392.501	382.25
392.881	374.79
393.26	380.22
393.639	368.01
394.018	384.74
394.397	370.72
394.776	380.44
395.155	369.82
395.534	390.39
395.913	384.74
396.292	374.79
396.671	398.29
397.05	386.77
397.429	394.68
397.808	383.38
398.186	397.84
398.565	409.59
398.944	404.4
399.323	400.33
399.701	395.81
400.08	394.9
400.458	396.49
400.837	418.41
401.215	406.43
401.594	416.83
401.972	409.82
402.351	409.14
402.729	418.63
403.107	426.99
403.486	406.88
403.864	404.4
404.242	421.12
404.62	431.74
404.999	411.18
405.377	422.02
405.755	433.1
406.133	423.15
406.511	451.85
406.889	459.76
407.267	436.49
407.645	419.76
408.023	453.66
408.401	438.07
408.779	452.76
409.156	463.83
409.534	451.4
409.912	459.76
410.29	466.99
410.667	467.45
411.045	462.93
411.422	485.52
411.8	469.71
412.178	473.55
412.555	477.39
412.933	479.65
413.31	488.24
413.687	501.34
414.065	480.55
414.442	496.15
414.819	509.03
415.197	503.15
415.574	500.21
415.951	512.19
416.328	505.18
416.705	517.84
417.082	521.23
417.46	505.64
417.837	520.1
418.214	521.91
418.591	516.26
418.967	539.99
419.344	543.83
419.721	549.25
420.098	553.32
420.475	553.09
420.852	540.66
421.228	562.36
421.605	573.43
421.982	560.55
422.358	545.64
422.735	568.01
423.111	553.32
423.488	571.85
423.864	574.11
424.241	571.85
424.617	591.96
424.994	582.7
425.37	596.26
425.746	600.78
426.123	598.52
426.499	609.14
426.875	619.08
427.251	612.98
427.627	634.45
428.003	645.97
428.379	645.29
428.756	629.93
429.132	641.45
429.507	643.71
429.883	645.97
430.259	665.41
430.635	652.3
431.011	673.54
431.387	691.62
431.763	706.08
432.138	705.41
432.514	703.37
432.89	679.19
433.265	711.05
433.641	735.91
434.016	730.72
434.392	730.04
434.767	754.22
435.143	727.1
435.518	769.81
435.894	760.32
436.269	757.83
436.644	791.28
437.02	758.06
437.395	775.69
437.77	775.91
438.145	802.58
438.52	792.41
438.895	825.4
439.271	810.04
439.646	825.85
440.021	812.75
440.395	842.35
440.77	810.04
441.145	822.92
441.52	856.36
441.895	855.68
442.27	850.26
442.645	875.57
443.019	877.15
443.394	890.49
443.769	874.21
444.143	892.07
444.518	890.03
444.892	905.63
445.267	888.23
445.641	917.38
446.016	890.94
446.39	906.53
446.764	945.17
447.139	935.91
447.513	922.35
447.887	928.45
448.262	960.99
448.636	960.77
449.01	983.14
449.384	962.12
449.758	974.55
450.132	973.65
450.506	1006.41
450.88	995.12
451.254	999.63
451.628	995.79
452.002	995.34
452.376	1043.7
452.75	1059.07
453.123	1066.07
453.497	1075.56
453.871	1044.38
454.244	1083.25
454.618	1085.06
454.992	1115.79
455.365	1109.01
455.739	1116.92
456.112	1157.6
456.486	1173.19
456.859	1151.72
457.232	1175.68
457.606	1181.32
457.979	1228.78
458.352	1232.17
458.725	1221.78
459.099	1244.15
459.472	1294.77
459.845	1283.47
460.218	1307.88
460.591	1342.68
460.964	1319.85
461.337	1347.65
461.71	1375.67
462.083	1392.84
462.456	1393.97
462.829	1398.49
463.201	1422
463.574	1438.72
463.947	1464.71
464.32	1492.28
464.692	1517.36
465.065	1534.54
465.438	1552.61
465.81	1596.46
466.183	1596.23
466.555	1602.33
466.928	1659.5
467.3	1662.89
467.672	1698.37
468.045	1739.95
468.417	1713.06
468.789	1761.87
469.161	1760.29
469.534	1800.29
469.906	1833.29
470.278	1876.9
470.65	1885.94
471.022	1923.9
471.394	2006.61
471.766	2032.15
472.138	2044.13
472.51	2113.28
472.882	2133.39
473.253	2149.44
473.625	2217.23
473.997	2262.65
474.369	2330.67
474.74	2342.2
475.112	2420.16
475.484	2474.85
475.855	2527.73
476.227	2577.67
476.598	2650.89
476.97	2715.3
477.341	2762.53
477.713	2820.38
478.084	2897.66
478.455	2987.61
478.827	3047.49
479.198	3151.89
479.569	3204.55
479.94	3311.89
480.311	3399.8
480.682	3497.42
481.053	3620.36
481.424	3657.87
481.795	3736.51
482.166	3862.61
482.537	3962.95
482.908	4031.42
483.279	4181.02
483.65	4280.23
484.021	4402.94
484.391	4494.23
484.762	4551.63
485.133	4741.23
485.503	4793.21
485.874	4933.32
486.244	5007.21
486.615	5158.4
486.985	5338.05
487.356	5464.6
487.726	5550.25
488.097	5699.4
488.467	5798.15
488.837	5950.24
489.207	6051.25
489.578	6238.14
489.948	6365.6
490.318	6500.28
490.688	6547.74
491.058	6780.73
491.428	6886.03
491.798	7043.09
492.168	7196.76
492.538	7331.9
492.908	7439.24
493.278	7628.16
493.648	7737.08
494.017	7872.22
494.387	7946.34
494.757	8127.81
495.126	8233.34
495.496	8321.7
495.866	8483.05
496.235	8605.76
496.605	8688.25
496.974	8792.65
497.344	8923.95
497.713	9035.13
498.082	9165.07
498.452	9254.33
498.821	9415.01
499.19	9524.16
499.559	9657.03
499.928	9700.2
500.298	9793.53
500.667	9967.99
501.036	9965.73
501.405	10045.72
501.774	10169.11
502.143	10264.25
502.512	10389.9
502.88	10477.35
503.249	10483.91
503.618	10687.97
503.987	10760.06
504.356	10762.77
504.724	10854.97
505.093	10887.51
505.462	10981.97
505.83	11083.89
506.199	11218.8
506.567	11341.28
506.936	11340.15
507.304	11480.26
507.672	11545.12
508.041	11529.75
508.409	11656.3
508.777	11754.83
509.145	11856.75
509.514	11825.79
509.882	11916.64
510.25	11909.18
510.618	12092.68
510.986	12051.32
511.354	12246.57
511.722	12306
512.09	12400.01
512.458	12266.01
512.826	12450.63
513.193	12433.23
513.561	12555.26
513.929	12678.88
514.297	12641.59
514.664	12685.88
515.032	12724.3
515.4	12795.03
515.767	12851.3
516.135	12842.04
516.502	12797.74
516.869	12982.37
517.237	13064.85
517.604	12949.38
517.972	13101.69
518.339	13080.45
518.706	13147.11
519.073	13146.43
519.44	13163.83
519.808	13309.14
520.175	13272.76
520.542	13402.25
520.909	13418.07
521.276	13337.84
521.643	13456.48
522.009	13492.19
522.376	13536.03
522.743	13611.96
523.11	13707.55
523.477	13787.1
523.843	13691.5
524.21	13863.03
524.577	13869.58
524.943	13840.65
525.31	13885.85
525.676	13902.8
526.043	14078.84
526.409	13987.77
526.776	14035.22
527.142	14049.01
527.508	14112.06
527.874	14102.12
528.241	14178.95
528.607	14237.25
528.973	14154.32
529.339	14162.45
529.705	14181.89
530.071	14254.2
530.437	14283.35
530.803	14335.1
531.169	14318.15
531.535	14151.83
531.901	14152.96
532.267	14221.66
532.632	14229.12
532.998	14208.1
533.364	14226.86
533.73	14253.52
534.095	14232.51
534.461	14283.35
534.826	14200.87
535.192	14207.65
535.557	14289.91
535.923	14171.49
536.288	14173.53
536.653	14168.78
537.019	14196.58
537.384	14208.78
537.749	14154.54
538.114	14105.5
538.479	13996.36
538.845	14025.05
539.21	13974.21
539.575	14011.04
539.94	13959.07
540.305	14014.89
540.67	13880.43
541.034	13871.84
541.399	13853.08
541.764	13860.99
542.129	13861.9
542.494	13797.72
542.858	13829.58
543.223	13695.12
543.587	13722.01
543.952	13706.42
544.316	13693.09
544.681	13595.69
545.045	13602.69
545.41	13662.13
545.774	13491.96
546.138	13541.23
546.503	13573.54
546.867	13399.31
547.231	13543.94
547.595	13391.17
547.959	13418.97
548.324	13415.81
548.688	13381.91
549.052	13352.08
549.416	13319.54
549.779	13260.33
550.143	13156.83
550.507	13222.14
550.871	13156.6
551.235	13085.87
551.599	13159.32
551.962	13087.45
552.326	13140.78
552.689	13091.07
553.053	13033.67
553.417	13071.18
553.78	13181.01
554.143	12972.43
554.507	13015.36
554.87	13000.45
555.234	13067.34
555.597	12894.92
555.96	12951.41
556.323	12956.38
556.686	12880.9
557.05	13042.03
557.413	12884.75
557.776	12901.92
558.139	13000.45
558.502	12900.79
558.865	12946.89
559.228	12883.84
559.59	12915.48
559.953	12895.14
560.316	12928.81
560.679	12870.74
561.041	12916.38
561.404	12929.04
561.767	13042.48
562.129	12859.66
562.492	13002.03
562.854	12971.75
563.217	12872.99
563.579	12978.98
563.941	12934.69
564.304	12999.32
564.666	13033.89
565.028	12987.12
565.39	13041.8
565.753	13075.7
566.115	13071.86
566.477	13035.93
566.839	13139.88
567.201	13181.69
567.563	13005.19
567.925	13181.91
568.287	13202.7
568.648	13188.47
569.01	13086.77
569.372	13147.56
569.734	13136.04
570.095	13225.75
570.457	13247.45
570.819	13214
571.18	13260.1
571.542	13221.01
571.903	13238.63
572.265	13369.03
572.626	13289.03
572.987	13381.46
573.349	13314.11
573.71	13362.25
574.071	13429.59
574.432	13282.48
574.794	13494.9
575.155	13349.37
575.516	13419.42
575.877	13385.07
576.238	13435.01
576.599	13461.23
576.96	13391.17
577.32	13408.12
577.681	13450.61
578.042	13463.94
578.403	13449.7
578.763	13411.51
579.124	13541.45
579.485	13450.83
579.845	13464.39
580.206	13531.96
580.566	13470.27
580.927	13451.51
581.287	13468.91
581.648	13411.74
582.008	13490.15
582.368	13516.59
582.728	13426.43
583.089	13397.05
583.449	13552.75
583.809	13427.56
584.169	13511.85
584.529	13382.13
584.889	13537.16
585.249	13382.59
585.609	13374.9
585.969	13487.67
586.329	13368.8
586.688	13367.22
587.048	13363.15
587.408	13357.73
587.768	13434.34
588.127	13253.55
588.487	13316.37
588.846	13344.17
589.206	13248.35
589.565	13291.74
589.925	13288.58
590.284	13236.6
590.643	13313.89
591.003	13324.96
591.362	13333.1
591.721	13269.14
592.08	13302.36
592.44	13281.35
592.799	13319.31
593.158	13299.2
593.517	13223.27
593.876	13367.22
594.235	13215.36
594.593	13225.08
594.952	13293.55
595.311	13148.47
595.67	13293.1
596.029	13271.85
596.387	13184.17
596.746	13256.49
597.104	13179.65
597.463	13260.1
597.822	13232.76
598.18	13131.07
598.538	13218.75
598.897	13209.94
599.255	13169.26
599.613	13290.16
599.972	13197.96
600.33	13287.22
600.688	13187.56
601.046	13155.47
601.404	13297.62
601.762	13197.51
602.12	13275.47
602.478	13242.25
602.836	13130.62
603.194	13159.99
603.552	13225.3
603.91	13078.64
604.268	13146.89
604.625	13161.8
604.983	13190.27
605.341	13174
605.698	13261.01
606.056	13285.41
606.413	13141.69
606.771	13232.08
607.128	13185.53
607.485	13224.17
607.843	13206.77
608.2	13302.81
608.557	13361.57
608.914	13272.98
609.272	13352.08
609.629	13368.35
609.986	13432.3
610.343	13312.98
610.7	13430.27
611.057	13359.99
611.414	13328.35
611.771	13375.58
612.127	13403.6
612.484	13405.64
612.841	13455.58
613.198	13387.33
613.554	13463.94
613.911	13459.87
614.267	13468.91
614.624	13417.16
614.98	13454.67
615.337	13554.78
615.693	13468.23
616.05	13505.07
616.406	13626.42
616.762	13476.14
617.118	13482.7
617.475	13497.16
617.831	13562.47
618.187	13593.65
618.543	13654.9
618.899	13542.81
619.255	13590.72
619.611	13570.38
619.967	13647.89
620.323	13649.02
620.678	13549.14
621.034	13575.8
621.39	13519.76
621.746	13520.44
622.101	13683.6
622.457	13677.72
622.812	13642.01
623.168	13609.25
623.523	13625.52
623.879	13655.12
624.234	13546.65
624.589	13664.61
624.945	13648.34
625.3	13642.69
625.655	13600.21
626.01	13691.28
626.365	13641.79
626.72	13583.71
627.075	13585.07
627.43	13595.69
627.785	13556.14
628.14	13573.09
628.495	13719.07
628.85	13552.07
629.205	13527.89
629.559	13628.91
629.914	13576.48
630.269	13556.14
630.623	13479.53
630.978	13519.98
631.332	13549.81
631.687	13648.12
632.041	13485.63
632.396	13508.68
632.75	13416.26
633.104	13449.48
633.459	13306.66
633.813	13415.35
634.167	13410.83
634.521	13431.4
634.875	13351.17
635.229	13409.48
635.583	13252.19
635.937	13326.09
636.291	13310.05
636.645	13303.27
636.999	13239.09
637.352	13270.05
637.706	13143.72
638.06	13265.53
638.413	13156.15
638.767	13173.55
639.121	13223.72
639.474	13089.03
639.828	13153.67
640.181	13099.88
640.534	13165.87
640.888	13100.79
641.241	13020.34
641.594	13088.13
641.947	13142.59
642.301	13005.87
642.654	12997.29
643.007	13068.7
643.36	13086.55
643.713	13042.26
644.066	13063.27
644.419	12997.74
644.771	12980.79
645.124	12797.29
645.477	12796.16
645.83	12740.34
646.182	12652.89
646.535	12675.03
646.888	12613.79
647.24	12632.32
647.593	12623.06
647.945	12591.87
648.298	12555.26
648.65	12501.48
649.002	12589.16
649.355	12590.06
649.707	12615.6
650.059	12641.59
650.411	12869.38
650.763	12760.68
651.115	12936.04
651.467	12860.57
651.819	12884.75
652.171	12854.69
652.523	12799.78
652.875	12746.67
653.227	12783.05
653.578	12841.81
653.93	12800
654.282	12808.36
654.633	12804.75
654.985	12820.34
655.337	12852.2
655.688	12841.13
656.039	12853.79
656.391	12749.16
656.742	12801.58
657.094	12786.67
657.445	12876.38
657.796	12844.52
658.147	12817.4
658.498	12858.53
658.849	12836.61
659.2	12822.15
659.551	12873.22
659.902	12896.05
660.253	12842.94
660.604	12886.78
660.955	12867.35
661.306	12899.21
661.656	12845.88
662.007	12885.65
662.358	12849.49
662.708	12871.19
663.059	12842.26
663.409	12796.84
663.76	12891.07
664.11	12910.96
664.461	12913.9
664.811	12851.07
665.161	12904.41
665.511	12842.71
665.862	12854.92
666.212	12894.92
666.562	12844.3
666.912	12821.24
667.262	12887.23
667.612	12823.05
667.962	12874.35
668.312	12869.38
668.662	12912.54
669.011	12945.99
669.361	12854.24
669.711	12828.93
670.06	12820.11
670.41	12813.34
670.76	12809.72
671.109	12839.78
671.459	12895.59
671.808	12877.97
672.157	12854.01
672.507	12758.42
672.856	12756.61
673.205	12773.79
673.554	12814.47
673.904	12734.69
674.253	12817.18
674.602	12719.1
674.951	12622.15
675.3	12485.66
675.649	12680.23
675.998	12649.5
676.346	12680.46
676.695	12707.8
677.044	12673.9
677.393	12693.11
677.741	12690.17
678.09	12588.03
678.438	12565.88
678.787	12601.59
679.135	12565.66
679.484	12548.94
679.832	12554.13
680.181	12494.02
680.529	12516.62
680.877	12416.74
681.225	12420.58
681.573	12547.81
681.922	12400.69
682.27	12339.22
682.618	12407.47
682.966	12358.43
683.314	12418.77
683.661	12327.7
684.009	12225.33
684.357	12219.9
684.705	12188.72
685.053	12235.27
685.4	12237.53
685.748	12176.52
686.095	12204.76
686.443	12112.34
686.79	12089.96
687.138	12043.86
687.485	12091.55
687.832	11997.31
688.18	12054.71
688.527	11966.35
688.874	11939.01
689.221	11951.89
689.568	11875.73
689.915	11922.06
690.262	11804.77
690.609	11823.76
690.956	11738.11
691.303	11758.67
691.65	11744.21
691.997	11654.95
692.344	11562.97
692.69	11607.49
693.037	11550.54
693.383	11410.89
693.73	11494.73
694.077	11391.9
694.423	11362.75
694.769	11361.62
695.116	11292.47
695.462	11303.77
695.808	11249.99
696.155	11202.08
696.501	11164.11
696.847	11153.94
697.193	11070.33
697.539	11035.53
697.885	11008.86
698.231	10967.51
698.577	10960.28
698.923	10875.76
699.269	10894.74
699.614	10767.74
699.96	10779.04
700.306	10785.59
700.651	10721.64
700.997	10675.31
701.342	10574.98
701.688	10627.18
702.033	10581.76
702.379	10527.52
702.724	10476.67
703.069	10484.13
703.415	10436.45
703.76	10406.17
704.105	10418.37
704.45	10382.44
704.795	10201.2
705.14	10161.88
705.485	10189.68
705.83	10208.88
706.175	10261.31
706.52	10095.89
706.865	10094.31
707.209	10135.89
707.554	10058.61
707.899	10062.9
708.243	10019.28
708.588	10004.14
708.932	9918.95
709.277	9924.37
709.621	9833.07
709.966	9839.85
710.31	9877.82
710.654	9737.71
710.998	9757.82
711.342	9749.46
711.687	9718.05
712.031	9685.96
712.375	9643.48
712.719	9712.17
713.063	9626.75
713.407	9592.63
713.75	9629.24
714.094	9552.18
714.438	9582.01
714.782	9578.84
715.125	9533.2
715.469	9529.58
715.812	9485.06
716.156	9410.26
716.499	9472.18
716.843	9470.6
717.186	9408.91
717.53	9419.07
717.873	9433.54
718.216	9443.48
718.559	9362.8
718.902	9266.31
719.246	9364.61
719.589	9300.66
719.932	9225.86
720.275	9343.14
720.617	9286.65
720.96	9321.22
721.303	9246.65
721.646	9283.48
721.989	9246.2
722.331	9260.66
722.674	9142.02
723.016	9134.34
723.359	9168.01
723.701	9182.24
724.044	9108.57
724.386	9105.86
724.729	9153.32
725.071	9115.13
725.413	9124.39
725.755	9083.04
726.097	9056.82
726.439	9020.89
726.782	9022.47
727.124	9115.58
727.465	9116.48
727.807	9042.36
728.149	9040.78
728.491	8999.65
728.833	9037.39
729.175	9004.62
729.516	9040.33
729.858	8970.27
730.199	9001.46
730.541	8995.81
730.882	8965.3
731.224	8984.28
731.565	8944.06
731.906	8986.32
732.248	9012.76
732.589	8947.45
732.93	8951.29
733.271	8905.42
733.612	8997.39
733.953	8994.68
734.294	8895.25
734.635	8892.99
734.976	8927.11
735.317	8941.8
735.658	8968.24
735.999	8911.29
736.339	8972.53
736.68	8925.98
737.021	8970.72
737.361	8932.99
737.702	8959.43
738.042	8975.47
738.383	8931.86
738.723	8942.7
739.063	8905.87
739.404	9006.2
739.744	9024.96
740.084	8958.75
740.424	9075.81
740.764	9067.67
741.104	9064.51
741.444	9032.19
741.784	9054.56
742.124	9083.72
742.464	9078.97
742.804	9129.82
743.143	9110.61
743.483	9122.13
743.823	9123.94
744.162	9111.51
744.502	9236.25
744.841	9191.96
745.181	9288.91
745.52	9296.82
745.86	9347.89
746.199	9288.91
746.538	9367.1
746.877	9455.46
747.216	9520.77
747.556	9523.93
747.895	9629.69
748.234	9591.5
748.573	9651.38
748.911	9636.24
749.25	9773.42
749.589	9737.48
749.928	9807.09
750.267	9971.6
750.605	10020.41
750.944	10059.74
751.283	10127.76
751.621	10224.02
751.96	10261.76
752.298	10382.44
752.636	10485.49
752.975	10464.92
753.313	10617.23
753.651	10699.04
753.989	10754.41
754.327	10969.77
754.666	10977
755.004	11155.07
755.342	11334.73
755.679	11385.8
756.017	11469.19
756.355	11600.03
756.693	11657.43
757.031	11928.16
757.368	11963.64
757.706	12150.53
758.044	12208.15
758.381	12411.54
