Data from hue_320_FLMS001491_59.txt Node
Date: Mon Feb 06 15:47:24 GMT 2017
User: dcchb
Spectrometer: FLMS00149
Trigger mode: 0
Integration Time (sec): 2.000000E-2
Scans to average: 10
Electric dark correction enabled: true
Nonlinearity correction enabled: false
Boxcar width: 0
XAxis mode: Wavelengths
Number of Pixels in Spectrum: 2048
>>>>>Begin Spectral Data<<<<<
341.393	-17.91
341.776	-17.91
342.16	-17.91
342.543	-70.56
342.927	-83.44
343.31	-69.21
343.693	-62.43
344.077	-70.79
344.46	-43.67
344.843	-39.38
345.226	-29.21
345.61	-24.46
345.993	-19.72
346.376	0.4
346.759	6.05
347.142	20.51
347.525	35.2
347.908	56.21
348.291	54.41
348.674	74.29
349.057	111.8
349.44	137.12
349.823	137.57
350.206	170.56
350.588	196.1
350.971	196.55
351.354	219.6
351.737	231.12
352.119	251.01
352.502	259.6
352.884	268.41
353.267	263.67
353.65	290.78
354.032	298.24
354.414	309.54
354.797	304.12
355.179	312.25
355.562	310.67
355.944	312.03
356.326	331.01
356.709	321.07
357.091	322.65
357.473	330.1
357.855	342.76
358.238	344.12
358.62	331.46
359.002	335.3
359.384	331.23
359.766	317.68
360.148	330.78
360.53	330.33
360.912	323.1
361.294	331.69
361.676	320.16
362.057	311.12
362.439	338.69
362.821	318.13
363.203	325.81
363.584	330.56
363.966	318.58
364.348	309.99
364.729	314.06
365.111	307.05
365.493	293.72
365.874	316.09
366.256	313.83
366.637	302.31
367.019	296.21
367.4	320.39
367.781	305.02
368.163	303.66
368.544	300.73
368.925	306.6
369.306	310.22
369.688	302.08
370.069	291.46
370.45	311.35
370.831	324.45
371.212	322.65
371.593	316.77
371.974	326.04
372.355	311.57
372.736	309.31
373.117	305.92
373.498	312.25
373.879	287.62
374.26	312.7
374.641	307.51
375.021	310.22
375.402	317.9
375.783	335.75
376.163	321.97
376.544	314.51
376.925	308.18
377.305	325.36
377.686	330.78
378.066	323.78
378.447	312.25
378.827	324.91
379.208	311.35
379.588	335.98
379.968	328.75
380.349	322.19
380.729	357.9
381.109	295.98
381.489	331.23
381.87	319.48
382.25	322.87
382.63	332.82
383.01	335.3
383.39	319.26
383.77	314.06
384.15	333.49
384.53	338.24
384.91	335.3
385.29	332.36
385.67	338.01
386.049	340.95
386.429	340.27
386.809	333.27
387.189	339.14
387.568	354.28
387.948	332.59
388.328	355.19
388.707	340.05
389.087	361.06
389.466	360.61
389.846	345.92
390.225	333.72
390.605	350.67
390.984	362.87
391.363	337.34
391.743	330.1
392.122	358.8
392.501	376.66
392.881	372.14
393.26	348.18
393.639	362.87
394.018	378.24
394.397	386.83
394.776	364.68
395.155	374.62
395.534	385.7
395.913	381.18
396.292	364.68
396.671	365.13
397.05	373.72
397.429	374.85
397.808	392.48
398.186	386.15
398.565	378.24
398.944	375.3
399.323	377.79
399.701	392.02
400.08	372.82
400.458	425.02
400.837	413.27
401.215	390.67
401.594	418.46
401.972	403.55
402.351	417.11
402.729	408.07
403.107	423.21
403.486	411.46
403.864	421.18
404.242	415.75
404.62	425.92
404.999	415.3
405.377	421.63
405.755	425.24
406.133	435.64
406.511	443.77
406.889	421.18
407.267	440.38
407.645	467.73
408.023	464.56
408.401	434.28
408.779	454.62
409.156	466.15
409.534	465.02
409.912	460.04
410.29	488.97
410.667	492.13
411.045	499.59
411.422	501.17
411.8	497.11
412.178	496.88
412.555	485.35
412.933	500.04
413.31	519.93
413.687	519.93
414.065	524.68
414.442	549.76
414.819	528.52
415.197	555.64
415.574	560.83
415.951	556.99
416.328	556.09
416.705	564
417.082	573.71
417.46	598.35
417.837	576.43
418.214	602.19
418.591	590.66
418.967	615.29
419.344	606.03
419.721	609.42
420.098	622.53
420.475	620.72
420.852	655.52
421.228	639.47
421.605	645.12
421.982	653.49
422.358	653.94
422.735	656.42
423.111	646.48
423.488	669.3
423.864	662.98
424.241	670.89
424.617	692.58
424.994	703.88
425.37	709.76
425.746	700.04
426.123	708.63
426.499	718.34
426.875	720.15
427.251	730.09
427.627	766.03
428.003	773.71
428.379	765.35
428.756	761.51
429.132	771.67
429.507	802.63
429.883	783.43
430.259	804.44
430.635	836.76
431.011	829.53
431.387	836.98
431.763	855.29
432.138	827.49
432.514	895.97
432.89	879.92
433.265	868.17
433.641	884.21
434.016	878.56
434.392	925.12
434.767	909.52
435.143	923.31
435.518	927.83
435.894	940.48
436.269	942.74
436.644	984.55
437.02	970.09
437.395	989.3
437.77	991.1
438.145	1026.81
438.52	993.36
438.895	1000.14
439.271	1002.18
439.646	1053.7
440.021	1010.31
440.395	1026.81
440.77	1052.12
441.145	1057.99
441.52	1064.55
441.895	1066.81
442.27	1055.06
442.645	1056.41
443.019	1083.53
443.394	1061.84
443.769	1068.62
444.143	1086.92
444.518	1092.12
444.892	1084.66
445.267	1140.25
445.641	1127.82
446.016	1092.8
446.39	1102.29
446.764	1121.95
447.139	1116.07
447.513	1133.02
447.887	1150.65
448.262	1151.55
448.636	1161.49
449.01	1152.46
449.384	1150.65
449.758	1157.88
450.132	1179.57
450.506	1180.03
450.88	1181.16
451.254	1177.54
451.628	1174.38
452.002	1219.12
452.376	1193.13
452.75	1186.13
453.123	1221.15
453.497	1195.62
453.871	1243.98
454.244	1276.97
454.618	1253.02
454.992	1290.53
455.365	1279.01
455.739	1274.26
456.112	1280.36
456.486	1303.86
456.859	1313.58
457.232	1346.57
457.606	1325.33
457.979	1342.51
458.352	1349.29
458.725	1365.11
459.099	1337.76
459.472	1389.29
459.845	1382.51
460.218	1436.06
460.591	1411.88
460.964	1417.08
461.337	1431.32
461.71	1463.86
462.083	1462.28
462.456	1456.18
462.829	1479
463.201	1486.68
463.574	1504.08
463.947	1519.68
464.32	1539.79
464.692	1556.29
465.065	1551.32
465.438	1590.86
465.81	1605.78
466.183	1576.63
466.555	1618.66
466.928	1609.62
467.3	1632.44
467.672	1646
468.045	1650.97
468.417	1668.6
468.789	1686
469.161	1706.57
469.534	1718.32
469.906	1737.07
470.278	1773.68
470.65	1771.87
471.022	1784.3
471.394	1798.09
471.766	1817.07
472.138	1846.9
472.51	1877.41
472.882	1887.8
473.253	1901.14
473.625	1916.05
473.997	1947.91
474.369	1943.62
474.74	1963.73
475.112	2015.71
475.484	1987.24
475.855	2089.83
476.227	2062.71
476.598	2105.42
476.97	2129.15
477.341	2166.44
477.713	2186.78
478.084	2139.32
478.455	2231.3
478.827	2241.69
479.198	2300
479.569	2276.27
479.94	2321.01
480.311	2375.47
480.682	2402.59
481.053	2432.42
481.424	2434.46
481.795	2452.31
482.166	2476.04
482.537	2533.89
482.908	2598.29
483.279	2593.55
483.65	2603.72
484.021	2645.52
484.391	2700.66
484.762	2697.73
485.133	2684.84
485.503	2744.28
485.874	2749.93
486.244	2816.59
486.615	2827.44
486.985	2870.83
487.356	2914.22
487.726	2901.11
488.097	2976.59
488.467	3011.62
488.837	3010.49
489.207	3052.07
489.578	3068.79
489.948	3120.09
490.318	3158.73
490.688	3097.94
491.058	3184.72
491.428	3206.41
491.798	3249.12
492.168	3318.27
492.538	3313.08
492.908	3327.99
493.278	3367.31
493.648	3361.21
494.017	3412.28
494.387	3441.21
494.757	3465.39
495.126	3513.52
495.496	3473.07
495.866	3489.34
496.235	3529.57
496.605	3556.01
496.974	3599.17
497.344	3588.32
497.713	3591.71
498.082	3652.73
498.452	3687.76
498.821	3674.42
499.19	3688.66
499.559	3775.66
499.928	3724.59
500.298	3760.3
500.667	3757.36
501.036	3769.79
501.405	3827.64
501.774	3791.93
502.143	3820.41
502.512	3843.91
502.88	3877.36
503.249	3889.33
503.618	3889.56
503.987	3895.66
504.356	3916.68
504.724	3962.78
505.093	3919.16
505.462	3926.39
505.83	3923.23
506.199	3979.95
506.567	4041.19
506.936	4004.13
507.304	4078.03
507.672	4106.05
508.041	4064.24
508.409	4123.68
508.777	4109.67
509.145	4103.56
509.514	4115.32
509.882	4161.19
510.25	4135.2
510.618	4165.48
510.986	4206.16
511.354	4223.11
511.722	4186.73
512.09	4282.32
512.458	4235.31
512.826	4278.48
513.193	4271.24
513.561	4289.1
513.929	4278.7
514.297	4343.78
514.664	4372.94
515.032	4370.22
515.4	4349.89
515.767	4384.46
516.135	4407.74
516.502	4405.48
516.869	4391.47
517.237	4416.78
517.604	4353.73
517.972	4460.62
518.339	4481.41
518.706	4452.48
519.073	4473.05
519.44	4497
519.808	4528.86
520.175	4524.12
520.542	4586.26
520.909	4603.44
521.276	4553.5
521.643	4569.54
522.009	4636.21
522.376	4611.35
522.743	4653.83
523.11	4683.21
523.477	4759.59
523.843	4740.16
524.21	4775.64
524.577	4720.5
524.943	4801.17
525.31	4824.45
525.676	4896.54
526.043	4890.44
526.409	4890.44
526.776	4911.9
527.142	4896.54
527.508	4970.66
527.874	4944.22
528.241	5021.05
528.607	4999.59
528.973	5070.77
529.339	5083.43
529.705	5153.03
530.071	5120.71
530.437	5155.74
530.803	5190.32
531.169	5184.67
531.535	5193.71
531.901	5253.82
532.267	5212.46
532.632	5239.13
532.998	5266.92
533.364	5302.18
533.73	5343.53
534.095	5328.16
534.461	5398.45
534.826	5425.11
535.192	5475.96
535.557	5507.6
535.923	5503.98
536.288	5510.76
536.653	5539.91
537.019	5518.22
537.384	5539.91
537.749	5593.02
538.114	5578.1
538.479	5641.15
538.845	5624.2
539.21	5687.93
539.575	5680.92
539.94	5694.71
540.305	5743.07
540.67	5732.22
541.034	5779.9
541.399	5799.57
541.764	5787.59
542.129	5831.65
542.494	5826.01
542.858	5876.85
543.223	5906.45
543.587	5926.57
543.952	5953.23
544.316	5941.26
544.681	5989.39
545.045	6014.25
545.41	6024.19
545.774	6055.83
546.138	6091.08
546.503	6119.33
546.867	6078.2
547.231	6217.86
547.595	6169.5
547.959	6217.86
548.324	6231.87
548.688	6234.36
549.052	6204.98
549.416	6297.41
549.779	6296.73
550.143	6330.62
550.507	6334.24
550.871	6369.49
551.235	6317.97
551.599	6412.43
551.962	6389.61
552.326	6444.29
552.689	6489.94
553.053	6512.09
553.417	6457.17
553.78	6535.59
554.143	6529.72
554.507	6574.69
554.87	6592.31
555.234	6683.61
555.597	6592.99
555.96	6685.64
556.323	6647.23
556.686	6710.28
557.05	6752.31
557.413	6719.54
557.776	6743.5
558.139	6790.05
558.502	6765.42
558.865	6842.93
559.228	6820.78
559.59	6797.28
559.953	6902.36
560.316	6957.95
560.679	6949.37
561.041	6947.33
561.404	7004.51
561.767	7028.23
562.129	7018.29
562.492	7062.13
562.854	7050.15
563.217	7057.84
563.579	7087.67
563.941	7132.86
564.304	7145.52
564.666	7160.43
565.028	7232.3
565.39	7227.55
565.753	7258.51
566.115	7225.52
566.477	7254.89
566.839	7284.95
567.201	7379.41
567.563	7392.74
567.925	7454.66
568.287	7388.22
568.648	7427.54
569.01	7541.89
569.372	7533.98
569.734	7526.98
570.095	7547.54
570.457	7632.29
570.819	7646.75
571.18	7624.6
571.542	7738.5
571.903	7771.72
572.265	7823.69
572.626	7844.93
572.987	7895.56
573.349	7923.35
573.71	7961.09
574.071	7982.33
574.432	8023.69
574.794	8096.91
575.155	8147.53
575.516	8181.2
575.877	8296.67
576.238	8260.07
576.599	8395.88
576.96	8462.77
577.32	8512.26
577.681	8611.47
578.042	8748.64
578.403	8837.23
578.763	8769.66
579.124	8872.03
579.485	9019.59
579.845	9138.69
580.206	9221.4
580.566	9259.36
580.927	9341.39
581.287	9558.56
581.648	9623.42
582.008	9850.31
582.368	9917.2
582.728	10105.89
583.089	10224.76
583.449	10311.08
583.809	10495.71
584.169	10734.8
584.529	10827.91
584.889	11166.2
585.249	11236.03
585.609	11378.4
585.969	11641.22
586.329	11790.14
586.688	12078.04
587.048	12254.31
587.408	12455.66
587.768	12642.32
588.127	12920.51
588.487	13092.93
588.846	13441.4
589.206	13588.06
589.565	13857.21
589.925	14143.07
590.284	14466.46
590.643	14685.21
591.003	14916.61
591.362	15231.63
591.721	15443.61
592.08	15698.97
592.44	16045.17
592.799	16264.37
593.158	16508.66
593.517	16854.87
593.876	17138.25
594.235	17421.63
594.593	17636.32
594.952	18036.53
595.311	18258.9
595.67	18594.71
596.029	19021.14
596.387	19236.73
596.746	19592.42
597.104	19786.77
597.463	20078.74
597.822	20414.32
598.18	20630.81
598.538	20930.69
598.897	21315.09
599.255	21487.51
599.613	22058.35
599.972	22201.62
600.33	22536.53
600.688	22732.68
601.046	23204.76
601.404	23419.44
601.762	23688.81
602.12	24024.85
602.478	24148.69
602.836	24682.23
603.194	24624.83
603.552	25091.26
603.91	25201.99
604.268	25544.13
604.625	25656.67
604.983	26039.71
605.341	26298.69
605.698	26731.44
606.056	26859.35
606.413	27142.96
606.771	27419.56
607.128	27561.7
607.485	27759.44
607.843	28038.53
608.2	28444.17
608.557	28643.03
608.914	28810.94
609.272	29103.36
609.629	29444.59
609.986	29599.17
610.343	29685.04
610.7	30219.49
611.057	30242.76
611.414	30397.34
611.771	30736.99
612.127	30854.5
612.484	31107.15
612.841	31407.93
613.198	31371.77
613.554	31528.38
613.911	31946.22
614.267	31979.44
614.624	32142.83
614.98	32394.35
615.337	32625.75
615.693	32686.54
616.05	32799.08
616.406	33213.31
616.762	33150.94
617.118	33368.11
617.475	33474.77
617.831	33725.84
618.187	33759.73
618.543	34101.19
618.899	34254.18
619.255	34364.01
619.611	34528.08
619.967	34615.53
620.323	34833.83
620.678	34758.35
621.034	34780.05
621.39	34912.7
621.746	35075.41
622.101	35547.94
622.457	35326.02
622.812	35659.12
623.168	35741.15
623.523	35822.96
623.879	35944.76
624.234	35846.01
624.589	35966.91
624.945	36142.95
625.3	36341.13
625.655	36320.57
626.01	36323.96
626.365	36349.04
626.72	36604.86
627.075	36539.32
627.43	36665.65
627.785	36580.22
628.14	36912.87
628.495	36925.98
628.85	36867
629.205	36720.79
629.559	37062.92
629.914	36964.17
630.269	37114
630.623	36954
630.978	37066.99
631.332	37199.42
631.687	37187.44
632.041	37192.41
632.396	37468.34
632.75	37230.6
633.104	37216.14
633.459	37177.27
633.813	37099.08
634.167	37174.11
634.521	37144.05
634.875	37310.6
635.229	37465.17
635.583	37270.38
635.937	37342.69
636.291	37242.58
636.645	37332.3
636.999	37232.18
637.352	37533.65
637.706	37257.49
638.06	37453.65
638.413	37412.97
638.767	37233.77
639.121	37459.98
639.474	37184.5
639.828	37260.43
640.181	37393.54
640.534	37286.19
640.888	37261.79
641.241	37091.17
641.594	37363.71
641.947	37323.48
642.301	37212.98
642.654	37292.3
643.007	37191.06
643.36	37262.69
643.713	37270.6
644.066	37485.06
644.419	37139.08
644.771	36882.14
645.124	36577.29
645.477	36539.55
645.83	36317.41
646.182	36188.6
646.535	36190.63
646.888	36107.69
647.24	35989.96
647.593	36205.77
647.945	36173.23
648.298	35973.01
648.65	36001.03
649.002	35934.14
649.355	36174.81
649.707	36017.53
650.059	36208.26
650.411	36544.75
650.763	36754.01
651.115	37003.04
651.467	36891.85
651.819	36793.1
652.171	36807.56
652.523	36776.38
652.875	36871.74
653.227	36601.92
653.578	36974.34
653.93	36886.43
654.282	36673.1
654.633	36537.06
654.985	36722.59
655.337	36664.29
655.688	36730.05
656.039	36911.52
656.391	36445.31
656.742	36424.07
657.094	36648.92
657.445	36670.62
657.796	36645.31
658.147	36628.13
658.498	36623.16
658.849	36648.02
659.2	36456.16
659.551	36541.36
659.902	36569.83
660.253	36606.89
660.604	36552.43
660.955	36516.72
661.306	36527.57
661.656	36578.42
662.007	36400.79
662.358	36556.27
662.708	36523.73
663.059	36481.24
663.409	36433.56
663.76	36612.99
664.11	36634.01
664.461	36666.32
664.811	36590.85
665.161	36525.99
665.511	36467.69
665.862	36537.06
666.212	36547.46
666.562	36474.24
666.912	36466.78
667.262	36396.5
667.612	36345.43
667.962	36504.75
668.312	36309.95
668.662	36566.21
669.011	36354.69
669.361	36343.85
669.711	36385.43
670.06	36235.83
670.41	36293
670.76	36175.94
671.109	36382.72
671.459	36313.56
671.808	36258.2
672.157	36399.66
672.507	36123.06
672.856	36193.57
673.205	36276.96
673.554	36276.28
673.904	36161.7
674.253	36406.22
674.602	36173.46
674.951	35768.27
675.3	35634.03
675.649	36206.68
675.998	36153.57
676.346	35999
676.695	36120.8
677.044	36040.35
677.393	36043.52
677.741	36106.79
678.09	35937.98
678.438	35823.18
678.787	35925.1
679.135	35949.73
679.484	35766.01
679.832	35874.25
680.181	35697.08
680.529	35806.69
680.877	35711.09
681.225	35689.17
681.573	35869.28
681.922	35664.77
682.27	35473.36
682.618	35508.61
682.966	35321.5
683.314	35430.88
683.661	35281.73
684.009	35166.02
684.357	35198.79
684.705	35078.8
685.053	35152.01
685.4	35135.52
685.748	34915.64
686.095	34733.49
686.443	34829.54
686.79	34721.97
687.138	34862.76
687.485	34885.81
687.832	34730.1
688.18	34718.8
688.527	34563.78
688.874	34434.29
689.221	34539.6
689.568	34397.68
689.915	34332.6
690.262	34318.82
690.609	34152.27
690.956	34114.53
691.303	33994.3
691.65	33887.19
691.997	33980.97
692.344	33710.92
692.69	33760.64
693.037	33670.7
693.383	33584.82
693.73	33587.99
694.077	33268.45
694.423	33350.93
694.769	33366.07
695.116	33272.74
695.462	33171.27
695.808	33157.04
696.155	33098.28
696.501	32862.81
696.847	32883.6
697.193	32663.94
697.539	32835.01
697.885	32568.13
698.231	32421.01
698.577	32424.4
698.923	32243.39
699.269	32241.81
699.614	31912.32
699.96	32098.31
700.306	32059.44
700.651	31961.59
700.997	31841.14
701.342	31662.61
701.688	31645.44
702.033	31598.21
702.379	31635.95
702.724	31548.94
703.069	31592.79
703.415	31125
703.76	31221.95
704.105	31249.74
704.45	31286.13
704.795	30994.16
705.14	30895.85
705.485	30862.18
705.83	30718.68
706.175	30858.79
706.52	30754.84
706.865	30589.42
707.209	30625.35
707.554	30484.79
707.899	30518.92
708.243	30383.1
708.588	30326.15
708.932	30089.77
709.277	30155.99
709.621	30128.42
709.966	30018.36
710.31	30046.16
710.654	29782.89
710.998	29917.35
711.342	29941.3
711.687	29711.48
712.031	29665.6
712.375	29520.75
712.719	29564.59
713.063	29514.42
713.407	29487.08
713.75	29398.72
714.094	29452.28
714.438	29261.77
714.782	29338.83
715.125	29008.45
715.469	29083.7
715.812	28978.84
716.156	28806.64
716.499	28850.26
716.843	28818.62
717.186	28755.35
717.53	28796.7
717.873	28866.76
718.216	28710.6
718.559	28687.1
718.902	28395.36
719.246	28547.67
719.589	28474
719.932	28255.47
720.275	28273.78
720.617	28306.09
720.96	28265.87
721.303	28293.66
721.646	28310.16
721.989	27993.78
722.331	28104.52
722.674	27951.98
723.016	28001.69
723.359	27991.07
723.701	27992.43
724.044	27759.21
724.386	27587.47
724.729	27910.62
725.071	27762.83
725.413	27691.87
725.755	27748.14
726.097	27592.89
726.439	27517.64
726.782	27398.09
727.124	27595.15
727.465	27292.79
727.807	27295.72
728.149	27362.84
728.491	27323.74
728.833	27315.16
729.175	27219.79
729.516	27089.17
729.858	27119.68
730.199	27137.31
730.541	27097.54
730.882	27051.66
731.224	27069.51
731.565	26847.15
731.906	26839.24
732.248	26870.88
732.589	26705.46
732.93	26730.77
733.271	26617.55
733.612	26699.58
733.953	26793.82
734.294	26698
734.635	26529.19
734.976	26656.42
735.317	26420.04
735.658	26483.54
735.999	26454.84
736.339	26322.64
736.68	26382.53
737.021	26349.76
737.361	26127.17
737.702	26364
738.042	26185.02
738.383	26157.45
738.723	26291.91
739.063	26121.52
739.404	26111.57
739.744	26027.28
740.084	25976.21
740.424	25957
740.764	26007.85
741.104	26017.56
741.444	25823.45
741.784	25784.35
742.124	25754.52
742.464	25686.73
742.804	25706.16
743.143	25637.91
743.483	25635.65
743.823	25416.22
744.162	25504.36
744.502	25611.47
744.841	25388.2
745.181	25483.79
745.52	25438.82
745.86	25345.49
746.199	25371.93
746.538	25298.71
746.877	25272.5
747.216	25254.87
747.556	25272.95
747.895	25220.3
748.234	25090.58
748.573	25054.2
748.911	25133.75
749.25	25064.6
749.589	24931.04
749.928	24914.09
750.267	24979.4
750.605	24931.04
750.944	24869.12
751.283	24722.46
751.621	24762.23
751.96	24599.07
752.298	24620.09
752.636	24601.33
752.975	24488.11
753.313	24362.69
753.651	24454.44
753.989	24351.62
754.327	24344.61
754.666	24240.44
755.004	24293.32
755.342	24265.52
755.679	24194.56
756.017	24004.51
756.355	24086.99
756.693	23952.76
757.031	23937.85
757.368	23868.47
757.706	23812.2
758.044	23795.7
758.381	23732.2
758.719	23647.68
759.056	23733.56
759.394	23633.67
759.731	23324.08
760.068	23348.26
