Data from hue_220_FLMS001491_00066.txt Node
Date: Tue Feb 07 16:39:47 GMT 2017
User: dcchb
Spectrometer: FLMS00149
Trigger mode: 0
Integration Time (sec): 2.000000E-2
Scans to average: 10
Electric dark correction enabled: true
Nonlinearity correction enabled: false
Boxcar width: 0
XAxis mode: Wavelengths
Number of Pixels in Spectrum: 2048
>>>>>Begin Spectral Data<<<<<
341.393	-23.95
341.776	-23.95
342.16	-23.95
342.543	-67.57
342.927	-70.05
343.31	-69.15
343.693	-75.48
344.077	-69.83
344.46	-69.15
344.843	-70.05
345.226	-47.23
345.61	-20.11
345.993	-16.72
346.376	12.88
346.759	2.94
347.142	36.38
347.525	32.99
347.908	78.64
348.291	65.99
348.674	96.49
349.057	111.41
349.44	130.39
349.823	136.72
350.206	151.86
350.588	194.8
350.971	198.41
351.354	224.4
351.737	224.63
352.119	244.97
352.502	253.1
352.884	268.69
353.267	268.24
353.65	275.02
354.032	288.35
354.414	325.64
354.797	308.92
355.179	318.41
355.562	311.4
355.944	321.35
356.326	318.64
356.709	334
357.091	337.62
357.473	330.84
357.855	324.51
358.238	329.26
358.62	325.87
359.002	332.19
359.384	348.01
359.766	327.68
360.148	350.95
360.53	353.21
360.912	326.32
361.294	310.95
361.676	311.4
362.057	330.39
362.439	324.06
362.821	330.16
363.203	306.21
363.584	305.98
363.966	307.79
364.348	336.26
364.729	299.2
365.111	326.55
365.493	317.05
365.874	305.75
366.256	304.85
366.637	334.45
367.019	318.86
367.4	305.3
367.781	304.17
368.163	300.33
368.544	305.08
368.925	315.47
369.306	325.64
369.688	322.7
370.069	303.72
370.45	305.3
370.831	314.34
371.212	317.28
371.593	308.69
371.974	305.75
372.355	305.53
372.736	314.12
373.117	329.26
373.498	319.09
373.879	314.12
374.26	292.87
374.641	330.61
375.021	331.29
375.402	324.29
375.783	311.18
376.163	316.6
376.544	304.4
376.925	322.25
377.305	316.6
377.686	331.06
378.066	313.44
378.447	337.84
378.827	321.12
379.208	325.87
379.588	293.55
379.968	340.33
380.349	325.64
380.729	320.67
381.109	337.84
381.489	334.68
381.87	329.26
382.25	331.97
382.63	338.07
383.01	324.96
383.39	325.64
383.77	346.66
384.15	337.39
384.53	320.9
384.91	325.19
385.29	346.21
385.67	328.8
386.049	334.68
386.429	337.62
386.809	354.11
387.189	355.92
387.568	341.23
387.948	354.11
388.328	354.79
388.707	360.22
389.087	358.18
389.466	336.71
389.846	344.17
390.225	349.14
390.605	373.1
390.984	354.34
391.363	361.12
391.743	367.22
392.122	352.76
392.501	350.73
392.881	374.23
393.26	366.54
393.639	369.26
394.018	356.15
394.397	372.19
394.776	379.43
395.155	391.63
395.534	349.6
395.913	364.96
396.292	363.15
396.671	394.11
397.05	363.15
397.429	384.85
397.808	407.9
398.186	378.75
398.565	381.68
398.944	367.45
399.323	414.9
399.701	373.32
400.08	376.71
400.458	392.76
400.837	399.76
401.215	390.5
401.594	408.58
401.972	416.94
402.351	393.89
402.729	410.84
403.107	428.46
403.486	441.12
403.864	405.19
404.242	402.02
404.62	435.47
404.999	438.86
405.377	430.05
405.755	430.05
406.133	443.38
406.511	443.83
406.889	444.96
407.267	453.32
407.645	458.97
408.023	466.43
408.401	471.85
408.779	477.05
409.156	477.73
409.534	477.28
409.912	495.13
410.29	498.29
410.667	494
411.045	520.89
411.422	511.17
411.8	512.98
412.178	541
412.555	545.52
412.933	537.84
413.31	568.12
413.687	580.1
414.065	569.7
414.442	566.09
414.819	586.2
415.197	599.08
415.574	612.19
415.951	607.44
416.328	607.89
416.705	625.75
417.082	620.32
417.46	635.69
417.837	618.06
418.214	629.36
418.591	644.95
418.967	659.19
419.344	674.11
419.721	688.34
420.098	688.12
420.475	696.93
420.852	692.64
421.228	715.69
421.605	712.52
421.982	752.97
422.358	748
422.735	780.09
423.111	787.32
423.488	785.74
423.864	801.56
424.241	829.58
424.617	831.16
424.994	840.88
425.37	856.47
425.746	842.01
426.123	868
426.499	868.45
426.875	887.21
427.251	903.25
427.627	918.17
428.003	929.47
428.379	949.81
428.756	963.14
429.132	945.06
429.507	967.88
429.883	983.93
430.259	994.78
430.635	1010.14
431.011	1046.3
431.387	1061.89
431.763	1048.11
432.138	1063.93
432.514	1079.75
432.89	1086.98
433.265	1122
433.641	1142.12
434.016	1152.74
434.392	1182.12
434.767	1195.9
435.143	1202
435.518	1251.72
435.894	1258.5
436.269	1284.94
436.644	1281.1
437.02	1294.88
437.395	1334.2
437.77	1365.61
438.145	1389.57
438.52	1375.56
438.895	1425.05
439.271	1424.82
439.646	1477.48
440.021	1487.64
440.395	1487.64
440.77	1505.95
441.145	1518.38
441.52	1551.15
441.895	1555.89
442.27	1589.11
442.645	1597.92
443.019	1613.29
443.394	1626.85
443.769	1650.8
444.143	1627.53
444.518	1673.18
444.892	1670.24
445.267	1701.65
445.641	1714.53
446.016	1734.87
446.39	1750.46
446.764	1751.82
447.139	1772.16
447.513	1784.13
447.887	1793.4
448.262	1828.65
448.636	1845.6
449.01	1845.15
449.384	1856.9
449.758	1844.47
450.132	1909.55
450.506	1865.26
450.88	1877.46
451.254	1903
451.628	1935.77
452.002	1940.06
452.376	1983.68
452.75	1979.61
453.123	1987.52
453.497	2013.28
453.871	2033.84
454.244	2072.49
454.618	2067.52
454.992	2098.93
455.365	2118.81
455.739	2164.46
456.112	2168.76
456.486	2209.43
456.859	2213.5
457.232	2245.82
457.606	2229.55
457.979	2240.39
458.352	2324.91
458.725	2361.97
459.099	2353.16
459.472	2401.74
459.845	2450.33
460.218	2426.6
460.591	2463.66
460.964	2462.08
461.337	2533.49
461.71	2562.19
462.083	2566.03
462.456	2573.27
462.829	2564.68
463.201	2623.89
463.574	2606.03
463.947	2692.81
464.32	2740.72
464.692	2758.35
465.065	2747.95
465.438	2859.13
465.81	2845.57
466.183	2874.95
466.555	2929.87
466.928	2933.48
467.3	2927.83
467.672	2964.67
468.045	3043.99
468.417	3044.44
468.789	3057.32
469.161	3083.53
469.534	3114.49
469.906	3184.32
470.278	3241.72
470.65	3257.09
471.022	3316.97
471.394	3387.71
471.766	3391.55
472.138	3412.34
472.51	3481.94
472.882	3497.08
473.253	3540.02
473.625	3606.46
473.997	3650.75
474.369	3670.64
474.74	3654.59
475.112	3770.3
475.484	3827.02
475.855	3853.23
476.227	3904.53
476.598	3991.99
476.97	4011.42
477.341	4137.74
477.713	4154.69
478.084	4131.19
478.455	4239.21
478.827	4255.26
479.198	4413.9
479.569	4413.67
479.94	4506.1
480.311	4532.99
480.682	4629.93
481.053	4719.88
481.424	4747.9
481.795	4817.5
482.166	4859.31
482.537	4886.43
482.908	5004.61
483.279	5040.32
483.65	5080.77
484.021	5246.42
484.391	5247.09
484.762	5266.98
485.133	5335.68
485.503	5382.68
485.874	5441.89
486.244	5535.45
486.615	5607.54
486.985	5654.09
487.356	5746.29
487.726	5759.62
488.097	5838.26
488.467	5905.83
488.837	5951.03
489.207	6052.04
489.578	6077.58
489.948	6160.97
490.318	6181.08
490.688	6215.88
491.058	6320.51
491.428	6372.26
491.798	6394.18
492.168	6534.29
492.538	6507.85
492.908	6597.11
493.278	6648.86
493.648	6645.47
494.017	6736.32
494.387	6758.01
494.757	6866.71
495.126	6861.29
495.496	6900.61
495.866	6936.31
496.235	6953.04
496.605	7029.65
496.974	7069.19
497.344	7125.46
497.713	7101.96
498.082	7202.97
498.452	7267.15
498.821	7279.58
499.19	7289.53
499.559	7282.75
499.928	7293.82
500.298	7335.17
500.667	7460.82
501.036	7406.13
501.405	7457.88
501.774	7462.4
502.143	7481.61
502.512	7536.52
502.88	7549.18
503.249	7545.11
503.618	7507.15
503.987	7592.79
504.356	7586.02
504.724	7675.28
505.093	7662.85
505.462	7692.91
505.83	7683.64
506.199	7739.68
506.567	7875.5
506.936	7749.17
507.304	7865.56
507.672	7877.76
508.041	7811.32
508.409	7977.42
508.777	7958.89
509.145	7969.06
509.514	7975.38
509.882	7991.2
510.25	7986
510.618	8037.53
510.986	8062.39
511.354	8051.77
511.722	8085.44
512.09	8131.76
512.458	8073.01
512.826	8153.68
513.193	8203.85
513.561	8122.72
513.929	8160.69
514.297	8190.75
514.664	8249.05
515.032	8176.28
515.4	8309.84
515.767	8204.3
516.135	8252.44
516.502	8159.33
516.869	8293.57
517.237	8270.74
517.604	8218.99
517.972	8289.05
518.339	8316.17
518.706	8233
519.073	8321.14
519.44	8241.14
519.808	8313.23
520.175	8237.52
520.542	8396.39
520.909	8382.83
521.276	8380.34
521.643	8352.1
522.009	8414.69
522.376	8351.64
522.743	8350.97
523.11	8381.7
523.477	8473.45
523.843	8447.46
524.21	8520
524.577	8489.04
524.943	8470.74
525.31	8490.17
525.676	8569.04
526.043	8537.85
526.409	8534.46
526.776	8605.65
527.142	8501.25
527.508	8580.34
527.874	8518.19
528.241	8559.55
528.607	8531.3
528.973	8571.75
529.339	8550.06
529.705	8598.87
530.071	8608.59
530.437	8541.7
530.803	8558.42
531.169	8578.08
531.535	8497.4
531.901	8478.87
532.267	8461.92
532.632	8487.46
532.998	8482.49
533.364	8541.47
533.73	8436.16
534.095	8467.12
534.461	8497.18
534.826	8477.74
535.192	8434.81
535.557	8454.01
535.923	8435.94
536.288	8377.86
536.653	8398.88
537.019	8294.02
537.384	8307.8
537.749	8338.76
538.114	8257.41
538.479	8314.81
538.845	8261.48
539.21	8193.68
539.575	8242.27
539.94	8199.33
540.305	8210.18
540.67	8120.69
541.034	8171.31
541.399	8127.92
541.764	8133.57
542.129	8111.65
542.494	8117.98
542.858	8066.45
543.223	7985.33
543.587	8007.02
543.952	7988.49
544.316	7977.87
544.681	7938.1
545.045	7898.78
545.41	7929.96
545.774	7863.97
546.138	7891.09
546.503	7800.02
546.867	7812.45
547.231	7793.92
547.595	7783.75
547.959	7715.5
548.324	7794.15
548.688	7675.05
549.052	7699.01
549.416	7657.88
549.779	7612.91
550.143	7569.29
550.507	7642.06
550.871	7659.01
551.235	7505.34
551.599	7574.49
551.962	7544.66
552.326	7504.89
552.689	7535.17
553.053	7464.21
553.417	7459.01
553.78	7468.05
554.143	7412.91
554.507	7416.3
554.87	7399.35
555.234	7473.02
555.597	7360.48
555.96	7375.17
556.323	7413.14
556.686	7329.98
557.05	7418.11
557.413	7282.52
557.776	7319.13
558.139	7335.17
558.502	7244.78
558.865	7311.22
559.228	7267.61
559.59	7279.36
559.953	7277.32
560.316	7352.8
560.679	7266.48
561.041	7285.46
561.404	7320.03
561.767	7313.71
562.129	7287.49
562.492	7315.51
562.854	7248.85
563.217	7266.93
563.579	7245.46
563.941	7273.93
564.304	7295.18
564.666	7281.62
565.028	7331.56
565.39	7294.95
565.753	7323.42
566.115	7284.33
566.477	7400.48
566.839	7337.21
567.201	7384.21
567.563	7324.1
567.925	7348.73
568.287	7332.69
568.648	7357.55
569.01	7352.8
569.372	7448.39
569.734	7362.97
570.095	7466.47
570.457	7385.79
570.819	7451.1
571.18	7485.45
571.542	7482.97
571.903	7439.8
572.265	7517.54
572.626	7439.13
572.987	7512.57
573.349	7524.77
573.71	7474.61
574.071	7542.85
574.432	7553.25
574.794	7554.6
575.155	7499.69
575.516	7561.16
575.877	7556.41
576.238	7582.85
576.599	7617.65
576.96	7646.13
577.32	7584.66
577.681	7666.47
578.042	7663.53
578.403	7642.74
578.763	7703.53
579.124	7711.21
579.485	7703.98
579.845	7762.28
580.206	7768.61
580.566	7762.28
580.927	7797.08
581.287	7807.93
581.648	7833.47
582.008	7826.01
582.368	7804.31
582.728	7816.52
583.089	7815.84
583.449	7875.05
583.809	7902.84
584.169	7840.47
584.529	7861.26
584.889	7946.01
585.249	7892.9
585.609	7869.85
585.969	7938.77
586.329	7940.58
586.688	7948.04
587.048	7978.1
587.408	7929.28
587.768	7982.39
588.127	8047.47
588.487	8037.98
588.846	8135.15
589.206	8028.94
589.565	7969.06
589.925	8059.68
590.284	7971.54
590.643	8065.32
591.003	8098.77
591.362	8109.17
591.721	8133.35
592.08	8126.34
592.44	8117.3
592.799	8164.31
593.158	8125.66
593.517	8158.66
593.876	8186.23
594.235	8166.56
594.593	8155.94
594.952	8196.62
595.311	8153.23
595.67	8198.43
596.029	8221.7
596.387	8256.51
596.746	8307.8
597.104	8229.61
597.463	8204.98
597.822	8220.12
598.18	8243.17
598.538	8250.86
598.897	8281.36
599.255	8234.36
599.613	8352.32
599.972	8315.04
600.33	8321.36
600.688	8267.81
601.046	8289.5
601.404	8292.66
601.762	8311.19
602.12	8358.65
602.478	8345.32
602.836	8377.86
603.194	8362.27
603.552	8306
603.91	8300.35
604.268	8317.52
604.625	8324.53
604.983	8356.39
605.341	8287.47
605.698	8373.79
606.056	8427.12
606.413	8371.31
606.771	8354.13
607.128	8426.45
607.485	8364.98
607.843	8358.2
608.2	8456.73
608.557	8412.21
608.914	8402.49
609.272	8485.65
609.629	8443.85
609.986	8475.94
610.343	8469.38
610.7	8454.47
611.057	8492.66
611.414	8497.18
611.771	8544.41
612.127	8518.87
612.484	8521.58
612.841	8507.12
613.198	8555.71
613.554	8521.58
613.911	8639.32
614.267	8549.38
614.624	8580.11
614.98	8553
615.337	8585.76
615.693	8625.54
616.05	8631.41
616.406	8661.02
616.762	8616.5
617.118	8613.78
617.475	8622.37
617.831	8622.6
618.187	8691.52
618.543	8628.93
618.899	8735.82
619.255	8615.37
619.611	8648.59
619.967	8714.12
620.323	8664.4
620.678	8690.84
621.034	8704.4
621.39	8648.13
621.746	8707.57
622.101	8803.16
622.457	8724.74
622.812	8713.67
623.168	8711.18
623.523	8643.39
623.879	8668.7
624.234	8703.05
624.589	8728.13
624.945	8665.76
625.3	8686.78
625.655	8637.06
626.01	8677.06
626.365	8653.33
626.72	8679.55
627.075	8705.31
627.43	8703.05
627.785	8685.2
628.14	8735.14
628.495	8704.86
628.85	8642.94
629.205	8660.34
629.559	8673.44
629.914	8597.29
630.269	8670.51
630.623	8607.23
630.978	8625.31
631.332	8641.35
631.687	8628.02
632.041	8555.03
632.396	8589.6
632.75	8535.82
633.104	8607.01
633.459	8575.14
633.813	8551.87
634.167	8504.86
634.521	8543.73
634.875	8567.01
635.229	8554.13
635.583	8515.93
635.937	8483.17
636.291	8417.18
636.645	8448.14
636.999	8462.6
637.352	8454.47
637.706	8433.9
638.06	8485.65
638.413	8448.59
638.767	8461.47
639.121	8479.78
639.474	8423.51
639.828	8391.19
640.181	8367.69
640.534	8394.13
640.888	8371.53
641.241	8377.41
641.594	8383.96
641.947	8363.85
642.301	8367.24
642.654	8388.03
643.007	8389.16
643.36	8361.36
643.713	8303.96
644.066	8338.54
644.419	8289.73
644.771	8248.82
645.124	8217.64
645.477	8217.19
645.83	8115.72
646.182	8084.08
646.535	8082.27
646.888	8181.25
647.24	8035.95
647.593	8114.59
647.945	8092.67
648.298	8022.16
648.65	8080.24
649.002	8063.06
649.355	8031.88
649.707	8085.44
650.059	8120.46
650.411	8148.26
650.763	8127.47
651.115	8292.89
651.467	8249.05
651.819	8206.56
652.171	8232.1
652.523	8181.71
652.875	8239.78
653.227	8201.37
653.578	8240.69
653.93	8191.88
654.282	8177.41
654.633	8214.25
654.985	8195.49
655.337	8199.11
655.688	8221.93
656.039	8250.63
656.391	8127.47
656.742	8152.55
657.094	8200.91
657.445	8230.74
657.796	8226
658.147	8234.36
658.498	8255.83
658.849	8293.12
659.2	8260.8
659.551	8220.12
659.902	8253.79
660.253	8271.65
660.604	8266
660.955	8218.31
661.306	8287.24
661.656	8282.95
662.007	8303.28
662.358	8290.86
662.708	8256.28
663.059	8272.1
663.409	8265.77
663.76	8286.11
664.11	8270.07
664.461	8290.4
664.811	8286.56
665.161	8283.62
665.511	8277.3
665.862	8310.06
666.212	8271.42
666.562	8366.33
666.912	8363.17
667.262	8310.06
667.612	8324.98
667.962	8335.37
668.312	8285.43
668.662	8370.4
669.011	8324.3
669.361	8295.38
669.711	8290.63
670.06	8306.45
670.41	8307.35
670.76	8313.68
671.109	8258.31
671.459	8311.42
671.808	8231.65
672.157	8325.66
672.507	8201.59
672.856	8240.01
673.205	8304.19
673.554	8244.98
673.904	8204.3
674.253	8265.77
674.602	8269.61
674.951	8170.63
675.3	8070.75
675.649	8171.08
675.998	8144.87
676.346	8169.28
676.695	8253.34
677.044	8211.08
677.393	8179.67
677.741	8197.75
678.09	8170.18
678.438	8156.85
678.787	8157.53
679.135	8098.09
679.484	8063.06
679.832	8139.67
680.181	8035.27
680.529	8054.48
680.877	8088.83
681.225	8046.57
681.573	8104.42
681.922	8038.88
682.27	7990.3
682.618	8008.83
682.966	7975.84
683.314	7972.9
683.661	7950.3
684.009	7874.37
684.357	7895.16
684.705	7883.63
685.053	7886.57
685.4	7879.34
685.748	7817.65
686.095	7786.46
686.443	7768.16
686.79	7788.72
687.138	7758.89
687.485	7750.3
687.832	7717.99
688.18	7714.37
688.527	7684.77
688.874	7658.78
689.221	7681.15
689.568	7637.77
689.915	7653.13
690.262	7580.82
690.609	7560.03
690.956	7559.58
691.303	7536.07
691.65	7496.3
691.997	7482.06
692.344	7487.26
692.69	7397.55
693.037	7458.56
693.383	7313.93
693.73	7358.9
694.077	7367.72
694.423	7345.57
694.769	7289.07
695.116	7238.68
695.462	7281.62
695.808	7236.87
696.155	7233.93
696.501	7131.34
696.847	7145.57
697.193	7126.82
697.539	7134.28
697.885	7090.21
698.231	7078.46
698.577	7053.15
698.923	7004.34
699.269	6946.94
699.614	6961.17
699.96	6922.53
700.306	6899.25
700.651	6868.75
700.997	6811.12
701.342	6845.92
701.688	6808.63
702.033	6808.63
702.379	6785.36
702.724	6732.03
703.069	6758.24
703.415	6665.59
703.76	6660.62
704.105	6643.44
704.45	6666.27
704.795	6563.22
705.14	6600.5
705.485	6572.93
705.83	6508.98
706.175	6536.78
706.52	6532.48
706.865	6487.29
707.209	6478.93
707.554	6409.55
707.899	6442.77
708.243	6407.97
708.588	6398.48
708.932	6328.65
709.277	6338.14
709.621	6306.27
709.966	6310.57
710.31	6243.45
710.654	6247.52
710.998	6226.5
711.342	6245.49
711.687	6245.94
712.031	6191.02
712.375	6199.16
712.719	6240.06
713.063	6171.14
713.407	6173.17
713.75	6153.28
714.094	6118.26
714.438	6106.73
714.782	6141.08
715.125	6124.36
715.469	6101.99
715.812	6087.3
716.156	6075.77
716.499	6078.94
716.843	6044.13
717.186	6061.08
717.53	6064.7
717.873	6069.44
718.216	6043.91
718.559	6012.72
718.902	6021.08
719.246	5987.64
719.589	5964.14
719.932	5902.67
720.275	5949
720.617	5949.45
720.96	5919.84
721.303	5990.12
721.646	5943.57
721.989	5946.74
722.331	5942.67
722.674	5932.05
723.016	5948.77
723.359	5889.79
723.701	5937.92
724.044	5889.34
724.386	5861.54
724.729	5904.03
725.071	5892.73
725.413	5941.76
725.755	5877.13
726.097	5892.05
726.439	5850.92
726.782	5812.73
727.124	5890.01
727.465	5852.73
727.807	5874.65
728.149	5829.9
728.491	5826.97
728.833	5873.52
729.175	5832.84
729.516	5844.37
729.858	5821.99
730.199	5857.93
730.541	5771.15
730.882	5840.98
731.224	5878.94
731.565	5800.98
731.906	5832.16
732.248	5840.98
732.589	5796.46
732.93	5819.96
733.271	5796.01
733.612	5858.83
733.953	5865.83
734.294	5829
734.635	5817.7
734.976	5833.74
735.317	5826.51
735.658	5821.09
735.999	5826.06
736.339	5890.01
736.68	5863.35
737.021	5835.33
737.361	5844.14
737.702	5838.49
738.042	5861.31
738.383	5848.21
738.723	5889.11
739.063	5883.46
739.404	5823.12
739.744	5923.23
740.084	5924.59
740.424	5903.8
740.764	5945.61
741.104	6013.18
741.444	5909.45
741.784	5882.56
742.124	6009.56
742.464	5962.56
742.804	6016.11
743.143	6024.7
743.483	6025.38
743.823	6008.43
744.162	6087.07
744.502	6122.32
744.841	6153.51
745.181	6172.72
745.52	6134.98
745.86	6188.99
746.199	6254.52
746.538	6269.89
746.877	6279.61
747.216	6332.49
747.556	6416.33
747.895	6430.11
748.234	6494.74
748.573	6509.43
748.911	6572.48
749.25	6641.18
749.589	6672.59
749.928	6792.14
750.267	6824.23
750.605	6893.38
750.944	6923.89
751.283	6993.49
751.621	7051.34
751.96	7180.38
752.298	7261.5
752.636	7284.78
752.975	7423.31
753.313	7462.4
753.651	7619.01
753.989	7704.66
754.327	7826.23
754.666	7854.26
755.004	8006.34
755.342	8140.58
755.679	8313.23
756.017	8380.57
756.355	8494.47
756.693	8621.92
757.031	8764.74
757.368	8894.46
757.706	9026.88
758.044	9218.29
758.381	9344.84
758.719	9470.49
759.056	9720.87
759.394	9725.39
759.731	9859.4
760.068	10047.19
760.405	10179.62
760.743	10378.03
761.08	10556.56
761.417	10620.29
761.754	10863.22
762.091	11072.25
762.428	11136.43
762.765	11246.71
763.102	11507.49
763.438	11684.44
763.775	11812.34
764.112	11958.33
764.449	12192
764.785	12368.26
765.122	12420.69
765.458	12638.31
765.795	12796.95
766.131	12996.27
766.467	13055.7
766.804	13137.06
767.14	13290.95
767.476	13497.27
767.812	13657.27
768.148	13786.3
768.485	13910.82
768.821	14045.96
769.157	14156.01
