Data from hue_80_FLMS001491_48.txt Node
Date: Mon Feb 06 15:23:03 GMT 2017
User: dcchb
Spectrometer: FLMS00149
Trigger mode: 0
Integration Time (sec): 2.000000E-2
Scans to average: 10
Electric dark correction enabled: true
Nonlinearity correction enabled: false
Boxcar width: 0
XAxis mode: Wavelengths
Number of Pixels in Spectrum: 2048
>>>>>Begin Spectral Data<<<<<
341.393	-17.08
341.776	-17.08
342.16	-17.08
342.543	-57.98
342.927	-63.18
343.31	-67.02
343.693	-50.52
344.077	-81.71
344.46	-61.82
344.843	-50.97
345.226	-41.48
345.61	-38.09
345.993	-26.12
346.376	17.5
346.759	20.66
347.142	31.96
347.525	36.93
347.908	57.95
348.291	80.55
348.674	79.19
349.057	92.98
349.44	101.57
349.823	123.49
350.206	149.47
350.588	170.72
350.971	184.95
351.354	226.99
351.737	227.21
352.119	248.23
352.502	272.41
352.884	261.79
353.267	267.44
353.65	280.09
354.032	309.24
354.414	308.57
354.797	309.7
355.179	334.33
355.562	329.58
355.944	319.41
356.326	329.13
356.709	322.35
357.091	330.03
357.473	339.07
357.855	325.06
358.238	330.71
358.62	331.16
359.002	328
359.384	325.74
359.766	327.77
360.148	341.11
360.53	342.91
360.912	329.13
361.294	328.23
361.676	347.21
362.057	312.18
362.439	332.52
362.821	307.66
363.203	313.76
363.584	312.86
363.966	321.9
364.348	306.08
364.729	318.73
365.111	299.98
365.493	326.87
365.874	319.86
366.256	306.76
366.637	320.99
367.019	298.85
367.4	320.09
367.781	289.13
368.163	291.16
368.544	298.62
368.925	300.88
369.306	332.52
369.688	297.94
370.069	303.82
370.45	315.12
370.831	323.25
371.212	324.16
371.593	306.98
371.974	292.07
372.355	296.14
372.736	311.73
373.117	300.88
373.498	316.93
373.879	314.89
374.26	310.15
374.641	303.59
375.021	322.58
375.402	319.19
375.783	335.91
376.163	313.31
376.544	316.7
376.925	318.28
377.305	311.28
377.686	323.25
378.066	327.77
378.447	314.21
378.827	333.2
379.208	312.63
379.588	315.34
379.968	322.12
380.349	341.56
380.729	332.07
381.109	348.11
381.489	313.31
381.87	342.91
382.25	318.96
382.63	336.81
383.01	329.58
383.39	320.77
383.77	336.14
384.15	333.2
384.53	331.39
384.91	356.7
385.29	340.2
385.67	336.36
386.049	332.75
386.429	352.41
386.809	353.99
387.189	356.02
387.568	326.42
387.948	350.37
388.328	335.46
388.707	354.67
389.087	350.15
389.466	365.74
389.846	369.81
390.225	354.21
390.605	362.12
390.984	362.35
391.363	379.3
391.743	362.35
392.122	358.96
392.501	346.08
392.881	365.74
393.26	359.86
393.639	354.89
394.018	371.39
394.397	387.21
394.776	369.58
395.155	359.64
395.534	367.55
395.913	373.42
396.292	378.62
396.671	382.01
397.05	372.52
397.429	400.99
397.808	377.26
398.186	387.89
398.565	389.02
398.944	385.4
399.323	397.83
399.701	386.53
400.08	396.47
400.458	391.95
400.837	394.66
401.215	392.86
401.594	406.64
401.972	391.95
402.351	391.5
402.729	411.39
403.107	379.3
403.486	406.19
403.864	402.8
404.242	417.26
404.62	400.77
404.999	410.71
405.377	404.83
405.755	420.43
406.133	410.03
406.511	433.31
406.889	416.36
407.267	402.12
407.645	435.12
408.023	416.81
408.401	415.46
408.779	453.19
409.156	423.82
409.534	446.87
409.912	438.96
410.29	426.08
410.667	447.32
411.045	450.26
411.422	436.47
411.8	448.9
412.178	442.35
412.555	456.36
412.933	470.37
413.31	458.84
413.687	451.16
414.065	459.75
414.442	464.72
414.819	471.72
415.197	475.34
415.574	485.06
415.951	488.45
416.328	471.72
416.705	517.15
417.082	481.67
417.46	498.62
417.837	480.54
418.214	489.58
418.591	516.92
418.967	485.28
419.344	506.53
419.721	489.8
420.098	490.48
420.475	518.5
420.852	525.96
421.228	548.33
421.605	518.96
421.982	530.71
422.358	541.1
422.735	525.51
423.111	547.43
423.488	528.45
423.864	538.62
424.241	536.81
424.617	555.79
424.994	551.27
425.37	555.79
425.746	576.81
426.123	579.74
426.499	556.92
426.875	558.28
427.251	593.98
427.627	599.41
428.003	584.72
428.379	582.68
428.756	583.13
429.132	593.76
429.507	620.42
429.883	620.87
430.259	608.9
430.635	633.53
431.011	606.18
431.387	626.3
431.763	642.12
432.138	639.4
432.514	646.86
432.89	651.38
433.265	660.65
433.641	669.69
434.016	676.69
434.392	678.27
434.767	659.52
435.143	671.95
435.518	693.41
435.894	662.91
436.269	692.06
436.644	707.65
437.02	731.15
437.395	733.86
437.77	725.96
438.145	738.61
438.52	739.97
438.895	727.99
439.271	734.99
439.646	737.25
440.021	734.32
440.395	734.09
440.77	734.99
441.145	757.14
441.52	776.8
441.895	766.18
442.27	765.95
442.645	786.29
443.019	770.25
443.394	777.48
443.769	780.19
444.143	796.91
444.518	806.41
444.892	822.22
445.267	825.16
445.641	811.83
446.016	823.58
446.39	832.62
446.764	830.36
447.139	839.4
447.513	822
447.887	838.72
448.262	852.73
448.636	859.06
449.01	852.28
449.384	860.64
449.758	905.39
450.132	883.47
450.506	862.45
450.88	898.83
451.254	893.41
451.628	914.88
452.002	917.14
452.376	926.4
452.75	930.47
453.123	903.35
453.497	947.42
453.871	948.1
454.244	953.07
454.618	958.27
454.992	1005.95
455.365	971.6
455.739	1025.16
456.112	1004.82
456.486	1023.8
456.859	1041.2
457.232	1038.49
457.606	1057.7
457.979	1065.83
458.352	1058.38
458.725	1090.92
459.099	1115.55
459.472	1109
459.845	1118.04
460.218	1161.2
460.591	1143.8
460.964	1148.54
461.337	1174.31
461.71	1173.4
462.083	1209.33
462.456	1214.3
462.829	1215.21
463.201	1256.79
463.574	1259.95
463.947	1257.69
464.32	1307.18
464.692	1299.95
465.065	1335.21
465.438	1347.86
465.81	1348.99
466.183	1382.66
466.555	1371.14
466.928	1402.55
467.3	1431.7
467.672	1466.5
468.045	1486.84
468.417	1503.56
468.789	1535.65
469.161	1506.95
469.534	1602.09
469.906	1591.92
470.278	1619.04
470.65	1665.59
471.022	1666.5
471.394	1715.53
471.766	1745.36
472.138	1765.25
472.51	1826.94
472.882	1826.94
473.253	1881.63
473.625	1914.85
473.997	1946.71
474.369	2019.25
474.74	2054.73
475.112	2061.51
475.484	2141.96
475.855	2164.34
476.227	2210.21
476.598	2280.49
476.97	2359.13
477.341	2381.05
477.713	2420.6
478.084	2471.9
478.455	2585.12
478.827	2618.34
479.198	2735.17
479.569	2726.81
479.94	2870.08
480.311	2897.2
480.682	3033.24
481.053	3092.9
481.424	3167.93
481.795	3290.41
482.166	3347.58
482.537	3396.17
482.908	3532.66
483.279	3608.37
483.65	3722.03
484.021	3832.31
484.391	3914.35
484.762	4015.36
485.133	4107.79
485.503	4220.78
485.874	4329.7
486.244	4448.34
486.615	4529.25
486.985	4689.69
487.356	4768.34
487.726	4905.73
488.097	5045.16
488.467	5180.98
488.837	5261.66
489.207	5395.89
489.578	5575.32
489.948	5719.5
490.318	5779.83
490.688	5902.09
491.058	6053.05
491.428	6190.44
491.798	6364.9
492.168	6535.75
492.538	6577.33
492.908	6742.75
493.278	6884.89
493.648	7011.67
494.017	7152
494.387	7278.1
494.757	7472.44
495.126	7519
495.496	7682.38
495.866	7846.45
496.235	7980
496.605	8096.38
496.974	8234.46
497.344	8415.92
497.713	8441.01
498.082	8647.33
498.452	8807.55
498.821	8846.65
499.19	8923.93
499.559	9050.71
499.928	9156.24
500.298	9337.93
500.667	9456.8
501.036	9512.39
501.405	9599.39
501.774	9715.32
502.143	9869.67
502.512	9977.46
502.88	10022.89
503.249	10150.11
503.618	10241.64
503.987	10364.57
504.356	10463.33
504.724	10584.45
505.093	10687.73
505.462	10782.19
505.83	10876.2
506.199	10964.78
506.567	11181.27
506.936	11154.61
507.304	11394.83
507.672	11391.66
508.041	11496.07
508.409	11607.25
508.777	11751.2
509.145	11883.85
509.514	11831.65
509.882	11973.8
510.25	12030.97
510.618	12096.5
510.986	12161.14
511.354	12331.07
511.722	12394.35
512.09	12576.27
512.458	12496.72
512.826	12706.66
513.193	12740.78
513.561	12727
513.929	12877.5
514.297	13040.89
514.664	13091.51
515.032	13077.95
515.4	13282.91
515.767	13223.25
516.135	13342.12
516.502	13282.69
516.869	13551.83
517.237	13577.82
517.604	13525.62
517.972	13729.91
518.339	13796.35
518.706	13844.93
519.073	13842.9
519.44	13937.13
519.808	14083.57
520.175	13995.21
520.542	14211.25
520.909	14352.94
521.276	14269.33
521.643	14439.95
522.009	14500.73
522.376	14555.87
522.743	14694.85
523.11	14686.72
523.477	14839.48
523.843	14904.57
524.21	15023.43
524.577	15077.22
524.943	15102.3
525.31	15146.37
525.676	15361.5
526.043	15423.65
526.409	15354.72
526.776	15440.14
527.142	15497.77
527.508	15600.59
527.874	15738.67
528.241	15608.05
528.607	15650.76
528.973	15819.57
529.339	15793.13
529.705	15832.68
530.071	16005.33
530.437	16057.76
530.803	16001.26
531.169	16177.3
531.535	15986.57
531.901	16022.05
532.267	16137.3
532.632	16228.6
532.998	16216.17
533.364	16282.38
533.73	16308.14
534.095	16355.15
534.461	16377.75
534.826	16437.86
535.192	16454.13
535.557	16482.6
535.923	16458.88
536.288	16537.29
536.653	16487.12
537.019	16407.58
537.384	16495.03
537.749	16516.27
538.114	16535.94
538.479	16573.22
538.845	16618.64
539.21	16474.69
539.575	16550.17
539.94	16491.64
540.305	16651.86
540.67	16569.15
541.034	16623.84
541.399	16544.52
541.764	16591.53
542.129	16602.6
542.494	16575.71
542.858	16643.96
543.223	16576.61
543.587	16671.52
543.952	16694.35
544.316	16580.68
544.681	16620.9
545.045	16622.49
545.41	16627.46
545.774	16568.25
546.138	16646.21
546.503	16602.83
546.867	16622.49
547.231	16694.8
547.595	16637.63
547.959	16616.39
548.324	16587.01
548.688	16646.21
549.052	16635.59
549.416	16561.92
549.779	16591.75
550.143	16625.42
550.507	16588.82
550.871	16634.92
551.235	16595.82
551.599	16657.06
551.962	16577.29
552.326	16675.14
552.689	16638.53
553.053	16630.4
553.417	16620.23
553.78	16923.04
554.143	16759.43
554.507	16737.29
554.87	16740.22
555.234	16794.23
555.597	16765.08
555.96	16669.94
556.323	16730.51
556.686	16700
557.05	16842.14
557.413	16828.58
557.776	16787
558.139	16805.53
558.502	16812.76
558.865	16906.32
559.228	16987.67
559.59	17013.21
559.953	17079.88
560.316	17119.2
560.679	17156.48
561.041	17172.53
561.404	17235.8
561.767	17319.87
562.129	17191.06
562.492	17315.12
562.854	17318.06
563.217	17236.03
563.579	17378.17
563.941	17324.84
564.304	17383.82
564.666	17396.48
565.028	17438.96
565.39	17516.7
565.753	17537.72
566.115	17610.26
566.477	17584.95
566.839	17663.14
567.201	17670.82
567.563	17739.75
567.925	17793.76
568.287	17770.71
568.648	17853.41
569.01	17852.96
569.372	17918.05
569.734	18004.6
570.095	17948.33
570.457	18057.93
570.819	18060.87
571.18	18024.03
571.542	18043.47
571.903	18117.36
572.265	18194.65
572.626	18124.82
572.987	18189.9
573.349	18196
573.71	18313.74
574.071	18320.3
574.432	18219.96
574.794	18456.11
575.155	18414.76
575.516	18330.01
575.877	18426.06
576.238	18433.29
576.599	18548.76
576.96	18448.2
577.32	18449.56
577.681	18393.29
578.042	18536.33
578.403	18493.17
578.763	18504.02
579.124	18584.02
579.485	18582.89
579.845	18681.87
580.206	18572.72
580.566	18595.54
580.927	18519.39
581.287	18630.8
581.648	18538.14
582.008	18715.54
582.368	18617.24
582.728	18656.11
583.089	18603.68
583.449	18553.74
583.809	18641.42
584.169	18663.79
584.529	18665.14
584.889	18727.06
585.249	18677.8
585.609	18581.08
585.969	18669.21
586.329	18554.64
586.688	18571.14
587.048	18576.33
587.408	18598.03
587.768	18574.07
588.127	18499.73
588.487	18563.45
588.846	18671.7
589.206	18463.34
589.565	18512.38
589.925	18580.63
590.284	18512.83
590.643	18469.44
591.003	18497.69
591.362	18586.73
591.721	18551.02
592.08	18577.46
592.44	18651.36
592.799	18580.4
593.158	18528.65
593.517	18506.96
593.876	18533.62
594.235	18566.39
594.593	18523.23
594.952	18617.91
595.311	18442.33
595.67	18495.43
596.029	18591.25
596.387	18610.68
596.746	18589.67
597.104	18496.79
597.463	18551.25
597.822	18513.51
598.18	18487.3
598.538	18483.45
598.897	18577.69
599.255	18405.04
599.613	18699.72
599.972	18533.85
600.33	18684.58
600.688	18569.33
601.046	18661.08
601.404	18554.19
601.762	18650.46
602.12	18649.1
602.478	18700.4
602.836	18738.14
603.194	18579.05
603.552	18609.33
603.91	18618.14
604.268	18612.04
604.625	18560.06
604.983	18685.48
605.341	18508.99
605.698	18749.44
606.056	18737.91
606.413	18715.31
606.771	18693.17
607.128	18726.16
607.485	18664.01
607.843	18661.53
608.2	18744.01
608.557	18839.83
608.914	18759.83
609.272	18898.59
609.629	18761.19
609.986	18866.04
610.343	18763
610.7	18997.34
611.057	18867.63
611.414	18892.26
611.771	19012.03
612.127	18941.3
612.484	19023.55
612.841	19085.92
613.198	19085.47
613.554	19026.72
613.911	19176.77
614.267	19038.69
614.624	19086.6
614.98	19117.56
615.337	19237.11
615.693	19111.23
616.05	19187.84
616.406	19239.14
616.762	19229.42
617.118	19176.32
617.475	19274.39
617.831	19309.2
618.187	19207.96
618.543	19196.43
618.899	19334.73
619.255	19332.7
619.611	19266.48
619.967	19283.89
620.323	19429.64
620.678	19342.87
621.034	19324.11
621.39	19347.16
621.746	19291.57
622.101	19469.87
622.457	19355.07
622.812	19419.93
623.168	19435.29
623.523	19500.6
623.879	19540.83
624.234	19392.13
624.589	19431.45
624.945	19407.95
625.3	19503.09
625.655	19424.22
626.01	19470.1
626.365	19498.8
626.72	19385.35
627.075	19502.18
627.43	19401.4
627.785	19438.23
628.14	19459.47
628.495	19402.75
628.85	19425.8
629.205	19385.8
629.559	19504.22
629.914	19407.95
630.269	19389.87
630.623	19368.4
630.978	19275.07
631.332	19319.59
631.687	19372.24
632.041	19398.46
632.396	19361.17
632.75	19315.07
633.104	19296.31
633.459	19188.97
633.813	19167.96
634.167	19264.23
634.521	19193.04
634.875	19217.45
635.229	19062.65
635.583	19153.72
635.937	19073.95
636.291	19122.99
636.645	19054.97
636.999	19096.32
637.352	19043.67
637.706	18885.48
638.06	19071.91
638.413	19028.3
638.767	18981.97
639.121	18942.43
639.474	18807.29
639.828	18839.15
640.181	18981.52
640.534	18957.79
640.888	18798.93
641.241	18813.39
641.594	18777.91
641.947	18847.74
642.301	18781.3
642.654	18823.11
643.007	18755.99
643.36	18781.75
643.713	18691.58
644.066	18764.35
644.419	18695.65
644.771	18607.97
645.124	18405.94
645.477	18464.02
645.83	18231.26
646.182	18212.28
646.535	18083.24
646.888	18219.73
647.24	18073.97
647.593	18184.25
647.945	18176.34
648.298	17979.51
648.65	18035.56
649.002	17981.32
649.355	18087.98
649.707	18097.48
650.059	18121.88
650.411	18277.36
650.763	18445.04
651.115	18567.52
651.467	18552.15
651.819	18466.96
652.171	18483.23
652.523	18476.22
652.875	18443.23
653.227	18405.49
653.578	18487.75
653.93	18461.99
654.282	18459.73
654.633	18404.13
654.985	18431.48
655.337	18355.32
655.688	18472.16
656.039	18527.75
656.391	18371.37
656.742	18421.31
657.094	18469.44
657.445	18456.79
657.796	18516
658.147	18426.51
658.498	18329.33
658.849	18432.83
659.2	18412.95
659.551	18442.55
659.902	18404.59
660.253	18432.83
660.604	18460.63
660.955	18349.22
661.306	18479.61
661.656	18414.08
662.007	18407.07
662.358	18460.4
662.708	18458.37
663.059	18470.8
663.409	18280.75
663.76	18519.16
664.11	18555.09
664.461	18448.43
664.811	18520.97
665.161	18436.9
665.511	18493.17
665.862	18496.11
666.212	18520.06
666.562	18614.52
666.912	18445.49
667.262	18513.96
667.612	18530.69
667.962	18401.2
668.312	18469.9
668.662	18532.49
669.011	18449.78
669.361	18343.8
669.711	18445.94
670.06	18423.12
670.41	18378.15
670.76	18341.54
671.109	18309.22
671.459	18316.45
671.808	18414.53
672.157	18431.93
672.507	18379.5
672.856	18342.22
673.205	18282.78
673.554	18382.67
673.904	18231.26
674.253	18358.94
674.602	18345.61
674.951	18023.58
675.3	17975.22
675.649	18228.09
675.998	18213.41
676.346	18171.6
676.695	18316.91
677.044	18116.91
677.393	18181.32
677.741	18150.36
678.09	18110.13
678.438	18115.1
678.787	18169.79
679.135	18184.48
679.484	17971.15
679.832	18049.79
680.181	17948.1
680.529	17957.37
680.877	17953.75
681.225	18076.23
681.573	17889.35
681.922	17828.33
682.27	17876.92
682.618	17870.82
682.966	17735
683.314	17785.17
683.661	17761.67
684.009	17671.05
684.357	17559.86
684.705	17522.8
685.053	17538.17
685.4	17490.71
685.748	17437.61
686.095	17514.67
686.443	17416.82
686.79	17295.46
687.138	17368.23
687.485	17396.25
687.832	17277.16
688.18	17219.08
688.527	17136.37
688.874	17099.31
689.221	17047.33
689.568	17078.52
689.915	17089.14
690.262	16969.82
690.609	16974.57
690.956	16843.27
691.303	16914.46
691.65	16791.97
691.997	16805.53
692.344	16710.17
692.69	16688.7
693.037	16594.69
693.383	16468.82
693.73	16546.78
694.077	16378.43
694.423	16494.13
694.769	16429.72
695.116	16269.95
695.462	16233.8
695.808	16213.68
696.155	16215.94
696.501	16117.64
696.847	16093.46
697.193	15970.07
697.539	16028.6
697.885	15865.44
698.231	15855.28
698.577	15814.6
698.923	15752.45
699.269	15629.74
699.614	15647.6
699.96	15585.45
700.306	15568.05
700.651	15462.74
700.997	15365.8
701.342	15431.78
701.688	15375.97
702.033	15250.55
702.379	15232.01
702.724	15264.1
703.069	15225.24
703.415	15099.14
703.76	15057.78
704.105	14960.84
704.45	14920.61
704.795	14901.18
705.14	14862.76
705.485	14884.23
705.83	14647.62
706.175	14755.87
706.52	14689.66
706.865	14650.79
707.209	14607.17
707.554	14594.52
707.899	14540.28
708.243	14525.14
708.588	14440.17
708.932	14285.82
709.277	14335.77
709.621	14281.98
709.966	14202.44
710.31	14296.22
710.654	14099.39
710.998	14235.43
711.342	14152.95
711.687	14123.8
712.031	14088.09
712.375	14024.59
712.719	13963.8
713.063	14010.58
713.407	14013.06
713.75	13893.97
714.094	13912.95
714.438	13914.08
714.782	13907.3
715.125	13773.3
715.469	13799.96
715.812	13696.46
716.156	13720.42
716.499	13717.93
716.843	13705.28
717.186	13586.86
717.53	13648.1
717.873	13622.79
718.216	13611.27
718.559	13580.98
718.902	13450.37
719.246	13515.45
719.589	13488.33
719.932	13359.07
720.275	13404.72
720.617	13409.46
720.96	13345.74
721.303	13380.54
721.646	13398.39
721.989	13329.24
722.331	13366.53
722.674	13387.54
723.016	13363.36
723.359	13340.31
723.701	13305.74
724.044	13176.7
724.386	13127.44
724.729	13252.18
725.071	13108.45
725.413	13215.57
725.755	13179.64
726.097	13105.29
726.439	12984.62
726.782	13126.76
727.124	13124.05
727.465	13071.62
727.807	13149.36
728.149	13062.35
728.491	13010.38
728.833	13057.83
729.175	12970.61
729.516	12955.24
729.858	12967.67
730.199	12930.61
730.541	12948.46
730.882	13023.26
731.224	12962.24
731.565	12950.04
731.906	12939.65
732.248	12959.76
732.589	12878.18
732.93	12861.46
733.271	12885.64
733.612	12952.75
733.953	12942.81
734.294	12867.78
734.635	12821
734.976	12910.95
735.317	12833.89
735.658	12924.5
735.999	12845.86
736.339	12821
736.68	12816.71
737.021	12891.29
737.361	12805.19
737.702	12908.69
738.042	12902.58
738.383	12861
738.723	12801.8
739.063	12954.79
739.404	12923.83
739.744	12911.85
740.084	12838.86
740.424	12907.56
740.764	12882.7
741.104	13004.28
741.444	12898.06
741.784	12880.21
742.124	13008.12
742.464	12944.84
742.804	12914.34
743.143	12928.35
743.483	12968.57
743.823	12955.24
744.162	12983.26
744.502	12980.1
744.841	13016.48
745.181	13122.92
745.52	13071.62
745.86	13099.42
746.199	13129.7
746.538	13179.41
746.877	13239.3
747.216	13283.82
747.556	13323.59
747.895	13359.97
748.234	13333.53
748.573	13364.95
748.911	13470.25
749.25	13509.35
749.589	13478.16
749.928	13522.46
750.267	13704.15
750.605	13675.67
750.944	13811.26
751.283	13776.01
751.621	13935.55
751.96	13957.7
752.298	14132.16
752.636	14170.35
752.975	14181.87
753.313	14134.87
753.651	14396.78
753.989	14372.15
754.327	14466.61
754.666	14559.49
755.004	14732.59
755.342	14760.16
755.679	14869.09
756.017	14956.54
756.355	15160.6
756.693	15134.84
757.031	15243.99
