Data from hue_170_FLMS001491_00058.txt Node
Date: Tue Feb 07 16:48:53 GMT 2017
User: dcchb
Spectrometer: FLMS00149
Trigger mode: 0
Integration Time (sec): 2.000000E-2
Scans to average: 10
Electric dark correction enabled: true
Nonlinearity correction enabled: false
Boxcar width: 0
XAxis mode: Wavelengths
Number of Pixels in Spectrum: 2048
>>>>>Begin Spectral Data<<<<<
341.393	-2.6
341.776	-2.6
342.16	-2.6
342.543	-46.67
342.927	-69.04
343.31	-83.27
343.693	-75.14
344.077	-57.96
344.46	-48.93
344.843	-51.19
345.226	-32.43
345.61	-25.2
345.993	-34.91
346.376	-29.49
346.759	14.58
347.142	9.15
347.525	68.81
347.908	62.03
348.291	66.33
348.674	92.09
349.057	125.53
349.44	128.02
349.823	144.74
350.206	171.41
350.588	201.69
350.971	211.86
351.354	226.32
351.737	239.88
352.119	259.54
352.502	256.15
352.884	270.39
353.267	282.14
353.65	293.66
354.032	287.79
354.414	320.56
354.797	308.13
355.179	331.86
355.562	296.38
355.944	340.22
356.326	304.29
356.709	342.48
357.091	334.34
357.473	345.19
357.855	329.37
358.238	322.14
358.62	338.86
359.002	329.6
359.384	356.94
359.766	337.05
360.148	332.53
360.53	336.15
360.912	344.06
361.294	327.56
361.676	334.57
362.057	334.57
362.439	312.65
362.821	308.81
363.203	335.02
363.584	328.01
363.966	313.55
364.348	331.4
364.729	317.39
365.111	320.56
365.493	301.12
365.874	323.04
366.256	318.3
366.637	308.35
367.019	313.33
367.4	314
367.781	297.51
368.163	299.31
368.544	317.62
368.925	316.94
369.306	290.95
369.688	292.53
370.069	309.94
370.45	319.65
370.831	322.36
371.212	297.96
371.593	310.16
371.974	306.55
372.355	299.09
372.736	321.01
373.117	324.4
373.498	324.4
373.879	325.08
374.26	311.29
374.641	309.71
375.021	326.43
375.402	324.85
375.783	329.82
376.163	341.35
376.544	321.91
376.925	334.12
377.305	301.12
377.686	309.48
378.066	335.25
378.447	345.19
378.827	347.45
379.208	339.54
379.588	328.92
379.968	325.98
380.349	324.17
380.729	334.34
381.109	333.66
381.489	314.91
381.87	337.28
382.25	321.91
382.63	355.36
383.01	353.32
383.39	339.99
383.77	339.54
384.15	353.78
384.53	357.17
384.91	322.14
385.29	348.8
385.67	360.33
386.049	348.35
386.429	331.18
386.809	363.72
387.189	368.01
387.568	348.8
387.948	344.51
388.328	360.56
388.707	358.97
389.087	372.53
389.466	376.6
389.846	381.35
390.225	370.5
390.605	367.56
390.984	381.35
391.363	371.4
391.743	337.73
392.122	379.76
392.501	377.5
392.881	380.67
393.26	392.65
393.639	390.61
394.018	390.16
394.397	396.49
394.776	358.97
395.155	384.51
395.534	380.89
395.913	390.16
396.292	392.19
396.671	394.9
397.05	393.1
397.429	379.31
397.808	391.74
398.186	384.96
398.565	385.87
398.944	408.24
399.323	402.81
399.701	406.43
400.08	397.39
400.458	417.96
400.837	409.37
401.215	416.83
401.594	388.13
401.972	396.94
402.351	424.06
402.729	427.9
403.107	430.38
403.486	418.86
403.864	443.27
404.242	426.32
404.62	435.36
404.999	443.04
405.377	399.88
405.755	434.23
406.133	431.29
406.511	440.78
406.889	451.4
407.267	450.04
407.645	459.99
408.023	452.76
408.401	449.82
408.779	465.86
409.156	468.58
409.534	470.16
409.912	479.2
410.29	472.19
410.667	496.82
411.045	499.53
411.422	487.78
411.8	520.1
412.178	528.91
412.555	527.56
412.933	506.09
413.31	525.97
413.687	532.75
414.065	514.22
414.442	539.76
414.819	559.87
415.197	559.19
415.574	532.75
415.951	563.49
416.328	542.92
416.705	569.36
417.082	561.91
417.46	567.78
417.837	583.15
418.214	574.34
418.591	608.46
418.967	603.49
419.344	599.42
419.721	607.33
420.098	624.05
420.475	617.95
420.852	614.79
421.228	617.5
421.605	626.76
421.982	633.54
422.358	637.38
422.735	648.01
423.111	647.78
423.488	647.55
423.864	678.74
424.241	686.65
424.617	710.6
424.994	683.03
425.37	702.69
425.746	718.29
426.123	708.12
426.499	699.98
426.875	730.49
427.251	714.22
427.627	739.3
428.003	746.08
428.379	766.87
428.756	758.06
429.132	765.06
429.507	789.47
429.883	742.92
430.259	772.75
430.635	794.22
431.011	804.16
431.387	822.92
431.763	836.48
432.138	865.63
432.514	827.66
432.89	853.65
433.265	899.75
433.641	892.97
434.016	880.99
434.392	896.13
434.767	893.65
435.143	904.95
435.518	929.13
435.894	931.16
436.269	950.82
436.644	987.88
437.02	980.65
437.395	989.47
437.77	994.89
438.145	1015
438.52	1020.2
438.895	1014.55
439.271	1026.75
439.646	1084.38
440.021	1085.96
440.395	1059.52
440.77	1055.23
441.145	1104.72
441.52	1089.12
441.895	1111.72
442.27	1130.7
442.645	1127.31
443.019	1146.52
443.394	1127.77
443.769	1127.77
444.143	1157.14
444.518	1181.32
444.892	1180.65
445.267	1187.65
445.641	1207.09
446.016	1177.71
446.39	1219.97
446.764	1248.44
447.139	1250.93
447.513	1227.2
447.887	1255.67
448.262	1260.64
448.636	1293.86
449.01	1302
449.384	1315.11
449.758	1313.75
450.132	1316.69
450.506	1365.27
450.88	1340.42
451.254	1318.04
451.628	1377.03
452.002	1429.23
452.376	1402.79
452.75	1407.31
453.123	1393.52
453.497	1463.8
453.871	1444.14
454.244	1489.57
454.618	1495.89
454.992	1469.68
455.365	1517.81
455.739	1544.93
456.112	1548.09
456.486	1593.52
456.859	1588.09
457.232	1646.85
457.606	1627.87
457.979	1639.84
458.352	1684.81
458.725	1672.84
459.099	1685.04
459.472	1748.32
459.845	1752.38
460.218	1764.36
460.591	1819.05
460.964	1798.48
461.337	1850.91
461.71	1879.84
462.083	1909.44
462.456	1936.56
462.829	1951.7
463.201	1970
463.574	1967.74
463.947	1998.48
464.32	2069.44
464.692	2093.39
465.065	2088.87
465.438	2158.93
465.81	2176.33
466.183	2218.59
466.555	2237.34
466.928	2278.25
467.3	2268.08
467.672	2322.54
468.045	2384.23
468.417	2371.35
468.789	2410.67
469.161	2489.99
469.534	2515.08
469.906	2583.32
470.278	2589.65
470.65	2658.35
471.022	2656.31
471.394	2727.27
471.766	2790.55
472.138	2842.3
472.51	2913.03
472.882	2925.69
473.253	3019.24
473.625	3098.79
473.997	3120.26
474.369	3172.46
474.74	3241.84
475.112	3317.77
475.484	3363.87
475.855	3452.9
476.227	3492.68
476.598	3625.1
476.97	3668.27
477.341	3788.49
477.713	3868.49
478.084	3918.65
478.455	3958.65
478.827	4095.37
479.198	4212.21
479.569	4317.06
479.94	4415.14
480.311	4465.31
480.682	4599.31
481.053	4702.36
481.424	4821
481.795	4951.85
482.166	5018.51
482.537	5087.89
482.908	5254.89
483.279	5325.17
483.65	5472.29
484.021	5603.58
484.391	5717.48
484.762	5794.76
485.133	5921.09
485.503	5992.05
485.874	6232.49
486.244	6308.65
486.615	6459.83
486.985	6551.81
487.356	6721.52
487.726	6812.59
488.097	6956.99
488.467	7064.33
488.837	7221.39
489.207	7427.94
489.578	7558.33
489.948	7696.63
490.318	7794.48
490.688	7893.01
491.058	8076.96
491.428	8216.62
491.798	8356.73
492.168	8474.69
492.538	8569.38
492.908	8632.43
493.278	8872.42
493.648	8881.91
494.017	9076.26
494.387	9157.16
494.757	9328.68
495.126	9428.34
495.496	9485.29
495.866	9531.84
496.235	9710.37
496.605	9866.75
496.974	9939.06
497.344	10026.06
497.713	10074.88
498.082	10194.87
498.452	10275.55
498.821	10425.38
499.19	10438.48
499.559	10604.58
499.928	10637.12
500.298	10776.33
500.667	10850.68
501.036	10822.43
501.405	10984.23
501.774	10960.95
502.143	11127.5
502.512	11100.39
502.88	11339.7
503.249	11268.52
503.618	11433.94
503.987	11399.81
504.356	11421.73
504.724	11550.09
505.093	11636.42
505.462	11686.81
505.83	11788.96
506.199	11783.76
506.567	11952.34
506.936	11936.75
507.304	12127.25
507.672	12071.21
508.041	12079.57
508.409	12216.97
508.777	12334.03
509.145	12355.49
509.514	12365.89
509.882	12380.8
510.25	12475.27
510.618	12526.34
510.986	12482.5
511.354	12568.37
511.722	12753.22
512.09	12782.15
512.458	12788.93
512.826	12850.85
513.193	12945.54
513.561	12884.07
513.929	13010.17
514.297	13049.26
514.664	13121.35
515.032	13115.7
515.4	13123.84
515.767	13265.75
516.135	13207.45
516.502	13150.73
516.869	13348.24
517.237	13349.14
517.604	13260.56
517.972	13412.42
518.339	13465.52
518.706	13348.46
519.073	13456.93
519.44	13446.09
519.808	13549.59
520.175	13509.36
520.542	13704.61
520.909	13725.4
521.276	13714.33
521.643	13729.7
522.009	13736.02
522.376	13843.59
522.743	13809.92
523.11	13900.09
523.477	13974.89
523.843	14023.47
524.21	14030.03
524.577	14059.63
524.943	14087.2
525.31	14191.15
525.676	14212.17
526.043	14160.64
526.409	14232.28
526.776	14376.01
527.142	14282.45
527.508	14297.14
527.874	14322.9
528.241	14357.25
528.607	14265.5
528.973	14353.18
529.339	14339.85
529.705	14432.5
530.071	14478.15
530.437	14512.73
530.803	14477.7
531.169	14503.69
531.535	14382.79
531.901	14363.35
532.267	14377.36
532.632	14446.96
532.998	14352.73
533.364	14400.41
533.73	14343.92
534.095	14430.24
534.461	14423.69
534.826	14452.84
535.192	14388.66
535.557	14429.34
535.923	14236.8
536.288	14294.65
536.653	14310.7
537.019	14216.24
537.384	14229.12
537.749	14265.27
538.114	14223.24
538.479	14148.22
538.845	14062.12
539.21	14024.83
539.575	14123.81
539.94	14012.4
540.305	14027.54
540.67	14028.67
541.034	13884.27
541.399	13939.63
541.764	13858.73
542.129	13885.62
542.494	13888.79
542.858	13854.66
543.223	13771.95
543.587	13795.68
543.952	13635.46
544.316	13726.31
544.681	13617.61
545.045	13663.26
545.41	13590.26
545.774	13590.94
546.138	13584.16
546.503	13526.54
546.867	13481.11
547.231	13543.26
547.595	13477.72
547.959	13376.03
548.324	13356.6
548.688	13341.91
549.052	13212.65
549.416	13258.3
549.779	13219.65
550.143	13152.31
550.507	13218.52
550.871	13136.49
551.235	13034.12
551.599	13152.31
551.962	13113.44
552.326	13018.08
552.689	12983.73
553.053	12937.85
553.417	12994.12
553.78	13003.16
554.143	12833.67
554.507	12971.07
554.87	12891.53
555.234	12992.54
555.597	12774.01
555.96	12809.95
556.323	12809.27
556.686	12819.44
557.05	12768.82
557.413	12790.96
557.776	12783.73
558.139	12837.06
558.502	12853.11
558.865	12760
559.228	12811.75
559.59	12782.83
559.953	12729.27
560.316	12804.97
560.679	12699.89
561.041	12800
561.404	12725.2
561.767	12844.52
562.129	12751.64
562.492	12724.3
562.854	12790.74
563.217	12635.04
563.579	12788.48
563.941	12787.35
564.304	12754.35
564.666	12833.45
565.028	12772.66
565.39	12866.44
565.753	12810.17
566.115	12821.02
566.477	12853.33
566.839	12793.22
567.201	12812.88
567.563	12751.64
567.925	12854.92
568.287	12902.82
568.648	12831.64
569.01	12867.8
569.372	12956.83
569.734	12886.1
570.095	13033.89
570.457	12943.95
570.819	12972.43
571.18	12910.96
571.542	12980.56
571.903	12988.47
572.265	13071.86
572.626	13048.13
572.987	13002.03
573.349	13150.5
573.71	13104.18
574.071	13119.32
574.432	13017.17
574.794	13108.69
575.155	13117.51
575.516	12995.93
575.877	13083.84
576.238	13082.25
576.599	13054.23
576.96	13101.46
577.32	13099.2
577.681	13147.56
578.042	13173.33
578.403	13146.66
578.763	13141.91
579.124	13140.56
579.485	13171.74
579.845	13270.5
580.206	13112.54
580.566	13077.06
580.927	13136.49
581.287	13231.86
581.648	13173.1
582.008	13190.95
582.368	13161.8
582.728	13146.89
583.089	13142.37
583.449	13097.62
583.809	13132.88
584.169	13129.26
584.529	13063.27
584.889	13145.53
585.249	13017.4
585.609	13042.26
585.969	13058.3
586.329	13069.6
586.688	13031.41
587.048	13030.96
587.408	12904.41
587.768	12964.07
588.127	13026.66
588.487	12974.46
588.846	13002.03
589.206	12909.15
589.565	12902.15
589.925	13041.35
590.284	12895.59
590.643	12945.31
591.003	12953.67
591.362	13011.3
591.721	12967
592.08	12912.77
592.44	12955.25
592.799	12965.65
593.158	12888.59
593.517	12856.05
593.876	12867.57
594.235	12960.9
594.593	12871.64
594.952	12887.68
595.311	12873.22
595.67	12875.25
596.029	12929.72
596.387	12967.91
596.746	12928.13
597.104	12884.29
597.463	12806.56
597.822	12924.97
598.18	12797.97
598.538	12796.39
598.897	12889.72
599.255	12762.26
599.613	12916.84
599.972	12841.13
600.33	12841.81
600.688	12796.61
601.046	12865.54
601.404	12876.38
601.762	12811.53
602.12	12918.19
602.478	12811.75
602.836	12794.13
603.194	12848.14
603.552	12842.71
603.91	12765.88
604.268	12804.97
604.625	12774.47
604.983	12771.08
605.341	12801.13
605.698	12822.83
606.056	12871.19
606.413	12893.56
606.771	12878.87
607.128	12880.23
607.485	12786.44
607.843	12837.52
608.2	12933.56
608.557	12881.58
608.914	12905.54
609.272	12900.34
609.629	12944.86
609.986	13020.56
610.343	12896.95
610.7	12987.12
611.057	12892.43
611.414	12963.61
611.771	12965.87
612.127	12977.17
612.484	13055.14
612.841	13027.79
613.198	13070.28
613.554	12967.46
613.911	13008.36
614.267	13047.23
614.624	13004.06
614.98	13068.7
615.337	13154.12
615.693	13046.32
616.05	12955.7
616.406	13066.66
616.762	13151.18
617.118	13022.82
617.475	13100.33
617.831	13188.24
618.187	13154.34
618.543	13091.07
618.899	13196.83
619.255	13190.5
619.611	13117.06
619.967	13197.28
620.323	13170.16
620.678	13230.5
621.034	13172.65
621.39	13161.8
621.746	13050.62
622.101	13308.69
622.457	13125.19
622.812	13194.57
623.168	13135.81
623.523	13229.82
623.879	13239.54
624.234	13231.18
624.589	13239.99
624.945	13237.51
625.3	13179.2
625.655	13179.88
626.01	13135.59
626.365	13250.16
626.72	13199.31
627.075	13179.88
627.43	13112.76
627.785	13137.85
628.14	13101.69
628.495	13191.63
628.85	13091.97
629.205	13139.88
629.559	13210.16
629.914	13065.53
630.269	13065.08
630.623	13021.92
630.978	13086.1
631.332	13091.97
631.687	13121.35
632.041	13005.87
632.396	13113.67
632.75	12971.3
633.104	13032.09
633.459	12918.64
633.813	12867.35
634.167	12890.17
634.521	12924.07
634.875	12901.47
635.229	12964.29
635.583	12861.24
635.937	12867.12
636.291	12868.25
636.645	12861.02
636.999	12746.22
637.352	12771.75
637.706	12828.93
638.06	12729.04
638.413	12744.86
638.767	12696.5
639.121	12757.07
639.474	12636.62
639.828	12636.84
640.181	12686.79
640.534	12675.49
640.888	12622.15
641.241	12657.18
641.594	12609.5
641.947	12664.19
642.301	12693.56
642.654	12548.71
643.007	12689.04
643.36	12569.73
643.713	12582.83
644.066	12625.09
644.419	12484.98
644.771	12476.85
645.124	12367.47
645.477	12407.02
645.83	12298.55
646.182	12254.93
646.535	12194.14
646.888	12333.8
647.24	12127.03
647.593	12207.25
647.945	12122.51
648.298	12112.34
648.65	12028.95
649.002	12061.49
649.355	12203.18
649.707	12151.66
650.059	12284.76
650.411	12343.52
650.763	12345.1
651.115	12557.52
651.467	12472.78
651.819	12489.5
652.171	12418.09
652.523	12383.74
652.875	12383.06
653.227	12432.55
653.578	12447.47
653.93	12364.08
654.282	12478.43
654.633	12305.33
654.985	12463.97
655.337	12415.61
655.688	12447.02
656.039	12472.33
656.391	12412.67
656.742	12350.07
657.094	12470.29
657.445	12441.59
657.796	12424.19
658.147	12394.59
658.498	12426.9
658.849	12433.91
659.2	12507.81
659.551	12434.36
659.902	12532.44
660.253	12376.74
660.604	12466
660.955	12431.88
661.306	12468.03
661.656	12400.69
662.007	12478.65
662.358	12527.92
662.708	12434.59
663.059	12434.14
663.409	12338.55
663.76	12478.2
664.11	12480.91
664.461	12490.41
664.811	12493.12
665.161	12468.49
665.511	12490.18
665.862	12500.35
666.212	12491.31
666.562	12509.84
666.912	12436.17
667.262	12456.51
667.612	12399.79
667.962	12473.91
668.312	12469.39
668.662	12503.51
669.011	12473.91
669.361	12441.14
669.711	12462.84
670.06	12470.07
670.41	12443.18
670.76	12421.26
671.109	12408.83
671.459	12399.11
671.808	12340.81
672.157	12461.25
672.507	12290.41
672.856	12370.64
673.205	12285.67
673.554	12375.83
673.904	12242.73
674.253	12445.66
674.602	12318.89
674.951	12204.09
675.3	12068.27
675.649	12286.57
675.998	12274.37
676.346	12312.33
676.695	12400.69
677.044	12205.67
677.393	12256.51
677.741	12295.16
678.09	12218.32
678.438	12162.05
678.787	12086.8
679.135	12189.4
679.484	12146.69
679.832	12144.43
680.181	12101.26
680.529	12075.28
680.877	12103.52
681.225	12113.24
681.573	12167.48
681.922	11972.23
682.27	11998.44
682.618	11948.05
682.966	12001.15
683.314	11988.27
683.661	11888.39
684.009	11899.46
684.357	11865.79
684.705	11833.93
685.053	11829.63
685.4	11813.36
685.748	11691.56
686.095	11672.57
686.443	11736.75
686.79	11689.3
687.138	11699.24
687.485	11697.66
687.832	11605.23
688.18	11605.23
688.527	11540.83
688.874	11529.53
689.221	11488.62
689.568	11513.71
689.915	11434.39
690.262	11482.52
690.609	11348.52
690.956	11313.49
691.303	11360.27
691.65	11240.5
691.997	11236.88
692.344	11153.04
692.69	11180.61
693.037	11062.42
693.383	11042.99
693.73	10993.95
694.077	11017.9
694.423	10968.41
694.769	10920.5
695.116	10937.9
695.462	10849.55
695.808	10859.49
696.155	10832.37
696.501	10726.84
696.847	10666.5
697.193	10655.65
697.539	10674.86
697.885	10659.95
698.231	10532.04
698.577	10542.89
698.923	10544.69
699.269	10470.8
699.614	10397.81
699.96	10382.44
700.306	10393.29
700.651	10341.54
700.997	10220.18
701.342	10308.09
701.688	10175.44
702.033	10201.43
702.379	10234.65
702.724	10181.99
703.069	10128.21
703.415	10048.21
703.76	10022.67
704.105	9982.9
704.45	9995.33
704.795	9906.75
705.14	9917.59
705.485	9876.69
705.83	9797.14
706.175	9855.22
706.52	9837.59
706.865	9831.94
707.209	9764.83
707.554	9691.16
707.899	9728.44
708.243	9579.75
708.588	9642.8
708.932	9531.39
709.277	9621.78
709.621	9625.85
709.966	9497.94
710.31	9496.13
710.654	9335.91
710.998	9466.76
711.342	9439.19
711.687	9287.33
712.031	9260.89
712.375	9280.09
712.719	9318.51
713.063	9283.71
713.407	9309.02
713.75	9293.88
714.094	9222.24
714.438	9247.33
714.782	9243.71
715.125	9191.74
715.469	9241.9
715.812	9109.7
716.156	9152.41
716.499	9100.89
716.843	9159.19
717.186	9052.76
717.53	9048.46
717.873	9128.01
718.216	9038.29
718.559	9014.11
718.902	9004.62
719.246	9007.56
719.589	8975.92
719.932	8853.67
720.275	8975.7
720.617	8970.5
720.96	8969.82
721.303	8904.96
721.646	8891.63
721.989	8877.39
722.331	8940.44
722.674	8833.55
723.016	8873.55
723.359	8907.22
723.701	8900.22
724.044	8756.94
724.386	8757.17
724.729	8791.52
725.071	8817.96
725.413	8826.55
725.755	8804.4
726.097	8822.93
726.439	8765.98
726.782	8743.84
727.124	8829.94
727.465	8734.35
727.807	8711.97
728.149	8707.68
728.491	8683.73
728.833	8732.76
729.175	8728.7
729.516	8644.18
729.858	8697.06
730.199	8697.06
730.541	8686.21
730.882	8628.36
731.224	8689.83
731.565	8693.67
731.906	8648.47
732.248	8644.18
732.589	8637.63
732.93	8627.91
733.271	8688.47
733.612	8667
733.953	8682.82
734.294	8658.87
734.635	8606.67
734.976	8635.37
735.317	8606.67
735.658	8635.14
735.999	8662.48
736.339	8619.1
736.68	8655.03
737.021	8664.52
737.361	8659.32
737.702	8706.32
738.042	8666.1
738.383	8671.98
738.723	8684.63
739.063	8769.37
739.404	8692.54
739.744	8719.43
740.084	8714.91
740.424	8755.81
740.764	8691.41
741.104	8784.51
741.444	8749.94
741.784	8740.9
742.124	8730.96
742.464	8798.98
742.804	8809.15
743.143	8828.36
743.483	8871.74
743.823	8892.76
744.162	8859.99
744.502	8959.65
744.841	8942.7
745.181	9022.47
745.52	8993.55
745.86	9076.48
746.199	9092.3
746.538	9120.55
746.877	9157.16
747.216	9217.5
747.556	9226.76
747.895	9303.37
748.234	9386.53
748.573	9438.06
748.911	9431.28
749.25	9511.05
749.589	9520.09
749.928	9619.07
750.267	9660.42
750.605	9792.17
750.944	9858.84
751.283	9907.2
751.621	10029.68
751.96	10075.55
752.298	10132.05
752.636	10252.27
752.975	10238.04
753.313	10423.34
753.651	10565.03
753.989	10543.56
754.327	10690.23
754.666	10798.93
755.004	10925.02
755.342	11084.79
755.679	11157.33
756.017	11280.49
756.355	11482.3
756.693	11546.7
757.031	11729.3
757.368	11877.54
757.706	11985.56
758.044	12152.11
