Data from hue_100_FLMS001491_00033.txt Node
Date: Tue Feb 07 17:03:04 GMT 2017
User: dcchb
Spectrometer: FLMS00149
Trigger mode: 0
Integration Time (sec): 2.000000E-2
Scans to average: 10
Electric dark correction enabled: true
Nonlinearity correction enabled: false
Boxcar width: 0
XAxis mode: Wavelengths
Number of Pixels in Spectrum: 2048
>>>>>Begin Spectral Data<<<<<
341.393	-11.12
341.776	-11.12
342.16	-11.12
342.543	-69.87
342.927	-68.52
343.31	-68.74
343.693	-70.1
344.077	-59.48
344.46	-62.19
344.843	-64.45
345.226	-48.63
345.61	-26.93
345.993	-18.35
346.376	-5.69
346.759	5.38
347.142	24.59
347.525	49.67
347.908	67.98
348.291	91.48
348.674	87.86
349.057	97.58
349.44	130.12
349.823	143.91
350.206	168.31
350.588	210.35
350.971	218.93
351.354	236.34
351.737	253.96
352.119	265.26
352.502	264.58
352.884	270.23
353.267	285.6
353.65	306.62
354.032	306.16
354.414	306.62
354.797	331.02
355.179	319.5
355.562	355.88
355.944	316.33
356.326	347.52
356.709	357.69
357.091	356.56
357.473	348.42
357.855	358.37
358.238	365.37
358.62	347.07
359.002	340.74
359.384	345.49
359.766	344.81
360.148	347.52
360.53	329.89
360.912	331.7
361.294	340.06
361.676	330.57
362.057	348.65
362.439	335.32
362.821	350.68
363.203	360.4
363.584	347.52
363.966	344.13
364.348	345.71
364.729	332.83
365.111	329.67
365.493	325.6
365.874	324.24
366.256	314.53
366.637	326.73
367.019	319.72
367.4	322.89
367.781	304.36
368.163	338.71
368.544	322.44
368.925	333.96
369.306	336.9
369.688	318.14
370.069	316.79
370.45	332.15
370.831	343.45
371.212	318.59
371.593	323.79
371.974	350.91
372.355	313.17
372.736	330.34
373.117	322.66
373.498	345.03
373.879	338.03
374.26	311.14
374.641	334.41
375.021	325.82
375.402	326.05
375.783	352.49
376.163	358.37
376.544	336.45
376.925	329.67
377.305	318.59
377.686	334.19
378.066	345.26
378.447	340.06
378.827	335.77
379.208	354.52
379.588	338.25
379.968	352.49
380.349	340.74
380.729	342.77
381.109	358.82
381.489	338.48
381.87	352.04
382.25	365.37
382.63	371.02
383.01	348.42
383.39	362.66
383.77	380.29
384.15	354.07
384.53	359.04
384.91	354.98
385.29	375.54
385.67	362.66
386.049	382.55
386.429	371.02
386.809	371.47
387.189	369.21
387.568	382.77
387.948	366.28
388.328	376.22
388.707	383.22
389.087	390.23
389.466	413.28
389.846	403.79
390.225	398.59
390.605	389.1
390.984	410.57
391.363	387.07
391.743	391.13
392.122	375.54
392.501	401.3
392.881	391.13
393.26	407.4
393.639	404.47
394.018	401.08
394.397	411.02
394.776	408.31
395.155	408.08
395.534	425.71
395.913	426.84
396.292	433.39
396.671	437.01
397.05	426.39
397.429	414.18
397.808	435.43
398.186	434.3
398.565	423
398.944	436.1
399.323	422.32
399.701	451.92
400.08	434.75
400.458	455.54
400.837	443.34
401.215	441.75
401.594	443.79
401.972	453.51
402.351	446.73
402.729	440.4
403.107	439.27
403.486	471.36
403.864	458.7
404.242	469.32
404.62	484.24
404.999	482.43
405.377	486.05
405.755	472.26
406.133	483.56
406.511	491.7
406.889	498.02
407.267	493.96
407.645	493.5
408.023	496.44
408.401	495.99
408.779	492.6
409.156	509.1
409.534	511.58
409.912	512.26
410.29	522.88
410.667	520.4
411.045	524.69
411.422	528.76
411.8	527.85
412.178	544.12
412.555	514.75
412.933	555.88
413.31	531.47
413.687	578.7
414.065	559.04
414.442	568.53
414.819	567.63
415.197	569.66
415.574	559.72
415.951	594.52
416.328	587.96
416.705	568.98
417.082	587.74
417.46	595.42
417.837	630.45
418.214	594.74
418.591	609.66
418.967	610.56
419.344	628.64
419.721	606.72
420.098	644.91
420.475	615.31
420.852	634.74
421.228	641.07
421.605	655.53
421.982	658.92
422.358	662.77
422.735	662.77
423.111	656.21
423.488	667.51
423.864	659.38
424.241	681.07
424.617	689.66
424.994	672.48
425.37	674.52
425.746	689.21
426.123	688.53
426.499	741.18
426.875	719.94
427.251	707.51
427.627	714.74
428.003	724.91
428.379	729.66
428.756	748.86
429.132	747.73
429.507	746.6
429.883	757.68
430.259	783.21
430.635	797.9
431.011	784.8
431.387	785.7
431.763	819.82
432.138	830.22
432.514	803.78
432.89	830.9
433.265	839.94
433.641	873.61
434.016	871.12
434.392	868.18
434.767	899.82
435.143	875.64
435.518	913.15
435.894	914.28
436.269	897.34
436.644	930.78
437.02	921.97
437.395	920.61
437.77	941.4
438.145	965.36
438.52	965.81
438.895	996.99
439.271	980.95
439.646	980.72
440.021	994.73
440.395	1019.14
440.77	978.24
441.145	986.6
441.52	1026.82
441.895	1044
442.27	1027.95
442.645	1042.64
443.019	1056.43
443.394	1066.37
443.769	1073.38
444.143	1053.26
444.518	1073.6
444.892	1061.85
445.267	1078.12
445.641	1091.45
446.016	1081.51
446.39	1123.32
446.764	1119.7
447.139	1116.99
447.513	1123.54
447.887	1108.86
448.262	1136.88
448.636	1145.69
449.01	1163.77
449.384	1174.84
449.758	1173.94
450.132	1216.65
450.506	1194.95
450.88	1187.95
451.254	1194.5
451.628	1225.46
452.002	1243.99
452.376	1245.8
452.75	1264.78
453.123	1262.75
453.497	1318.57
453.871	1308.4
454.244	1317.44
454.618	1322.18
454.992	1339.13
455.365	1360.37
455.739	1366.25
456.112	1398.11
456.486	1416.19
456.859	1422.97
457.232	1434.04
457.606	1423.87
457.979	1487.38
458.352	1495.74
458.725	1511.78
459.099	1503.42
459.472	1533.25
459.845	1575.06
460.218	1568.5
460.591	1588.62
460.964	1586.13
461.337	1641.04
461.71	1665.22
462.083	1676.75
462.456	1700.93
462.829	1719.01
463.201	1724.88
463.574	1766.92
463.947	1778.89
464.32	1797.42
464.692	1845.78
465.065	1841.72
465.438	1866.12
465.81	1901.15
466.183	1934.37
466.555	1974.14
466.928	2008.94
467.3	2004.88
467.672	2022.28
468.045	2108.6
468.417	2100.47
468.789	2124.65
469.161	2119.22
469.534	2234.48
469.906	2272.44
470.278	2277.86
470.65	2320.8
471.022	2352.21
471.394	2439.22
471.766	2457.97
472.138	2480.34
472.51	2543.17
472.882	2611.87
473.253	2648.7
473.625	2707.46
473.997	2754.69
474.369	2744.07
474.74	2853.44
475.112	2913.78
475.484	2981.8
475.855	3059.76
476.227	3134.34
476.598	3246.43
476.97	3249.59
477.341	3361.23
477.713	3430.83
478.084	3485.29
478.455	3612.29
478.827	3648.45
479.198	3807.77
479.569	3837.37
479.94	4006.18
480.311	4041.43
480.682	4179.06
481.053	4300.86
481.424	4408.88
481.795	4472.61
482.166	4588.99
482.537	4690.68
482.908	4852.94
483.279	4983.1
483.65	5102.42
484.021	5256.77
484.391	5351.46
484.762	5481.85
485.133	5566.59
485.503	5690.43
485.874	5888.39
486.244	5968.16
486.615	6167.93
486.985	6276.85
487.356	6461.71
487.726	6617.41
488.097	6883.39
488.467	6923.39
488.837	7072.09
489.207	7282.25
489.578	7468.46
489.948	7574.9
490.318	7745.29
490.688	7886.76
491.058	8075.23
491.428	8344.37
491.798	8373.75
492.168	8608.54
492.538	8751.14
492.908	8932.6
493.278	9140.96
493.648	9314.74
494.017	9394.06
494.387	9568.07
494.757	9737.55
495.126	9879.92
495.496	10057.32
495.866	10202.18
496.235	10315.84
496.605	10529.4
496.974	10648.94
497.344	10812.78
497.713	10908.37
498.082	11081.25
498.452	11265.65
498.821	11341.13
499.19	11467.9
499.559	11700.89
499.928	11684.62
500.298	11867.44
500.667	12036.03
501.036	12081.45
501.405	12279.18
501.774	12280.09
502.143	12499.74
502.512	12569.34
502.88	12735.89
503.249	12853.18
503.618	12882.33
503.987	13022.21
504.356	13202.77
504.724	13273.28
505.093	13371.36
505.462	13498.81
505.83	13580.17
506.199	13733.38
506.567	13893.6
506.936	13912.81
507.304	14046.59
507.672	14141.73
508.041	14271.9
508.409	14359.58
508.777	14467.83
509.145	14529.52
509.514	14487.03
509.882	14605
510.25	14675.28
510.618	14774.03
510.986	14858.32
511.354	15062.84
511.722	15057.64
512.09	15198.2
512.458	15260.12
512.826	15340.8
513.193	15484.75
513.561	15459.66
513.929	15503.05
514.297	15739.88
514.664	15803.84
515.032	15762.48
515.4	15889.48
515.767	15961.8
516.135	15957.05
516.502	15968.8
516.869	16099.87
517.237	16176.93
517.604	16102.36
517.972	16288.34
518.339	16353.88
518.706	16386.65
519.073	16437.94
519.44	16504.38
519.808	16618.73
520.175	16584.61
520.542	16701.44
520.909	16812.62
521.276	16758.61
521.643	16875.45
522.009	16906.86
522.376	17046.74
522.743	17091.49
523.11	17211.93
523.477	17277.02
523.843	17297.58
524.21	17533.51
524.577	17545.71
524.943	17471.59
525.31	17587.29
525.676	17660.06
526.043	17622.77
526.409	17824.12
526.776	17865.48
527.142	17917.45
527.508	17852.82
527.874	17982.76
528.241	17954.29
528.607	18009.65
528.973	18118.13
529.339	18061.63
529.705	18190.89
530.071	18283.77
530.437	18259.82
530.803	18218.01
531.169	18304.79
531.535	18174.4
531.901	18202.19
532.267	18205.58
532.632	18251.68
532.998	18245.13
533.364	18367.16
533.73	18425.01
534.095	18440.15
534.461	18446.25
534.826	18432.92
535.192	18278.57
535.557	18356.09
535.923	18380.94
536.288	18485.8
536.653	18445.8
537.019	18329.42
537.384	18296.88
537.749	18357.22
538.114	18398.12
538.479	18230.44
538.845	18293.94
539.21	18206.03
539.575	18284.45
539.94	18292.13
540.305	18309.53
540.67	18327.39
541.034	18227.5
541.399	18290.1
541.764	18296.88
542.129	18181.63
542.494	18282.64
542.858	18188.86
543.223	18093.95
543.587	18307.27
543.952	18079.26
544.316	18119.71
544.681	18083.1
545.045	18046.26
545.41	18086.49
545.774	18087.84
546.138	17952.71
546.503	17976.66
546.867	17879.49
547.231	18074.28
547.595	17930.33
547.959	18007.85
548.324	17886.72
548.688	17867.74
549.052	17763.78
549.416	17820.73
549.779	17813.73
550.143	17726.95
550.507	17775.31
550.871	17827.96
551.235	17701.41
551.599	17790.22
551.962	17713.39
552.326	17704.58
552.689	17811.69
553.053	17656.67
553.417	17607.18
553.78	17777.12
554.143	17587.52
554.507	17687.4
554.87	17715.42
555.234	17753.84
555.597	17693.5
555.96	17667.52
556.323	17652.15
556.686	17631.58
557.05	17634.97
557.413	17666.16
557.776	17731.02
558.139	17738.7
558.502	17727.85
558.865	17645.14
559.228	17703.45
559.59	17721.75
559.953	17797.46
560.316	17926.04
560.679	17692.6
561.041	17756.78
561.404	17877.45
561.767	17895.53
562.129	17799.94
562.492	17982.76
562.854	17874.74
563.217	17812.6
563.579	17900.05
563.941	17939.15
564.304	17947.28
564.666	18051.69
565.028	17962.65
565.39	18058.47
565.753	18126.26
566.115	18132.81
566.477	18181.17
566.839	18201.29
567.201	18266.37
567.563	18283.77
567.925	18309.76
568.287	18332.13
568.648	18376.42
569.01	18431.34
569.372	18424.33
569.734	18360.83
570.095	18446.48
570.457	18573.25
570.819	18507.72
571.18	18586.36
571.542	18586.36
571.903	18623.2
572.265	18722.4
572.626	18607.38
572.987	18671.33
573.349	18744.55
573.71	18720.14
574.071	18736.64
574.432	18742.06
574.794	18778.45
575.155	18790.88
575.516	18751.78
575.877	18792.01
576.238	18725.34
576.599	18836.75
576.96	18839.01
577.32	18822.29
577.681	18965.79
578.042	18950.87
578.403	18837.88
578.763	18979.12
579.124	18928.27
579.485	18937.54
579.845	19036.75
580.206	19000.81
580.566	18899.35
580.927	18968.5
581.287	19025.22
581.648	18844.21
582.008	18946.8
582.368	18871.33
582.728	18903.19
583.089	18950.19
583.449	18898.44
583.809	18924.88
584.169	18939.35
584.529	18951.1
584.889	18992.23
585.249	18871.78
585.609	18811.21
585.969	18944.54
586.329	18885.34
586.688	19013.69
587.048	18906.35
587.408	18802.63
587.768	18830.2
588.127	18750.65
588.487	18680.14
588.846	18832.23
589.206	18703.42
589.565	18700.26
589.925	18773.02
590.284	18770.54
590.643	18760.14
591.003	18838.78
591.362	18797.88
591.721	18739.13
592.08	18694.83
592.44	18738
592.799	18795.62
593.158	18710.43
593.517	18726.24
593.876	18841.04
594.235	18669.52
594.593	18726.92
594.952	18771.89
595.311	18621.16
595.67	18672.24
596.029	18753.36
596.387	18729.63
596.746	18861.38
597.104	18778.22
597.463	18672.46
597.822	18727.83
598.18	18603.76
598.538	18651.67
598.897	18756.98
599.255	18483.09
599.613	18832
599.972	18621.84
600.33	18777.77
600.688	18613.48
601.046	18714.49
601.404	18788.39
601.762	18676.98
602.12	18761.5
602.478	18792.23
602.836	18741.84
603.194	18761.27
603.552	18713.36
603.91	18622.97
604.268	18702.06
604.625	18685.12
604.983	18701.16
605.341	18733.02
605.698	18786.81
606.056	18763.08
606.413	18793.81
606.771	18817.54
607.128	18747.26
607.485	18696.19
607.843	18686.7
608.2	18745.45
608.557	18917.88
608.914	18745
609.272	18856.86
609.629	18903.42
609.986	18908.16
610.343	18917.43
610.7	18948.61
611.057	18854.15
611.414	18912.45
611.771	18908.16
612.127	19086.69
612.484	18904.77
612.841	19021.6
613.198	19030.87
613.554	19045.11
613.911	19050.08
614.267	19038.55
614.624	18949.74
614.98	18994.03
615.337	19140.47
615.693	19032.23
616.05	19082.62
616.406	19193.13
616.762	19161.26
617.118	19147.48
617.475	19136.86
617.831	19213.69
618.187	19180.7
618.543	19154.93
618.899	19312.9
619.255	19281.03
619.611	19252.78
619.967	19342.73
620.323	19329.84
620.678	19317.19
621.034	19326.91
621.39	19269.96
621.746	19254.82
622.101	19484.42
622.457	19350.18
622.812	19268.38
623.168	19422.27
623.523	19301.15
623.879	19399.9
624.234	19305.21
624.589	19348.15
624.945	19335.04
625.3	19311.99
625.655	19369.17
626.01	19425.89
626.365	19273.8
626.72	19325.1
627.075	19320.81
627.43	19298.43
627.785	19209.17
628.14	19314.93
628.495	19345.44
628.85	19258.89
629.205	19260.47
629.559	19315.83
629.914	19156.52
630.269	19283.07
630.623	19144.99
630.978	19157.42
631.332	19260.47
631.687	19217.31
632.041	19050.53
632.396	19166.23
632.75	19053.02
633.104	19067.7
633.459	19038.55
633.813	18914.94
634.167	18962.17
634.521	18915.17
634.875	19024.99
635.229	18918.33
635.583	18784.1
635.937	18884.66
636.291	18784.77
636.645	18905
636.999	18764.66
637.352	18775.96
637.706	18710.88
638.06	18792.91
638.413	18733.25
638.767	18624.78
639.121	18721.5
639.474	18630.65
639.828	18578.45
640.181	18636.3
640.534	18626.81
640.888	18602.18
641.241	18596.08
641.594	18475.4
641.947	18608.73
642.301	18589.53
642.654	18561.28
643.007	18550.66
643.36	18487.83
643.713	18418.46
644.066	18469.08
644.419	18422.52
644.771	18405.8
645.124	18170.78
645.477	18119.26
645.83	18101.18
646.182	17996.32
646.535	17925.81
646.888	17977.11
647.24	17802.2
647.593	18020.27
647.945	17867.96
648.298	17790.22
648.65	17735.54
649.002	17726.27
649.355	17820.28
649.707	17936.66
650.059	17966.49
650.411	18154.73
650.763	18170.78
651.115	18260.04
651.467	18233.83
651.819	18253.94
652.171	18228.63
652.523	18185.02
652.875	18146.15
653.227	18111.35
653.578	18146.15
653.93	18206.71
654.282	18095.08
654.633	18130.1
654.985	18191.57
655.337	18179.59
655.688	18173.49
656.039	18300.95
656.391	18044
656.742	18126.94
657.094	18115.64
657.445	18238.35
657.796	18224.56
658.147	18208.97
658.498	18206.71
658.849	18224.11
659.2	18192.25
659.551	18185.47
659.902	18163.1
660.253	18160.16
660.604	18216.88
660.955	18179.82
661.306	18229.76
661.656	18208.97
662.007	18307.05
662.358	18141.85
662.708	18219.59
663.059	18252.81
663.409	18084.23
663.76	18285.35
664.11	18218.01
664.461	18198.12
664.811	18217.56
665.161	18172.36
665.511	18171.91
665.862	18223.66
666.212	18238.35
666.562	18239.7
666.912	18131.68
667.262	18106.37
667.612	18198.12
667.962	18210.33
668.312	18229.99
668.662	18257.33
669.011	18182.76
669.361	18196.99
669.711	18189.31
670.06	18112.48
670.41	18164.45
670.76	18077
671.109	18176.2
671.459	18077.67
671.808	18101.4
672.157	18173.27
672.507	18086.94
672.856	18031.35
673.205	18018.69
673.554	18055.08
673.904	17941.86
674.253	18098.69
674.602	17998.13
674.951	17734.41
675.3	17626.84
675.649	17996.55
675.998	17948.41
676.346	17993.83
676.695	17948.19
677.044	17806.27
677.393	17834.52
677.741	17921.75
678.09	17832.48
678.438	17733.73
678.787	17841.52
679.135	17812.14
679.484	17596.11
679.832	17732.82
680.181	17639.27
680.529	17664.8
680.877	17509.33
681.225	17596.33
681.573	17697.35
681.922	17541.42
682.27	17497.58
682.618	17417.13
682.966	17387.3
683.314	17524.02
683.661	17327.86
684.009	17249.9
684.357	17315.43
684.705	17218.49
685.053	17301.65
685.4	17237.92
685.748	17153.18
686.095	17040.64
686.443	16928.33
686.79	17011.26
687.138	17025.05
687.485	17036.8
687.832	16966.74
688.18	16908.21
688.527	16896.69
688.874	16703.02
689.221	16675.9
689.568	16729.69
689.915	16751.61
690.262	16686.75
690.609	16591.39
690.956	16510.71
691.303	16468.23
691.65	16452.18
691.997	16457.38
692.344	16303.48
692.69	16336.25
693.037	16312.75
693.383	16166.76
693.73	16171.28
694.077	16077.5
694.423	16062.59
694.769	16046.09
695.116	15998.86
695.462	15839.54
695.808	15896.04
696.155	15847.9
696.501	15734.69
696.847	15781.46
697.193	15549.83
697.539	15639.77
697.885	15508.48
698.231	15555.03
698.577	15435.26
698.923	15374.02
699.269	15371.53
699.614	15225.55
699.96	15221.7
700.306	15253.79
700.651	15045.66
700.997	15100.58
701.342	14998.21
701.688	14985.33
702.033	14893.58
702.379	14915.95
702.724	14807.03
703.069	14834.37
703.415	14608.61
703.76	14661.49
704.105	14719.34
704.45	14565.9
704.795	14557.31
705.14	14473.48
705.485	14496.98
705.83	14341.28
706.175	14399.13
706.52	14346.25
706.865	14300.82
707.209	14281.39
707.554	14178.79
707.899	14291.56
708.243	14087.95
708.588	14117.33
708.932	14022.64
709.277	13885.69
709.621	14025.13
709.966	13894.96
710.31	13914.62
710.654	13742.2
710.998	13881.4
711.342	13814.96
711.687	13747.39
712.031	13669.2
712.375	13658.81
712.719	13673.5
713.063	13606.38
713.407	13674.4
713.75	13532.71
714.094	13530
714.438	13576.1
714.782	13578.36
715.125	13439.6
715.469	13464.46
715.812	13473.73
716.156	13375.65
716.499	13282.09
716.843	13373.17
717.186	13209.78
717.53	13277.35
717.873	13320.51
718.216	13222.43
718.559	13142.44
718.902	13026.51
719.246	13235.77
719.589	13083.46
719.932	13136.79
720.275	13107.86
720.617	13077.35
720.96	12993.06
721.303	13132.72
721.646	13047.98
721.989	13008.88
722.331	12997.81
722.674	13001.88
723.016	12980.18
723.359	12963.68
723.701	13007.98
724.044	12953.74
724.386	12853.86
724.729	12978.83
725.071	12920.75
725.413	12849.79
725.755	12885.72
726.097	12824.93
726.439	12749
726.782	12792.39
727.124	12790.58
727.465	12748.77
727.807	12747.42
728.149	12737.7
728.491	12776.8
728.833	12740.64
729.175	12676.91
729.516	12652.51
729.858	12689.34
730.199	12657.48
730.541	12672.17
730.882	12599.85
731.224	12688.89
731.565	12636.91
731.906	12595.11
732.248	12666.74
732.589	12622.22
732.93	12616.8
733.271	12603.69
733.612	12572.51
733.953	12620.87
734.294	12543.36
734.635	12619.96
734.976	12556.46
735.317	12498.61
735.658	12606.86
735.999	12535
736.339	12598.27
736.68	12620.19
737.021	12538.16
737.361	12515.33
737.702	12636.24
738.042	12585.84
738.383	12569.8
738.723	12639.17
739.063	12551.72
739.404	12627.87
739.744	12589.23
740.084	12502.23
740.424	12579.29
740.764	12570.93
741.104	12688.21
741.444	12605.95
741.784	12609.8
742.124	12648.44
742.464	12671.71
742.804	12688.21
743.143	12711.71
743.483	12703.35
743.823	12651.38
744.162	12679.4
744.502	12855.44
744.841	12701.54
745.181	12877.36
745.52	12866.51
745.86	12922.1
746.199	12882.78
746.538	13027.86
746.877	13134.08
747.216	13091.59
747.556	13131.82
747.895	13223.56
748.234	13250.68
748.573	13275.09
748.911	13355.31
749.25	13408.64
749.589	13443.9
749.928	13534.52
750.267	13643.89
750.605	13721.86
750.944	13725.47
751.283	13775.87
751.621	13910.1
751.96	13997.78
752.298	14105.58
752.636	14175.63
752.975	14353.03
753.313	14395.29
753.651	14543.98
753.989	14623.08
754.327	14803.86
754.666	14819.23
755.004	15023.07
755.342	15150.52
755.679	15272.55
