Data from hue_50_FLMS001491_3.txt Node
Date: Mon Feb 06 15:09:29 GMT 2017
User: dcchb
Spectrometer: FLMS00149
Trigger mode: 0
Integration Time (sec): 2.000000E-2
Scans to average: 10
Electric dark correction enabled: true
Nonlinearity correction enabled: false
Boxcar width: 0
XAxis mode: Wavelengths
Number of Pixels in Spectrum: 2048
>>>>>Begin Spectral Data<<<<<
341.393	-7.33
341.776	-7.33
342.16	-7.33
342.543	-78.29
342.927	-59.31
343.31	-50.72
343.693	-68.57
344.077	-61.34
344.46	-66.76
344.843	-67.44
345.226	-46.43
345.61	-34.9
345.993	-25.41
346.376	5.55
346.759	3.06
347.142	34.02
347.525	42.39
347.908	53.69
348.291	69.5
348.674	96.4
349.057	116.96
349.44	138.65
349.823	142.72
350.206	180.69
350.588	190.4
350.971	211.42
351.354	236.28
351.737	243.06
352.119	238.76
352.502	280.8
352.884	292.55
353.267	288.93
353.65	297.75
354.032	304.75
354.414	328.03
354.797	324.86
355.179	335.26
355.562	330.51
355.944	345.88
356.326	349.72
356.709	344.07
357.091	341.36
357.473	366.45
357.855	346.56
358.238	339.1
358.62	336.62
359.002	359.89
359.384	343.85
359.766	341.59
360.148	335.49
360.53	373.45
360.912	355.82
361.294	357.18
361.676	316.73
362.057	344.07
362.439	335.71
362.821	332.77
363.203	333
363.584	335.49
363.966	336.39
364.348	332.32
364.729	344.75
365.111	322.6
365.493	323.06
365.874	322.6
366.256	307.92
366.637	320.8
367.019	316.28
367.4	341.36
367.781	311.53
368.163	311.31
368.544	327.12
368.925	340.91
369.306	313.79
369.688	338.42
370.069	304.75
370.45	298.65
370.831	307.01
371.212	336.39
371.593	325.09
371.974	307.92
372.355	328.93
372.736	321.02
373.117	305.66
373.498	301.59
373.879	304.3
374.26	338.42
374.641	327.8
375.021	320.8
375.402	321.25
375.783	327.58
376.163	321.47
376.544	351.08
376.925	335.03
377.305	323.96
377.686	331.87
378.066	346.11
378.447	320.34
378.827	315.6
379.208	346.33
379.588	314.47
379.968	324.19
380.349	362.83
380.729	334.58
381.109	313.57
381.489	351.98
381.87	348.59
382.25	315.37
382.63	332.77
383.01	343.85
383.39	352.66
383.77	324.41
384.15	337.29
384.53	335.94
384.91	345.65
385.29	371.64
385.67	338.65
386.049	359.89
386.429	362.15
386.809	347.01
387.189	328.93
387.568	345.88
387.948	330.29
388.328	360.57
388.707	345.43
389.087	366.22
389.466	370.74
389.846	352.43
390.225	372.32
390.605	368.25
390.984	363.96
391.363	372.55
391.743	354.02
392.122	357.63
392.501	348.14
392.881	341.59
393.26	356.5
393.639	364.19
394.018	358.31
394.397	354.92
394.776	386.33
395.155	363.96
395.534	389.27
395.913	371.87
396.292	390.4
396.671	361.47
397.05	380.91
397.429	377.07
397.808	361.7
398.186	382.04
398.565	377.52
398.944	376.61
399.323	375.26
399.701	404.18
400.08	379.78
400.458	379.1
400.837	397.18
401.215	393.34
401.594	382.49
401.972	372.55
402.351	385.88
402.729	369.83
403.107	390.4
403.486	406.9
403.864	416.16
404.242	387.24
404.62	411.42
404.999	388.82
405.377	402.6
405.755	394.69
406.133	396.95
406.511	399.66
406.889	413
407.267	407.57
407.645	434.69
408.023	409.83
408.401	413.45
408.779	394.24
409.156	414.58
409.534	425.65
409.912	428.59
410.29	425.43
410.667	443.96
411.045	407.57
411.422	416.84
411.8	437.18
412.178	430.4
412.555	433.79
412.933	438.76
413.31	452.54
413.687	441.92
414.065	447.8
414.442	455.48
414.819	451.64
415.197	456.16
415.574	456.61
415.951	475.14
416.328	474.92
416.705	474.92
417.082	461.58
417.46	472.43
417.837	497.97
418.214	460.91
418.591	465.43
418.967	481.92
419.344	488.25
419.721	485.31
420.098	492.09
420.475	474.24
420.852	489.61
421.228	497.29
421.605	497.52
421.982	502.49
422.358	519.66
422.735	509.49
423.111	505.88
423.488	512.2
423.864	528.02
424.241	509.72
424.617	519.89
424.994	495.48
425.37	543.16
425.746	517.18
426.123	532.32
426.499	515.37
426.875	531.64
427.251	523.96
427.627	532.09
428.003	563.95
428.379	561.92
428.756	531.41
429.132	565.54
429.507	565.54
429.883	551.53
430.259	552.88
430.635	580.45
431.011	570.06
431.387	575.93
431.763	595.82
432.138	573.45
432.514	598.53
432.89	577.51
433.265	592.88
433.641	609.6
434.016	599.21
434.392	605.76
434.767	608.92
435.143	624.07
435.518	628.81
435.894	634.01
436.269	622.48
436.644	634.46
437.02	644.18
437.395	631.52
437.77	639.43
438.145	631.52
438.52	646.66
438.895	658.87
439.271	661.58
439.646	681.92
440.021	681.01
440.395	678.08
440.77	685.53
441.145	677.17
441.52	702.71
441.895	688.47
442.27	684.63
442.645	701.13
443.019	705.19
443.394	703.16
443.769	682.37
444.143	689.83
444.518	721.92
444.892	737.28
445.267	735.02
445.641	728.92
446.016	719.88
446.39	727.11
446.764	739.54
447.139	737.51
447.513	752.65
447.887	739.77
448.262	761.01
448.636	741.35
449.01	756.49
449.384	756.27
449.758	744.06
450.132	724.63
450.506	758.07
450.88	772.99
451.254	766.89
451.628	785.87
452.002	805.53
452.376	804.85
452.75	797.85
453.123	801.91
453.497	808.92
453.871	829.03
454.244	830.84
454.618	843.49
454.992	829.94
455.365	843.27
455.739	875.13
456.112	901.8
456.486	872.65
456.859	891.18
457.232	882.14
457.606	885.53
457.979	911.97
458.352	912.19
458.725	923.72
459.099	967.11
459.472	960.55
459.845	984.51
460.218	977.5
460.591	982.93
460.964	975.47
461.337	979.76
461.71	1015.92
462.083	1013.21
462.456	1010.95
462.829	1030.61
463.201	1048.91
463.574	1036.94
463.947	1065.64
464.32	1120.32
464.692	1109.93
465.065	1098.86
465.438	1124.62
465.81	1144.5
466.183	1143.37
466.555	1162.58
466.928	1186.99
467.3	1190.83
467.672	1222.47
468.045	1224.05
468.417	1254.56
468.789	1238.51
469.161	1293.88
469.534	1294.33
469.906	1353.99
470.278	1344.72
470.65	1353.99
471.022	1369.58
471.394	1429.02
471.766	1466.3
472.138	1470.37
472.51	1517.15
472.882	1558.96
473.253	1570.26
473.625	1603.25
473.997	1624.49
474.369	1678.28
474.74	1655
475.112	1766.18
475.484	1738.61
475.855	1812.51
476.227	1875.56
476.598	1923.92
476.97	1925.95
477.341	2012.28
477.713	2020.64
478.084	2095.89
478.455	2145.61
478.827	2199.62
479.198	2301.08
479.569	2276.68
479.94	2380.63
480.311	2456.33
480.682	2512.83
481.053	2610
481.424	2687.74
481.795	2753.95
482.166	2801.64
482.537	2863.55
482.908	2978.13
483.279	3028.75
483.65	3109.65
484.021	3245.24
484.391	3308.29
484.762	3366.59
485.133	3489.07
485.503	3562.97
485.874	3710.09
486.244	3734.04
486.615	3879.12
486.985	3988.5
487.356	4076.63
487.726	4156.63
488.097	4279.34
488.467	4387.36
488.837	4507.13
489.207	4630.51
489.578	4787.12
489.948	4857.4
490.318	5062.82
490.688	5079.99
491.058	5247.22
491.428	5355.92
491.798	5498.74
492.168	5630.94
492.538	5724.27
492.908	5838.17
493.278	6030.7
493.648	6074.09
494.017	6227.53
494.387	6359.51
494.757	6470.01
495.126	6619.39
495.496	6691.25
495.866	6815.09
496.235	6970.79
496.605	7140.28
496.974	7180.05
497.344	7310.9
497.713	7455.3
498.082	7586.59
498.452	7730.09
498.821	7866.81
499.19	7917.21
499.559	8068.16
499.928	8203.75
500.298	8286.69
500.667	8466.57
501.036	8468.38
501.405	8653.01
501.774	8702.05
502.143	8856.84
502.512	8939.1
502.88	9025.2
503.249	9118.31
503.618	9251.64
503.987	9355.36
504.356	9507.22
504.724	9637.84
505.093	9692.08
505.462	9801.45
505.83	9973.88
506.199	10070.37
506.567	10231.72
506.936	10208.67
507.304	10363.24
507.672	10479.63
508.041	10538.16
508.409	10668.77
508.777	10809.33
509.145	10926.39
509.514	10964.81
509.882	11124.13
510.25	11196.67
510.618	11287.74
510.986	11304.01
511.354	11521.63
511.722	11633.27
512.09	11717.33
512.458	11818.12
512.826	11861.06
513.193	11921.4
513.561	12150.99
513.929	12252.91
514.297	12330.42
514.664	12483.19
515.032	12471.66
515.4	12600.25
515.767	12709.4
516.135	12777.42
516.502	12764.76
516.869	13009.05
517.237	13115.94
517.604	13068.94
517.972	13313.22
518.339	13393
518.706	13480.45
519.073	13463.05
519.44	13673.21
519.808	13862.36
520.175	13827.11
520.542	14044.73
520.909	14106.2
521.276	14166.53
521.643	14292.63
522.009	14349.35
522.376	14554.55
522.743	14584.83
523.11	14694.66
523.477	14862.79
523.843	14919.06
524.21	15065.04
524.577	15213.96
524.943	15397.01
525.31	15434.52
525.676	15499.61
526.043	15582.32
526.409	15746.83
526.776	15870.44
527.142	15996.09
527.508	16049.2
527.874	16182.53
528.241	16199.48
528.607	16241.28
528.973	16493.7
529.339	16522.86
529.705	16621.16
530.071	16803.08
530.437	16877.88
530.803	17024.76
531.169	17155.16
531.535	17074.71
531.901	17117.87
532.267	17281.48
532.632	17348.15
532.998	17418.88
533.364	17625.43
533.73	17630.17
534.095	17871.52
534.461	17826.33
534.826	17880.79
535.192	18004.17
535.557	18106.54
535.923	18123.94
536.288	18161.68
536.653	18207.33
537.019	18330.04
537.384	18319.65
537.749	18504.5
538.114	18518.96
538.479	18554.22
538.845	18655.23
539.21	18615.46
539.575	18725.06
539.94	18862.23
540.305	18976.8
540.67	18958.5
541.034	18930.02
541.399	19047.54
541.764	19183.58
542.129	19316.23
542.494	19374.53
542.858	19395.78
543.223	19450.01
543.587	19560.52
543.952	19545.15
544.316	19654.3
544.681	19703.79
545.045	19766.16
545.41	19832.37
545.774	19938.13
546.138	19910.79
546.503	20026.04
546.867	20104.91
547.231	20195.75
547.595	20232.59
547.959	20336.09
548.324	20358.46
548.688	20307.84
549.052	20600.04
549.416	20460.61
549.779	20538.57
550.143	20616.53
550.507	20780.15
550.871	20848.84
551.235	20901.05
551.599	21020.59
551.962	20979.01
552.326	21062.4
552.689	21196.63
553.053	21143.3
553.417	21220.13
553.78	21459.9
554.143	21506.23
554.507	21507.36
554.87	21621.93
555.234	21842.26
555.597	21716.39
555.96	21807.46
556.323	21826.67
556.686	21902.83
557.05	22106.44
557.413	22286.77
557.776	22184.85
558.139	22365.19
558.502	22341.01
558.865	22490.84
559.228	22588.01
559.59	22787.1
559.953	22788
560.316	22953.42
560.679	22922.46
561.041	23183.7
561.404	23174.43
561.767	23273.19
562.129	23393.18
562.492	23514.54
562.854	23492.39
563.217	23639.28
563.579	23693.06
563.941	23824.59
564.304	23836.79
564.666	24021.64
565.028	23999.5
565.39	24114.07
565.753	24284.91
566.115	24302.31
566.477	24444.91
566.839	24500.95
567.201	24618.46
567.563	24764.9
567.925	24920.6
568.287	24804.9
568.648	25001.5
569.01	25079.24
569.372	25295.51
569.734	25180.71
570.095	25382.51
570.457	25510.42
570.819	25518.78
571.18	25634.71
571.542	25770.52
571.903	25805.78
572.265	25911.99
572.626	25961.7
572.987	26094.58
573.349	26103.85
573.71	26365.99
574.071	26291.19
574.432	26532.54
574.794	26825.41
575.155	26632.65
575.516	26607.11
575.877	26806.2
576.238	26921
576.599	26996.03
576.96	27028.34
577.32	27089.13
577.681	27255.91
578.042	27331.61
578.403	27366.19
578.763	27546.75
579.124	27564.37
579.485	27722.34
579.845	27873.07
580.206	27793.29
580.566	27949.9
580.927	28012.72
581.287	28154.87
581.648	28121.42
582.008	28350.79
582.368	28468.98
582.728	28475.31
583.089	28548.08
583.449	28646.38
583.809	28676.89
584.169	28918.91
584.529	28976.54
584.889	29274.84
585.249	29186.03
585.609	29124.11
585.969	29385.8
586.329	29348.73
586.688	29554.6
587.048	29600.93
587.408	29615.39
587.768	29729.29
588.127	29802.73
588.487	29795.05
588.846	30145.1
589.206	30066.91
589.565	30079.34
589.925	30359.78
590.284	30433.9
590.643	30560.91
591.003	30758.64
591.362	30878.41
591.721	30886.77
592.08	30968.35
592.44	31146.88
592.799	31314.33
593.158	31311.62
593.517	31281.56
593.876	31562.24
594.235	31430.94
594.593	31604.72
594.952	31756.35
595.311	31770.37
595.67	31984.82
596.029	32134.88
596.387	32282.67
596.746	32316.79
597.104	32295.78
597.463	32319.5
597.822	32540.51
598.18	32518.37
598.538	32468.88
598.897	32695.31
599.255	32463
599.613	33077.45
599.972	32902.54
600.33	33157.45
600.688	32973.95
601.046	33206.49
601.404	33370.32
601.762	33395.86
602.12	33606.7
602.478	33651.9
602.836	33672.46
603.194	33615.74
603.552	33761.73
603.91	33663.87
604.268	33951.32
604.625	33920.59
604.983	34020.7
605.341	33959.46
605.698	34176.63
606.056	34335.5
606.413	34394.7
606.771	34573.68
607.128	34621.14
607.485	34487.81
607.843	34483.74
608.2	34782.49
608.557	34882.15
608.914	34779.33
609.272	35043.5
609.629	35098.87
609.986	35376.37
610.343	35187.68
610.7	35412.3
611.057	35510.83
611.414	35433.09
611.771	35512.64
612.127	35749.24
612.484	35781.79
612.841	35806.64
613.198	35763.93
613.554	35794.89
613.911	36143.36
614.267	35981.33
614.624	36099.06
614.98	36214.99
615.337	36409.79
615.693	36383.13
616.05	36412.05
616.406	36548.77
616.762	36492.95
617.118	36441.2
617.475	36551.48
617.831	36598.71
618.187	36778.6
618.543	36882.32
618.899	37017.91
619.255	37024.92
619.611	37082.32
619.967	37188.3
620.323	37232.59
620.678	37105.14
621.034	37153.95
621.39	37204.8
621.746	37032.6
622.101	37497.22
622.457	37291.58
622.812	37310.33
623.168	37553.72
623.523	37398.01
623.879	37502.64
624.234	37367.73
624.589	37520.72
624.945	37697.67
625.3	37513.49
625.655	37752.58
626.01	37654.28
626.365	37744.45
626.72	37701.28
627.075	37767.5
627.43	37749.64
627.785	37717.78
628.14	37826.03
628.495	37801.17
628.85	37798.23
629.205	37594.62
629.559	37816.53
629.914	37775.86
630.269	37826.7
630.623	37735.63
630.978	37629.65
631.332	37802.07
631.687	37933.14
632.041	37693.6
632.396	37825.57
632.75	37589.2
633.104	37694.96
633.459	37503.1
633.813	37668.52
634.167	37577.67
634.521	37687.72
634.875	37773.15
635.229	37613.15
635.583	37393.95
635.937	37595.52
636.291	37517.56
636.645	37466.49
636.999	37452.93
637.352	37670.32
637.706	37339.26
638.06	37561.17
638.413	37577.22
638.767	37447.28
639.121	37503.32
639.474	37153.73
639.828	37244.35
640.181	37226.94
640.534	37351.24
640.888	37269.43
641.241	37066.27
641.594	37138.59
641.947	37216.78
642.301	37068.08
642.654	37200.5
643.007	37220.84
643.36	37173.61
643.713	37090
644.066	37267.85
644.419	36867.41
644.771	36848.42
645.124	36394.42
645.477	36430.81
645.83	36023.13
646.182	35937.04
646.535	35936.58
646.888	35916.7
647.24	35721.45
647.593	36008.9
647.945	35862.24
648.298	35766.19
648.65	35557.16
649.002	35696.36
649.355	35888
649.707	35787.21
650.059	35752.63
650.411	36258.38
650.763	36241.21
651.115	36658.6
651.467	36542.44
651.819	36600.52
652.171	36447.53
652.523	36424.48
652.875	36390.58
653.227	36185.16
653.578	36525.04
653.93	36394.42
654.282	36356.23
654.633	36218.38
654.985	36281.88
655.337	36350.13
655.688	36252.73
656.039	36351.49
656.391	36127.99
656.742	36124.15
657.094	36163.7
657.445	36328.44
657.796	36164.6
658.147	36156.92
658.498	36101.32
658.849	36212.96
659.2	36008.22
659.551	35948.33
659.902	36143.13
660.253	36163.47
660.604	36021.78
660.955	35931.39
661.306	36041.21
661.656	36015.45
662.007	36108.56
662.358	35959.41
662.708	36013.87
663.059	35936.81
663.409	35760.32
663.76	36070.82
664.11	35983.81
664.461	36072.85
664.811	35962.57
665.161	36055.68
665.511	35904.72
665.862	35920.76
666.212	36100.42
666.562	35992.18
666.912	35942.46
667.262	35798.51
667.612	35931.84
667.962	35933.65
668.312	35899.75
668.662	36103.58
669.011	35755.57
669.361	35827.21
669.711	35816.36
670.06	35731.84
670.41	35695.46
670.76	35667.66
671.109	35799.41
671.459	35852.97
671.808	35763.03
672.157	35748.34
672.507	35531.4
672.856	35684.39
673.205	35493.21
673.554	35705.4
673.904	35550.15
674.253	35753.31
674.602	35518.06
674.951	35084.18
675.3	34930.73
675.649	35557.16
675.998	35575.01
676.346	35458.4
676.695	35602.58
677.044	35304.06
677.393	35347.45
677.741	35478.97
678.09	35295.92
678.438	35416.37
678.787	35430.16
679.135	35374.56
679.484	35049.38
679.832	35268.13
680.181	34971.86
680.529	35156.49
680.877	34989.04
681.225	34972.99
681.573	35189.03
681.922	34974.57
682.27	34957.85
682.618	34979.77
682.966	34748.37
683.314	34847.57
683.661	34732.1
684.009	34608.93
684.357	34450.75
684.705	34475.6
685.053	34545.21
685.4	34494.14
685.748	34395.83
686.095	34363.97
686.443	34197.42
686.79	34098.89
687.138	34250.75
687.485	34197.19
687.832	34201.04
688.18	34196.97
688.527	33927.37
688.874	33934.15
689.221	33784.32
689.568	33713.36
689.915	33733.48
690.262	33673.14
690.609	33600.6
690.956	33447.16
691.303	33470.21
691.65	33399.47
691.997	33299.36
692.344	33166.26
692.69	32954.97
693.037	33053.5
693.383	32860.73
693.73	32835.65
694.077	32591.81
694.423	32678.36
694.769	32656.44
695.116	32607.18
695.462	32419.39
695.808	32402.66
696.155	32446.96
696.501	32166.96
696.847	32166.74
697.193	32156.12
697.539	32194.76
697.885	31934.88
698.231	31848.78
698.577	31878.16
698.923	31698.05
699.269	31608.11
699.614	31483.37
699.96	31473.2
700.306	31484.95
700.651	31205.41
700.997	31225.29
701.342	31246.09
701.688	31244.5
702.033	31088.58
702.379	31023.04
702.724	30948.24
703.069	30835.7
703.415	30636.16
703.76	30695.37
704.105	30571.53
704.45	30476.39
704.795	30453.11
705.14	30330.63
705.485	30222.38
705.83	30221.93
706.175	30236.17
706.52	30113.91
706.865	29955.95
707.209	30073.01
707.554	29875.95
707.899	29985.78
708.243	29877.08
708.588	29710.53
708.932	29494.49
709.277	29561.84
709.621	29577.2
709.966	29334.95
710.31	29434.38
710.654	29108.97
710.998	29322.52
711.342	29182.64
711.687	29053.83
712.031	29026.71
712.375	28855.19
712.719	29002.08
713.063	28886.37
713.407	28889.76
713.75	28800.5
714.094	28710.56
714.438	28658.36
714.782	28681.63
715.125	28548.53
715.469	28588.98
715.812	28410.68
716.156	28168.65
716.499	28215.2
716.843	28393.96
717.186	28093.63
717.53	28353.51
717.873	28148.31
718.216	28238.25
718.559	28007.07
718.902	27905.16
719.246	27953.52
719.589	27776.57
719.932	27765.72
720.275	27705.61
720.617	27591.72
720.96	27692.96
721.303	27656.58
721.646	27564.37
721.989	27351.05
722.331	27599.18
722.674	27420.88
723.016	27441.67
723.359	27383.36
723.701	27438.05
724.044	27224.04
724.386	27124.61
724.729	27219.52
725.071	27088
725.413	27147.89
725.755	27130.04
726.097	27020.43
726.439	26848.91
726.782	26872.87
727.124	26963.71
727.465	26755.13
727.807	26822.02
728.149	26729.14
728.491	26722.81
728.833	26831.96
729.175	26559.88
729.516	26449.6
729.858	26518.98
730.199	26568.47
730.541	26501.13
730.882	26374.57
731.224	26471.07
731.565	26316.27
731.906	26332.54
732.248	26423.39
732.589	26180
732.93	26065.43
733.271	26116.28
733.612	26138.2
733.953	26092.1
734.294	26000.57
734.635	26026.11
734.976	26182.94
735.317	25878.77
735.658	25913.8
735.999	25918.54
736.339	25841.93
736.68	25960.57
737.021	25817.3
737.361	25608.95
737.702	25740.69
738.042	25716.74
738.383	25557.42
738.723	25552.45
739.063	25502.51
739.404	25491.21
739.744	25434.94
740.084	25425
740.424	25388.16
740.764	25387.03
741.104	25419.57
741.444	25176.64
741.784	25208.28
742.124	25287.37
742.464	25153.59
742.804	25160.6
743.143	25088.73
743.483	25113.82
743.823	25006.48
744.162	24937.78
744.502	25016.19
744.841	24875.86
745.181	24892.13
745.52	24843.77
745.86	24818.23
746.199	24829.76
746.538	24701.17
746.877	24790.44
747.216	24778.46
747.556	24688.74
747.895	24629.76
748.234	24547.96
748.573	24555.64
748.911	24499.14
749.25	24622.76
749.589	24413.04
749.928	24406.49
750.267	24345.7
750.605	24300.05
750.944	24276.78
751.283	24209.43
751.621	24219.38
751.96	24027.74
752.298	24085.14
752.636	24154.29
752.975	23978.71
753.313	23886.05
753.651	24039.95
753.989	23810.12
754.327	23810.12
754.666	23720.63
755.004	23657.81
755.342	23718.83
755.679	23581.65
756.017	23475.22
756.355	23644.03
756.693	23454.88
757.031	23496.91
757.368	23331.72
