Data from hue_34_FLMS001491_00080.txt Node
Date: Tue Feb 07 17:26:08 GMT 2017
User: dcchb
Spectrometer: FLMS00149
Trigger mode: 0
Integration Time (sec): 2.000000E-2
Scans to average: 10
Electric dark correction enabled: true
Nonlinearity correction enabled: false
Boxcar width: 0
XAxis mode: Wavelengths
Number of Pixels in Spectrum: 2048
>>>>>Begin Spectral Data<<<<<
341.393	-28.88
341.776	-28.88
342.16	-28.88
342.543	-60.3
342.927	-76.11
343.31	-67.75
343.693	-75.89
344.077	-44.7
344.46	-60.3
344.843	-50.58
345.226	-32.5
345.61	-49
345.993	-31.14
346.376	-22.1
346.759	4.11
347.142	35.3
347.525	56.31
347.908	52.24
348.291	71.68
348.674	106.03
349.057	108.29
349.44	109.64
349.823	135.41
350.206	184.44
350.588	212.69
350.971	234.39
351.354	236.87
351.737	256.08
352.119	263.76
352.502	274.16
352.884	281.39
353.267	291.56
353.65	284.78
354.032	283.42
354.414	315.97
354.797	325.46
355.179	307.15
355.562	328.17
355.944	334.72
356.326	332.91
356.709	346.93
357.091	331.33
357.473	338.11
357.855	343.08
358.238	356.19
358.62	335.17
359.002	335.85
359.384	337.21
359.766	345.34
360.148	339.02
360.53	345.8
360.912	338.79
361.294	329.53
361.676	336.08
362.057	360.03
362.439	327.94
362.821	333.59
363.203	336.76
363.584	337.89
363.966	331.79
364.348	326.59
364.729	337.21
365.111	315.29
365.493	320.71
365.874	332.46
366.256	330.66
366.637	301.5
367.019	323.42
367.4	345.34
367.781	336.3
368.163	317.1
368.544	310.09
368.925	310.99
369.306	327.49
369.688	301.05
370.069	323.88
370.45	315.97
370.831	309.86
371.212	320.71
371.593	312.12
371.974	306.47
372.355	330.88
372.736	316.64
373.117	334.72
373.498	317.1
373.879	323.65
374.26	328.85
374.641	310.54
375.021	337.89
375.402	351.22
375.783	339.69
376.163	341.73
376.544	323.65
376.925	328.62
377.305	322.75
377.686	333.14
378.066	323.2
378.447	348.73
378.827	320.71
379.208	356.87
379.588	341.28
379.968	331.56
380.349	329.3
380.729	348.28
381.109	324.1
381.489	336.08
381.87	333.37
382.25	347.83
382.63	333.59
383.01	336.98
383.39	340.15
383.77	358.68
384.15	353.25
384.53	361.84
384.91	370.65
385.29	365.91
385.67	361.61
386.049	350.32
386.429	340.82
386.809	362.29
387.189	354.16
387.568	366.36
387.948	365.46
388.328	354.38
388.707	347.6
389.087	349.64
389.466	358.23
389.846	362.52
390.225	371.11
390.605	372.69
390.984	367.26
391.363	358
391.743	382.41
392.122	386.25
392.501	378.79
392.881	390.99
393.26	393.48
393.639	382.41
394.018	382.63
394.397	394.61
394.776	407.49
395.155	415.17
395.534	418.79
395.913	379.47
396.292	385.57
396.671	398.9
397.05	382.18
397.429	399.58
397.808	404.33
398.186	400.48
398.565	381.28
398.944	403.65
399.323	393.93
399.701	386.47
400.08	391.67
400.458	397.32
400.837	438.9
401.215	405.46
401.594	407.72
401.972	411.78
402.351	413.82
402.729	428.28
403.107	398
403.486	423.08
403.864	424.66
404.242	428.51
404.62	435.96
404.999	438
405.377	420.37
405.755	421.27
406.133	425.79
406.511	418.34
406.889	454.04
407.267	426.47
407.645	426.02
408.023	461.73
408.401	460.37
408.779	435.06
409.156	468.73
409.534	446.81
409.912	447.94
410.29	433.03
410.667	449.52
411.045	443.65
411.422	481.61
411.8	478.9
412.178	480.03
412.555	464.89
412.933	472.12
413.31	473.93
413.687	463.76
414.065	495.17
414.442	507.6
414.819	481.61
415.197	510.54
415.574	497.88
415.951	504.89
416.328	522.51
416.705	501.72
417.082	522.97
417.46	523.64
417.837	509.86
418.214	501.95
418.591	519.8
418.967	519.35
419.344	518.22
419.721	528.62
420.098	524.77
420.475	541.27
420.852	539.69
421.228	549.18
421.605	535.85
421.982	527.71
422.358	537.43
422.735	553.47
423.111	537.66
423.488	555.51
423.864	567.49
424.241	590.99
424.617	593.25
424.994	572
425.37	577.2
425.746	572.91
426.123	596.64
426.499	574.72
426.875	581.04
427.251	589.86
427.627	590.31
428.003	641.61
428.379	612.91
428.756	615.62
429.132	615.85
429.507	644.55
429.883	654.49
430.259	614.04
430.635	627.37
431.011	632.79
431.387	653.58
431.763	661.27
432.138	654.49
432.514	661.27
432.89	684.54
433.265	695.62
433.641	685.45
434.016	685.67
434.392	716.18
434.767	708.95
435.143	714.6
435.518	727.25
435.894	711.21
436.269	730.42
436.644	736.75
437.02	724.54
437.395	739.91
437.77	746.69
438.145	750.76
438.52	752.56
438.895	747.59
439.271	737.65
439.646	775.84
440.021	783.75
440.395	786.91
440.77	776.97
441.145	802.96
441.52	805.9
441.895	809.74
442.27	816.07
442.645	815.16
443.019	801.38
443.394	803.19
443.769	804.32
444.143	822.62
444.518	817.2
444.892	852
445.267	830.53
445.641	833.92
446.016	856.97
446.39	861.94
446.764	861.49
447.139	842.05
447.513	843.41
447.887	867.14
448.262	862.84
448.636	878.66
449.01	892.9
449.384	889.28
449.758	867.82
450.132	898.78
450.506	880.47
450.88	915.05
451.254	904.2
451.628	948.49
452.002	938.32
452.376	939.68
452.75	941.49
453.123	971.99
453.497	969.28
453.871	974.48
454.244	982.16
454.618	972.45
454.992	993.01
455.365	998.43
455.739	1020.13
456.112	1019.9
456.486	1021.48
456.859	1011.09
457.232	1048.6
457.606	1045.66
457.979	1087.02
458.352	1097.87
458.725	1096.74
459.099	1113.01
459.472	1117.75
459.845	1117.53
460.218	1133.8
460.591	1170.86
460.964	1150.97
461.337	1147.36
461.71	1181.25
462.083	1194.14
462.456	1206.11
462.829	1208.6
463.201	1262.38
463.574	1251.99
463.947	1271.2
464.32	1296.96
464.692	1317.07
465.065	1324.75
465.438	1316.84
465.81	1334.92
466.183	1340.12
466.555	1414.24
466.928	1411.08
467.3	1394.13
467.672	1430.97
468.045	1470.74
468.417	1458.08
468.789	1501.7
469.161	1541.24
469.534	1534.01
469.906	1576.95
470.278	1580.34
470.65	1595.48
471.022	1617.4
471.394	1662.82
471.766	1687.46
472.138	1713.22
472.51	1743.95
472.882	1755.48
473.253	1804.97
473.625	1829.6
473.997	1878.19
474.369	1890.16
474.74	1903.95
475.112	1998.41
475.484	2023.72
475.855	2050.16
476.227	2079.99
476.598	2152.98
476.97	2159.76
477.341	2225.52
477.713	2320.43
478.084	2320.21
478.455	2397.04
478.827	2438.85
479.198	2503.71
479.569	2546.64
479.94	2638.39
480.311	2645.85
480.682	2721.1
481.053	2800.65
481.424	2887.2
481.795	2872.96
482.166	2991.83
482.537	3053.75
482.908	3135.1
483.279	3225.72
483.65	3302.78
484.021	3358.37
484.391	3494.87
484.762	3504.13
485.133	3584.35
485.503	3682.66
485.874	3793.61
486.244	3819.15
486.615	3930.11
486.985	4019.37
487.356	4139.14
487.726	4212.81
488.097	4321.51
488.467	4392.47
488.837	4521.96
489.207	4615.97
489.578	4702.29
489.948	4765.57
490.318	4879.91
490.688	4973.7
491.058	5085.56
491.428	5139.57
491.798	5215.27
492.168	5382.95
492.538	5447.36
492.908	5485.32
493.278	5677.18
493.648	5703.62
494.017	5803.51
494.387	5917.4
494.757	6003.73
495.126	6035.82
495.496	6148.58
495.866	6256.83
496.235	6288.92
496.605	6380.21
496.974	6483.04
497.344	6602.58
497.713	6606.65
498.082	6733.88
498.452	6869.92
498.821	6871.95
499.19	6962.12
499.559	7040.08
499.928	7125.05
500.298	7165.96
500.667	7248.67
501.036	7271.04
501.405	7386.51
501.774	7471.94
502.143	7592.61
502.512	7593.74
502.88	7723.23
503.249	7746.73
503.618	7771.82
503.987	7888.2
504.356	7963.67
504.724	8002.32
505.093	8042.09
505.462	8158.02
505.83	8218.58
506.199	8247.96
506.567	8328.64
506.936	8369.99
507.304	8472.59
507.672	8494.51
508.041	8541.29
508.409	8675.07
508.777	8802.3
509.145	8867.61
509.514	8838.23
509.882	8951.67
510.25	8898.57
510.618	9008.85
510.986	9043.87
511.354	9169.52
511.722	9232.34
512.09	9316.86
512.458	9292.91
512.826	9362.51
513.193	9470.3
513.561	9494.03
513.929	9611.32
514.297	9594.14
514.664	9675.95
515.032	9682.95
515.4	9801.82
515.767	9776.96
516.135	9935.6
516.502	9878.65
516.869	10010.17
517.237	10096.95
517.604	10048.14
517.972	10090.85
518.339	10216.95
518.706	10238.19
519.073	10266.89
519.44	10242.71
519.808	10432.54
520.175	10431.86
520.542	10529.48
520.909	10562.48
521.276	10620.55
521.643	10725.18
522.009	10743.94
522.376	10776.26
522.743	10866.42
523.11	10968.12
523.477	11103.71
523.843	11082.46
524.21	11231.84
524.577	11252.18
524.943	11338.05
525.31	11375.11
525.676	11450.14
526.043	11524.49
526.409	11602.68
526.776	11655.56
527.142	11715.67
527.508	11782.78
527.874	11833.4
528.241	11940.52
528.607	12041.99
528.973	12100.74
529.339	12092.61
529.705	12228.42
530.071	12360.62
530.437	12314.07
530.803	12393.16
531.169	12486.95
531.535	12494.4
531.901	12554.29
532.267	12529.66
532.632	12653.49
532.998	12718.13
533.364	12787.5
533.73	12849.87
534.095	12962.64
534.461	13011.9
534.826	13057.55
535.192	13116.08
535.557	13187.72
535.923	13165.57
536.288	13302.52
536.653	13238.79
537.019	13273.59
537.384	13429.07
537.749	13406.02
538.114	13425.68
538.479	13505.68
538.845	13560.14
539.21	13588.61
539.575	13676.97
539.94	13716.07
540.305	13817.31
540.67	13823.86
541.034	13883.75
541.399	13950.18
541.764	13994.48
542.129	14013.69
542.494	14070.86
542.858	14174.81
543.223	14237.63
543.587	14253.68
543.952	14267.69
544.316	14372.32
544.681	14385.65
545.045	14471.07
545.41	14642.37
545.774	14544.74
546.138	14701.8
546.503	14727.56
546.867	14701.58
547.231	14836.49
547.595	14809.14
547.959	14906.77
548.324	14986.77
548.688	14993.55
549.052	14995.81
549.416	15029.7
549.779	15039.42
550.143	15187.67
550.507	15216.37
550.871	15256.14
551.235	15326.87
551.599	15379.75
551.962	15477.83
552.326	15464.49
552.689	15653.87
553.053	15478.05
553.417	15578.16
553.78	15806.18
554.143	15767.54
554.507	15780.19
554.87	15850.02
555.234	15971.15
555.597	15958.72
555.96	15980.64
556.323	16108.77
556.686	16068.77
557.05	16148.32
557.413	16319.61
557.776	16326.17
558.139	16397.58
558.502	16409.1
558.865	16492.49
559.228	16577.23
559.59	16542.21
559.953	16625.37
560.316	16819.71
560.679	16755.99
561.041	16881.63
561.404	16979.71
561.767	17029.2
562.129	16977.9
562.492	17206.37
562.854	17213.15
563.217	17142.87
563.579	17220.83
563.941	17431
564.304	17530.65
564.666	17527.94
565.028	17537.21
565.39	17674.38
565.753	17721.84
566.115	17677.54
566.477	17779.01
566.839	17916.41
567.201	17967.71
567.563	18057.19
567.925	18213.35
568.287	18096.06
568.648	18164.54
569.01	18288.38
569.372	18419.9
569.734	18352.33
570.095	18468.26
570.457	18617.63
570.819	18597.52
571.18	18609.72
571.542	18878.19
571.903	18810.4
572.265	18988.02
572.626	19031.18
572.987	19100.56
573.349	19183.72
573.71	19337.84
574.071	19255.81
574.432	19416.71
574.794	19477.27
575.155	19672.75
575.516	19696.93
575.877	19845.85
576.238	19925.85
576.599	19901.21
576.96	20137.82
577.32	20168.78
577.681	20378.04
578.042	20466.85
578.403	20561.99
578.763	20675.43
579.124	20835.2
579.485	21070.9
579.845	21245.13
580.206	21302.53
580.566	21401.29
580.927	21677.66
581.287	21912.23
581.648	21886.7
582.008	22236.97
582.368	22321.04
582.728	22617.98
583.089	22612.56
583.449	22912.43
583.809	23183.39
584.169	23360.33
584.529	23428.58
584.889	23891.84
585.249	23896.59
585.609	24021.11
585.969	24351.94
586.329	24516.01
586.688	24732.05
587.048	24976.56
587.408	25170
587.768	25413.39
588.127	25596.66
588.487	25838.46
588.846	26240.71
589.206	26335.62
589.565	26631.21
589.925	26989.84
590.284	27094.7
590.643	27418.08
591.003	27720.44
591.362	27900.1
591.721	28262.35
592.08	28441.55
592.44	28827.31
592.799	29114.08
593.158	29235.66
593.517	29534.18
593.876	29783.21
594.235	29991.34
594.593	30230.66
594.952	30466.59
595.311	30707.03
595.67	30976.18
596.029	31462.27
596.387	31624.52
596.746	31830.84
597.104	32079.65
597.463	32116.26
597.822	32567.55
598.18	32523.71
598.538	32800.54
598.897	33281.2
599.255	33317.58
599.613	33966.15
599.972	34014.74
600.33	34362.75
600.688	34400.27
601.046	34688.85
601.404	34917.99
601.762	35067.82
602.12	35382.61
602.478	35651.99
602.836	35774.92
603.194	35714.58
603.552	36055.82
603.91	36174.91
604.268	36638.18
604.625	36550.49
604.983	36837.94
605.341	36976.25
605.698	37364.03
606.056	37581.65
606.413	37528.1
606.771	38033.84
607.128	38078.36
607.485	38012.6
607.843	38368.75
608.2	38615.75
608.557	38824.11
608.914	38831.79
609.272	39182.06
609.629	39321.04
609.986	39606.23
610.343	39575.05
610.7	39918.77
611.057	40090.51
611.414	40026.33
611.771	40123.28
612.127	40417.28
612.484	40478.3
612.841	40874.45
613.198	40817.5
613.554	40932.3
613.911	41274.66
614.267	41290.26
614.624	41382.01
614.98	41563.24
615.337	41669
615.693	41655.44
616.05	41716.91
616.406	42101.76
616.762	42345.37
617.118	42217.24
617.475	42199.84
617.831	42482.77
618.187	42494.97
618.543	42568.19
618.899	42906.26
619.255	42914.39
619.611	42828.52
619.967	43086.37
620.323	43260.37
620.678	43282.52
621.034	43208.62
621.39	43252.46
621.746	43294.95
622.101	43714.6
622.457	43683.41
622.812	43690.42
623.168	43815.84
623.523	43813.13
623.879	44047.25
624.234	43845.9
624.589	44117.53
624.945	44154.36
625.3	44213.57
625.655	44194.59
626.01	44333.11
626.365	44292.66
626.72	44291.76
627.075	44281.82
627.43	44356.39
627.785	44472.32
628.14	44429.38
628.495	44682.48
628.85	44468.25
629.205	44451.98
629.559	44740.33
629.914	44583.5
630.269	44503.05
630.623	44481.58
630.978	44559.77
631.332	44674.12
631.687	44756.15
632.041	44655.37
632.396	44839.32
632.75	44544.86
633.104	44689.71
633.459	44556.84
633.813	44687.45
634.167	44725.19
634.521	44644.29
634.875	44879.09
635.229	44807
635.583	44555.03
635.937	44677.06
636.291	44549.61
636.645	44592.32
636.999	44535.82
637.352	44680.45
637.706	44497.86
638.06	44709.38
638.413	44556.38
638.767	44405.88
639.121	44569.94
639.474	44395.94
639.828	44435.71
640.181	44495.82
640.534	44534.24
640.888	44480.23
641.241	44256.96
641.594	44363.4
641.947	44416.28
642.301	44281.59
642.654	44308.03
643.007	44328.37
643.36	44369.27
643.713	44220.8
644.066	44442.04
644.419	44142.38
644.771	43886.12
645.124	43461.72
645.477	43406.81
645.83	43331.33
646.182	43084.33
646.535	43095.18
646.888	43041.85
647.24	42819.71
647.593	43027.61
647.945	43018.12
648.298	42801.63
648.65	42820.84
649.002	42740.84
649.355	42820.61
649.707	42755.3
650.059	43054.5
650.411	43619.46
650.763	43537.65
651.115	43828.04
651.467	43780.13
651.819	43835.05
652.171	43660.82
652.523	43673.24
652.875	43683.41
653.227	43469.86
653.578	43801.15
653.93	43627.82
654.282	43419.69
654.633	43389.41
654.985	43460.82
655.337	43535.39
655.688	43504.21
656.039	43633.7
656.391	43308.51
656.742	43480.71
657.094	43411.33
657.445	43552.8
657.796	43519.8
658.147	43392.12
658.498	43440.26
658.849	43504.66
659.2	43430.54
659.551	43338.11
659.902	43496.75
660.253	43439.13
660.604	43402.52
660.955	43191.45
661.306	43500.37
661.656	43237.78
662.007	43369.3
662.358	43264.44
662.708	43276.42
663.059	43368.85
663.409	43039.36
663.76	43333.37
664.11	43260.83
664.461	43180.38
664.811	43149.64
665.161	43317.55
665.511	43146.7
665.862	43260.15
666.212	43194.84
666.562	43339.24
666.912	43169.98
667.262	43106.25
667.612	43069.42
667.962	43176.31
668.312	43047.27
668.662	43381.27
669.011	43122.75
669.361	43012.92
669.711	43050.89
670.06	43029.87
670.41	43044.11
670.76	42951.23
671.109	43103.99
671.459	43111.23
671.808	42933.15
672.157	43132.47
672.507	42828.52
672.856	42933.83
673.205	42898.58
673.554	43117.78
673.904	42791.46
674.253	42957.56
674.602	42913.04
674.951	42365.03
675.3	42149.89
675.649	42888.41
675.998	42698.35
676.346	42776.32
676.695	42936.99
677.044	42605.02
677.393	42732.93
677.741	42869.65
678.09	42641.18
678.438	42654.06
678.787	42685.47
679.135	42657.23
679.484	42438.25
679.832	42554.4
680.181	42332.26
680.529	42482.32
680.877	42382.88
681.225	42280.06
681.573	42549.88
681.922	42297.91
682.27	42050.46
682.618	42132.95
682.966	42000.29
683.314	42063.34
683.661	41936.79
684.009	41703.35
684.357	41747.87
684.705	41735.67
685.053	41746.74
685.4	41579.51
685.748	41579.06
686.095	41417.03
686.443	41384.04
686.79	41279.63
687.138	41465.84
687.485	41375.23
687.832	41270.82
688.18	41168.45
688.527	40979.53
688.874	40984.05
689.221	40883.26
689.568	40850.49
689.915	40694.57
690.262	40702.93
690.609	40555.59
690.956	40484.18
691.303	40422.93
691.65	40250.74
691.997	40273.79
692.344	40153.56
692.69	40116.5
693.037	40159.66
693.383	39852.78
693.73	39862.72
694.077	39617.31
694.423	39709.51
694.769	39561.49
695.116	39476.74
695.462	39526.46
695.808	39403.3
696.155	39442.85
696.501	39085.79
696.847	39101.84
697.193	38688.97
697.539	39036.98
697.885	38847.38
698.231	38590.44
698.577	38621.17
698.923	38583.66
699.269	38443.1
699.614	38282.65
699.96	38246.72
700.306	38233.16
700.651	38138.93
700.997	37950
701.342	37841.99
701.688	37780.29
702.033	37562.44
702.379	37612.84
702.724	37491.94
703.069	37595.44
703.415	37209.91
703.76	37270.93
704.105	37266.41
704.45	37107.32
704.795	36840.2
705.14	36850.6
705.485	36758.4
705.83	36662.58
706.175	36641.34
706.52	36648.8
706.865	36420.33
707.209	36430.27
707.554	36309.82
707.899	36300.33
708.243	36104.86
708.588	36227.11
708.932	35839.33
709.277	35886.78
709.621	35896.27
709.966	35787.58
710.31	35796.16
710.654	35468.04
710.998	35566.34
711.342	35475.72
711.687	35406.12
712.031	35371.77
712.375	35208.16
712.719	35262.39
713.063	35209.51
713.407	35179.68
713.75	34988.5
714.094	34990.53
714.438	34865.57
714.782	34902.18
715.125	34757.09
715.469	34691.79
715.812	34596.19
716.156	34473.26
716.499	34425.35
716.843	34465.35
717.186	34236.88
717.53	34315.75
717.873	34524.56
718.216	34308.52
718.559	34094.74
718.902	33887.96
719.246	34060.16
719.589	33750.34
719.932	33751.02
720.275	33855.42
720.617	33822.43
720.96	33693.17
721.303	33675.99
721.646	33631.47
721.989	33351.48
722.331	33516.9
722.674	33474.64
723.016	33401.88
723.359	33401.65
723.701	33356.91
724.044	33137.02
724.386	33098.16
724.729	33283.24
725.071	33234.65
725.413	33100.19
725.755	33151.04
726.097	32929.8
726.439	32766.86
726.782	32763.7
727.124	32868.78
727.465	32719.18
727.807	32659.07
728.149	32636.25
728.491	32535.23
728.833	32567.77
729.175	32498.4
729.516	32353.09
729.858	32334.56
730.199	32314.22
730.541	32277.39
730.882	32171.85
731.224	32305.41
731.565	32112.64
731.906	32098.86
732.248	32169.14
732.589	31903.38
732.93	31882.82
733.271	31855.25
733.612	31968.24
733.953	31937.06
734.294	31899.77
734.635	31656.16
734.976	31831.75
735.317	31577.74
735.658	31539.33
735.999	31575.26
736.339	31443.28
736.68	31533.22
737.021	31476.73
737.361	31270.18
737.702	31589.04
738.042	31317.86
738.383	31270.18
738.723	31221.59
739.063	31158.32
739.404	31207.58
739.744	31075.16
740.084	31087.59
740.424	31046.46
740.764	30954.93
741.104	30980.24
741.444	30782.06
741.784	30790.87
742.124	30775.05
742.464	30889.63
742.804	30623.64
743.143	30629.97
743.483	30670.65
743.823	30511.1
744.162	30587.03
744.502	30570.09
744.841	30524.89
745.181	30554.95
745.52	30372.8
745.86	30398.79
746.199	30315.63
746.538	30298
746.877	30272.92
747.216	30340.49
747.556	30138.23
747.895	30337.1
748.234	29952.7
748.573	29945.7
748.911	29893.95
749.25	29898.01
749.589	29841.52
749.928	29775.08
750.267	29787.73
750.605	29720.39
750.944	29647.85
751.283	29585.71
751.621	29643.56
751.96	29420.06
752.298	29439.49
752.636	29453.28
752.975	29315.2
753.313	29268.43
753.651	29286.28
753.989	29091.48
754.327	29133.51
754.666	28958.83
755.004	29047.64
755.342	28943.01
755.679	28850.36
756.017	28844.48
756.355	28887.19
756.693	28638.84
757.031	28663.02
