Data from hue_28_FLMS001491_00065.txt Node
Date: Tue Feb 07 17:17:36 GMT 2017
User: dcchb
Spectrometer: FLMS00149
Trigger mode: 0
Integration Time (sec): 2.000000E-2
Scans to average: 10
Electric dark correction enabled: true
Nonlinearity correction enabled: false
Boxcar width: 0
XAxis mode: Wavelengths
Number of Pixels in Spectrum: 2048
>>>>>Begin Spectral Data<<<<<
341.393	-7.54
341.776	-7.54
342.16	-7.54
342.543	-46.41
342.927	-63.36
343.31	-59.97
343.693	-91.38
344.077	-64.04
344.46	-55.45
344.843	-70.14
345.226	-42.12
345.61	-17.03
345.993	2.4
346.376	17.32
346.759	8.05
347.142	26.58
347.525	42.4
347.908	54.15
348.291	69.52
348.674	86.69
349.057	93.02
349.44	134.83
349.823	163.07
350.206	192.23
350.588	210.98
350.971	207.14
351.354	218.67
351.737	243.75
352.119	252.11
352.502	256.18
352.884	281.26
353.267	279
353.65	295.05
354.032	311.55
354.414	281.94
354.797	326.69
355.179	335.73
355.562	337.99
355.944	330.3
356.326	331.88
356.709	349.96
357.091	336.86
357.473	338.66
357.855	325.78
358.238	342.73
358.62	343.86
359.002	335.73
359.384	345.67
359.766	346.12
360.148	325.78
360.53	340.7
360.912	318.32
361.294	342.28
361.676	333.01
362.057	330.98
362.439	344.09
362.821	322.62
363.203	330.53
363.584	332.56
363.966	335.95
364.348	325.1
364.729	321.26
365.111	327.14
365.493	333.01
365.874	306.12
366.256	323.07
366.637	320.13
367.019	348.83
367.4	323.3
367.781	308.61
368.163	326.01
368.544	317.87
368.925	312.9
369.306	319
369.688	319
370.069	310.64
370.45	300.25
370.831	328.72
371.212	300.7
371.593	308.38
371.974	314.03
372.355	292.34
372.736	318.32
373.117	313.35
373.498	346.57
373.879	340.25
374.26	313.13
374.641	326.46
375.021	326.23
375.402	326.69
375.783	326.23
376.163	340.7
376.544	335.27
376.925	323.75
377.305	329.85
377.686	318.55
378.066	323.97
378.447	327.36
378.827	325.78
379.208	328.49
379.588	328.27
379.968	316.07
380.349	324.88
380.729	320.36
381.109	320.58
381.489	342.05
381.87	341.38
382.25	350.64
382.63	353.35
383.01	339.79
383.39	342.73
383.77	326.46
384.15	357.87
384.53	352.22
384.91	348.61
385.29	356.06
385.67	357.65
386.049	348.61
386.429	345.22
386.809	347.02
387.189	358.55
387.568	330.08
387.948	351.77
388.328	340.7
388.707	353.58
389.087	361.49
389.466	359.45
389.846	349.51
390.225	366.91
390.605	369.62
390.984	388.38
391.363	374.14
391.743	370.08
392.122	358.78
392.501	365.33
392.881	357.65
393.26	372.56
393.639	397.87
394.018	363.52
394.397	377.53
394.776	376.63
395.155	363.75
395.534	377.08
395.913	387.25
396.292	377.31
396.671	408.04
397.05	370.75
397.429	392.22
397.808	387.25
398.186	370.75
398.565	382.05
398.944	382.73
399.323	420.02
399.701	412.33
400.08	416.4
400.458	384.99
400.837	390.41
401.215	403.52
401.594	382.73
401.972	385.22
402.351	407.36
402.729	418.21
403.107	401.94
403.486	416.63
403.864	417.31
404.242	410.3
404.62	404.2
404.999	418.44
405.377	419.34
405.755	401.94
406.133	415.95
406.511	411.43
406.889	432.45
407.267	439.45
407.645	424.99
408.023	409.62
408.401	446.01
408.779	440.13
409.156	438.77
409.534	458.66
409.912	421.37
410.29	447.36
410.667	449.62
411.045	455.95
411.422	445.33
411.8	457.76
412.178	459.34
412.555	470.86
412.933	440.58
413.31	430.64
413.687	453.46
414.065	457.53
414.442	470.41
414.819	498.43
415.197	472.22
415.574	463.41
415.951	499.56
416.328	485.33
416.705	481.26
417.082	484.42
417.46	476.74
417.837	497.3
418.214	501.6
418.591	486.46
418.967	508.6
419.344	508.38
419.721	526.46
420.098	518.55
420.475	526
420.852	520.13
421.228	503.18
421.605	519.22
421.982	526.46
422.358	535.04
422.735	531.2
423.111	531.43
423.488	547.25
423.864	544.99
424.241	540.92
424.617	536.17
424.994	540.92
425.37	558.54
425.746	552.9
426.123	541.82
426.499	532.56
426.875	525.1
427.251	558.32
427.627	566
428.003	600.13
428.379	572.78
428.756	571.43
429.132	592.22
429.507	596.28
429.883	597.64
430.259	610.29
430.635	594.25
431.011	607.36
431.387	568.71
431.763	617.98
432.138	633.57
432.514	626.11
432.89	619.56
433.265	637.86
433.641	642.84
434.016	619.79
434.392	663.17
434.767	664.3
435.143	651.65
435.518	670.18
435.894	657.3
436.269	663.17
436.644	697.52
437.02	682.61
437.395	673.8
437.77	696.62
438.145	695.26
438.52	709.73
438.895	702.72
439.271	707.69
439.646	710.18
440.021	715.38
440.395	699.33
440.77	710.63
441.145	732.55
441.52	740.23
441.895	729.61
442.27	752.89
442.645	726.9
443.019	733.46
443.394	745.66
443.769	757.86
444.143	763.74
444.518	781.82
444.892	764.19
445.267	789.72
445.641	772.32
446.016	763.06
446.39	778.88
446.764	794.47
447.139	789.95
447.513	790.4
447.887	818.65
448.262	797.86
448.636	770.52
449.01	844.86
449.384	822.72
449.758	832.44
450.132	835.37
450.506	822.72
450.88	833.79
451.254	818.42
451.628	831.31
452.002	832.44
452.376	872.43
452.75	853
453.123	869.72
453.497	874.02
453.871	891.87
454.244	907.01
454.618	879.67
454.992	909.5
455.365	900.23
455.739	918.31
456.112	949.04
456.486	951.75
456.859	933.45
457.232	976.39
457.606	937.07
457.979	982.71
458.352	1003.05
458.725	1003.5
459.099	987.69
459.472	1023.17
459.845	1025.2
460.218	1023.84
460.591	1030.85
460.964	1034.24
461.337	1069.72
461.71	1072.88
462.083	1069.94
462.456	1067.01
462.829	1097.29
463.201	1126.44
463.574	1111.98
463.947	1123.05
464.32	1127.12
464.692	1172.99
465.065	1177.29
465.438	1178.19
465.81	1185.87
466.183	1189.26
466.555	1229.04
466.928	1207.34
467.3	1244.4
467.672	1255.93
468.045	1281.92
468.417	1281.46
468.789	1299.09
469.161	1314
469.534	1363.04
469.906	1369.6
470.278	1356.94
470.65	1400.78
471.022	1401.23
471.394	1414.79
471.766	1445.3
472.138	1455.92
472.51	1509.93
472.882	1536.37
473.253	1531.85
473.625	1568.91
473.997	1608.01
474.369	1603.94
474.74	1627.44
475.112	1652.75
475.484	1694.56
475.855	1751.73
476.227	1745.18
476.598	1789.47
476.97	1805.52
477.341	1819.3
477.713	1869.24
478.084	1911.05
478.455	1953.54
478.827	1985.85
479.198	2018.62
479.569	2065.62
479.94	2113.76
480.311	2161.89
480.682	2187.88
481.053	2240.76
481.424	2286.18
481.795	2319.85
482.166	2358.27
482.537	2381.77
482.908	2456.8
483.279	2504.03
483.65	2544.93
484.021	2579.06
484.391	2664.25
484.762	2664.93
485.133	2719.62
485.503	2772.95
485.874	2846.85
486.244	2862.21
486.615	2955.09
486.985	2974.53
487.356	3069.44
487.726	3087.97
488.097	3167.52
488.467	3188.76
488.837	3249.1
489.207	3351.47
489.578	3385.36
489.948	3421.07
490.318	3442.31
490.688	3512.59
491.058	3579.26
491.428	3651.8
491.798	3690.44
492.168	3765.69
492.538	3812.24
492.908	3852.92
493.278	3907.84
493.648	3947.83
494.017	4001.62
494.387	4000.26
494.757	4120.26
495.126	4175.62
495.496	4136.3
495.866	4243.65
496.235	4286.13
496.605	4278.9
496.974	4327.49
497.344	4375.17
497.713	4433.47
498.082	4451.32
498.452	4538.78
498.821	4585.56
499.19	4503.53
499.559	4647.93
499.928	4655.16
500.298	4757.3
500.667	4736.74
501.036	4774.48
501.405	4831.88
501.774	4833.91
502.143	4888.6
502.512	4955.72
502.88	4978.77
503.249	4948.71
503.618	5025.55
503.987	5044.98
504.356	5067.8
504.724	5098.09
505.093	5115.26
505.462	5122.72
505.83	5199.1
506.199	5230.29
506.567	5306.67
506.936	5283.39
507.304	5331.75
507.672	5392.32
508.041	5400.23
508.409	5445.65
508.777	5450.62
509.145	5554.8
509.514	5529.94
509.882	5595.93
510.25	5578.53
510.618	5600.45
510.986	5595.25
511.354	5650.61
511.722	5683.38
512.09	5756.15
512.458	5731.74
512.826	5783.72
513.193	5834.34
513.561	5834.34
513.929	5875.47
514.297	5883.15
514.664	5911.4
515.032	6015.58
515.4	6003.37
515.767	6015.58
516.135	6021.45
516.502	5999.08
516.869	6112.07
517.237	6160.43
517.604	6092.41
517.972	6171.5
518.339	6223.48
518.706	6227.32
519.073	6228.45
519.44	6266.42
519.808	6298.05
520.175	6275.23
520.542	6385.28
520.909	6379.63
521.276	6419.41
521.643	6463.7
522.009	6459.63
522.376	6487.65
522.743	6539.86
523.11	6621.89
523.477	6633.64
523.843	6637.03
524.21	6703.69
524.577	6718.38
524.943	6751.83
525.31	6761.32
525.676	6834.99
526.043	6834.09
526.409	6890.58
526.776	6971.94
527.142	6968.09
527.508	7034.98
527.874	7058.71
528.241	7103.91
528.607	7160.63
528.973	7214.19
529.339	7172.83
529.705	7192.49
530.071	7269.55
530.437	7291.7
530.803	7301.87
531.169	7438.14
531.535	7340.51
531.901	7373.05
532.267	7450.34
532.632	7504.35
532.998	7517.23
533.364	7566.27
533.73	7682.2
534.095	7669.54
534.461	7678.58
534.826	7758.13
535.192	7705.48
535.557	7826.6
535.923	7761.75
536.288	7831.57
536.653	7879.71
537.019	7880.16
537.384	7930.1
537.749	7905.7
538.114	7977.56
538.479	8001.29
538.845	8041.96
539.21	8021.63
539.575	8066.37
539.94	8102.75
540.305	8171.23
540.67	8201.28
541.034	8219.13
541.399	8196.76
541.764	8309.75
542.129	8302.75
542.494	8363.54
542.858	8420.71
543.223	8377.55
543.587	8464.33
543.952	8500.71
544.316	8507.49
544.681	8489.18
545.045	8601.95
545.41	8670.65
545.774	8637.43
546.138	8631.55
546.503	8679.46
546.867	8672.68
547.231	8777.09
547.595	8781.38
547.959	8846.69
548.324	8777.76
548.688	8814.15
549.052	8843.98
549.416	8973.69
549.779	8959.91
550.143	8976.18
550.507	9039.45
550.871	9081.71
551.235	9162.16
551.599	9134.82
551.962	9125.78
552.326	9213.23
552.689	9278.09
553.053	9227.02
553.417	9178.66
553.78	9319.67
554.143	9318.09
554.507	9309.05
554.87	9383.85
555.234	9415.03
555.597	9440.57
555.96	9427.69
556.323	9458.65
556.686	9507.01
557.05	9570.96
557.413	9597.85
557.776	9625.42
558.139	9657.97
558.502	9641.7
558.865	9656.61
559.228	9736.16
559.59	9790.62
559.953	9810.28
560.316	9942.93
560.679	9901.35
561.041	9907.68
561.404	10042.14
561.767	10059.54
562.129	9996.94
562.492	10168.24
562.854	10008.47
563.217	10100.44
563.579	10098.41
563.941	10178.4
564.304	10297.05
564.666	10289.59
565.028	10276.48
565.39	10359.64
565.753	10430.15
566.115	10424.95
566.477	10457.27
566.839	10457.72
567.201	10572.07
567.563	10583.59
567.925	10600.54
568.287	10686.64
568.648	10623.14
569.01	10695.68
569.372	10758.05
569.734	10780.42
570.095	10863.36
570.457	10949.91
570.819	10949.91
571.18	10936.8
571.542	11085.27
571.903	11095.44
572.265	11130.7
572.626	11197.13
572.987	11290.24
573.349	11312.16
573.71	11298.83
574.071	11410.24
574.432	11464.25
574.794	11664.92
575.155	11584.7
575.516	11600.06
575.877	11720.06
576.238	11769.55
576.599	11929.09
576.96	12022.2
577.32	12001.63
577.681	12124.57
578.042	12311.23
578.403	12297.45
578.763	12400.72
579.124	12551.45
579.485	12634.61
579.845	12818.79
580.206	12877.54
580.566	13111.89
580.927	13178.55
581.287	13366.8
581.648	13365.21
582.008	13604.53
582.368	13758.2
582.728	13945.09
583.089	14101.92
583.449	14159.09
583.809	14419.2
584.169	14553.43
584.529	14710.26
584.889	14987.09
585.249	15119.52
585.609	15197.71
585.969	15553.86
586.329	15713.85
586.688	15919.27
587.048	16093.5
587.408	16396.09
587.768	16552.47
588.127	16894.39
588.487	17017.55
588.846	17479.91
589.206	17565.1
589.565	17900.91
589.925	18135.94
590.284	18429.04
590.643	18668.58
591.003	18956.25
591.362	19299.07
591.721	19455.9
592.08	19790.81
592.44	20125.49
592.799	20351.47
593.158	20678.24
593.517	21016.76
593.876	21200.04
594.235	21405.68
594.593	21768.38
594.952	22118.88
595.311	22293.57
595.67	22621.92
596.029	23115.01
596.387	23309.36
596.746	23704.83
597.104	23918.16
597.463	24256
597.822	24515.88
598.18	24774.41
598.538	24983.67
598.897	25376.65
599.255	25459.81
599.613	26193.35
599.972	26390.18
600.33	26693.45
600.688	26728.25
601.046	27122.82
601.404	27562.81
601.762	27626.76
602.12	28158.72
602.478	28398.49
602.836	28670.57
603.194	28829.89
603.552	29086.16
603.91	29206.15
604.268	29608.18
604.625	29678.46
604.983	30182.4
605.341	30253.58
605.698	30731.31
606.056	30867.8
606.413	31041.13
606.771	31378.53
607.128	31737.84
607.485	31659.2
607.843	31909.58
608.2	32353.41
608.557	32584.82
608.914	32623.92
609.272	33041.31
609.629	33204.24
609.986	33596.55
610.343	33600.16
610.7	33958.8
611.057	34088.74
611.414	34298.22
611.771	34428.16
612.127	34705.67
612.484	34868.15
612.841	35133.68
613.198	35149.05
613.554	35336.39
613.911	35656.38
614.267	35776.6
614.624	35892.98
614.98	36255.91
615.337	36465.85
615.693	36594.43
616.05	36556.47
616.406	36942.9
616.762	36974.76
617.118	37131.37
617.475	37224.25
617.831	37557.57
618.187	37572.26
618.543	37737.23
618.899	37941.74
619.255	38043.21
619.611	38212.24
619.967	38311
620.323	38472.35
620.678	38405.01
621.034	38461.95
621.39	38600.71
621.746	38585.57
622.101	39007.25
622.457	38829.63
622.812	39069.62
623.168	39203.63
623.523	39327.47
623.879	39494.24
624.234	39465.54
624.589	39633.68
624.945	39566.11
625.3	39846.55
625.655	39919.77
626.01	39875.48
626.365	40032.08
626.72	39933.55
627.075	39986.89
627.43	40122.02
627.785	40094.91
628.14	40208.12
628.495	40421.45
628.85	40311.4
629.205	40172.19
629.559	40534.44
629.914	40340.1
630.269	40559.75
630.623	40605.18
630.978	40399.3
631.332	40704.83
631.687	40816.47
632.041	40542.13
632.396	40712.97
632.75	40626.87
633.104	40682.46
633.459	40695.57
633.813	40477.04
634.167	40785.74
634.521	40753.19
634.875	40761.78
635.229	40666.19
635.583	40591.16
635.937	40612.18
636.291	40727.88
636.645	40765.62
636.999	40831.84
637.352	40711.39
637.706	40571.05
638.06	40737.38
638.413	40726.08
638.767	40760.65
639.121	40764.72
639.474	40507.78
639.828	40484.95
640.181	40645.4
640.534	40663.7
640.888	40470.72
641.241	40545.74
641.594	40483.82
641.947	40675.91
642.301	40601.79
642.654	40569.47
643.007	40492.41
643.36	40581.45
643.713	40518.4
644.066	40770.37
644.419	40444.73
644.771	40102.59
645.124	39728.14
645.477	39770.17
645.83	39617.18
646.182	39481.81
646.535	39388.26
646.888	39359.33
647.24	39280.46
647.593	39480.23
647.945	39440.91
648.298	39333.8
648.65	39225.1
649.002	39132.9
649.355	39334.25
649.707	39230.3
650.059	39411.53
650.411	39902.14
650.763	39961.12
651.115	40466.42
651.467	40066.88
651.819	40173.55
652.171	40031.41
652.523	40155.02
652.875	39907.34
653.227	39936.49
653.578	40222.36
653.93	40015.81
654.282	40100.78
654.633	39790.96
654.985	40013.33
655.337	39983.5
655.688	40087
656.039	40057.85
656.391	39743.5
656.742	39875.93
657.094	39873.44
657.445	40039.99
657.796	39974.91
658.147	39851.07
658.498	39892.88
658.849	39925.42
659.2	39839.77
659.551	39751.86
659.902	39908.02
660.253	39812.88
660.604	39886.55
660.955	39553
661.306	39891.07
661.656	39768.14
662.007	39814.01
662.358	39762.94
662.708	39887.23
663.059	39615.6
663.409	39413.79
663.76	39819.89
664.11	39744.18
664.461	39939.88
664.811	39838.19
665.161	39619.89
665.511	39689.95
665.862	39793.67
666.212	39703.73
666.562	39640.91
666.912	39595.03
667.262	39540.34
667.612	39648.14
667.962	39691.98
668.312	39541.7
668.662	39734.01
669.011	39695.37
669.361	39553
669.711	39622.83
670.06	39629.16
670.41	39520.23
670.76	39447.24
671.109	39554.58
671.459	39595.03
671.808	39563.62
672.157	39560.23
672.507	39320.46
672.856	39317.53
673.205	39403.85
673.554	39587.57
673.904	39379.22
674.253	39738.08
674.602	39455.15
674.951	38945.33
675.3	38867.37
675.649	39462.83
675.998	39361.37
676.346	39365.43
676.695	39459.22
677.044	39245.21
677.393	39289.05
677.741	39282.5
678.09	39340.8
678.438	39101.71
678.787	39261.93
679.135	39125.21
679.484	38958.89
679.832	39064.2
680.181	38881.6
680.529	38861.27
680.877	38647.26
681.225	38837.09
681.573	39089.96
681.922	38811.55
682.27	38603.87
682.618	38697.88
682.966	38542.18
683.314	38745.34
683.661	38602.74
684.009	38407.27
684.357	38318.23
684.705	38306.48
685.053	38347.16
685.4	38126.6
685.748	38045.92
686.095	38083.43
686.443	37897.22
686.79	37946.26
687.138	38057.45
687.485	38035.98
687.832	37890.22
688.18	37955.3
688.527	37727.28
688.874	37689.77
689.221	37544.92
689.568	37497.23
689.915	37435.54
690.262	37467.4
690.609	37313.51
690.956	37238.03
691.303	37188.99
691.65	37028.55
691.997	37026.06
692.344	36700.42
692.69	36688.89
693.037	36653.64
693.383	36445.06
693.73	36478.96
694.077	36315.8
694.423	36280.54
694.769	36367.77
695.116	36214.33
695.462	36052.98
695.808	35963.49
696.155	35982.92
696.501	35791.97
696.847	35874.9
697.193	35656.6
697.539	35735.47
697.885	35600.79
698.231	35387.01
698.577	35400.34
698.923	35347.01
699.269	35206.22
699.614	35027.47
699.96	34993.12
700.306	35076.96
700.651	34729.62
700.997	34798.32
701.342	34585.67
701.688	34649.85
702.033	34583.64
702.379	34438.56
702.724	34380.93
703.069	34466.81
703.415	34059.58
703.76	34205.34
704.105	34107.94
704.45	34004.22
704.795	33804.45
705.14	33621.86
705.485	33702.98
705.83	33529.88
706.175	33702.08
706.52	33419.15
706.865	33266.61
707.209	33278.81
707.554	33159.95
707.899	33277.46
708.243	33146.84
708.588	33076.79
708.932	32892.84
709.277	32955.88
709.621	32897.36
709.966	32623.69
710.31	32720.18
710.654	32465.5
710.998	32545.5
711.342	32555.44
711.687	32411.49
712.031	32277.03
712.375	32142.12
712.719	32199.75
713.063	32184.38
713.407	32276.58
713.75	32037.04
714.094	32038.62
714.438	31910.49
714.782	31938.06
715.125	31762.7
715.469	31839.3
715.812	31656.71
716.156	31498.07
716.499	31423.04
716.843	31526.77
717.186	31268.92
717.53	31501.46
717.873	31393.89
718.216	31315.25
718.559	31276.61
718.902	31143.96
719.246	31223.5
719.589	31109.83
719.932	30820.8
720.275	30923.4
720.617	30886.56
720.96	30834.81
721.303	30890.63
721.646	30823.06
721.989	30529.96
722.331	30597.75
722.674	30580.35
723.016	30652.22
723.359	30499.9
723.701	30593.91
724.044	30345.56
724.386	30229.63
724.729	30365.9
725.071	30350.76
725.413	30269.18
725.755	30168.16
726.097	30041.16
726.439	29932.46
726.782	30009.75
727.124	30131.78
727.465	29963.2
727.807	29913.03
728.149	29843.88
728.491	29795.06
728.833	29779.47
729.175	29659.25
729.516	29756.42
729.858	29671.23
730.199	29691.56
730.541	29545.35
730.882	29538.57
731.224	29616.09
731.565	29346.04
731.906	29545.58
732.248	29414.74
732.589	29297.22
732.93	29288.64
733.271	29222.2
733.612	29196.66
733.953	29240.05
734.294	29073.5
734.635	29052.26
734.976	29085.93
735.317	29028.53
735.658	28777.69
735.999	28888.87
736.339	28855.65
736.68	28941.08
737.021	28760.29
737.361	28612.95
737.702	28816.78
738.042	28577.92
738.383	28599.84
738.723	28653.4
739.063	28509.22
739.404	28494.08
739.744	28518.04
740.084	28348.77
740.424	28397.36
740.764	28349.68
741.104	28455.66
741.444	28218.83
741.784	28143.58
742.124	28292.05
742.464	28246.18
742.804	28139.29
743.143	28086.41
743.483	28091.15
743.823	28068.33
744.162	27904.72
744.502	27985.17
744.841	27893.19
745.181	27916.24
745.52	27858.62
745.86	27779.75
746.199	27830.6
746.538	27768.9
746.877	27875.57
747.216	27699.98
747.556	27626.99
747.895	27754.44
748.234	27612.75
748.573	27582.47
748.911	27579.53
749.25	27548.8
749.589	27404.62
749.928	27397.16
750.267	27349.7
750.605	27359.87
750.944	27193.1
751.283	27203.49
751.621	27181.8
751.96	27101.58
752.298	27139.09
752.636	27098.41
752.975	26951.3
753.313	26888.02
753.651	26980
753.989	26833.11
754.327	26798.08
754.666	26772.77
755.004	26651.19
755.342	26635.83
755.679	26582.04
756.017	26459.33
756.355	26524.19
756.693	26375.72
757.031	26482.38
757.368	26332.33
757.706	26215.27
758.044	26115.16
758.381	26194.48
758.719	26114.03
759.056	26025.67
759.394	26050.76
759.731	25795.85
760.068	25801.72
