Data from hue_250_FLMS001491_00034.txt Node
Date: Tue Feb 07 16:00:53 GMT 2017
User: dcchb
Spectrometer: FLMS00149
Trigger mode: 0
Integration Time (sec): 2.000000E-2
Scans to average: 10
Electric dark correction enabled: true
Nonlinearity correction enabled: false
Boxcar width: 0
XAxis mode: Wavelengths
Number of Pixels in Spectrum: 2048
>>>>>Begin Spectral Data<<<<<
341.393	-19.73
341.776	-19.73
342.16	-19.73
342.543	-39.84
342.927	-54.76
343.31	-88.66
343.693	-73.97
344.077	-57.92
344.46	-62.22
344.843	-35.78
345.226	-53.18
345.61	-26.28
345.993	-26.51
346.376	13.94
346.759	2.19
347.142	28.18
347.525	53.04
347.908	57.1
348.291	77.22
348.674	81.96
349.057	110.89
349.44	130.1
349.823	153.15
350.206	151.56
350.588	182.07
350.971	201.96
351.354	205.8
351.737	223.2
352.119	245.8
352.502	232.01
352.884	255.74
353.267	260.71
353.65	289.19
354.032	273.37
354.414	291.9
354.797	285.12
355.179	298.9
355.562	328.28
355.944	321.28
356.326	319.02
356.709	319.47
357.091	328.73
357.473	338.23
357.855	325.57
358.238	334.38
358.62	316.53
359.002	336.42
359.384	333.25
359.766	325.12
360.148	336.87
360.53	349.07
360.912	318.79
361.294	325.57
361.676	326.47
362.057	332.58
362.439	318.79
362.821	312.01
363.203	306.59
363.584	315.85
363.966	312.24
364.348	302.52
364.729	319.47
365.111	308.17
365.493	312.24
365.874	327.6
366.256	315.85
366.637	300.49
367.019	318.79
367.4	314.27
367.781	338
368.163	336.42
368.544	300.71
368.925	311.11
369.306	291.22
369.688	330.99
370.069	288.06
370.45	324.89
370.831	301.62
371.212	289.87
371.593	288.74
371.974	307.72
372.355	304.1
372.736	280.37
373.117	314.27
373.498	320.15
373.879	305.01
374.26	307.04
374.641	318.79
375.021	304.78
375.402	327.6
375.783	318.11
376.163	319.69
376.544	321.05
376.925	320.15
377.305	323.08
377.686	316.53
378.066	328.28
378.447	334.61
378.827	317.66
379.208	320.6
379.588	302.07
379.968	324.21
380.349	325.8
380.729	326.7
381.109	328.96
381.489	313.59
381.87	328.96
382.25	335.29
382.63	352.69
383.01	325.12
383.39	337.55
383.77	335.29
384.15	348.85
384.53	332.35
384.91	331.22
385.29	335.29
385.67	349.75
386.049	372.12
386.429	349.07
386.809	322.63
387.189	361.05
387.568	345.91
387.948	325.12
388.328	341.16
388.707	362.41
389.087	365.57
389.466	356.08
389.846	355.85
390.225	337.32
390.605	350.43
390.984	358.34
391.363	369.19
391.743	363.99
392.122	346.59
392.501	347.94
392.881	372.8
393.26	389.75
393.639	369.41
394.018	362.41
394.397	374.61
394.776	389.98
395.155	378.45
395.534	380.03
395.913	360.37
396.292	366.02
396.671	367.6
397.05	394.5
397.429	405.34
397.808	388.85
398.186	375.51
398.565	401.73
398.944	385
399.323	379.13
399.701	384.1
400.08	407.38
400.458	415.06
400.837	414.61
401.215	415.29
401.594	405.79
401.972	403.53
402.351	403.31
402.729	396.76
403.107	414.83
403.486	414.83
403.864	413.25
404.242	427.94
404.62	419.81
404.999	441.5
405.377	424.33
405.755	449.41
406.133	439.92
406.511	451.22
406.889	449.86
407.267	461.84
407.645	466.58
408.023	458.9
408.401	454.61
408.779	471.33
409.156	483.98
409.534	486.7
409.912	485.79
410.29	483.08
410.667	492.57
411.045	494.61
411.422	519.01
411.8	513.81
412.178	539.12
412.555	536.64
412.933	523.08
413.31	559.46
413.687	552.91
414.065	549.97
414.442	546.36
414.819	555.85
415.197	536.64
415.574	586.58
415.951	596.3
416.328	592.68
416.705	601.72
417.082	575.28
417.46	616.86
417.837	596.3
418.214	623.87
418.591	632.46
418.967	620.7
419.344	626.35
419.721	650.31
420.098	651.44
420.475	635.84
420.852	680.82
421.228	661.61
421.605	675.39
421.982	696.63
422.358	682.4
422.735	694.83
423.111	717.65
423.488	736.63
423.864	749.06
424.241	745.67
424.617	745.45
424.994	757.88
425.37	771.89
425.746	780.93
426.123	784.77
426.499	781.83
426.875	801.72
427.251	811.89
427.627	827.48
428.003	853.69
428.379	835.84
428.756	848.49
429.132	867.7
429.507	885.33
429.883	875.84
430.259	891.43
430.635	885.1
431.011	880.13
431.387	934.59
431.763	928.04
432.138	927.59
432.514	947.02
432.89	990.64
433.265	1000.58
433.641	1030.18
434.016	1027.25
434.392	1025.44
434.767	1028.38
435.143	1066.34
435.518	1058.21
435.894	1072.67
436.269	1082.16
436.644	1127.36
437.02	1117.64
437.395	1158.99
437.77	1172.78
438.145	1180.46
438.52	1167.36
438.895	1206.68
439.271	1213
439.646	1243.74
440.021	1264.3
440.395	1253.46
440.77	1288.03
441.145	1291.65
441.52	1283.06
441.895	1305.88
442.27	1334.36
442.645	1341.14
443.019	1347.92
443.394	1368.48
443.769	1359.44
444.143	1370.97
444.518	1386.33
444.892	1379.55
445.267	1409.61
445.641	1409.84
446.016	1429.95
446.39	1444.19
446.764	1423.62
447.139	1438.31
447.513	1449.61
447.887	1474.01
448.262	1472.43
448.636	1493.22
449.01	1500.23
449.384	1533
449.758	1521.7
450.132	1570.06
450.506	1543.39
450.88	1547.01
451.254	1551.3
451.628	1594.01
452.002	1599.89
452.376	1614.12
452.75	1653.67
453.123	1664.52
453.497	1663.61
453.871	1671.07
454.244	1695.25
454.618	1692.99
454.992	1753.56
455.365	1736.83
455.739	1761.46
456.112	1782.03
456.486	1777.51
456.859	1827.23
457.232	1801.24
457.606	1857.28
457.979	1845.08
458.352	1904.51
458.725	1907.9
459.099	1934.57
459.472	1951.06
459.845	1980.22
460.218	1981.57
460.591	1999.65
460.964	2029.03
461.337	2080.55
461.71	2109.25
462.083	2110.61
462.456	2155.13
462.829	2142.47
463.201	2184.73
463.574	2156.93
463.947	2210.94
464.32	2226.54
464.692	2242.36
465.065	2243.49
465.438	2280.55
465.81	2315.35
466.183	2319.87
466.555	2346.53
466.928	2403.71
467.3	2370.71
467.672	2423.14
468.045	2468.34
468.417	2514.89
468.789	2523.25
469.161	2536.13
469.534	2572.29
469.906	2614.55
470.278	2631.27
470.65	2656.36
471.022	2677.83
471.394	2731.38
471.766	2738.61
472.138	2807.99
472.51	2846.41
472.882	2894.54
473.253	2904.49
473.625	2958.5
473.997	3000.98
474.369	3037.82
474.74	3047.76
475.112	3074.2
475.484	3130.69
475.855	3184.48
476.227	3209.11
476.598	3290.92
476.97	3301.09
477.341	3393.51
477.713	3380.41
478.084	3421.53
478.455	3521.64
478.827	3540.85
479.198	3577.91
479.569	3618.37
479.94	3726.61
480.311	3737.91
480.682	3774.75
481.053	3850.45
481.424	3884.57
481.795	3958.02
482.166	3970.9
482.537	4029.43
482.908	4123.66
483.279	4113.95
483.65	4183.32
484.021	4281.85
484.391	4301.29
484.762	4324.34
485.133	4363.88
485.503	4423.54
485.874	4550.09
486.244	4550.32
486.615	4614.5
486.985	4670.32
487.356	4731.33
487.726	4742.18
488.097	4859.69
488.467	4910.31
488.837	4978.1
489.207	5027.37
489.578	5047.03
489.948	5142.85
490.318	5120.7
490.688	5115.28
491.058	5265.33
491.428	5289.73
491.798	5318.66
492.168	5360.47
492.538	5417.19
492.908	5489.73
493.278	5504.42
493.648	5585.77
494.017	5625.09
494.387	5698.76
494.757	5699.67
495.126	5667.8
495.496	5733.11
495.866	5831.64
496.235	5829.61
496.605	5887.46
496.974	5866.22
497.344	5971.98
497.713	5962.71
498.082	5979.43
498.452	6054.91
498.821	6065.53
499.19	6093.1
499.559	6142.37
499.928	6108.92
500.298	6157.96
500.667	6193.89
501.036	6187.79
501.405	6295.36
501.774	6256.26
502.143	6316.15
502.512	6345.75
502.88	6397.73
503.249	6356.37
503.618	6385.07
503.987	6417.61
504.356	6446.54
504.724	6495.58
505.093	6521.79
505.462	6516.59
505.83	6521.79
506.199	6587.33
506.567	6639.3
506.936	6598.17
507.304	6744.61
507.672	6693.09
508.041	6727.21
508.409	6792.52
508.777	6768.34
509.145	6792.97
509.514	6789.58
509.882	6917.04
510.25	6836.13
510.618	6844.95
510.986	6912.97
511.354	6943.7
511.722	6979.86
512.09	6974.89
512.458	6999.07
512.826	7005.85
513.193	7089.91
513.561	7053.08
513.929	7076.13
514.297	7147.54
514.664	7156.35
515.032	7185.05
515.4	7154.32
515.767	7179.63
516.135	7216.46
516.502	7171.04
516.869	7263.02
517.237	7239.51
517.604	7226.86
517.972	7317.03
518.339	7310.02
518.706	7284.71
519.073	7289.91
519.44	7307.53
519.808	7399.51
520.175	7379.4
520.542	7393.18
520.909	7441.54
521.276	7434.31
521.643	7417.14
522.009	7487.19
522.376	7517.02
522.743	7565.83
523.11	7556.57
523.477	7584.59
523.843	7620.97
524.21	7667.52
524.577	7668.65
524.943	7708.2
525.31	7668.2
525.676	7821.64
526.043	7800.4
526.409	7843.11
526.776	7873.39
527.142	7837.69
527.508	7847.41
527.874	7846.28
528.241	7839.95
528.607	7906.61
528.973	7942.55
529.339	7884.02
529.705	7953.39
530.071	7968.31
530.437	7999.49
530.803	7977.35
531.169	7952.26
531.535	7950.45
531.901	7976.89
532.267	7985.71
532.632	8074.97
532.998	8012.6
533.364	8053.95
533.73	8095.99
534.095	8031.13
534.461	8034.75
534.826	8053.05
535.192	8071.58
535.557	8106.83
535.923	8070
536.288	8064.58
536.653	8075.88
537.019	8060.06
537.384	8063.45
537.749	8103.67
538.114	8069.1
538.479	8042.66
538.845	8050.11
539.21	7987.06
539.575	8013.28
539.94	8021.19
540.305	8061.41
540.67	8038.14
541.034	8056.89
541.399	7972.38
541.764	8059.38
542.129	8001.75
542.494	8056.67
542.858	8006.27
543.223	8046.27
543.587	8045.37
543.952	8027.74
544.316	8000.62
544.681	7986.16
545.045	8023.9
545.41	7988.42
545.774	7968.53
546.138	7921.75
546.503	8011.7
546.867	7941.87
547.231	8028.64
547.595	8015.76
547.959	7993.17
548.324	8013.28
548.688	7971.47
549.052	7961.98
549.416	7888.76
549.779	7939.38
550.143	7916.33
550.507	7953.62
550.871	7961.75
551.235	7944.13
551.599	7975.54
551.962	7904.81
552.326	7932.6
552.689	7985.93
553.053	7928.31
553.417	7907.74
553.78	8032.49
554.143	7917.24
554.507	7994.75
554.87	7974.18
555.234	7998.36
555.597	7965.14
555.96	7944.58
556.323	7966.05
556.686	7967.4
557.05	8033.39
557.413	8034.52
557.776	8032.94
558.139	8035.65
558.502	8034.97
558.865	8018.25
559.228	8059.38
559.59	8086.5
559.953	8097.12
560.316	8088.76
560.679	8106.61
561.041	8138.7
561.404	8148.19
561.767	8213.72
562.129	8133.5
562.492	8232.48
562.854	8165.36
563.217	8136.66
563.579	8165.59
563.941	8227.51
564.304	8231.13
564.666	8286.04
565.028	8284.46
565.39	8303.89
565.753	8357.9
566.115	8318.58
566.477	8387.28
566.839	8414.62
567.201	8418.69
567.563	8388.64
567.925	8422.31
568.287	8463.66
568.648	8450.78
569.01	8476.77
569.372	8572.36
569.734	8531
570.095	8603.54
570.457	8561.06
570.819	8588.4
571.18	8605.13
571.542	8661.17
571.903	8608.97
572.265	8677.44
572.626	8707.95
572.987	8721.73
573.349	8691.45
573.71	8775.52
574.071	8713.82
574.432	8782.98
574.794	8829.53
575.155	8905.01
575.516	8812.58
575.877	8862.75
576.238	8860.71
576.599	8907.72
576.96	8908.17
577.32	8963.76
577.681	8948.85
578.042	9020.26
578.403	8917.89
578.763	8982.07
579.124	8973.7
579.485	9018.9
579.845	9041.95
580.206	9020.48
580.566	9070.43
580.927	9098.45
581.287	9172.34
581.648	9103.87
582.008	9169.41
582.368	9130.99
582.728	9163.98
583.089	9194.04
583.449	9146.81
583.809	9127.82
584.169	9235.62
584.529	9240.82
584.889	9337.99
585.249	9238.78
585.609	9222.06
585.969	9222.51
586.329	9258.89
586.688	9237.65
587.048	9307.93
587.408	9270.65
587.768	9272.91
588.127	9317.2
588.487	9307.03
588.846	9391.55
589.206	9344.99
589.565	9333.24
589.925	9374.37
590.284	9385.45
590.643	9397.87
591.003	9479.91
591.362	9461.15
591.721	9517.19
592.08	9446.69
592.44	9480.13
592.799	9458.44
593.158	9462.51
593.517	9477.65
593.876	9577.98
594.235	9481.26
594.593	9502.5
594.952	9477.42
595.311	9520.36
595.67	9575.04
596.029	9546.8
596.387	9580.24
596.746	9605.55
597.104	9510.19
597.463	9528.49
597.822	9582.73
598.18	9564.42
598.538	9533.92
598.897	9629.96
599.255	9600.58
599.613	9645.1
599.972	9601.03
600.33	9668.6
600.688	9585.89
601.046	9656.85
601.404	9642.16
601.762	9673.8
602.12	9744.76
602.478	9637.42
602.836	9700.47
603.194	9705.89
603.552	9633.57
603.91	9589.28
604.268	9733.46
604.625	9665.21
604.983	9659.11
605.341	9603.29
605.698	9731.2
606.056	9656.4
606.413	9716.51
606.771	9664.76
607.128	9663.18
607.485	9726.45
607.843	9714.7
608.2	9792.67
608.557	9787.47
608.914	9755.61
609.272	9785.89
609.629	9821.14
609.986	9855.04
610.343	9736.62
610.7	9949.27
611.057	9851.2
611.414	9850.52
611.771	9862.49
612.127	9861.59
612.484	9912.66
612.841	9932.32
613.198	9883.74
613.554	9937.52
613.911	9895.04
614.267	9887.58
614.624	9871.53
614.98	9910.4
615.337	9928.03
615.693	9955.37
616.05	9941.36
616.406	9982.27
616.762	9992.44
617.118	9925.32
617.475	9936.84
617.831	9980.46
618.187	10012.55
618.543	10000.57
618.899	10082.38
619.255	10041.93
619.611	10087.57
619.967	10034.69
620.323	10105.43
620.678	10062.04
621.034	10024.75
621.39	10049.61
621.746	10007.8
622.101	10165.54
622.457	10015.26
622.812	10083.51
623.168	10061.59
623.523	10091.42
623.879	10119.89
624.234	9999.89
624.589	10053.22
624.945	10054.35
625.3	10039.44
625.655	10087.35
626.01	10028.82
626.365	10115.6
626.72	9991.08
627.075	10062.26
627.43	9964.41
627.785	9992.89
628.14	10115.37
628.495	10007.35
628.85	10027.01
629.205	10008.71
629.559	10063.17
629.914	9964.87
630.269	10047.8
630.623	9984.75
630.978	10000.8
631.332	10001.02
631.687	9978.42
632.041	10005.99
632.396	9934.58
632.75	9924.87
633.104	9929.16
633.459	9839.67
633.813	9912.44
634.167	9855.49
634.521	9836.28
634.875	9912.66
635.229	9813.91
635.583	9809.61
635.937	9762.84
636.291	9762.61
636.645	9800.8
636.999	9770.75
637.352	9796.73
637.706	9658.88
638.06	9749.28
638.413	9815.72
638.767	9710.86
639.121	9749.73
639.474	9681.71
639.828	9713.12
640.181	9710.63
640.534	9664.76
640.888	9663.18
641.241	9572.33
641.594	9600.58
641.947	9631.99
642.301	9584.31
642.654	9599.68
643.007	9650.52
643.36	9653.23
643.713	9560.36
644.066	9656.62
644.419	9622.28
644.771	9459.57
645.124	9424.31
645.477	9456.63
645.83	9370.98
646.182	9355.39
646.535	9205.34
646.888	9355.84
647.24	9228.16
647.593	9321.49
647.945	9310.42
648.298	9245.79
648.65	9225.9
649.002	9230.65
649.355	9291.21
649.707	9259.12
650.059	9309.52
650.411	9376.63
650.763	9407.82
651.115	9519.68
651.467	9505.44
651.819	9493.92
652.171	9452.34
652.523	9358.55
652.875	9431.32
653.227	9376.41
653.578	9433.58
653.93	9460.02
654.282	9400.59
654.633	9361.94
654.985	9403.98
655.337	9474.26
655.688	9397.2
656.039	9477.87
656.391	9315.39
656.742	9337.09
657.094	9460.02
657.445	9396.74
657.796	9389.06
658.147	9314.26
658.498	9362.62
658.849	9441.26
659.2	9304.32
659.551	9354.71
659.902	9439
660.253	9443.52
660.604	9396.74
660.955	9319.68
661.306	9413.24
661.656	9417.08
662.007	9417.08
662.358	9355.62
662.708	9365.33
663.059	9357.65
663.409	9346.35
663.76	9402.62
664.11	9441.49
664.461	9421.83
664.811	9424.31
665.161	9383.41
665.511	9376.63
665.862	9400.36
666.212	9450.53
666.562	9406.69
666.912	9433.13
667.262	9381.38
667.612	9402.85
667.962	9401.49
668.312	9396.07
668.662	9425.9
669.011	9401.49
669.361	9383.41
669.711	9382.73
670.06	9356.07
670.41	9340.25
670.76	9337.99
671.109	9372.79
671.459	9328.05
671.808	9377.31
672.157	9306.13
672.507	9320.59
672.856	9344.32
673.205	9302.06
673.554	9382.51
673.904	9253.02
674.253	9337.09
674.602	9352.45
674.951	9179.58
675.3	9121.5
675.649	9278.56
675.998	9290.08
676.346	9236.07
676.695	9269.06
677.044	9150.2
677.393	9215.51
677.741	9217.77
678.09	9160.82
678.438	9173.7
678.787	9173.7
679.135	9142.97
679.484	9100.03
679.832	9118.79
680.181	9076.75
680.529	9159.69
680.877	9127.6
681.225	9087.83
681.573	9161.04
681.922	9099.8
682.27	9055.96
682.618	9041.05
682.966	9004.21
683.314	9060.03
683.661	8967.83
684.009	8942.97
684.357	8860.49
684.705	8900.49
685.053	8946.59
685.4	8871.56
685.748	8852.58
686.095	8876.53
686.443	8896.87
686.79	8853.03
687.138	8833.37
687.485	8834.95
687.832	8786.59
688.18	8801.28
688.527	8712.02
688.874	8656.42
689.221	8671.11
689.568	8617.1
689.915	8593.6
690.262	8603.54
690.609	8554.73
690.956	8589.76
691.303	8519.25
691.65	8514.51
691.997	8513.6
692.344	8467.73
692.69	8415.75
693.037	8463.89
693.383	8317.68
693.73	8321.29
694.077	8350.67
694.423	8342.53
694.769	8251.46
695.116	8305.47
695.462	8239.49
695.808	8245.36
696.155	8233.16
696.501	8166.27
696.847	8147.74
697.193	8093.95
697.539	8085.37
697.885	8020.06
698.231	8047.85
698.577	8044.46
698.923	7996.1
699.269	7987.74
699.614	7932.38
699.96	7846.28
700.306	7917.01
700.651	7866.16
700.997	7834.53
701.342	7810.57
701.688	7812.15
702.033	7805.6
702.379	7761.08
702.724	7711.14
703.069	7732.83
703.415	7673.4
703.76	7681.31
704.105	7697.13
704.45	7587.75
704.795	7575.1
705.14	7529.45
705.485	7499.85
705.83	7540.3
706.175	7522.9
706.52	7438.6
706.865	7404.71
707.209	7415.55
707.554	7383.24
707.899	7368.78
708.243	7366.06
708.588	7345.95
708.932	7230.93
709.277	7324.93
709.621	7326.52
709.966	7232.73
710.31	7246.29
710.654	7184.6
710.998	7162.45
711.342	7195.45
711.687	7157.93
712.031	7149.12
712.375	7089.69
712.719	7099.63
713.063	7085.84
713.407	7105.51
713.75	7045.62
714.094	7034.32
714.438	7031.83
714.782	7092.17
715.125	7019.86
715.469	6961.1
715.812	6984.6
716.156	6970.14
716.499	6915.68
716.843	6870.03
717.186	6911.16
717.53	6994.32
717.873	6933.31
718.216	6945.06
718.559	6910.48
718.902	6896.02
719.246	6857.38
719.589	6907.32
719.932	6839.3
720.275	6766.08
720.617	6813.54
720.96	6798.62
721.303	6799.75
721.646	6774.67
721.989	6733.09
722.331	6780.09
722.674	6704.16
723.016	6750.49
723.359	6770.6
723.701	6740.77
724.044	6717.94
724.386	6681.34
724.729	6678.17
725.071	6598.85
725.413	6667.55
725.755	6666.19
726.097	6715.69
726.439	6629.81
726.782	6678.4
727.124	6690.6
727.465	6657.38
727.807	6701.9
728.149	6639.75
728.491	6620.09
728.833	6606.31
729.175	6606.99
729.516	6664.39
729.858	6624.39
730.199	6661.22
730.541	6608.12
730.882	6624.61
731.224	6672.97
731.565	6611.05
731.906	6564.73
732.248	6584.16
732.589	6543.49
732.93	6552.98
733.271	6576.03
733.612	6579.19
733.953	6582.36
734.294	6524.28
734.635	6508.23
734.976	6581.68
735.317	6530.61
735.658	6558.85
735.999	6571.06
736.339	6502.36
736.68	6575.12
737.021	6550.94
737.361	6550.94
737.702	6585.29
738.042	6513.2
738.383	6543.49
738.723	6552.75
739.063	6530.38
739.404	6589.13
739.744	6583.26
740.084	6590.49
740.424	6536.03
740.764	6604.73
741.104	6637.72
741.444	6566.31
741.784	6561.11
742.124	6641.79
742.464	6621.22
742.804	6649.92
743.143	6601.56
743.483	6634.78
743.823	6610.83
744.162	6639.08
744.502	6673.65
744.841	6718.4
745.181	6708.91
745.52	6677.72
745.86	6778.51
746.199	6761.11
746.538	6824.38
746.877	6900.31
747.216	6808.34
747.556	6838.39
747.895	6862.12
748.234	6922.69
748.573	6925.85
748.911	6977.15
749.25	7009.46
749.589	7007.88
749.928	7102.12
750.267	7179.4
750.605	7224.82
750.944	7164.26
751.283	7265.73
751.621	7370.81
751.96	7315.67
752.298	7396.57
752.636	7502.56
752.975	7458.49
753.313	7510.47
753.651	7703.68
753.989	7731.7
754.327	7792.27
754.666	7841.98
755.004	7983.67
755.342	8074.29
755.679	8086.27
756.017	8166.04
756.355	8293.95
756.693	8317.22
757.031	8393.83
757.368	8480.61
757.706	8576.65
758.044	8700.94
758.381	8838.12
758.719	8864.56
759.056	9044.89
759.394	9075.17
759.731	9139.58
760.068	9203.3
760.405	9358.1
760.743	9447.59
761.08	9521.71
761.417	9657.53
761.754	9785.89
762.091	9852.1
762.428	9930.97
762.765	9949.72
763.102	10123.51
763.438	10240.11
763.775	10299.55
764.112	10436.49
764.449	10544.51
764.785	10584.28
765.122	10650.72
765.458	10748.12
765.795	10805.29
766.131	10965.74
766.467	10950.83
766.804	11115.12
767.14	11188.34
767.476	11265.17
767.812	11299.75
768.148	11429.23
768.485	11386.75
