Data from hue_110_FLMS001491_00056.txt Node
Date: Tue Feb 07 17:01:31 GMT 2017
User: dcchb
Spectrometer: FLMS00149
Trigger mode: 0
Integration Time (sec): 2.000000E-2
Scans to average: 10
Electric dark correction enabled: true
Nonlinearity correction enabled: false
Boxcar width: 0
XAxis mode: Wavelengths
Number of Pixels in Spectrum: 2048
>>>>>Begin Spectral Data<<<<<
341.393	-13.73
341.776	-13.73
342.16	-13.73
342.543	-46.04
342.927	-70
343.31	-65.7
343.693	-68.87
344.077	-80.85
344.46	-57.34
344.843	-53.05
345.226	-19.6
345.61	-31.13
345.993	-17.57
346.376	11.58
346.759	11.58
347.142	33.95
347.525	34.86
347.908	54.97
348.291	65.59
348.674	77.57
349.057	104.01
349.44	120.28
349.823	150.79
350.206	143.33
350.588	206.15
350.971	220.39
351.354	207.28
351.737	231.01
352.119	248.41
352.502	284.34
352.884	273.27
353.267	283.89
353.65	295.42
354.032	314.17
354.414	311.23
354.797	301.97
355.179	322.99
355.562	306.49
355.944	321.18
356.326	333.61
356.709	330.44
357.091	343.32
357.473	359.14
357.855	351.23
358.238	344.45
358.62	340.84
359.002	331.8
359.384	332.7
359.766	340.61
360.148	335.87
360.53	340.84
360.912	343.32
361.294	347.84
361.676	344.23
362.057	323.89
362.439	341.06
362.821	327.05
363.203	337.9
363.584	313.04
363.966	314.4
364.348	327.96
364.729	343.32
365.111	307.39
365.493	314.17
365.874	325.7
366.256	311.46
366.637	337
367.019	331.57
367.4	330.44
367.781	317.79
368.163	322.99
368.544	323.66
368.925	337.22
369.306	309.2
369.688	303.1
370.069	307.62
370.45	316.88
370.831	315.53
371.212	322.76
371.593	311.46
371.974	325.92
372.355	317.34
372.736	310.56
373.117	309.2
373.498	319.37
373.879	332.03
374.26	315.08
374.641	331.8
375.021	312.59
375.402	316.88
375.783	325.47
376.163	317.11
376.544	327.28
376.925	337.22
377.305	306.04
377.686	319.37
378.066	320.73
378.447	308.52
378.827	335.87
379.208	358.69
379.588	311.69
379.968	329.54
380.349	336.32
380.729	338.58
381.109	331.8
381.489	344
381.87	342.42
382.25	315.3
382.63	359.37
383.01	334.28
383.39	352.59
383.77	328.18
384.15	350.33
384.53	365.7
384.91	349.43
385.29	348.97
385.67	362.76
386.049	348.3
386.429	337.45
386.809	348.75
387.189	347.39
387.568	342.19
387.948	358.92
388.328	362.08
388.707	352.36
389.087	348.75
389.466	353.49
389.846	361.63
390.225	356.88
390.605	341.97
390.984	353.95
391.363	367.5
391.743	382.19
392.122	384.23
392.501	384
392.881	400.95
393.26	375.64
393.639	356.66
394.018	370.44
394.397	385.81
394.776	380.39
395.155	377.9
395.534	388.75
395.913	375.41
396.292	380.84
396.671	394.4
397.05	398.01
397.429	372.25
397.808	397.79
398.186	409.31
398.565	397.33
398.944	410.67
399.323	391.91
399.701	410.22
400.08	370.22
400.458	372.93
400.837	409.31
401.215	413.38
401.594	413.15
401.972	397.11
402.351	412.93
402.729	382.19
403.107	401.63
403.486	380.84
403.864	404.79
404.242	429.42
404.62	404.79
404.999	401.63
405.377	415.41
405.755	421.29
406.133	444.56
406.511	414.96
406.889	427.39
407.267	435.07
407.645	436.88
408.023	411.57
408.401	440.95
408.779	442.08
409.156	452.47
409.534	435.98
409.912	450.21
410.29	447.5
410.667	466.48
411.045	435.98
411.422	435.75
411.8	474.62
412.178	440.72
412.555	477.56
412.933	465.58
413.31	466.94
413.687	475.07
414.065	478.01
414.442	502.64
414.819	481.4
415.197	479.37
415.574	500.38
415.951	481.63
416.328	480.04
416.705	472.81
417.082	469.42
417.46	499.7
417.837	495.86
418.214	521.62
418.591	493.6
418.967	503.77
419.344	526.37
419.721	520.72
420.098	515.75
420.475	511
420.852	515.98
421.228	528.86
421.605	518.91
421.982	533.6
422.358	550.32
422.735	530.66
423.111	528.86
423.488	517.56
423.864	551.45
424.241	545.35
424.617	561.17
424.994	553.71
425.37	572.24
425.746	552.13
426.123	579.02
426.499	566.14
426.875	569.76
427.251	572.02
427.627	570.21
428.003	590.32
428.379	572.92
428.756	604.33
429.132	576.09
429.507	620.15
429.883	614.05
430.259	588.97
430.635	628.97
431.011	619.7
431.387	635.29
431.763	646.59
432.138	646.37
432.514	628.51
432.89	651.11
433.265	656.76
433.641	667.84
434.016	657.21
434.392	669.87
434.767	691.79
435.143	685.69
435.518	662.86
435.894	697.44
436.269	719.81
436.644	690.21
437.02	681.39
437.395	710.77
437.77	701.28
438.145	737.44
438.52	723.43
438.895	712.13
439.271	724.33
439.646	736.08
440.021	747.61
440.395	743.54
440.77	755.29
441.145	770.21
441.52	762.97
441.895	790.09
442.27	796.19
442.645	780.6
443.019	786.93
443.394	791
443.769	784.44
444.143	786.25
444.518	783.09
444.892	825.57
445.267	822.86
445.641	813.14
446.016	811.56
446.39	825.8
446.764	831.22
447.139	853.82
447.513	833.03
447.887	859.24
448.262	865.8
448.636	846.36
449.01	877.55
449.384	848.4
449.758	870.99
450.132	881.84
450.506	885.68
450.88	891.33
451.254	864.67
451.628	900.6
452.002	912.35
452.376	929.52
452.75	896.08
453.123	904.44
453.497	928.39
453.871	925.46
454.244	950.09
454.618	962.97
454.992	991.22
455.365	958.9
455.739	998.45
456.112	995.28
456.486	1024.44
456.859	1038.45
457.232	1042.06
457.606	1050.65
457.979	1048.84
458.352	1062.85
458.725	1060.59
459.099	1102.4
459.472	1125.9
459.845	1126.35
460.218	1123.87
460.591	1131.1
460.964	1129.07
461.337	1153.25
461.71	1158.22
462.083	1170.65
462.456	1198.67
462.829	1220.59
463.201	1215.62
463.574	1236.86
463.947	1260.36
464.32	1292.68
464.692	1275.96
465.065	1326.8
465.438	1332.22
465.81	1359.57
466.183	1364.54
466.555	1381.72
466.928	1398.89
467.3	1412.22
467.672	1416.74
468.045	1464.2
468.417	1474.14
468.789	1488.15
469.161	1515.5
469.534	1535.84
469.906	1583.74
470.278	1586.91
470.65	1614.7
471.022	1669.62
471.394	1718.66
471.766	1711.88
472.138	1739.67
472.51	1811.76
472.882	1828.48
473.253	1867.13
473.625	1895.37
473.997	1961.13
474.369	1991.19
474.74	2008.37
475.112	2056.5
475.484	2098.76
475.855	2164.75
476.227	2192.77
476.598	2270.28
476.97	2291.97
477.341	2366.32
477.713	2441.35
478.084	2462.14
478.455	2580.33
478.827	2608.12
479.198	2734
479.569	2730.61
479.94	2858.29
480.311	2901.22
480.682	3009.69
481.053	3088.79
481.424	3158.84
481.795	3231.16
482.166	3352.51
482.537	3447.88
482.908	3549.34
483.279	3576.91
483.65	3721.09
484.021	3801.09
484.391	3912.5
484.762	3995.66
485.133	4074.75
485.503	4168.08
485.874	4334.63
486.244	4420.96
486.615	4560.16
486.985	4633.61
487.356	4801.96
487.726	4910.89
488.097	5046.48
488.467	5169.19
488.837	5311.78
489.207	5382.97
489.578	5562.4
489.948	5616.63
490.318	5783.63
490.688	5864.99
491.058	6083.06
491.428	6168.26
491.798	6307.46
492.168	6423.39
492.538	6560.11
492.908	6735.47
493.278	6853.44
493.648	6921.23
494.017	7068.35
494.387	7190.38
494.757	7274.67
495.126	7452.29
495.496	7550.14
495.866	7592.63
496.235	7846.86
496.605	8014.99
496.974	8050.01
497.344	8175.43
497.713	8235.32
498.082	8422.66
498.452	8556.44
498.821	8596.67
499.19	8673.73
499.559	8857.68
499.928	8920.95
500.298	9078.24
500.667	9197.55
501.036	9223.32
501.405	9274.61
501.774	9370.21
502.143	9484.33
502.512	9555.74
502.88	9702.4
503.249	9722.96
503.618	9852
503.987	9931.32
504.356	9980.81
504.724	10118.89
505.093	10145.78
505.462	10231.2
505.83	10317.3
506.199	10407.69
506.567	10561.59
506.936	10536.05
507.304	10685.65
507.672	10755.71
508.041	10756.61
508.409	10897.85
508.777	11040.22
509.145	11064.62
509.514	11145.3
509.882	11130.16
510.25	11132.19
510.618	11250.38
510.986	11281.12
511.354	11326.31
511.722	11415.12
512.09	11481.11
512.458	11482.92
512.826	11608.11
513.193	11694.44
513.561	11679.75
513.929	11830.71
514.297	11818.73
514.664	11854.66
515.032	11927.43
515.4	12003.36
515.767	12058.27
516.135	11973.53
516.502	11919.52
516.869	12215.55
517.237	12145.5
517.604	12126.97
517.972	12310.24
518.339	12400.86
518.706	12323.12
519.073	12334.65
519.44	12382.78
519.808	12460.07
520.175	12447.41
520.542	12565.38
520.909	12554.75
521.276	12528.54
521.643	12610.57
522.009	12637.69
522.376	12731.02
522.743	12723.34
523.11	12790.68
523.477	12873.16
523.843	12879.94
524.21	12943.9
524.577	13030.45
524.943	13010.79
525.31	13003.78
525.676	13080.84
526.043	13153.83
526.409	13211.46
526.776	13223.66
527.142	13193.38
527.508	13212.82
527.874	13277
528.241	13235.19
528.607	13272.93
528.973	13304.34
529.339	13285.36
529.705	13396.77
530.071	13418.23
530.437	13272.48
530.803	13324.23
531.169	13347.28
531.535	13302.08
531.901	13240.61
532.267	13373.26
532.632	13369.2
532.998	13336.43
533.364	13274.06
533.73	13383.43
534.095	13443.54
534.461	13307.96
534.826	13343.89
535.192	13378.91
535.557	13441.06
535.923	13325.36
536.288	13316.54
536.653	13325.81
537.019	13197.22
537.384	13277.9
537.749	13252.14
538.114	13238.58
538.479	13235.64
538.845	13146.15
539.21	13073.16
539.575	13064.35
539.94	13144.12
540.305	13192.7
540.67	13073.84
541.034	13056.44
541.399	13080.62
541.764	12950.45
542.129	12936.21
542.494	12915.88
542.858	12849.21
543.223	12867.06
543.587	12861.41
543.952	12822.32
544.316	12735.54
544.681	12808.31
545.045	12726.28
545.41	12771.47
545.774	12713.85
546.138	12657.12
546.503	12695.54
546.867	12626.39
547.231	12579.61
547.595	12563.79
547.959	12568.54
548.324	12549.11
548.688	12492.38
549.052	12446.28
549.416	12411.48
549.779	12360.86
550.143	12360.41
550.507	12372.39
550.871	12321.99
551.235	12248.32
551.599	12244.93
551.962	12356.12
552.326	12258.72
552.689	12297.81
553.053	12251.71
553.417	12211.49
553.78	12263.69
554.143	12190.02
554.507	12142.11
554.87	12190.7
555.234	12219.62
555.597	12001.77
555.96	12037.71
556.323	12106.63
556.686	12058.95
557.05	12053.75
557.413	12096.24
557.776	12096.46
558.139	12045.84
558.502	11990.93
558.865	11994.32
559.228	12091.04
559.59	12074.77
559.953	12016.24
560.316	12116.35
560.679	12110.02
561.041	12086.07
561.404	12028.89
561.767	12171.71
562.129	11991.38
562.492	12175.78
562.854	12133.75
563.217	12062.79
563.579	12085.84
563.941	12087.65
564.304	12150.25
564.666	12170.81
565.028	12273.86
565.39	12171.94
565.753	12213.07
566.115	12186.63
566.477	12238.83
566.839	12257.36
567.201	12263.24
567.563	12200.19
567.925	12228.66
568.287	12224.82
568.648	12208.1
569.01	12312.28
569.372	12321.77
569.734	12298.26
570.095	12436.11
570.457	12384.82
570.819	12357.7
571.18	12311.6
571.542	12345.04
571.903	12372.16
572.265	12480.86
572.626	12349.11
572.987	12429.56
573.349	12412.84
573.71	12394.53
574.071	12442.22
574.432	12492.38
574.794	12632.94
575.155	12532.38
575.516	12509.78
575.877	12473.63
576.238	12482.44
576.599	12506.62
576.96	12495.55
577.32	12460.52
577.681	12522.89
578.042	12619.39
578.403	12447.86
578.763	12504.36
579.124	12602.89
579.485	12537.58
579.845	12631.14
580.206	12534.64
580.566	12573.74
580.927	12503.68
581.287	12569.44
581.648	12477.24
582.008	12551.59
582.368	12463.01
582.728	12520.63
583.089	12544.59
583.449	12485.83
583.809	12423.01
584.169	12509.78
584.529	12476.11
584.889	12551.82
585.249	12510.24
585.609	12415.55
585.969	12578.26
586.329	12418.71
586.688	12485.15
587.048	12467.3
587.408	12404.48
587.768	12405.38
588.127	12402.89
588.487	12373.06
588.846	12410.13
589.206	12375.32
589.565	12350.24
589.925	12385.27
590.284	12353.4
590.643	12377.13
591.003	12340.75
591.362	12393.18
591.721	12351.82
592.08	12379.39
592.44	12405.83
592.799	12292.16
593.158	12259.62
593.517	12312.05
593.876	12364.25
594.235	12276.57
594.593	12289
594.952	12303.69
595.311	12309.11
595.67	12265.72
596.029	12364.7
596.387	12373.29
596.746	12397.24
597.104	12303.46
597.463	12275.21
597.822	12267.76
598.18	12268.43
598.538	12219.62
598.897	12306.85
599.255	12225.72
599.613	12385.72
599.972	12271.6
600.33	12327.87
600.688	12187.76
601.046	12256.01
601.404	12343.91
601.762	12220.07
602.12	12215.1
602.478	12428.66
602.836	12331.48
603.194	12219.85
603.552	12355.66
603.91	12272.28
604.268	12330.13
604.625	12269.11
604.983	12279.28
605.341	12279.06
605.698	12209.68
606.056	12252.62
606.413	12268.21
606.771	12285.16
607.128	12316.79
607.485	12247.19
607.843	12292.61
608.2	12362.67
608.557	12335.1
608.914	12322.67
609.272	12378.26
609.629	12346.62
609.986	12464.14
610.343	12428.43
610.7	12437.02
611.057	12345.27
611.414	12326.74
611.771	12312.05
612.127	12387.98
612.484	12373.74
612.841	12491.25
613.198	12425.49
613.554	12390.92
613.911	12486.96
614.267	12466.17
614.624	12434.08
614.98	12537.58
615.337	12559.95
615.693	12512.04
616.05	12458.26
616.406	12605.6
616.762	12500.74
617.118	12495.77
617.475	12466.4
617.831	12547.52
618.187	12545.72
618.543	12594.98
618.899	12674.07
619.255	12590.01
619.611	12601.08
619.967	12634.07
620.323	12599.05
620.678	12588.88
621.034	12580.97
621.39	12644.24
621.746	12559.95
622.101	12728.76
622.457	12522.89
622.812	12587.75
623.168	12633.62
623.523	12625.94
623.879	12681.08
624.234	12610.8
624.589	12652.38
624.945	12570.57
625.3	12687.63
625.655	12600.18
626.01	12677.46
626.365	12635.43
626.72	12566.05
627.075	12654.19
627.43	12582.1
627.785	12610.57
628.14	12602.21
628.495	12658.71
628.85	12575.32
629.205	12560.18
629.559	12599.5
629.914	12518.15
630.269	12598.37
630.623	12527.41
630.978	12543.68
631.332	12591.82
631.687	12599.73
632.041	12438.83
632.396	12498.03
632.75	12454.19
633.104	12484.25
633.459	12444.7
633.813	12481.31
634.167	12508.43
634.521	12457.36
634.875	12413.52
635.229	12426.4
635.583	12347.98
635.937	12334.65
636.291	12342.56
636.645	12357.25
636.999	12298.49
637.352	12330.13
637.706	12270.69
638.06	12312.73
638.413	12285.61
638.767	12298.26
639.121	12261.65
639.474	12224.37
639.828	12166.97
640.181	12205.61
640.534	12196.35
640.888	12133.3
641.241	12086.52
641.594	12165.61
641.947	12158.61
642.301	12139.85
642.654	12137.14
643.007	12178.49
643.36	12130.36
643.713	12038.38
644.066	12146.4
644.419	12154.99
644.771	12006.97
645.124	11902.79
645.477	11799.75
645.83	11807.88
646.182	11781.22
646.535	11752.52
646.888	11731.27
647.24	11665.06
647.593	11728.79
647.945	11665.29
648.298	11727.66
648.65	11581.45
649.002	11590.49
649.355	11757.04
649.707	11631.39
650.059	11738.96
650.411	12016.92
650.763	11910.25
651.115	11989.35
651.467	12017.59
651.819	12020.98
652.171	11941.66
652.523	11966.07
652.875	11927.43
653.227	11863.25
653.578	11972.85
653.93	11987.54
654.282	11887.43
654.633	11767.66
654.985	11928.33
655.337	11904.15
655.688	11927.88
656.039	12002.23
656.391	11879.52
656.742	11899.63
657.094	11948.67
657.445	11954.32
657.796	11989.12
658.147	11958.16
658.498	11927.43
658.849	11937.82
659.2	12038.84
659.551	11978.05
659.902	11954.32
660.253	11950.02
660.604	12012.85
660.955	11918.16
661.306	11943.7
661.656	11946.86
662.007	12029.8
662.358	11989.8
662.708	11973.53
663.059	12036.8
663.409	11954.32
663.76	12060.98
664.11	11999.51
664.461	12004.03
664.811	12018.5
665.161	12001.32
665.511	12025.05
665.862	12022.79
666.212	12124.26
666.562	12004.03
666.912	12003.13
667.262	11988.89
667.612	12065.95
667.962	11982.34
668.312	11976.24
668.662	12080.64
669.011	12023.7
669.361	12023.7
669.711	12001.1
670.06	11908.9
670.41	11940.99
670.76	11954.32
671.109	11989.57
671.459	11934.43
671.808	11936.69
672.157	11924.71
672.507	11865.96
672.856	11944.15
673.205	11915
673.554	11903.7
673.904	11911.61
674.253	11950.7
674.602	11879.29
674.951	11703.03
675.3	11673.42
675.649	11875
675.998	11735.79
676.346	11768.56
676.695	11876.58
677.044	11836.58
677.393	11821.67
677.741	11850.14
678.09	11832.06
678.438	11790.71
678.787	11816.02
679.135	11725.62
679.484	11661.22
679.832	11670.48
680.181	11676.36
680.529	11694.89
680.877	11706.19
681.225	11638.85
681.573	11696.92
681.922	11553.2
682.27	11523.82
682.618	11538.06
682.966	11582.35
683.314	11571.96
683.661	11522.69
684.009	11439.08
684.357	11449.47
684.705	11447.89
685.053	11429.59
685.4	11330.61
685.748	11300.55
686.095	11320.66
686.443	11264.17
686.79	11254.68
687.138	11268.23
687.485	11295.58
687.832	11249.03
688.18	11195.92
688.527	11137.39
688.874	11249.93
689.221	11096.49
689.568	11173.32
689.915	10995.25
690.262	11032.31
690.609	11010.61
690.956	10959.54
691.303	10912.31
691.65	10961.12
691.997	10931.29
692.344	10844.74
692.69	10762.71
693.037	10807
693.383	10689.04
693.73	10790.73
694.077	10638.42
694.423	10647.23
694.769	10581.02
695.116	10514.36
695.462	10489.5
695.808	10457.63
696.155	10510.06
696.501	10448.6
696.847	10385.32
697.193	10281.59
697.539	10302.38
697.885	10295.38
698.231	10223.52
698.577	10158.89
698.923	10167.25
699.269	10095.84
699.614	10069.17
699.96	10042.96
700.306	10004.31
700.651	10001.6
700.997	9924.09
701.342	9920.25
701.688	9852
702.033	9823.3
702.379	9816.3
702.724	9839.57
703.069	9814.49
703.415	9723.64
703.76	9645.23
704.105	9706.24
704.45	9607.49
704.795	9592.35
705.14	9515.51
705.485	9498.11
705.83	9493.37
706.175	9520.48
706.52	9499.69
706.865	9396.19
707.209	9468.06
707.554	9401.39
707.899	9421.5
708.243	9348.74
708.588	9277.55
708.932	9258.12
709.277	9253.15
709.621	9260.83
709.966	9245.46
710.31	9195.07
710.654	9160.27
710.998	9120.72
711.342	9127.5
711.687	9073.94
712.031	9048.86
712.375	9038.46
712.719	8965.7
713.063	9004.57
713.407	9016.32
713.75	8966.6
714.094	8970.89
714.438	8932.7
714.782	8903.78
715.125	8896.77
715.469	8884.79
715.812	8848.64
716.156	8743.78
716.499	8856.09
716.843	8862.87
717.186	8840.5
717.53	8779.94
717.873	8792.82
718.216	8809.54
718.559	8750.11
718.902	8668.53
719.246	8796.21
719.589	8685.03
719.932	8651.58
720.275	8677.57
720.617	8683.22
720.96	8665.14
721.303	8679.6
721.646	8702.43
721.989	8600.96
722.331	8665.59
722.674	8607.74
723.016	8577.91
723.359	8592.82
723.701	8578.59
724.044	8546.05
724.386	8534.3
724.729	8576.55
725.071	8573.62
725.413	8564.8
725.755	8484.13
726.097	8499.27
726.439	8497.01
726.782	8455.65
727.124	8507.4
727.465	8513.05
727.807	8441.64
728.149	8506.95
728.491	8495.2
728.833	8429.89
729.175	8471.02
729.516	8434.19
729.858	8385.82
730.199	8424.92
730.541	8461.75
730.882	8396.22
731.224	8478.25
731.565	8409.55
731.906	8352.15
732.248	8421.3
732.589	8406.16
732.93	8382.43
733.271	8342.21
733.612	8416.78
733.953	8400.29
734.294	8365.94
734.635	8358.71
734.976	8414.98
735.317	8334.75
735.658	8403
735.999	8441.19
736.339	8401.64
736.68	8388.31
737.021	8464.92
737.361	8417.69
737.702	8480.29
738.042	8367.29
738.383	8474.41
738.723	8479.83
739.063	8452.94
739.404	8504.47
739.744	8492.04
740.084	8532.49
740.424	8430.12
740.764	8498.36
741.104	8523.9
741.444	8546.95
741.784	8541.98
742.124	8566.38
742.464	8552.83
742.804	8614.97
743.143	8546.27
743.483	8627.63
743.823	8613.62
744.162	8633.73
744.502	8723.22
744.841	8712.37
745.181	8730.9
745.52	8805.7
745.86	8758.92
746.199	8761.41
746.538	8816.77
746.877	8863.78
747.216	8958.01
747.556	8986.49
747.895	8983.1
748.234	9034.4
748.573	9126.6
748.911	9106.94
749.25	9231.68
749.589	9316.42
749.928	9388.28
750.267	9496.53
750.605	9445.01
750.944	9547.6
751.283	9665.79
751.621	9788.5
751.96	9777.2
752.298	9922.73
752.636	9949.17
752.975	10067.81
753.313	10103.75
753.651	10184.87
753.989	10318.66
754.327	10455.83
754.666	10450.4
755.004	10657.18
755.342	10859.43
755.679	10846.32
756.017	11004.96
756.355	11109.82
756.693	11215.35
757.031	11376.48
757.368	11506.42
757.706	11640.88
758.044	11734.66
758.381	11906.86
758.719	12033.41
759.056	12189.11
759.394	12347.75
759.731	12437.47
