Data from hue_26_FLMS001491_00043.txt Node
Date: Tue Feb 07 17:14:03 GMT 2017
User: dcchb
Spectrometer: FLMS00149
Trigger mode: 0
Integration Time (sec): 2.000000E-2
Scans to average: 10
Electric dark correction enabled: true
Nonlinearity correction enabled: false
Boxcar width: 0
XAxis mode: Wavelengths
Number of Pixels in Spectrum: 2048
>>>>>Begin Spectral Data<<<<<
341.393	-22.98
341.776	-22.98
342.16	-22.98
342.543	-64.56
342.927	-74.28
343.31	-69.53
343.693	-66.59
344.077	-41.74
344.46	-61.4
344.843	-48.97
345.226	-46.71
345.61	-31.57
345.993	-36.09
346.376	-16.43
346.759	21.31
347.142	26.51
347.525	46.4
347.908	55.44
348.291	60.63
348.674	87.07
349.057	121.65
349.44	134.3
349.823	138.82
350.206	176.56
350.588	188.09
350.971	217.24
351.354	216.34
351.737	233.74
352.119	253.62
352.502	257.46
352.884	294.07
353.267	286.84
353.65	310.34
354.032	300.85
354.414	311.93
354.797	313.96
355.179	331.59
355.562	335.43
355.944	340.17
356.326	362.09
356.709	340.85
357.091	343.34
357.473	351.7
357.855	327.52
358.238	363.9
358.62	349.89
359.002	325.26
359.384	364.35
359.766	349.21
360.148	328.88
360.53	342.66
360.912	330.23
361.294	334.07
361.676	349.89
362.057	337.46
362.439	327.97
362.821	319.61
363.203	335.66
363.584	326.62
363.966	326.16
364.348	308.54
364.729	323.23
365.111	316.67
365.493	304.02
365.874	301.31
366.256	318.25
366.637	328.2
367.019	317.12
367.4	294.53
367.781	310.34
368.163	311.47
368.544	313.51
368.925	314.86
369.306	316.67
369.688	315.99
370.069	310.34
370.45	310.34
370.831	322.32
371.212	317.58
371.593	324.81
371.974	315.77
372.355	297.92
372.736	314.86
373.117	324.13
373.498	318.93
373.879	318.93
374.26	321.87
374.641	309.67
375.021	317.8
375.402	327.52
375.783	341.3
376.163	334.98
376.544	343.56
376.925	335.66
377.305	326.62
377.686	344.92
378.066	328.65
378.447	321.19
378.827	325.26
379.208	333.85
379.588	332.04
379.968	350.57
380.349	343.56
380.729	319.16
381.109	336.11
381.489	331.36
381.87	332.27
382.25	335.66
382.63	344.24
383.01	349.89
383.39	341.3
383.77	354.41
384.15	353.28
384.53	364.58
384.91	332.72
385.29	353.96
385.67	350.8
386.049	356.9
386.429	357.12
386.809	341.53
387.189	349.89
387.568	355.77
387.948	368.2
388.328	362.77
388.707	371.59
389.087	377.46
389.466	368.2
389.846	368.2
390.225	355.54
390.605	371.36
390.984	352.6
391.363	375.88
391.743	372.49
392.122	334.53
392.501	362.09
392.881	355.77
393.26	378.59
393.639	374.3
394.018	368.87
394.397	337.24
394.776	350.12
395.155	373.85
395.534	367.07
395.913	385.82
396.292	383.11
396.671	377.91
397.05	383.56
397.429	386.5
397.808	379.95
398.186	383.34
398.565	371.13
398.944	383.11
399.323	392.38
399.701	400.74
400.08	398.25
400.458	403
400.837	428.53
401.215	395.77
401.594	415.88
401.972	400.29
402.351	409.33
402.729	383.34
403.107	412.26
403.486	398.48
403.864	405.71
404.242	391.25
404.62	411.36
404.999	425.6
405.377	423.34
405.755	418.14
406.133	400.96
406.511	444.35
406.889	436.9
407.267	429.66
407.645	426.05
408.023	433.05
408.401	432.15
408.779	428.53
409.156	438.93
409.534	435.31
409.912	450.23
410.29	459.72
410.667	446.39
411.045	467.18
411.422	447.06
411.8	454.07
412.178	447.52
412.555	455.65
412.933	475.54
413.31	450.45
413.687	482.09
414.065	471.24
414.442	476.44
414.819	491.36
415.197	496.78
415.574	483.67
415.951	494.97
416.328	482.77
416.705	505.37
417.082	481.41
417.46	503.33
417.837	506.95
418.214	492.04
418.591	492.49
418.967	496.78
419.344	522.54
419.721	498.81
420.098	502.88
420.475	525.25
420.852	537.23
421.228	515.31
421.605	522.54
421.982	513.96
422.358	554.63
422.735	534.75
423.111	523.9
423.488	546.95
423.864	534.52
424.241	553.95
424.617	550.34
424.994	570.23
425.37	559.38
425.746	547.4
426.123	554.18
426.499	560.06
426.875	580.17
427.251	569.1
427.627	567.74
428.003	597.8
428.379	607.51
428.756	576.55
429.132	593.73
429.507	620.62
429.883	603.22
430.259	604.8
430.635	625.82
431.011	627.17
431.387	624.01
431.763	629.43
432.138	640.51
432.514	622.43
432.89	633.27
433.265	640.28
433.641	663.78
434.016	625.14
434.392	672.6
434.767	684.35
435.143	675.76
435.518	680.5
435.894	659.71
436.269	658.81
436.644	697.68
437.02	670.79
437.395	680.5
437.77	689.54
438.145	712.14
438.52	710.11
438.895	727.28
439.271	709.43
439.646	730.45
440.021	732.93
440.395	734.51
440.77	717.79
441.145	734.51
441.52	747.62
441.895	761.63
442.27	737
442.645	749.43
443.019	769.32
443.394	769.99
443.769	762.08
444.143	760.28
444.518	780.62
444.892	774.06
445.267	796.89
445.641	767.28
446.016	784.46
446.39	807.28
446.764	792.82
447.139	789.65
447.513	810.22
447.887	810.22
448.262	809.99
448.636	817.22
449.01	821.97
449.384	817.22
449.758	809.77
450.132	819.26
450.506	847.05
450.88	848.64
451.254	845.92
451.628	846.38
452.002	863.1
452.376	868.07
452.75	871.46
453.123	876.43
453.497	852.7
453.871	890.89
454.244	897.9
454.618	904.23
454.992	926.6
455.365	933.83
455.739	946.03
456.112	940.16
456.486	950.78
456.859	965.92
457.232	987.84
457.606	966.6
457.979	991.68
458.352	992.36
458.725	1005.47
459.099	1041.63
459.472	1005.92
459.845	1031.91
460.218	1037.11
460.591	1047.5
460.964	1058.12
461.337	1072.58
461.71	1077.78
462.083	1081.4
462.456	1083.43
462.829	1105.35
463.201	1118.46
463.574	1125.92
463.947	1129.08
464.32	1149.64
464.692	1157.1
465.065	1181.73
465.438	1201.85
465.81	1208.85
466.183	1226.48
466.555	1252.24
466.928	1209.76
467.3	1254.27
467.672	1282.07
468.045	1271.9
468.417	1305.57
468.789	1313.71
469.161	1316.42
469.534	1383.99
469.906	1387.83
470.278	1395.74
470.65	1410.88
471.022	1412.69
471.394	1463.76
471.766	1448.39
472.138	1472.57
472.51	1487.72
472.882	1513.03
473.253	1535.4
473.625	1562.52
473.997	1605
474.369	1628.73
474.74	1634.38
475.112	1675.28
475.484	1717.54
475.855	1745.79
476.227	1762.28
476.598	1808.38
476.97	1812.68
477.341	1854.03
477.713	1886.57
478.084	1906.69
478.455	1958.89
478.827	1968.83
479.198	2035.5
479.569	2071.43
479.94	2097.87
480.311	2107.13
480.682	2168.38
481.053	2208.6
481.424	2248.37
481.795	2296.96
482.166	2351.65
482.537	2384.64
482.908	2415.15
483.279	2440.23
483.65	2487.69
484.021	2565.43
484.391	2616.95
484.762	2610.4
485.133	2662.37
485.503	2714.8
485.874	2742.82
486.244	2800.22
486.615	2884.74
486.985	2900.56
487.356	2957.96
487.726	2962.03
488.097	3011.52
488.467	3074.34
488.837	3157.5
489.207	3204.73
489.578	3245.63
489.948	3283.6
490.318	3338.29
490.688	3419.19
491.058	3418.29
491.428	3459.19
491.798	3542.35
492.168	3572.41
492.538	3646.3
492.908	3693.08
493.278	3740.09
493.648	3735.57
494.017	3767.88
494.387	3831.16
494.757	3845.62
495.126	3928.78
495.496	3919.74
495.866	3981.66
496.235	4035.22
496.605	4067.31
496.974	4119.28
497.344	4155.44
497.713	4223.01
498.082	4216.68
498.452	4288.77
498.821	4293.52
499.19	4351.82
499.559	4353.4
499.928	4386.85
500.298	4432.72
500.667	4419.16
501.036	4477.24
501.405	4510.01
501.774	4518.37
502.143	4520.18
502.512	4627.29
502.88	4606.05
503.249	4641.08
503.618	4663.68
503.987	4669.55
504.356	4717.23
504.724	4720.4
505.093	4769.66
505.462	4810.11
505.83	4856.44
506.199	4927.85
506.567	4937.57
506.936	4909.55
507.304	4973.73
507.672	4973.73
508.041	4957.68
508.409	5041.97
508.777	5070.22
509.145	5088.98
509.514	5104.8
509.882	5137.11
510.25	5132.82
510.618	5139.37
510.986	5189.76
511.354	5248.75
511.722	5232.02
512.09	5301.17
512.458	5269.99
512.826	5341.4
513.193	5375.75
513.561	5316.54
513.929	5414.39
514.297	5427.95
514.664	5388.18
515.032	5459.36
515.4	5520.83
515.767	5482.64
516.135	5527.16
516.502	5516.08
516.869	5589.08
517.237	5587.72
517.604	5571.22
517.972	5676.98
518.339	5656.19
518.706	5638.79
519.073	5731.9
519.44	5731.9
519.808	5765.57
520.175	5792.91
520.542	5829.75
520.909	5832.91
521.276	5833.36
521.643	5889.86
522.009	5919.01
522.376	5947.03
522.743	5965.11
523.11	6010.76
523.477	6057.31
523.843	6046.24
524.21	6114.94
524.577	6186.57
524.943	6202.85
525.31	6188.61
525.676	6227.48
526.043	6278.32
526.409	6302.73
526.776	6357.87
527.142	6370.07
527.508	6445.1
527.874	6473.57
528.241	6475.15
528.607	6455.95
528.973	6594.02
529.339	6539.11
529.705	6607.13
530.071	6601.03
530.437	6635.38
530.803	6696.39
531.169	6773.45
531.535	6772.1
531.901	6768.25
532.267	6803.96
532.632	6877.4
532.998	6888.93
533.364	6874.69
533.73	6913.79
534.095	6995.82
534.461	7047.12
534.826	7021.35
535.192	7043.73
535.557	7124.18
535.923	7128.24
536.288	7138.87
536.653	7236.72
537.019	7132.09
537.384	7229.26
537.749	7200.33
538.114	7225.64
538.479	7254.8
538.845	7344.51
539.21	7297.51
539.575	7292.99
539.94	7403.04
540.305	7429.93
540.67	7472.19
541.034	7412.53
541.399	7509.03
541.764	7526.65
542.129	7572.3
542.494	7583.6
542.858	7649.81
543.223	7633.09
543.587	7729.13
543.952	7745.4
544.316	7798.74
544.681	7780.43
545.045	7774.33
545.41	7818.85
545.774	7888.68
546.138	7884.84
546.503	7922.57
546.867	7986.08
547.231	8034.44
547.595	8047.32
547.959	8040.99
548.324	8104.94
548.688	8120.08
549.052	8179.52
549.416	8173.19
549.779	8179.29
550.143	8237.14
550.507	8243.24
550.871	8295.45
551.235	8308.55
551.599	8376.12
551.962	8345.61
552.326	8405.27
552.689	8431.94
553.053	8379.29
553.417	8422.45
553.78	8543.57
554.143	8507.42
554.507	8542.22
554.87	8553.97
555.234	8594.87
555.597	8659.5
555.96	8672.84
556.323	8665.83
556.686	8703.8
557.05	8738.37
557.413	8714.64
557.776	8779.73
558.139	8865.37
558.502	8846.62
558.865	8856.11
559.228	8898.14
559.59	8938.37
559.953	8919.84
560.316	9078.02
560.679	9037.57
561.041	9143.78
561.404	9167.06
561.767	9162.99
562.129	9103.11
562.492	9289.54
562.854	9181.98
563.217	9218.36
563.579	9239.15
563.941	9348.75
564.304	9406.15
564.666	9428.3
565.028	9423.78
565.39	9440.95
565.753	9487.5
566.115	9521.4
566.477	9544.45
566.839	9580.61
567.201	9663.09
567.563	9620.38
567.925	9666.48
568.287	9731.57
568.648	9797.78
569.01	9758.01
569.372	9853.14
569.734	9845.69
570.095	9942.63
570.457	9951.22
570.819	9971.56
571.18	10078.22
571.542	10153.48
571.903	10082.29
572.265	10161.16
572.626	10198.22
572.987	10247.71
573.349	10349.85
573.71	10424.88
574.071	10460.13
574.432	10465.11
574.794	10616.51
575.155	10650.64
575.516	10608.83
575.877	10789.17
576.238	10768.6
576.599	10811.99
576.96	10947.13
577.32	10980.8
577.681	11068.03
578.042	11202.49
578.403	11249.27
578.763	11341.24
579.124	11449.94
579.485	11547.34
579.845	11763.15
580.206	11768.35
580.566	11901.9
580.927	12048.34
581.287	12103.26
581.648	12255.12
582.008	12449.23
582.368	12514.32
582.728	12733.97
583.089	12888.32
583.449	13044.02
583.809	13192.72
584.169	13427.74
584.529	13495.76
584.889	13753.83
585.249	13891.68
585.609	14060.72
585.969	14333.48
586.329	14520.59
586.688	14645.11
587.048	14950.64
587.408	15123.29
587.768	15361.93
588.127	15613.67
588.487	15802.14
588.846	16127.78
589.206	16214.56
589.565	16522.57
589.925	16917.82
590.284	17106.97
590.643	17410.23
591.003	17757.34
591.362	17961.86
591.721	18267.84
592.08	18472.81
592.44	18880.93
592.799	19076.18
593.158	19439.56
593.517	19579.89
593.876	19990.05
594.235	20318.18
594.593	20552.52
594.952	20891.72
595.311	21110.48
595.67	21381.43
596.029	21851.47
596.387	22171.47
596.746	22500.27
597.104	22668.4
597.463	23011.67
597.822	23322.17
598.18	23710.18
598.538	23785.43
598.897	24371.41
599.255	24370.5
599.613	25040.32
599.972	25181.56
600.33	25504.94
600.688	25601.21
601.046	26105.37
601.404	26482.54
601.762	26710.55
602.12	27037.33
602.478	27243.87
602.836	27518.67
603.194	27632.11
603.552	28029.39
603.91	28147.13
604.268	28480.23
604.625	28783.95
604.983	29091.28
605.341	29389.35
605.698	29583.93
606.056	29828.66
606.413	30183.46
606.771	30524.92
607.128	30758.81
607.485	30734.63
607.843	30979.6
608.2	31439.47
608.557	31883.3
608.914	31914.03
609.272	32252.1
609.629	32520.35
609.986	32856.83
610.343	32815.48
610.7	33192.64
611.057	33393.32
611.414	33465.63
611.771	33619.53
612.127	34033.98
612.484	34172.73
612.841	34607.3
613.198	34531.14
613.554	34647.07
613.911	35031.01
614.267	35143.78
614.624	35433.04
614.98	35563.2
615.337	35810.65
615.693	35938.79
616.05	36046.81
616.406	36411.77
616.762	36451.99
617.118	36546.68
617.475	36767.01
617.831	36846.79
618.187	36990.74
618.543	37171.07
618.899	37487.67
619.255	37526.77
619.611	37630.72
619.967	37737.38
620.323	38058.28
620.678	38097.15
621.034	37993.87
621.39	38157.71
621.746	38340.31
622.101	38686.51
622.457	38485.61
622.812	38671.6
623.168	38949.1
623.523	38912.27
623.879	39076.33
624.234	38985.94
624.589	39229.77
624.945	39180.74
625.3	39414.85
625.655	39379.83
626.01	39457.56
626.365	39689.2
626.72	39667.95
627.075	39712.7
627.43	39800.38
627.785	39834.96
628.14	39899.36
628.495	39997.89
628.85	39965.12
629.205	39945.01
629.559	40171.9
629.914	39971.9
630.269	40091.22
630.623	40147.04
630.978	40099.13
631.332	40246.92
631.687	40382.29
632.041	40213.25
632.396	40419.35
632.75	40455.73
633.104	40329.63
633.459	40257.77
633.813	40241.27
634.167	40404.66
634.521	40341.16
634.875	40470.87
635.229	40478.78
635.583	40214.15
635.937	40267.71
636.291	40385.22
636.645	40503.19
636.999	40389.29
637.352	40371.21
637.706	40249.18
638.06	40391.78
638.413	40300.71
638.767	40281.05
639.121	40221.39
639.474	40170.77
639.828	40255.74
640.181	40206.92
640.534	40411.66
640.888	40176.64
641.241	40050.99
641.594	40202.86
641.947	40302.06
642.301	40175.29
642.654	40396.52
643.007	40377.54
643.36	40325.56
643.713	40308.62
644.066	40240.14
644.419	40082.18
644.771	39883.54
645.124	39428.86
645.477	39382.31
645.83	39179.15
646.182	39029.78
646.535	38963.11
646.888	39127.4
647.24	38846.96
647.593	39184.8
647.945	39050.12
648.298	38936.22
648.65	38692.61
649.002	38718.37
649.355	38918.6
649.707	38951.36
650.059	39202.88
650.411	39556.54
650.763	39553.61
651.115	39984.56
651.467	39691.68
651.819	39853.26
652.171	39731.91
652.523	39699.82
652.875	39653.94
653.227	39642.87
653.578	39798.8
653.93	39655.75
654.282	39612.14
654.633	39524.46
654.985	39631.57
655.337	39767.61
655.688	39668.86
656.039	39913.15
656.391	39484.46
656.742	39555.41
657.094	39528.3
657.445	39688.52
657.796	39696.43
658.147	39545.7
658.498	39574.17
658.849	39620.27
659.2	39582.53
659.551	39529.65
659.902	39656.2
660.253	39427.96
660.604	39531.01
660.955	39300.05
661.306	39368.3
661.656	39277.91
662.007	39348.41
662.358	39401.75
662.708	39407.4
663.059	39345.7
663.409	39193.16
663.76	39432.48
664.11	39343.22
664.461	39283.78
664.811	39415.53
665.161	39321.07
665.511	39388.64
665.862	39344.12
666.212	39462.76
666.562	39445.81
666.912	39436.77
667.262	39302.54
667.612	39303.44
667.962	39402.65
668.312	39302.31
668.662	39526.49
669.011	39395.87
669.361	39287.85
669.711	39235.88
670.06	39253.5
670.41	39270
670.76	39235.42
671.109	39370.33
671.459	39347.28
671.808	39156.56
672.157	39214.41
672.507	38947.75
672.856	39057.35
673.205	39142.77
673.554	39335.31
673.904	38975.77
674.253	39276.78
674.602	39245.37
674.951	38623.69
675.3	38299.85
675.649	39097.35
675.998	38932.38
676.346	38978.48
676.695	39071.81
677.044	38765.83
677.393	38860.74
677.741	38939.39
678.09	38876.79
678.438	38647.87
678.787	38780.52
679.135	38787.07
679.484	38735.78
679.832	38768.99
680.181	38515.89
680.529	38657.59
680.877	38442.9
681.225	38383.24
681.573	38486.29
681.922	38418.95
682.27	38293.98
682.618	38311.61
682.966	38170.82
683.314	38243.58
683.661	38129.01
684.009	38023.93
684.357	37978.73
684.705	37938.96
685.053	38017.6
685.4	37975.34
685.748	37633.43
686.095	37694.22
686.443	37675.92
686.79	37484.73
687.138	37577.84
687.485	37599.99
687.832	37605.18
688.18	37602.92
688.527	37175.59
688.874	37324.74
689.221	37318.19
689.568	37141.47
689.915	37028.25
690.262	37083.84
690.609	36949.83
690.956	36886.78
691.303	36839.1
691.65	36702.16
691.997	36624.42
692.344	36303.75
692.69	36414.25
693.037	36320.02
693.383	36150.76
693.73	36239.12
694.077	36067.37
694.423	36031.44
694.769	35866.7
695.116	35870.09
695.462	35810.2
695.808	35614.95
696.155	35764.78
696.501	35447.73
696.847	35563.2
697.193	35087.96
697.539	35258.13
697.885	35141.75
698.231	35080.5
698.577	35082.76
698.923	34995.31
699.269	34802.09
699.614	34507.64
699.96	34588.09
700.306	34534.98
700.651	34456.11
700.997	34406.85
701.342	34283.46
701.688	34182.9
702.033	34113.75
702.379	34060.42
702.724	34116.69
703.069	34024.49
703.415	33650.03
703.76	33805.06
704.105	33758.51
704.45	33606.42
704.795	33581.56
705.14	33345.18
705.485	33428.34
705.83	33145.41
706.175	33288.46
706.52	33077.84
706.865	33178.63
707.209	33010.73
707.554	32865.42
707.899	32987.45
708.243	32821.13
708.588	32748.81
708.932	32568.25
709.277	32592.66
709.621	32566.45
709.966	32326.45
710.31	32332.78
710.654	32142.05
710.998	32165.78
711.342	32211.65
711.687	32062.5
712.031	31833.81
712.375	31860.02
712.719	31865.45
713.063	31859.8
713.407	31829.06
713.75	31661.61
714.094	31746.58
714.438	31483.99
714.782	31601.05
715.125	31400.6
715.469	31430.43
715.812	31334.84
716.156	31149.76
716.499	31208.29
716.843	31166.71
717.186	30928.97
717.53	31156.99
717.873	31083.32
718.216	30862.76
718.559	30983.66
718.902	30726.72
719.246	30841.07
719.589	30668.19
719.932	30538.7
720.275	30551.81
720.617	30566.5
720.96	30453.51
721.303	30362.89
721.646	30528.08
721.989	30223
722.331	30306.39
722.674	30243.34
723.016	30301.19
723.359	30252.16
723.701	30206.51
724.044	30094.19
724.386	29975.55
724.729	30124.48
725.071	30017.81
725.413	29837.03
725.755	29861.88
726.097	29762.9
726.439	29618.5
726.782	29689.46
727.124	29697.59
727.465	29500.09
727.807	29576.92
728.149	29435
728.491	29522.46
728.833	29575.56
729.175	29360.43
729.516	29247.44
729.858	29277.27
730.199	29228
730.541	29101.9
730.882	29226.19
731.224	29206.53
731.565	28986.2
731.906	29042.24
732.248	29022.13
732.589	28885.86
732.93	28814.68
733.271	28830.27
733.612	28814
733.953	28867.11
734.294	28646.1
734.635	28669.6
734.976	28772.87
735.317	28572.2
735.658	28570.84
735.999	28692.65
736.339	28558.19
736.68	28648.58
737.021	28521.35
737.361	28399.55
737.702	28482.26
738.042	28374.24
738.383	28287.01
738.723	28290.4
739.063	28196.62
739.404	28316.39
739.744	28276.16
740.084	28141.93
740.424	28212.66
740.764	28031.42
741.104	28191.65
741.444	27908.26
741.784	27936.96
742.124	28035.04
742.464	27817.64
742.804	27796.85
743.143	27742.62
743.483	27814.93
743.823	27594.6
744.162	27675.95
744.502	27749.62
744.841	27569.74
745.181	27591.44
745.52	27498.1
745.86	27565.67
746.199	27406.81
746.538	27431.89
746.877	27467.15
747.216	27339.46
747.556	27247.04
747.895	27260.37
748.234	27293.36
748.573	27121.84
748.911	27225.57
749.25	27147.61
749.589	27002.3
749.928	27103.09
750.267	27120.49
750.605	27032.35
750.944	27007.5
751.283	26784.9
751.621	27066.93
751.96	26864.45
752.298	26802.3
752.636	26900.38
752.975	26659.26
753.313	26661.29
753.651	26701.29
753.989	26410.22
754.327	26559.6
754.666	26569.09
755.004	26429.88
755.342	26476.66
755.679	26409.55
756.017	26255.88
756.355	26339.49
756.693	26240.74
757.031	26164.81
757.368	26170.46
757.706	26037.58
758.044	25935.21
758.381	26004.36
758.719	25806.85
759.056	25978.14
759.394	25763.91
759.731	25734.54
760.068	25619.74
760.405	25611.83
