Data from hue_290_FLMS001491_00074.txt Node
Date: Tue Feb 07 15:53:13 GMT 2017
User: dcchb
Spectrometer: FLMS00149
Trigger mode: 0
Integration Time (sec): 2.000000E-2
Scans to average: 10
Electric dark correction enabled: true
Nonlinearity correction enabled: false
Boxcar width: 0
XAxis mode: Wavelengths
Number of Pixels in Spectrum: 2048
>>>>>Begin Spectral Data<<<<<
341.393	-4.76
341.776	-4.76
342.16	-4.76
342.543	-72.1
342.927	-51.99
343.31	-38.88
343.693	-69.84
344.077	-80.69
344.46	-57.19
344.843	-67.36
345.226	-44.08
345.61	-28.71
345.993	-18.32
346.376	9.03
346.759	-0.92
347.142	31.17
347.525	38.85
347.908	33.88
348.291	80.21
348.674	106.88
349.057	105.97
349.44	133.09
349.823	145.07
350.206	130.83
350.588	196.59
350.971	198.62
351.354	237.49
351.737	227.78
352.119	232.97
352.502	254.89
352.884	255.35
353.267	286.98
353.65	289.47
354.032	291.73
354.414	280.66
354.797	304.16
355.179	309.58
355.562	310.94
355.944	312.07
356.326	312.07
356.709	318.62
357.091	322.24
357.473	339.41
357.855	333.31
358.238	343.03
358.62	334.21
359.002	346.19
359.384	335.34
359.766	326.53
360.148	329.24
360.53	341.45
360.912	317.72
361.294	347.32
361.676	340.32
362.057	320.88
362.439	325.4
362.821	323.37
363.203	347.1
363.584	315.01
363.966	307.55
364.348	313.65
364.729	321.33
365.111	313.88
365.493	314.1
365.874	300.09
366.256	301.9
366.637	309.36
367.019	305.06
367.4	315.01
367.781	316.14
368.163	298.51
368.544	305.06
368.925	303.71
369.306	312.29
369.688	304.84
370.069	296.48
370.45	308.9
370.831	303.71
371.212	321.79
371.593	306.19
371.974	294.44
372.355	341.45
372.736	313.88
373.117	312.52
373.498	311.16
373.879	293.99
374.26	304.38
374.641	287.44
375.021	283.37
375.402	306.64
375.783	302.12
376.163	325.18
376.544	326.3
376.925	308
377.305	326.76
377.686	299.19
378.066	321.79
378.447	313.42
378.827	322.69
379.208	308.68
379.588	327.43
379.968	328.34
380.349	326.3
380.729	327.21
381.109	333.31
381.489	322.92
381.87	305.74
382.25	336.02
382.63	335.12
383.01	345.74
383.39	341.67
383.77	347.32
384.15	346.64
384.53	319.53
384.91	339.41
385.29	343.71
385.67	344.38
386.049	370.37
386.429	345.74
386.809	335.8
387.189	340.54
387.568	343.71
387.948	351.39
388.328	343.93
388.707	345.06
389.087	371.95
389.466	342.8
389.846	343.48
390.225	359.75
390.605	364.95
390.984	349.58
391.363	359.75
391.743	370.15
392.122	382.12
392.501	374.44
392.881	362.69
393.26	369.69
393.639	390.03
394.018	364.5
394.397	372.86
394.776	415.79
395.155	396.59
395.534	377.15
395.913	382.35
396.292	391.39
396.671	403.59
397.05	385.29
397.429	385.06
397.808	367.43
398.186	397.26
398.565	392.97
398.944	393.42
399.323	394.55
399.701	402.01
400.08	402.69
400.458	429.13
400.837	404.5
401.215	428
401.594	418.51
401.972	421.67
402.351	425.06
402.729	397.94
403.107	421.44
403.486	432.74
403.864	443.82
404.242	418.73
404.62	437.04
404.999	430.71
405.377	450.6
405.755	457.6
406.133	434.1
406.511	451.5
406.889	459.18
407.267	460.09
407.645	489.69
408.023	467.54
408.401	491.27
408.779	491.27
409.156	482.69
409.534	479.75
409.912	518.84
410.29	503.7
410.667	524.72
411.045	525.62
411.422	511.16
411.8	529.46
412.178	560.88
412.555	556.58
412.933	546.86
413.31	562.46
413.687	559.07
414.065	595.22
414.442	574.43
414.819	586.86
415.197	587.09
415.574	635.9
415.951	632.74
416.328	608.78
416.705	637.03
417.082	605.17
417.46	646.3
417.837	683.81
418.214	661.44
418.591	663.02
418.967	681.55
419.344	668.67
419.721	653.98
420.098	680.19
420.475	704.83
420.852	738.05
421.228	717.26
421.605	734.88
421.982	734.88
422.358	738.72
422.735	758.38
423.111	723.13
423.488	798.38
423.864	816.01
424.241	800.87
424.617	807.87
424.994	799.51
425.37	844.94
425.746	811.04
426.123	831.15
426.499	831.15
426.875	844.94
427.251	860.3
427.627	887.42
428.003	886.52
428.379	887.42
428.756	905.05
429.132	899.17
429.507	924.48
429.883	940.53
430.259	931.71
430.635	917.93
431.011	959.73
431.387	972.84
431.763	987.3
432.138	1006.51
432.514	1014.87
432.89	1030.24
433.265	1041.31
433.641	1039.51
434.016	1066.4
434.392	1083.57
434.767	1100.07
435.143	1090.8
435.518	1121.76
435.894	1125.38
436.269	1134.19
436.644	1156.79
437.02	1149.56
437.395	1162.22
437.77	1188.43
438.145	1220.29
438.52	1177.13
438.895	1235.21
439.271	1250.12
439.646	1256.22
440.021	1281.31
440.395	1275.43
440.77	1266.17
441.145	1304.58
441.52	1310.46
441.895	1299.39
442.27	1324.02
442.645	1343.23
443.019	1336.22
443.394	1331.7
443.769	1364.92
444.143	1369.22
444.518	1375.09
444.892	1360.85
445.267	1378.93
445.641	1401.76
446.016	1394.07
446.39	1405.6
446.764	1407.18
447.139	1412.38
447.513	1428.87
447.887	1405.37
448.262	1436.11
448.636	1451.47
449.01	1424.81
449.384	1470.23
449.758	1461.19
450.132	1469.78
450.506	1474.52
450.88	1493.73
451.254	1468.87
451.628	1491.25
452.002	1480.4
452.376	1525.6
452.75	1512.49
453.123	1553.62
453.497	1569.66
453.871	1564.01
454.244	1587.74
454.618	1574.86
454.992	1599.27
455.365	1588.19
455.739	1648.3
456.112	1669.32
456.486	1654.63
456.859	1677
457.232	1714.07
457.606	1661.86
457.979	1698.02
458.352	1728.75
458.725	1750.9
459.099	1767.85
459.472	1748.87
459.845	1808.98
460.218	1809.66
460.591	1810.56
460.964	1799.49
461.337	1821.63
461.71	1865.7
462.083	1874.06
462.456	1871.58
462.829	1888.75
463.201	1902.53
463.574	1927.39
463.947	1940.73
464.32	1971.69
464.692	1970.33
465.065	1969.2
465.438	2034.51
465.81	2046.26
466.183	2021.63
466.555	2080.84
466.928	2095.98
467.3	2095.3
467.672	2119.7
468.045	2159.93
468.417	2167.61
468.789	2178.91
469.161	2179.59
469.534	2205.13
469.906	2227.5
470.278	2267.27
470.65	2260.72
471.022	2279.47
471.394	2330.09
471.766	2352.01
472.138	2363.99
472.51	2403.31
472.882	2434.5
473.253	2409.64
473.625	2500.49
473.997	2551.56
474.369	2522.18
474.74	2549.52
475.112	2586.36
475.484	2641.5
475.855	2638.33
476.227	2694.15
476.598	2723.3
476.97	2724.21
477.341	2814.38
477.713	2802.85
478.084	2805.79
478.455	2881.49
478.827	2841.27
479.198	2974.6
479.569	2947.48
479.94	3043.3
480.311	3020.7
480.682	3060.92
481.053	3171.88
481.424	3191.99
481.795	3196.06
482.166	3197.42
482.537	3255.27
482.908	3334.14
483.279	3309.05
483.65	3390.41
484.021	3387.92
484.391	3453
484.762	3451.87
485.133	3482.61
485.503	3483.06
485.874	3607.35
486.244	3603.96
486.615	3668.14
486.985	3676.05
487.356	3746.33
487.726	3721.24
488.097	3820.68
488.467	3816.61
488.837	3881.24
489.207	3886.89
489.578	3940.9
489.948	3991.97
490.318	4001.24
490.688	4043.5
491.058	4113.32
491.428	4115.36
491.798	4138.41
492.168	4184.96
492.538	4193.32
492.908	4227.45
493.278	4309.48
493.648	4295.92
494.017	4380.21
494.387	4395.35
494.757	4376.37
495.126	4414.56
495.496	4411.85
495.866	4422.92
496.235	4528.45
496.605	4556.25
496.974	4545.18
497.344	4583.37
497.713	4603.48
498.082	4616.59
498.452	4635.12
498.821	4650.49
499.19	4676.93
499.559	4689.13
499.928	4721.9
500.298	4708.11
500.667	4761.89
501.036	4780.2
501.405	4831.95
501.774	4812.29
502.143	4872.4
502.512	4874.66
502.88	4885.51
503.249	4912.17
503.618	4869.01
503.987	4899.07
504.356	4918.5
504.724	4985.62
505.093	4987.88
505.462	4997.37
505.83	5025.84
506.199	5039.18
506.567	5105.39
506.936	5103.35
507.304	5120.3
507.672	5101.32
508.041	5151.71
508.409	5180.64
508.777	5211.37
509.145	5248.89
509.514	5215.44
509.882	5228.77
510.25	5212.73
510.618	5291.15
510.986	5301.32
511.354	5293.63
511.722	5345.38
512.09	5360.52
512.458	5350.13
512.826	5372.27
513.193	5407.3
513.561	5426.74
513.929	5426.51
514.297	5529.33
514.664	5498.37
515.032	5497.69
515.4	5525.72
515.767	5564.81
516.135	5526.85
516.502	5521.2
516.869	5600.74
517.237	5619.5
517.604	5602.32
517.972	5624.7
518.339	5664.7
518.706	5667.63
519.073	5700.63
519.44	5703.56
519.808	5701.76
520.175	5760.51
520.542	5774.52
520.909	5788.31
521.276	5766.16
521.643	5821.75
522.009	5807.52
522.376	5887.97
522.743	5881.41
523.11	5887.29
523.477	5972.03
523.843	5997.79
524.21	6046.38
524.577	6074.63
524.943	6025.14
525.31	6040.28
525.676	6119.15
526.043	6184
526.409	6148.75
526.776	6215.87
527.142	6195.3
527.508	6227.84
527.874	6251.12
528.241	6316.66
528.607	6324.11
528.973	6357.78
529.339	6323.44
529.705	6380.84
530.071	6408.86
530.437	6440.95
530.803	6466.48
531.169	6521.4
531.535	6458.35
531.901	6564.33
532.267	6525.69
532.632	6624.67
532.998	6574.28
533.364	6597.33
533.73	6582.41
534.095	6676.42
534.461	6656.31
534.826	6724.1
535.192	6719.13
535.557	6785.12
535.923	6768.85
536.288	6777.21
536.653	6844.33
537.019	6779.69
537.384	6826.7
537.749	6867.6
538.114	6842.07
538.479	6875.06
538.845	6866.25
539.21	6949.18
539.575	6937.66
539.94	6950.76
540.305	6960.71
540.67	6936.07
541.034	7019.69
541.399	7017.65
541.764	7080.48
542.129	7043.19
542.494	7091.32
542.858	7117.54
543.223	7118.44
543.587	7175.62
543.952	7141.72
544.316	7127.93
544.681	7197.31
545.045	7173.81
545.41	7217.42
545.774	7241.38
546.138	7234.37
546.503	7315.73
546.867	7224.88
547.231	7352.79
547.595	7359.34
547.959	7361.83
548.324	7414.03
548.688	7396.85
549.052	7411.77
549.416	7466.68
549.779	7439.34
550.143	7507.81
550.507	7550.75
550.871	7458.09
551.235	7536.96
551.599	7574.93
551.962	7565.44
552.326	7604.98
552.689	7647.02
553.053	7647.47
553.417	7562.5
553.78	7642.72
554.143	7654.25
554.507	7695.15
554.87	7728.6
555.234	7736.96
555.597	7708.71
555.96	7713
556.323	7784.19
556.686	7762.72
557.05	7818.99
557.413	7835.71
557.776	7873.45
558.139	7845.66
558.502	7910.51
558.865	7848.37
559.228	7957.29
559.59	7914.35
559.953	7960.91
560.316	8042.26
560.679	8068.02
561.041	8068.47
561.404	8073.22
561.767	8049.94
562.129	8067.8
562.492	8131.3
562.854	8176.27
563.217	8112.99
563.579	8194.8
563.941	8200
564.304	8216.27
564.666	8311.63
565.028	8345.08
565.39	8328.13
565.753	8337.17
566.115	8392.76
566.477	8386.21
566.839	8416.94
567.201	8432.08
567.563	8449.48
567.925	8504.85
568.287	8503.94
568.648	8591.62
569.01	8629.14
569.372	8664.16
569.734	8651.28
570.095	8687.22
570.457	8734.22
570.819	8711.17
571.18	8774.22
571.542	8839.08
571.903	8831.84
572.265	8872.97
572.626	8927.66
572.987	8922.46
573.349	8941.22
573.71	9039.3
574.071	9032.06
574.432	9070.03
574.794	9139.18
575.155	9203.59
575.516	9086.07
575.877	9188.9
576.238	9358.61
576.599	9387.31
576.96	9427.31
577.32	9469.57
577.681	9519.51
578.042	9560.86
578.403	9616.23
578.763	9644.48
579.124	9752.95
579.485	9798.82
579.845	9891.93
580.206	9858.71
580.566	10023.9
580.927	10009.67
581.287	10113.39
581.648	10201.07
582.008	10317.91
582.368	10395.42
582.728	10404.91
583.089	10538.92
583.449	10582.76
583.809	10740.72
584.169	10840.6
584.529	10936.65
584.889	11101.61
585.249	11126.02
585.609	11158.11
585.969	11280.14
586.329	11423.41
586.688	11514.26
587.048	11657.76
587.408	11713.35
587.768	11865.44
588.127	11950.63
588.487	12106.11
588.846	12358.98
589.206	12435.37
589.565	12507
589.925	12673.78
590.284	12776.83
590.643	12969.36
591.003	13069.7
591.362	13274.21
591.721	13302.01
592.08	13472.63
592.44	13660.42
592.799	13858.15
593.158	13871.71
593.517	14085.72
593.876	14167.97
594.235	14260.63
594.593	14397.12
594.952	14598.92
595.311	14674.4
595.67	14868.07
596.029	15020.83
596.387	15154.16
596.746	15325.46
597.104	15291.79
597.463	15492.23
597.822	15735.17
598.18	15655.62
598.538	15795.5
598.897	16026.91
599.255	16033.91
599.613	16343.28
599.972	16345.77
600.33	16583.96
600.688	16553.22
601.046	16761.35
601.404	16958.41
601.762	16873.67
602.12	17143.49
602.478	17134.68
602.836	17312.53
603.194	17316.59
603.552	17404.05
603.91	17495.57
604.268	17648.79
604.625	17682.01
604.983	17813.75
605.341	17896.69
605.698	18036.57
606.056	18137.59
606.413	18237.47
606.771	18359.73
607.128	18407.86
607.485	18402.44
607.843	18473.62
608.2	18710.23
608.557	18886.27
608.914	18818.47
609.272	18958.58
609.629	18995.87
609.986	19108.18
610.343	19195.19
610.7	19334.84
611.057	19371.45
611.414	19371
611.771	19512.47
612.127	19588.85
612.484	19725.34
612.841	19730.31
613.198	19740.48
613.554	19717.89
613.911	19975.51
614.267	19974.38
614.624	19980.7
614.98	20065.22
615.337	20298.89
615.693	20227.48
616.05	20228.38
616.406	20337.53
616.762	20430.86
617.118	20450.07
617.475	20417.98
617.831	20525.32
618.187	20648.03
618.543	20745.43
618.899	20785.88
619.255	20744.98
619.611	20704.3
619.967	20879.21
620.323	20978.64
620.678	20916.72
621.034	20845.99
621.39	20927.35
621.746	21023.61
622.101	21274
622.457	21074.23
622.812	21140.22
623.168	21152.65
623.523	21171.63
623.879	21297.28
624.234	21053.44
624.589	21247.11
624.945	21324.62
625.3	21343.38
625.655	21270.16
626.01	21427.45
626.365	21372.98
626.72	21490.49
627.075	21456.14
627.43	21397.16
627.785	21374.34
628.14	21454.11
628.495	21374.11
628.85	21407.78
629.205	21426.32
629.559	21539.31
629.914	21368.24
630.269	21393.55
630.623	21353.32
630.978	21408.24
631.332	21444.85
631.687	21471.51
632.041	21364.85
632.396	21519.19
632.75	21394.23
633.104	21424.51
633.459	21294.12
633.813	21335.47
634.167	21448.46
634.521	21405.98
634.875	21386.54
635.229	21316.94
635.583	21290.95
635.937	21234.68
636.291	21300.89
636.645	21256.6
636.999	21226.09
637.352	21222.03
637.706	21260.9
638.06	21384.73
638.413	21215.7
638.767	21223.38
639.121	21284.85
639.474	21120.33
639.828	21094.8
640.181	21219.77
640.534	21252.53
640.888	21104.74
641.241	20969.15
641.594	21073.56
641.947	21117.4
642.301	21112.65
642.654	21085.31
643.007	21094.8
643.36	21032.2
643.713	21053.67
644.066	21219.31
644.419	20910.85
644.771	20907.68
645.124	20652.55
645.477	20696.84
645.83	20433.12
646.182	20524.42
646.535	20508.15
646.888	20547.92
647.24	20326.91
647.593	20458.21
647.945	20452.1
648.298	20384.08
648.65	20275.84
649.002	20256.18
649.355	20447.13
649.707	20322.84
650.059	20441.03
650.411	20748.14
650.763	20794.69
651.115	20947.01
651.467	20982.71
651.819	20899.78
652.171	20924.18
652.523	20872.88
652.875	20863.39
653.227	20762.83
653.578	21022.03
653.93	20898.87
654.282	20839.66
654.633	20803.73
654.985	20790.63
655.337	20903.39
655.688	20911.75
656.039	21049.83
656.391	20795.37
656.742	20873.11
657.094	20883.05
657.445	20833.56
657.796	20927.57
658.147	20816.39
658.498	20866.1
658.849	20993.33
659.2	20816.84
659.551	20818.87
659.902	20878.53
660.253	20835.82
660.604	20865.88
660.955	20894.58
661.306	20928.93
661.656	20911.53
662.007	20943.84
662.358	20957.4
662.708	20910.17
663.059	20925.76
663.409	20786.11
663.76	21072.43
664.11	20960.56
664.461	21008.7
664.811	21006.67
665.161	20816.16
665.511	20920.57
665.862	20969.83
666.212	20979.55
666.562	20993.33
666.912	20917.18
667.262	20925.99
667.612	21009.83
667.962	21036.95
668.312	20884.18
668.662	21053.44
669.011	20938.87
669.361	20941.13
669.711	20887.8
670.06	20860.68
670.41	20912.2
670.76	20888.25
671.109	20852.54
671.459	20929.83
671.808	20989.94
672.157	20838.76
672.507	20748.82
672.856	20705.43
673.205	20776.61
673.554	20825.2
673.904	20753.34
674.253	20928.02
674.602	20786.33
674.951	20531.88
675.3	20373.69
675.649	20640.57
675.998	20698.2
676.346	20735.71
676.695	20828.59
677.044	20528.03
677.393	20772.32
677.741	20682.61
678.09	20697.07
678.438	20539.78
678.787	20598.09
679.135	20633.79
679.484	20400.13
679.832	20535.94
680.181	20473.57
680.529	20425.21
680.877	20350.64
681.225	20431.77
681.573	20541.59
681.922	20286.23
682.27	20202.62
682.618	20207.59
682.966	20235.84
683.314	20314.48
683.661	20157.87
684.009	20121.26
684.357	19991.55
684.705	19991.78
685.053	20036.75
685.4	19988.84
685.748	19946.81
686.095	19895.06
686.443	19792.69
686.79	19726.7
687.138	19686.47
687.485	19749.07
687.832	19612.58
688.18	19617.55
688.527	19579.36
688.874	19496.87
689.221	19489.64
689.568	19458.91
689.915	19394.96
690.262	19406.26
690.609	19364
690.956	19283.09
691.303	19166.26
691.65	19165.58
691.997	19124.91
692.344	18959.49
692.69	18953.84
693.037	18958.36
693.383	18815.76
693.73	18808.53
694.077	18665.94
694.423	18740.51
694.769	18634.98
695.116	18658.93
695.462	18568.54
695.808	18501.65
696.155	18465.04
696.501	18271.82
696.847	18280.41
697.193	18179.85
697.539	18340.29
697.885	18183.01
698.231	18052.17
698.577	18110.24
698.923	18190.02
699.269	17964.94
699.614	17846.07
699.96	17773.08
700.306	17780.76
700.651	17670.03
700.997	17635.45
701.342	17557.49
701.688	17612.4
702.033	17571.5
702.379	17532.86
702.724	17511.39
703.069	17479.75
703.415	17169.48
703.76	17224.17
704.105	17088.35
704.45	17123.15
704.795	16987.34
705.14	17023.27
705.485	16938.3
705.83	16858.75
706.175	16866.66
706.52	16848.36
706.865	16794.8
707.209	16704.18
707.554	16720.45
707.899	16777.85
708.243	16565.43
708.588	16567.23
708.932	16504.18
709.277	16440.23
709.621	16407.69
709.966	16288.37
710.31	16308.26
710.654	16208.6
710.998	16135.83
711.342	16246.34
711.687	16144.87
712.031	16082.73
712.375	16039.56
712.719	16039.56
713.063	15974.93
713.407	16093.12
713.75	15967.93
714.094	15919.79
714.438	15807.93
714.782	15891.55
715.125	15840.7
715.469	15810.19
715.812	15720.93
716.156	15693.36
716.499	15670.99
716.843	15691.55
717.186	15560.03
717.53	15661.95
717.873	15681.16
718.216	15594.6
718.559	15571.55
718.902	15409.98
719.246	15462.4
719.589	15453.59
719.932	15398
720.275	15494.95
720.617	15323.88
720.96	15355.51
721.303	15369.07
721.646	15369.3
721.989	15175.41
722.331	15332.69
722.674	15274.84
723.016	15344.89
723.359	15175.63
723.701	15181.73
724.044	15134.73
724.386	15138.34
724.729	15141.96
725.071	15102.19
725.413	15074.62
725.755	15048.18
726.097	14993.26
726.439	14963.89
726.782	15015.64
727.124	15077.78
727.465	15016.09
727.807	14976.99
728.149	14977.9
728.491	14917.79
728.833	14936.99
729.175	14914.85
729.516	14979.93
729.858	14858.8
730.199	14908.29
730.541	14888.41
730.882	14873.27
731.224	14830.56
731.565	14781.29
731.906	14751.24
732.248	14854.96
732.589	14792.14
732.93	14801.63
733.271	14716.44
733.612	14823.32
733.953	14799.37
734.294	14802.99
734.635	14759.6
734.976	14785.59
735.317	14740.39
735.658	14784
735.999	14800.05
736.339	14720.05
736.68	14804.12
737.021	14773.38
737.361	14704.46
737.702	14758.47
738.042	14739.03
738.383	14797.56
738.723	14795.76
739.063	14754.63
739.404	14767.73
739.744	14794.4
740.084	14710.33
740.424	14850.22
740.764	14792.37
741.104	14817
741.444	14786.72
741.784	14674.85
742.124	14841.4
742.464	14814.96
742.804	14825.36
743.143	14826.49
743.483	14860.39
743.823	14904.68
744.162	14896.32
744.502	14963.43
744.841	14976.77
745.181	14979.7
745.52	15136.99
745.86	15151.45
746.199	15085.24
746.538	15107.39
746.877	15256.76
747.216	15239.59
747.556	15261.73
747.895	15308.51
748.234	15280.04
748.573	15392.8
748.911	15488.39
749.25	15499.47
749.589	15530.65
749.928	15539.01
750.267	15737.2
750.605	15719.12
750.944	15798.89
751.283	15811.55
751.621	15873.92
751.96	15890.42
752.298	16005.44
752.636	16232.78
752.975	16219.45
753.313	16215.6
753.651	16371.53
753.989	16428.03
754.327	16417.86
754.666	16464.64
755.004	16741.24
755.342	16828.47
755.679	17022.36
756.017	16962.48
756.355	17110.27
756.693	17098.29
757.031	17298.74
757.368	17327.67
757.706	17439.75
758.044	17571.73
758.381	17682.46
758.719	17677.26
759.056	17835.9
759.394	17922.23
759.731	17966.75
