Data from hue_340_FLMS001491_94.txt Node
Date: Mon Feb 06 15:43:53 GMT 2017
User: dcchb
Spectrometer: FLMS00149
Trigger mode: 0
Integration Time (sec): 2.000000E-2
Scans to average: 10
Electric dark correction enabled: true
Nonlinearity correction enabled: false
Boxcar width: 0
XAxis mode: Wavelengths
Number of Pixels in Spectrum: 2048
>>>>>Begin Spectral Data<<<<<
341.393	23.04
341.776	23.04
342.16	23.04
342.543	-87.24
342.927	-50.41
343.31	-60.58
343.693	-69.84
344.077	-73.68
344.46	-72.55
344.843	-60.35
345.226	-34.59
345.61	-42.5
345.993	-21.26
346.376	-12.67
346.759	21.68
347.142	20.1
347.525	45.63
347.908	53.32
348.291	77.05
348.674	113.43
349.057	116.82
349.44	135.12
349.823	146.42
350.206	154.78
350.588	189.81
350.971	211.51
351.354	215.57
351.737	236.14
352.119	230.71
352.502	269.13
352.884	275.46
353.267	261.22
353.65	275.46
354.032	298.51
354.414	298.51
354.797	306.19
355.179	350.71
355.562	326.08
355.944	324.5
356.326	324.05
356.709	320.88
357.091	306.42
357.473	355
357.855	336.47
358.238	343.93
358.62	320.43
359.002	325.4
359.384	330.82
359.766	331.95
360.148	342.35
360.53	340.09
360.912	322.46
361.294	333.54
361.676	337.38
362.057	325.4
362.439	324.5
362.821	324.72
363.203	332.18
363.584	308.45
363.966	302.8
364.348	301.22
364.729	310.03
365.111	323.37
365.493	326.76
365.874	329.69
366.256	316.59
366.637	298.28
367.019	325.63
367.4	299.41
367.781	307.32
368.163	312.07
368.544	317.04
368.925	298.06
369.306	286.08
369.688	306.19
370.069	310.94
370.45	301.22
370.831	320.43
371.212	301.45
371.593	309.13
371.974	314.33
372.355	320.2
372.736	309.81
373.117	303.03
373.498	304.84
373.879	304.84
374.26	301.67
374.641	305.06
375.021	345.29
375.402	321.79
375.783	317.72
376.163	317.72
376.544	310.94
376.925	293.76
377.305	294.44
377.686	317.49
378.066	315.91
378.447	340.54
378.827	304.38
379.208	308.9
379.588	322.69
379.968	339.64
380.349	320.2
380.729	328.79
381.109	317.04
381.489	332.18
381.87	315.01
382.25	337.15
382.63	314.1
383.01	329.24
383.39	326.98
383.77	320.66
384.15	331.73
384.53	336.7
384.91	327.21
385.29	332.18
385.67	365.85
386.049	328.34
386.429	339.41
386.809	336.7
387.189	354.33
387.568	323.82
387.948	324.72
388.328	341.67
388.707	343.03
389.087	359.98
389.466	339.86
389.846	350.94
390.225	342.35
390.605	361.33
390.984	362.46
391.363	326.98
391.743	354.1
392.122	350.94
392.501	347.32
392.881	363.59
393.26	366.3
393.639	361.56
394.018	340.54
394.397	367.21
394.776	348
395.155	361.78
395.534	355
395.913	342.8
396.292	378.96
396.671	363.37
397.05	361.33
397.429	376.93
397.808	371.95
398.186	355.91
398.565	382.8
398.944	380.77
399.323	363.59
399.701	385.06
400.08	393.65
400.458	368.11
400.837	390.94
401.215	376.47
401.594	397.26
401.972	375.8
402.351	380.54
402.729	374.67
403.107	366.98
403.486	366.08
403.864	383.25
404.242	388.9
404.62	400.43
404.999	399.75
405.377	398.17
405.755	415.57
406.133	410.82
406.511	403.14
406.889	403.14
407.267	400.2
407.645	411.27
408.023	395.46
408.401	433.19
408.779	428
409.156	428.45
409.534	432.52
409.912	435.91
410.29	429.58
410.667	460.54
411.045	434.78
411.422	429.13
411.8	435.23
412.178	470.48
412.555	463.48
412.933	437.04
413.31	471.16
413.687	471.61
414.065	486.53
414.442	491.05
414.819	474.1
415.197	476.58
415.574	489.24
415.951	495.34
416.328	503.93
416.705	470.03
417.082	492.63
417.46	514.32
417.837	511.38
418.214	498.28
418.591	519.52
418.967	506.64
419.344	526.3
419.721	506.19
420.098	534.66
420.475	550.93
420.852	536.47
421.228	532.85
421.605	526.75
421.982	546.86
422.358	546.64
422.735	544.6
423.111	547.09
423.488	551.84
423.864	559.52
424.241	551.84
424.617	561.1
424.994	579.18
425.37	597.94
425.746	603.36
426.123	610.82
426.499	572.85
426.875	591.38
427.251	585.51
427.627	611.5
428.003	585.96
428.379	594.32
428.756	613.08
429.132	642.68
429.507	625.51
429.883	646.07
430.259	669.8
430.635	639.29
431.011	630.25
431.387	668.22
431.763	667.31
432.138	660.76
432.514	685.84
432.89	677.71
433.265	683.58
433.641	696.46
434.016	691.72
434.392	721.32
434.767	713.41
435.143	727.88
435.518	736.24
435.894	723.81
436.269	710.93
436.644	751.83
437.02	722.45
437.395	769.46
437.77	759.29
438.145	759.29
438.52	794.99
438.895	777.59
439.271	772.85
439.646	775.78
440.021	799.06
440.395	793.86
440.77	790.47
441.145	776.91
441.52	800.64
441.895	808.78
442.27	797.71
442.645	807.87
443.019	801.55
443.394	823.92
443.769	828.44
444.143	801.32
444.518	834.54
444.892	837.7
445.267	841.55
445.641	842.22
446.016	834.99
446.39	865.73
446.764	842.22
447.139	844.94
447.513	848.78
447.887	850.81
448.262	860.3
448.636	848.55
449.01	900.08
449.384	865.95
449.758	858.72
450.132	900.08
450.506	885.84
450.88	887.65
451.254	889.91
451.628	886.74
452.002	915.89
452.376	914.09
452.75	902.34
453.123	914.09
453.497	938.27
453.871	952.28
454.244	933.75
454.618	927.65
454.992	950.02
455.365	926.97
455.739	971.49
456.112	976.68
456.486	997.02
456.859	999.51
457.232	998.83
457.606	1019.39
457.979	1001.77
458.352	1008.77
458.725	1025.5
459.099	1042.22
459.472	1046.96
459.845	1058.04
460.218	1047.42
460.591	1073.18
460.964	1089.9
461.337	1090.58
461.71	1095.32
462.083	1107.53
462.456	1087.64
462.829	1149.56
463.201	1128.09
463.574	1123.12
463.947	1168.32
464.32	1144.81
464.692	1163.8
465.065	1170.58
465.438	1174.64
465.81	1192.04
466.183	1212.16
466.555	1217.13
466.928	1246.73
467.3	1217.35
467.672	1223.23
468.045	1247.86
468.417	1252.61
468.789	1275.43
469.161	1290.57
469.534	1295.09
469.906	1337.8
470.278	1332.83
470.65	1318.14
471.022	1355.43
471.394	1394.53
471.766	1407.18
472.138	1416.67
472.51	1419.61
472.882	1424.58
473.253	1453.06
473.625	1489.21
473.997	1488.08
474.369	1524.92
474.74	1540.74
475.112	1541.64
475.484	1553.17
475.855	1575.31
476.227	1583.9
476.598	1614.86
476.97	1610.11
477.341	1677.91
477.713	1674.97
478.084	1725.14
478.455	1722.2
478.827	1736.89
479.198	1809.2
479.569	1775.08
479.94	1839.94
480.311	1835.19
480.682	1866.83
481.053	1907.05
481.424	1973.04
481.795	1970.56
482.166	2000.61
482.537	1994.96
482.908	2047.84
483.279	2052.14
483.65	2070.67
484.021	2113.6
484.391	2133.49
484.762	2206.71
485.133	2179.36
485.503	2198.8
485.874	2226.37
486.244	2280.83
486.615	2305.01
486.985	2366.93
487.356	2359.7
487.726	2396.31
488.097	2436.53
488.467	2423.2
488.837	2471.33
489.207	2505.46
489.578	2542.74
489.948	2562.4
490.318	2589.75
490.688	2605.34
491.058	2645.79
491.428	2642.63
491.798	2672.23
492.168	2762.63
492.538	2742.96
492.908	2780.48
493.278	2777.09
493.648	2780.25
494.017	2832.68
494.387	2928.5
494.757	2894.37
495.126	2960.36
495.496	2920.81
495.866	2938.67
496.235	2959
496.605	2995.39
496.974	3004.65
497.344	3016.18
497.713	3083.07
498.082	3070.41
498.452	3128.72
498.821	3104.31
499.19	3140.47
499.559	3170.07
499.928	3200.81
500.298	3198.77
500.667	3188.15
501.036	3210.52
501.405	3258.66
501.774	3248.04
502.143	3271.09
502.512	3260.92
502.88	3320.35
503.249	3338.88
503.618	3348.15
503.987	3350.86
504.356	3391.08
504.724	3337.75
505.093	3399.22
505.462	3369.61
505.83	3401.93
506.199	3429.73
506.567	3448.48
506.936	3448.93
507.304	3490.97
507.672	3490.29
508.041	3516.5
508.409	3490.06
508.777	3551.53
509.145	3600.12
509.514	3555.37
509.882	3564.41
510.25	3568.71
510.618	3616.61
510.986	3634.24
511.354	3587.69
511.722	3645.99
512.09	3694.13
512.458	3704.52
512.826	3688.02
513.193	3708.36
513.561	3719.44
513.929	3721.02
514.297	3753.79
514.664	3737.06
515.032	3758.98
515.4	3807.57
515.767	3777.74
516.135	3813.9
516.502	3765.31
516.869	3872.2
517.237	3810.96
517.604	3886.21
517.972	3844.63
518.339	3866.78
518.706	3852.31
519.073	3878.08
519.44	3869.26
519.808	3814.12
520.175	3920.56
520.542	3932.31
520.909	3929.83
521.276	3958.98
521.643	3991.75
522.009	4001.69
522.376	4002.82
522.743	4026.55
523.11	4046.89
523.477	4081.23
523.843	4073.55
524.21	4126.21
524.577	4133.89
524.943	4132.76
525.31	4143.38
525.676	4192.19
526.043	4170.72
526.409	4222.47
526.776	4219.99
527.142	4263.38
527.508	4250.04
527.874	4277.16
528.241	4271.51
528.607	4354.9
528.973	4428.8
529.339	4340.21
529.705	4389.7
530.071	4413.88
530.437	4480.77
530.803	4459.98
531.169	4473.54
531.535	4449.81
531.901	4479.87
532.267	4504.95
532.632	4548.34
532.998	4505.63
533.364	4603.71
533.73	4531.39
534.095	4631.73
534.461	4618.17
534.826	4647.32
535.192	4668.79
535.557	4690.48
535.923	4692.97
536.288	4674.21
536.653	4732.52
537.019	4739.52
537.384	4750.14
537.749	4725.29
538.114	4801.67
538.479	4798.5
538.845	4867.43
539.21	4830.59
539.575	4885.51
539.94	4909.24
540.305	4919.86
540.67	4896.13
541.034	4970.25
541.399	4985.39
541.764	4925.73
542.129	4977.48
542.494	4987.88
542.858	5062.23
543.223	5035.33
543.587	5077.82
543.952	5079.63
544.316	5136.57
544.681	5071.04
545.045	5135.67
545.41	5189.91
545.774	5199.4
546.138	5180.64
546.503	5252.28
546.867	5263.8
547.231	5326.4
547.595	5298.15
547.959	5247.98
548.324	5323.91
548.688	5348.32
549.052	5361.65
549.416	5410.01
549.779	5361.43
550.143	5385.16
550.507	5406.62
550.871	5425.38
551.235	5521.2
551.599	5532.5
551.962	5555.32
552.326	5551.93
552.689	5551.48
553.053	5581.31
553.417	5538.82
553.78	5625.15
554.143	5607.75
554.507	5649.55
554.87	5625.83
555.234	5680.51
555.597	5633.06
555.96	5636.45
556.323	5682.32
556.686	5714.19
557.05	5737.46
557.413	5755.99
557.776	5750.34
558.139	5825.82
558.502	5840.96
558.865	5772.72
559.228	5876.89
559.59	5846.84
559.953	5914.18
560.316	5913.05
560.679	5892.26
561.041	5958.93
561.404	5901.3
561.767	5995.31
562.129	5983.33
562.492	6047.74
562.854	6024.91
563.217	6050
563.579	6102.65
563.941	6109.43
564.304	6146.72
564.666	6125.25
565.028	6159.6
565.39	6134.97
565.753	6189.2
566.115	6231.01
566.477	6214.06
566.839	6207.96
567.201	6263.32
567.563	6239.82
567.925	6338.35
568.287	6360.5
568.648	6371.12
569.01	6373.6
569.372	6383.09
569.734	6437.33
570.095	6433.26
570.457	6525.92
570.819	6533.37
571.18	6516.2
571.542	6575.86
571.903	6609.08
572.265	6629.87
572.626	6656.53
572.987	6724.33
573.349	6745.57
573.71	6809.07
574.071	6798.9
574.432	6845.46
574.794	6943.76
575.155	6985.79
575.516	6980.14
575.877	7025.11
576.238	7138.78
576.599	7178.33
576.96	7233.69
577.32	7295.16
577.681	7354.59
578.042	7469.17
578.403	7482.73
578.763	7539
579.124	7668.71
579.485	7754.58
579.845	7866.67
580.206	7910.06
580.566	8030.28
580.927	8104.63
581.287	8292.65
581.648	8358.86
582.008	8467.56
582.368	8575.13
582.728	8721.56
583.089	8749.81
583.449	8981.44
583.809	9152.29
584.169	9249.23
584.529	9351.38
584.889	9628.89
585.249	9748.43
585.609	9829.33
585.969	10092.38
586.329	10245.14
586.688	10467.06
587.048	10686.48
587.408	10778.69
587.768	11014.39
588.127	11186.58
588.487	11414.38
588.846	11702.5
589.206	11817.75
589.565	12026.79
589.925	12335.48
590.284	12589.49
590.643	12779.08
591.003	13037.16
591.362	13365.51
591.721	13534.55
592.08	13782.22
592.44	14097.92
592.799	14420.17
593.158	14601.86
593.517	14838.24
593.876	15241.39
594.235	15414.27
594.593	15587.37
594.952	15905.33
595.311	16107.36
595.67	16487.69
596.029	16887.9
596.387	17185.3
596.746	17422.13
597.104	17699.63
597.463	17796.13
597.822	18274.99
598.18	18457.13
598.538	18651.92
598.897	19081.29
599.255	19159.26
599.613	19661.62
599.972	19868.16
600.33	20119
600.688	20234.71
601.046	20656.84
601.404	20951.3
601.762	21236.04
602.12	21620.89
602.478	21737.04
602.836	22100.2
603.194	22169.12
603.552	22475.33
603.91	22690.46
604.268	22976.1
604.625	23113.73
604.983	23460.61
605.341	23656.54
605.698	23962.29
606.056	24148.05
606.413	24445.22
606.771	24652.45
607.128	24996.62
607.485	25086.78
607.843	25385.99
608.2	25606.77
608.557	25763.38
608.914	25988.46
609.272	26281.1
609.629	26575.33
609.986	26745.5
610.343	26856
610.7	27261.64
611.057	27267.97
611.414	27554.29
611.771	27643.1
612.127	28040.6
612.484	28210.54
612.841	28424.55
613.198	28427.04
613.554	28627.71
613.911	28817.76
614.267	28957.42
614.624	29130.07
614.98	29411.87
615.337	29579.55
615.693	29597.85
616.05	29891.18
616.406	30103.15
616.762	30055.69
617.118	30271.28
617.475	30281.45
617.831	30500.43
618.187	30693.87
618.543	30861.32
618.899	31123.69
619.255	31224.48
619.611	31200.97
619.967	31468.31
620.323	31537.24
620.678	31517.35
621.034	31591.02
621.39	31857.23
621.746	31736.1
622.101	32263.77
622.457	32122.76
622.812	32182.42
623.168	32452.24
623.523	32659.47
623.879	32593.71
624.234	32530.43
624.589	32766.58
624.945	32757.99
625.3	32906.92
625.655	32984.43
626.01	33049.96
626.365	33232.56
626.72	33035.95
627.075	33275.5
627.43	33211.09
627.785	33331.76
628.14	33415.15
628.495	33407.02
628.85	33341.26
629.205	33371.31
629.559	33741.92
629.914	33513.45
630.269	33619.21
630.623	33635.03
630.978	33605.88
631.332	33960.9
631.687	33908.7
632.041	33717.52
632.396	33934.46
632.75	33599.78
633.104	33882.48
633.459	33771.3
633.813	33646.56
634.167	33864.18
634.521	33788.93
634.875	33923.16
635.229	33749.83
635.583	33826.22
635.937	33787.57
636.291	33817.63
636.645	33918.19
636.999	33909.6
637.352	34048.36
637.706	33766.78
638.06	34059.43
638.413	33884.97
638.767	33836.16
639.121	34033.44
639.474	33743.05
639.828	33867.57
640.181	33883.16
640.534	33897.17
640.888	33799.32
641.241	33723.39
641.594	33781.02
641.947	34077.51
642.301	33789.38
642.654	33901.02
643.007	33858.98
643.36	33915.7
643.713	33881.58
644.066	33922.71
644.419	33696.95
644.771	33473.46
645.124	33271.65
645.477	33136.29
645.83	32960.25
646.182	32817.43
646.535	32821.04
646.888	33048.83
647.24	32623.31
647.593	32884.32
647.945	32980.59
648.298	32713.25
648.65	32602.97
649.002	32690.88
649.355	32774.27
649.707	32766.81
650.059	32835.28
650.411	33136.97
650.763	33209.28
651.115	33673.45
651.467	33532.66
651.819	33491.08
652.171	33544.41
652.523	33468.48
652.875	33501.25
653.227	33400.92
653.578	33501.7
653.93	33387.13
654.282	33309.62
654.633	33322.95
654.985	33362.95
655.337	33330.18
655.688	33441.82
656.039	33454.93
656.391	33202.05
656.742	33245.21
657.094	33217.19
657.445	33362.05
657.796	33226.91
658.147	33146.46
658.498	33142.17
658.849	33272.56
659.2	33189.4
659.551	33216.51
659.902	33209.28
660.253	33101.94
660.604	33263.52
660.955	33135.61
661.306	33121.6
661.656	33194.37
662.007	33124.99
662.358	33167.7
662.708	33082.28
663.059	33156.4
663.409	33049.06
663.76	33395.49
664.11	33170.87
664.461	33259.68
664.811	33234.37
665.161	33195.95
665.511	33008.16
665.862	33112.56
666.212	33236.85
666.562	33258.77
666.912	33135.39
667.262	33187.59
667.612	33068.04
667.962	33231.43
668.312	33021.94
668.662	33270.98
669.011	33155.95
669.361	33090.64
669.711	33044.31
670.06	32936.52
670.41	32999.34
670.76	32979.23
671.109	33209.28
671.459	33004.77
671.808	32937.88
672.157	33122.73
672.507	32787.15
672.856	32857.2
673.205	32939.46
673.554	32940.81
673.904	32790.76
674.253	32944.43
674.602	32821.04
674.951	32463.31
675.3	32139.25
675.649	32750.54
675.998	32772.23
676.346	32815.39
676.695	32856.07
677.044	32691.56
677.393	32769.52
677.741	32846.81
678.09	32647.26
678.438	32639.13
678.787	32626.25
679.135	32638.22
679.484	32393.48
679.832	32515.52
680.181	32330.21
680.529	32553.03
680.877	32374.5
681.225	32357.55
681.573	32479.13
681.922	32375.63
682.27	32232.81
682.618	32288.63
682.966	32124.56
683.314	32312.36
683.661	32159.82
684.009	31974.74
684.357	31803.22
684.705	31903.1
685.053	31769.32
685.4	31859.26
685.748	31764.12
686.095	31841.63
686.443	31638.48
686.79	31685.48
687.138	31797.34
687.485	31670.11
687.832	31692.49
688.18	31561.19
688.527	31402.1
688.874	31413.17
689.221	31367.07
689.568	31255.44
689.915	31154.87
690.262	31133.86
690.609	31138.83
690.956	30956.01
691.303	30896.8
691.65	30838.72
691.997	30874.88
692.344	30591.72
692.69	30609.58
693.037	30590.37
693.383	30335.69
693.73	30388.34
694.077	30223.6
694.423	30113.54
694.769	30143.37
695.116	30151.06
695.462	30111.96
695.808	29896.37
696.155	29892.53
696.501	29867.68
696.847	29695.7
697.193	29580.9
697.539	29669.94
697.885	29481.7
698.231	29522.83
698.577	29446.44
698.923	29271.76
699.269	29135.49
699.614	29231.08
699.96	29068.6
700.306	28991.77
700.651	29048.04
700.997	28712.23
701.342	28873.12
701.688	28803.52
702.033	28678.33
702.379	28662.74
702.724	28599.69
703.069	28581.16
703.415	28405.34
703.76	28358.56
704.105	28292.8
704.45	28297.55
704.795	28118.79
705.14	27951.57
705.485	28105.69
705.83	27846.71
706.175	27997.67
706.52	27822.76
706.865	27783.66
707.209	27782.98
707.554	27786.6
707.899	27676.55
708.243	27615.08
708.588	27559.26
708.932	27230.23
709.277	27271.59
709.621	27257.57
709.966	27184.58
710.31	27146.39
710.654	26960.18
710.998	27123.11
711.342	27015.55
711.687	26880.64
712.031	26800.86
712.375	26712.28
712.719	26790.24
713.063	26800.41
713.407	26817.36
713.75	26689.91
714.094	26597.7
714.438	26419.86
714.782	26545.73
715.125	26398.84
715.469	26266.87
715.812	26286.07
716.156	26082.01
716.499	26204.72
716.843	26238.84
717.186	25993.65
717.53	26166.98
717.873	26124.95
718.216	26044.5
718.559	25850.61
718.902	25743.26
719.246	25785.52
719.589	25670.27
719.932	25701.46
720.275	25572.19
720.617	25633.21
720.96	25531.29
721.303	25587.11
721.646	25496.49
721.989	25347.79
722.331	25544.62
722.674	25488.13
723.016	25453.1
723.359	25346.44
723.701	25356.16
724.044	25165.65
724.386	25103.28
724.729	25221.24
725.071	25063.96
725.413	25093.56
725.755	25059.89
726.097	24999.55
726.439	24779.22
726.782	24898.31
727.124	24920.01
727.465	24851.99
727.807	24793.46
728.149	24826.45
728.491	24667.59
728.833	24756.4
729.175	24582.16
729.516	24688.15
729.858	24543.52
730.199	24518.89
730.541	24470.3
730.882	24463.75
731.224	24606.34
731.565	24399.34
731.906	24400.25
732.248	24455.16
732.589	24307.6
732.93	24247.26
733.271	24195.96
733.612	24302.4
733.953	24303.3
734.294	24122.97
734.635	24021.95
734.976	24052.23
735.317	23964.55
735.658	23956.42
735.999	24034.16
736.339	24038.68
736.68	24003.65
737.021	23825.57
737.361	23692.92
737.702	23936.08
738.042	23748.97
738.383	23802.98
738.723	23718.91
739.063	23696.99
739.404	23680.04
739.744	23575.64
740.084	23553.72
740.424	23622.19
740.764	23469.43
741.104	23685.01
741.444	23442.99
741.784	23487.96
742.124	23324.34
742.464	23406.6
742.804	23398.47
743.143	23304.23
743.483	23274.4
743.823	23105.82
744.162	23077.57
744.502	23309.88
744.841	23035.31
745.181	23059.94
745.52	23033.73
745.86	23094.29
746.199	23018.36
746.538	22911.02
746.877	22972.04
747.216	22910.57
747.556	22977.01
747.895	22984.69
748.234	22778.14
748.573	22767.97
748.911	22753.96
749.25	22734.3
749.589	22666.06
749.928	22662.67
750.267	22653.85
750.605	22574.99
750.944	22547.42
751.283	22493.18
751.621	22522.56
751.96	22412.28
752.298	22446.85
752.636	22331.15
752.975	22318.04
753.313	22220.64
753.651	22278.72
753.989	22157.37
754.327	22083.25
754.666	22071.04
755.004	22068.11
755.342	22116.01
755.679	21930.26
756.017	21866.3
756.355	21939.07
756.693	21705.18
757.031	21910.14
757.368	21735.01
757.706	21602.58
758.044	21620.43
758.381	21603.94
758.719	21506.09
759.056	21594.9
759.394	21506.31
759.731	21276.94
760.068	21390.38
760.405	21243.04
760.743	21154.91
761.08	21194.46
