Data from hue_190_FLMS001491_00018.txt Node
Date: Tue Feb 07 16:44:55 GMT 2017
User: dcchb
Spectrometer: FLMS00149
Trigger mode: 0
Integration Time (sec): 2.000000E-2
Scans to average: 10
Electric dark correction enabled: true
Nonlinearity correction enabled: false
Boxcar width: 0
XAxis mode: Wavelengths
Number of Pixels in Spectrum: 2048
>>>>>Begin Spectral Data<<<<<
341.393	-7.67
341.776	-7.67
342.16	-7.67
342.543	-68.68
342.927	-64.16
343.31	-65.07
343.693	-68.68
344.077	-61.91
344.46	-53.54
344.843	-41.57
345.226	-39.08
345.61	-35.24
345.993	-31.17
346.376	-20.1
346.759	12.67
347.142	-0.44
347.525	50.63
347.908	64.87
348.291	67.58
348.674	90.63
349.057	130.41
349.44	125.21
349.823	140.12
350.206	147.35
350.588	191.65
350.971	199.78
351.354	208.14
351.737	232.55
352.119	237.75
352.502	273.91
352.884	280.46
353.267	283.4
353.65	312.1
354.032	283.17
354.414	293.34
354.797	298.76
355.179	323.17
355.562	313.23
355.944	339.67
356.326	317.97
356.709	326.11
357.091	329.27
357.473	342.6
357.855	355.03
358.238	331.98
358.62	334.24
359.002	338.54
359.384	325.43
359.766	354.58
360.148	346.9
360.53	336.73
360.912	333.79
361.294	317.29
361.676	325.43
362.057	338.31
362.439	325.43
362.821	318.65
363.203	338.76
363.584	340.12
363.966	331.3
364.348	316.62
364.729	309.84
365.111	304.41
365.493	326.79
365.874	301.25
366.256	309.16
366.637	309.16
367.019	304.41
367.4	316.62
367.781	324.3
368.163	296.96
368.544	324.75
368.925	289.27
369.306	322.72
369.688	307.58
370.069	328.14
370.45	307.8
370.831	309.61
371.212	305.09
371.593	305.99
371.974	319.33
372.355	311.87
372.736	308.71
373.117	325.43
373.498	314.81
373.879	301.7
374.26	314.13
374.641	313.45
375.021	301.02
375.402	295.6
375.783	302.15
376.163	322.04
376.544	317.07
376.925	305.54
377.305	320.68
377.686	318.2
378.066	301.93
378.447	312.32
378.827	314.13
379.208	313.9
379.588	337.63
379.968	312.32
380.349	335.6
380.729	353.9
381.109	323.62
381.489	336.05
381.87	323.85
382.25	332.43
382.63	321.81
383.01	336.28
383.39	332.89
383.77	323.17
384.15	345.32
384.53	355.49
384.91	335.6
385.29	364.52
385.67	334.02
386.049	362.72
386.429	354.36
386.809	353.68
387.189	320.46
387.568	339.67
387.948	328.59
388.328	350.74
388.707	370.17
389.087	362.94
389.466	352.55
389.846	355.71
390.225	355.49
390.605	356.39
390.984	359.55
391.363	362.72
391.743	377.86
392.122	374.24
392.501	361.13
392.881	368.82
393.26	363.17
393.639	373.56
394.018	352.77
394.397	369.72
394.776	380.8
395.155	380.8
395.534	365.43
395.913	369.04
396.292	375.37
396.671	371.53
397.05	390.74
397.429	387.35
397.808	406.33
398.186	385.54
398.565	395.26
398.944	397.97
399.323	404.3
399.701	420.34
400.08	419.21
400.458	402.04
400.837	409.72
401.215	423.96
401.594	416.05
401.972	420.12
402.351	433.68
402.729	417.4
403.107	422.15
403.486	449.27
403.864	420.57
404.242	432.09
404.62	422.6
404.999	431.42
405.377	433.45
405.755	427.35
406.133	460.12
406.511	456.73
406.889	456.73
407.267	473.9
407.645	478.87
408.023	500.11
408.401	482.71
408.779	468.7
409.156	482.49
409.534	505.09
409.912	495.37
410.29	522.94
410.667	504.18
411.045	531.07
411.422	543.05
411.8	547.12
412.178	552.77
412.555	535.59
412.933	575.37
413.31	576.72
413.687	591.64
414.065	570.62
414.442	582.82
414.819	595.93
415.197	612.43
415.574	633.44
415.951	611.98
416.328	642.26
416.705	653.78
417.082	649.26
417.46	673.44
417.837	686.32
418.214	676.61
418.591	692.65
418.967	689.71
419.344	707.79
419.721	712.09
420.098	718.19
420.475	736.72
420.852	742.82
421.228	739.2
421.605	759.77
421.982	772.88
422.358	786.66
422.735	795.7
423.111	813.33
423.488	834.12
423.864	857.84
424.241	859.88
424.617	881.8
424.994	867.34
425.37	895.13
425.746	887.22
426.123	925.19
426.499	915.92
426.875	943.94
427.251	970.16
427.627	977.62
428.003	993.89
428.379	1028.69
428.756	1016.48
429.132	1005.64
429.507	1019.42
429.883	1042.7
430.259	1044.28
430.635	1077.05
431.011	1054.68
431.387	1083.6
431.763	1111.4
432.138	1136.03
432.514	1144.84
432.89	1156.37
433.265	1181.9
433.641	1220.32
434.016	1239.3
434.392	1272.3
434.767	1292.18
435.143	1280.66
435.518	1301
435.894	1333.09
436.269	1338.06
436.644	1393.65
437.02	1402.92
437.395	1390.71
437.77	1437.49
438.145	1463.03
438.52	1480.43
438.895	1504.83
439.271	1520.65
439.646	1590.03
440.021	1568.79
440.395	1590.03
440.77	1606.07
441.145	1608.79
441.52	1654.43
441.895	1646.98
442.27	1705.51
442.645	1704.83
443.019	1741.89
443.394	1752.06
443.769	1730.82
444.143	1768.33
444.518	1805.16
444.892	1775.79
445.267	1818.95
445.641	1827.08
446.016	1858.04
446.39	1873.86
446.764	1883.13
447.139	1882
447.513	1912.51
447.887	1930.58
448.262	1915.22
448.636	1992.5
449.01	1957.25
449.384	1987.53
449.758	2006.97
450.132	2036.34
450.506	2043.8
450.88	2059.85
451.254	2087.64
451.628	2112.5
452.002	2146.17
452.376	2176
452.75	2186.85
453.123	2185.95
453.497	2216.9
453.871	2247.41
454.244	2276.11
454.618	2293.97
454.992	2335.77
455.365	2298.26
455.739	2389.33
456.112	2436.56
456.486	2448.54
456.859	2432.49
457.232	2478.14
457.606	2505.71
457.979	2572.15
458.352	2573.05
458.725	2628.42
459.099	2648.53
459.472	2688.53
459.845	2745.25
460.218	2731.24
460.591	2761.75
460.964	2745.93
461.337	2823.89
461.71	2888.3
462.083	2915.19
462.456	2939.37
462.829	2980.05
463.201	2998.58
463.574	3009.2
463.947	3070.67
464.32	3128.97
464.692	3135.07
465.065	3167.61
465.438	3263.66
465.81	3292.36
466.183	3342.75
466.555	3397.89
466.928	3411.68
467.3	3425.91
467.672	3470.43
468.045	3576.64
468.417	3587.72
468.789	3611.67
469.161	3648.51
469.534	3751.33
469.906	3782.97
470.278	3814.38
470.65	3897.09
471.022	3902.74
471.394	4013.69
471.766	4077.42
472.138	4097.76
472.51	4171.43
472.882	4287.13
473.253	4260.47
473.625	4351.09
473.997	4483.06
474.369	4518.09
474.74	4569.39
475.112	4631.76
475.484	4663.39
475.855	4798.31
476.227	4843.28
476.598	4956.27
476.97	5012.99
477.341	5164.17
477.713	5185.87
478.084	5256.37
478.455	5396.48
478.827	5445.52
479.198	5608
479.569	5611.62
479.94	5734.55
480.311	5847.77
480.682	5918.95
481.053	6062.68
481.424	6153.52
481.795	6291.15
482.166	6313.75
482.537	6384.93
482.908	6507.41
483.279	6597.81
483.65	6766.62
484.021	6882.32
484.391	6954.41
484.762	7023.11
485.133	7044.8
485.503	7200.73
485.874	7365.7
486.244	7379.93
486.615	7469.65
486.985	7630.32
487.356	7792.35
487.726	7821.28
488.097	8000.48
488.467	8019.01
488.837	8190.53
489.207	8244.77
489.578	8446.57
489.948	8438.44
490.318	8539.22
490.688	8652.44
491.058	8725.89
491.428	8855.15
491.798	8922.94
492.168	9099.66
492.538	9079.1
492.908	9194.12
493.278	9340.11
493.648	9312.31
494.017	9459.2
494.387	9557.5
494.757	9612.42
495.126	9755.92
495.496	9718.85
495.866	9728.12
496.235	9826.65
496.605	9947.1
496.974	9965.85
497.344	10009.02
497.713	10127.66
498.082	10145.51
498.452	10215.11
498.821	10252.17
499.19	10310.25
499.559	10412.85
499.928	10474.09
500.298	10472.96
500.667	10578.04
501.036	10560.64
501.405	10584.14
501.774	10606.29
502.143	10661.2
502.512	10724.25
502.88	10755.89
503.249	10778.71
503.618	10851.71
503.987	10809.22
504.356	10857.81
504.724	10951.59
505.093	10881.08
505.462	11041.31
505.83	11000.18
506.199	11042.21
506.567	11174.86
506.936	11044.47
507.304	11187.29
507.672	11313.39
508.041	11275.2
508.409	11257.12
508.777	11340.96
509.145	11359.94
509.514	11387.29
509.882	11498.24
510.25	11444.91
510.618	11493.5
510.986	11438.81
511.354	11554.06
511.722	11609.2
512.09	11608.3
512.458	11566.26
512.826	11674.28
513.193	11638.13
513.561	11650.78
513.929	11760.38
514.297	11814.17
514.664	11747.28
515.032	11797.22
515.4	11857.33
515.767	11861.62
516.135	11765.81
516.502	11740.5
516.869	11902.07
517.237	11886.93
517.604	11834.73
517.972	11925.58
518.339	12000.15
518.706	11806.71
519.073	11878.35
519.44	11865.24
519.808	12015.52
520.175	11903.43
520.542	11977.55
520.909	12010.55
521.276	11926.93
521.643	12053.93
522.009	12018.46
522.376	12049.19
522.743	12116.08
523.11	12143.2
523.477	12163.54
523.843	12160.15
524.21	12190.65
524.577	12199.24
524.943	12180.26
525.31	12187.72
525.676	12296.87
526.043	12258.67
526.409	12199.24
526.776	12288.5
527.142	12247.15
527.508	12228.62
527.874	12177.77
528.241	12118.79
528.607	12213.7
528.973	12218
529.339	12128.06
529.705	12241.05
530.071	12234.95
530.437	12176.19
530.803	12187.94
531.169	12160.6
531.535	12125.8
531.901	12039.7
532.267	12108.62
532.632	12074.27
532.998	11941.62
533.364	12003.99
533.73	11985.24
534.095	11953.82
534.461	11891.45
534.826	11869.76
535.192	11850.78
535.557	11947.27
535.923	11782.3
536.288	11816.2
536.653	11803.55
537.019	11705.47
537.384	11601.74
537.749	11617.56
538.114	11529.88
538.479	11472.48
538.845	11422.76
539.21	11426.83
539.575	11416.44
539.94	11355.65
540.305	11319.04
540.67	11291.02
541.034	11225.93
541.399	11196.33
541.764	11160.85
542.129	11099.38
542.494	11001.31
542.858	11030.91
543.223	10905.04
543.587	10995.21
543.952	10888.99
544.316	10798.15
544.681	10772.61
545.045	10742.33
545.41	10747.08
545.774	10728.09
546.138	10651.71
546.503	10597.7
546.867	10534.88
547.231	10504.14
547.595	10478.83
547.959	10432.96
548.324	10269.8
548.688	10297.37
549.052	10326.52
549.416	10262.57
549.779	10129.92
550.143	10095.57
550.507	10098.51
550.871	10075.91
551.235	10055.34
551.599	10007.21
551.962	10008.34
552.326	9936.25
552.689	9944.39
553.053	9782.13
553.417	9764.73
553.78	9816.48
554.143	9765.41
554.507	9635.24
554.87	9766.31
555.234	9701.23
555.597	9595.69
555.96	9555.24
556.323	9560.67
556.686	9539.42
557.05	9460.78
557.413	9489.93
557.776	9455.36
558.139	9412.65
558.502	9377.85
558.865	9348.24
559.228	9378.3
559.59	9390.05
559.953	9340.11
560.316	9424.63
560.679	9312.76
561.041	9270.05
561.404	9322.48
561.767	9298.3
562.129	9229.15
562.492	9310.28
562.854	9310.05
563.217	9202.03
563.579	9197.74
563.941	9258.08
564.304	9220.56
564.666	9190.05
565.028	9199.32
565.39	9206.33
565.753	9174.01
566.115	9172.88
566.477	9197.96
566.839	9225.53
567.201	9293.33
567.563	9165.42
567.925	9174.01
568.287	9199.55
568.648	9214.24
569.01	9188.02
569.372	9265.31
569.734	9200.68
570.095	9246.1
570.457	9264.86
570.819	9233.22
571.18	9216.49
571.542	9329.49
571.903	9242.26
572.265	9221.92
572.626	9181.24
572.987	9187.12
573.349	9222.6
573.71	9210.85
574.071	9207.68
574.432	9199.55
574.794	9277.06
575.155	9235.7
575.516	9186.67
575.877	9264.86
576.238	9147.57
576.599	9217.4
576.96	9234.57
577.32	9236.61
577.681	9219.21
578.042	9252.43
578.403	9199.32
578.763	9174.91
579.124	9180.56
579.485	9225.53
579.845	9291.52
580.206	9175.82
580.566	9202.48
580.927	9144.63
581.287	9170.62
581.648	9205.42
582.008	9275.93
582.368	9161.81
582.728	9181.02
583.089	9169.49
583.449	9183.28
583.809	9190.28
584.169	9108.93
584.529	9189.38
584.889	9192.99
585.249	9059.66
585.609	9041.58
585.969	9091.98
586.329	9102.83
586.688	9082.71
587.048	9051.53
587.408	9000
587.768	9026.22
588.127	9010.62
588.487	9009.95
588.846	9066.89
589.206	8970.4
589.565	9022.38
589.925	8983.96
590.284	8980.79
590.643	8984.64
591.003	9027.35
591.362	8958.65
591.721	8937.41
592.08	8974.24
592.44	8923.4
592.799	8943.96
593.158	8913.68
593.517	8919.55
593.876	8945.99
594.235	8969.95
594.593	8935.37
594.952	8934.69
595.311	8880.46
595.67	8930.4
596.029	8921.14
596.387	8911.42
596.746	8903.28
597.104	8885.66
597.463	8851.53
597.822	8878.65
598.18	8938.54
598.538	8842.49
598.897	8875.26
599.255	8816.96
599.613	8940.12
599.972	8837.52
600.33	8938.54
600.688	8869.61
601.046	8949.38
601.404	8857.41
601.762	8883.62
602.12	8832.1
602.478	8896.5
602.836	8852.21
603.194	8729.73
603.552	8792.1
603.91	8805.66
604.268	8847.47
604.625	8798.88
604.983	8836.62
605.341	8760.69
605.698	8788.26
606.056	8876.62
606.413	8750.97
606.771	8756.17
607.128	8871.19
607.485	8783.06
607.843	8815.38
608.2	8819.67
608.557	8853.57
608.914	8842.95
609.272	8816.73
609.629	8885.66
609.986	8863.28
610.343	8847.47
610.7	8878.65
611.057	8869.61
611.414	8921.81
611.771	8864.41
612.127	8901.25
612.484	8860.35
612.841	8913
613.198	8913.23
613.554	8932.43
613.911	8940.57
614.267	8957.29
614.624	8936.28
614.98	8858.09
615.337	8889.72
615.693	8906.45
616.05	8899.67
616.406	8926.79
616.762	8896.05
617.118	8950.51
617.475	9018.53
617.831	8934.02
618.187	8944.41
618.543	8887.24
618.899	8933.56
619.255	8993.9
619.611	9008.36
619.967	9022.15
620.323	9042.94
620.678	8967.24
621.034	8897.63
621.39	8924.3
621.746	9004.98
622.101	9076.16
622.457	8953.68
622.812	9005.65
623.168	9025.09
623.523	8961.59
623.879	9054.69
624.234	9013.56
624.589	8994.58
624.945	8990.74
625.3	9017.63
625.655	9037.97
626.01	9045.88
626.365	8966.33
626.72	8990.51
627.075	8984.41
627.43	8965.2
627.785	9020.34
628.14	8977.18
628.495	8961.13
628.85	8955.03
629.205	8958.2
629.559	8958.2
629.914	8894.24
630.269	8929.04
630.623	8938.76
630.978	8866.22
631.332	8892.21
631.687	8917.52
632.041	8881.81
632.396	8908.25
632.75	8856.05
633.104	8928.14
633.459	8866.22
633.813	8854.92
634.167	8847.47
634.521	8854.47
634.875	8816.05
635.229	8845.21
635.583	8771.31
635.937	8722.5
636.291	8773.12
636.645	8726.34
636.999	8760.91
637.352	8758.88
637.706	8694.25
638.06	8760.24
638.413	8719.33
638.767	8685.89
639.121	8667.58
639.474	8627.58
639.828	8646.34
640.181	8619.22
640.534	8636.62
640.888	8647.7
641.241	8596.4
641.594	8602.05
641.947	8593.91
642.301	8592.33
642.654	8529.51
643.007	8661.93
643.36	8620.8
643.713	8543.52
644.066	8622.39
644.419	8487.25
644.771	8492.45
645.124	8459.23
645.477	8389.4
645.83	8341.72
646.182	8321.83
646.535	8292.45
646.888	8218.56
647.24	8317.54
647.593	8332.22
647.945	8218.56
648.298	8248.84
648.65	8233.47
649.002	8294.71
649.355	8327.7
649.707	8271.44
650.059	8292.23
650.411	8412.22
650.763	8454.26
651.115	8513.69
651.467	8452.22
651.819	8460.58
652.171	8425.33
652.523	8415.16
652.875	8494.71
653.227	8481.83
653.578	8559.11
653.93	8493.8
654.282	8423.97
654.633	8425.33
654.985	8437.08
655.337	8498.77
655.688	8447.7
656.039	8454.03
656.391	8504.42
656.742	8442.5
657.094	8470.53
657.445	8471.2
657.796	8473.24
658.147	8483.86
658.498	8475.5
658.849	8491.54
659.2	8416.74
659.551	8442.28
659.902	8494.03
660.253	8435.5
660.604	8555.95
660.955	8468.94
661.306	8501.71
661.656	8510.52
662.007	8529.51
662.358	8509.62
662.708	8509.85
663.059	8557.76
663.409	8473.24
663.76	8522.05
664.11	8523.86
664.461	8480.92
664.811	8563.18
665.161	8536.51
665.511	8573.35
665.862	8539.68
666.212	8538.32
666.562	8452.45
666.912	8502.16
667.262	8502.16
667.612	8518.89
667.962	8515.72
668.312	8546
668.662	8531.99
669.011	8480.02
669.361	8499.45
669.711	8532.22
670.06	8507.14
670.41	8404.54
670.76	8508.49
671.109	8559.11
671.459	8444.54
671.808	8487.93
672.157	8490.64
672.507	8407.93
672.856	8401.6
673.205	8450.64
673.554	8498.77
673.904	8424.65
674.253	8483.63
674.602	8455.39
674.951	8283.64
675.3	8266.92
675.649	8383.52
675.998	8423.75
676.346	8397.99
676.695	8430.98
677.044	8356.86
677.393	8402.28
677.741	8387.59
678.09	8396.63
678.438	8263.07
678.787	8344.2
679.135	8322.28
679.484	8252.23
679.832	8288.38
680.181	8157.99
680.529	8279.12
680.877	8261.72
681.225	8181.04
681.573	8286.35
681.922	8192.34
682.27	8175.17
682.618	8178.33
682.966	8089.07
683.314	8200.02
683.661	8157.99
684.009	8096.07
684.357	8089.74
684.705	8068.5
685.053	8099.91
685.4	8082.97
685.748	8014.72
686.095	8098.78
686.443	7952.8
686.79	7972.01
687.138	7986.24
687.485	7975.17
687.832	7915.96
688.18	7935.4
688.527	7940.14
688.874	7884.1
689.221	7894.04
689.568	7840.94
689.915	7806.36
690.262	7766.59
690.609	7648.4
690.956	7751.67
691.303	7739.92
691.65	7694.5
691.997	7710.55
692.344	7653.15
692.69	7601.85
693.037	7631
693.383	7428.07
693.73	7539.48
694.077	7483.21
694.423	7501.06
694.769	7470.55
695.116	7466.26
695.462	7410.89
695.808	7379.93
696.155	7363.66
696.501	7278.69
696.847	7348.3
697.193	7240.73
697.539	7253.61
697.885	7230.56
698.231	7177.68
698.577	7205.25
698.923	7159.15
699.269	7130.22
699.614	7048.87
699.96	7057.46
700.306	6997.34
700.651	7002.32
700.997	7009.55
701.342	6968.87
701.688	6925.48
702.033	6928.87
702.379	6904.92
702.724	6811.81
703.069	6859.27
703.415	6797.35
703.76	6788.54
704.105	6759.84
704.45	6753.28
704.795	6729.78
705.14	6680.74
705.485	6747.18
705.83	6603.91
706.175	6670.57
706.52	6673.74
706.865	6638.94
707.209	6634.42
707.554	6562.55
707.899	6592.38
708.243	6501.54
708.588	6518.26
708.932	6513.29
709.277	6514.65
709.621	6485.04
709.966	6452.95
710.31	6459.28
710.654	6395.78
710.998	6424.25
711.342	6424.48
711.687	6365.5
712.031	6297.48
712.375	6322.56
712.719	6344.25
713.063	6355.78
713.407	6309.68
713.75	6315.1
714.094	6280.75
714.438	6280.75
714.782	6303.58
715.125	6245.27
715.469	6239.4
715.812	6247.53
716.156	6207.76
716.499	6145.84
716.843	6219.06
717.186	6171.38
717.53	6187.2
717.873	6190.81
718.216	6132.96
718.559	6142
718.902	6122.79
719.246	6082.57
719.589	6099.06
719.932	6086.86
720.275	6094.32
720.617	6095.22
720.96	6060.65
721.303	6098.16
721.646	6109.23
721.989	6003.92
722.331	6058.84
722.674	6110.36
723.016	6064.71
723.359	6059.97
723.701	6038.73
724.044	6022.45
724.386	5990.37
724.729	6035.79
725.071	5963.93
725.413	6018.16
725.755	5991.27
726.097	6003.47
726.439	5935.45
726.782	5965.73
727.124	5972.74
727.465	5991.04
727.807	5963.25
728.149	5967.54
728.491	5977.71
728.833	5953.98
729.175	5969.12
729.516	6000.53
729.858	5944.26
730.199	5963.47
730.541	5958.95
730.882	5983.81
731.224	5982.46
731.565	5963.93
731.906	5963.7
732.248	5941.33
732.589	5910.14
732.93	5958.5
733.271	5935.9
733.612	5981.1
733.953	5958.28
734.294	5919.63
734.635	5940.2
734.976	5955.11
735.317	5865.4
735.658	5946.3
735.999	6030.36
736.339	6006.41
736.68	6018.61
737.021	6002.79
737.361	5966.64
737.702	5985.62
738.042	5999.4
738.383	6014.09
738.723	6018.39
739.063	6013.87
739.404	6048.44
739.744	5965.51
740.084	6001.66
740.424	6063.36
740.764	6054.09
741.104	6104.71
741.444	6084.15
741.784	6131.83
742.124	6082.79
742.464	6112.4
742.804	6132.28
743.143	6131.6
743.483	6156.01
743.823	6165.28
744.162	6225.39
744.502	6256.57
744.841	6206.4
745.181	6313.97
745.52	6255.89
745.86	6372.28
746.199	6395.55
746.538	6433.29
746.877	6470.8
747.216	6536.34
747.556	6603.68
747.895	6578.82
748.234	6641.65
748.573	6705.37
748.911	6756.9
749.25	6842.77
749.589	6853.85
749.928	6887.74
750.267	6958.02
750.605	6998.7
750.944	7139.49
751.283	7169.09
751.621	7288.64
751.96	7348.3
752.298	7433.94
752.636	7484.56
752.975	7559.82
753.313	7639.14
753.651	7810.66
753.989	7958.45
754.327	8018.33
754.666	8096.75
755.004	8206.35
755.342	8393.47
755.679	8468.94
756.017	8606.34
756.355	8779.44
756.693	8847.69
757.031	9094.24
757.368	9141.24
757.706	9352.99
758.044	9466.66
758.381	9565.41
758.719	9751.62
759.056	9965.18
759.394	10036.81
759.731	10199.07
760.068	10413.07
760.405	10528.55
760.743	10626.18
761.08	10872.72
761.417	11037.92
761.754	11199.27
762.091	11412.14
762.428	11566.49
762.765	11640.39
763.102	11861.62
763.438	11978.91
763.775	12167.38
764.112	12442.17
764.449	12582.51
764.785	12697.31
765.122	12863.86
765.458	13026.11
765.795	13214.36
766.131	13431.53
