Data from hue_38_FLMS001491_00024.txt Node
Date: Tue Feb 07 17:31:17 GMT 2017
User: dcchb
Spectrometer: FLMS00149
Trigger mode: 0
Integration Time (sec): 2.000000E-2
Scans to average: 10
Electric dark correction enabled: true
Nonlinearity correction enabled: false
Boxcar width: 0
XAxis mode: Wavelengths
Number of Pixels in Spectrum: 2048
>>>>>Begin Spectral Data<<<<<
341.393	-38.6
341.776	-38.6
342.16	-38.6
342.543	-53.97
342.927	-78.6
343.31	-76.34
343.693	-67.3
344.077	-41.76
344.46	-65.72
344.843	-50.8
345.226	-49.9
345.61	-17.58
345.993	-41.09
346.376	-18.94
346.759	17.44
347.142	30.1
347.525	29.65
347.908	55.18
348.291	80.27
348.674	108.29
349.057	108.51
349.44	123.88
349.823	143.54
350.206	162.98
350.588	220.38
350.971	219.47
351.354	233.48
351.737	235.97
352.119	245.01
352.502	275.74
352.884	271.67
353.267	301.96
353.65	299.47
354.032	294.72
354.414	318.68
354.797	323.2
355.179	311.45
355.562	311.45
355.944	327.72
356.326	337.21
356.709	314.84
357.091	334.27
357.473	354.16
357.855	318.68
358.238	350.99
358.62	344.89
359.002	338.56
359.384	338.34
359.766	344.67
360.148	339.47
360.53	345.8
360.912	354.84
361.294	326.14
361.676	345.12
362.057	311.9
362.439	357.77
362.821	329.3
363.203	315.06
363.584	332.91
363.966	338.34
364.348	332.46
364.729	318
365.111	330.43
365.493	307.83
365.874	327.27
366.256	321.84
366.637	322.07
367.019	330.43
367.4	315.74
367.781	336.53
368.163	317.77
368.544	338.34
368.925	311.9
369.306	318.68
369.688	309.19
370.069	332.24
370.45	316.64
370.831	328.85
371.212	315.74
371.593	327.49
371.974	334.27
372.355	352.8
372.736	317.77
373.117	326.59
373.498	320.94
373.879	320.03
374.26	336.3
374.641	316.64
375.021	336.76
375.402	339.69
375.783	334.04
376.163	317.1
376.544	337.89
376.925	320.26
377.305	324.1
377.686	345.12
378.066	329.07
378.447	336.08
378.827	350.32
379.208	336.3
379.588	352.58
379.968	357.77
380.349	322.07
380.729	346.02
381.109	356.64
381.489	360.48
381.87	367.94
382.25	336.98
382.63	348.96
383.01	343.08
383.39	328.85
383.77	345.8
384.15	347.15
384.53	352.58
384.91	341.95
385.29	348.06
385.67	338.56
386.049	365
386.429	365.68
386.809	372.46
387.189	372.01
387.568	351.9
387.948	370.65
388.328	358.9
388.707	369.3
389.087	355.29
389.466	376.98
389.846	355.97
390.225	343.08
390.605	360.71
390.984	376.53
391.363	389.41
391.743	363.2
392.122	368.17
392.501	383.54
392.881	382.41
393.26	365.23
393.639	390.31
394.018	402.07
394.397	398.9
394.776	389.86
395.155	419.69
395.534	402.29
395.913	382.41
396.292	390.31
396.671	397.55
397.05	387.83
397.429	402.52
397.808	379.02
398.186	401.84
398.565	410.65
398.944	397.09
399.323	411.78
399.701	414.95
400.08	378.79
400.458	411.33
400.837	407.94
401.215	399.58
401.594	404.55
401.972	399.81
402.351	426.7
402.729	402.29
403.107	417.43
403.486	362.29
403.864	438
404.242	411.78
404.62	405.68
404.999	401.84
405.377	417.88
405.755	439.13
406.133	437.77
406.511	430.54
406.889	449.07
407.267	435.06
407.645	440.93
408.023	429.86
408.401	447.49
408.779	448.62
409.156	455.17
409.534	463.98
409.912	454.49
410.29	462.63
410.667	439.13
411.045	466.24
411.422	456.75
411.8	482.74
412.178	465.79
412.555	483.19
412.933	493.36
413.31	485.23
413.687	496.3
414.065	487.49
414.442	488.17
414.819	491.55
415.197	496.98
415.574	521.38
415.951	502.85
416.328	520.25
416.705	492.23
417.082	511.89
417.46	519.12
417.837	516.64
418.214	502.4
418.591	535.62
418.967	526.81
419.344	522.74
419.721	526.36
420.098	532.46
420.475	516.86
420.852	528.39
421.228	539.69
421.605	539.46
421.982	535.85
422.358	542.63
422.735	554.15
423.111	560.03
423.488	564.32
423.864	562.74
424.241	587.37
424.617	556.86
424.994	568.61
425.37	590.99
425.746	587.6
426.123	583.76
426.499	595.51
426.875	589.86
427.251	608.84
427.627	602.29
428.003	614.26
428.379	620.59
428.756	644.32
429.132	615.17
429.507	632.12
429.883	653.81
430.259	640.03
430.635	647.26
431.011	647.26
431.387	651.32
431.763	654.71
432.138	671.89
432.514	676.18
432.89	680.7
433.265	698.56
433.641	717.54
434.016	685.45
434.392	699.68
434.767	724.77
435.143	707.14
435.518	722.74
435.894	728.84
436.269	708.05
436.644	727.48
437.02	717.99
437.395	745.11
437.77	721.38
438.145	761.38
438.52	760.93
438.895	753.47
439.271	764.77
439.646	794.82
440.021	778.78
440.395	788.72
440.77	785.78
441.145	811.77
441.52	832.34
441.895	794.6
442.27	818.55
442.645	798.67
443.019	827.82
443.394	817.42
443.769	810.64
444.143	830.08
444.518	826.91
444.892	818.55
445.267	831.43
445.641	875.73
446.016	848.38
446.39	844.09
446.764	877.08
447.139	882.96
447.513	854.71
447.887	880.25
448.262	863.07
448.636	873.92
449.01	889.28
449.384	873.92
449.758	899.45
450.132	938.32
450.506	912.79
450.88	935.61
451.254	930.19
451.628	940.13
452.002	935.16
452.376	954.82
452.75	969.28
453.123	966.34
453.497	962.95
453.871	987.36
454.244	972.9
454.618	1000.47
454.992	1011.32
455.365	1010.64
455.739	1039.56
456.112	1028.94
456.486	1056.06
456.859	1076.17
457.232	1060.58
457.606	1053.8
457.979	1087.92
458.352	1085.66
458.725	1128.83
459.099	1110.75
459.472	1118.88
459.845	1131.76
460.218	1157.75
460.591	1172.89
460.964	1174.7
461.337	1189.84
461.71	1191.2
462.083	1197.07
462.456	1239.33
462.829	1232.33
463.201	1244.53
463.574	1277.75
463.947	1266.9
464.32	1309.16
464.692	1333.79
465.065	1325.88
465.438	1357.07
465.81	1364.3
466.183	1355.71
466.555	1407.01
466.928	1411.3
467.3	1400.68
467.672	1447.24
468.045	1477.97
468.417	1501.7
468.789	1506.9
469.161	1534.24
469.534	1581.24
469.906	1586.44
470.278	1581.02
470.65	1605.42
471.022	1671.64
471.394	1685.65
471.766	1734.91
472.138	1709.38
472.51	1760.67
472.882	1803.61
473.253	1820.11
473.625	1874.12
473.997	1897.85
474.369	1939.2
474.74	1961.57
475.112	1990.27
475.484	2036.15
475.855	2113.66
476.227	2112.53
476.598	2216.48
476.97	2240.21
477.341	2284.73
477.713	2352.3
478.084	2378.96
478.455	2456.93
478.827	2454.67
479.198	2586.19
479.569	2597.94
479.94	2634.55
480.311	2749.8
480.682	2798.39
481.053	2885.62
481.424	2961.55
481.795	2999.06
482.166	3098.27
482.537	3143.46
482.908	3247.87
483.279	3341.42
483.65	3417.81
484.021	3481.53
484.391	3570.57
484.762	3621.87
485.133	3740.28
485.503	3761.07
485.874	3945.25
486.244	3982.54
486.615	4044.91
486.985	4187.05
487.356	4316.31
487.726	4395.63
488.097	4481.96
488.467	4537.1
488.837	4663.87
489.207	4759.24
489.578	4869.07
489.948	4967.37
490.318	5080.13
490.688	5150.64
491.058	5271.77
491.428	5417.53
491.798	5475.38
492.168	5628.59
492.538	5711.76
492.908	5834.47
493.278	5976.83
493.648	5939.32
494.017	6097.06
494.387	6201.24
494.757	6351.74
495.126	6393.77
495.496	6492.53
495.866	6593.99
496.235	6692.3
496.605	6761.9
496.974	6877.6
497.344	6953.98
497.713	7036.24
498.082	7125.73
498.452	7243.47
498.821	7327.99
499.19	7381.09
499.559	7514.42
499.928	7590.35
500.298	7687.98
500.667	7846.84
501.036	7861.08
501.405	7944.24
501.774	8015.2
502.143	8126.61
502.512	8206.83
502.88	8292.25
503.249	8273.72
503.618	8466.26
503.987	8505.36
504.356	8543.55
504.724	8645.46
505.093	8669.64
505.462	8756.65
505.83	8873.71
506.199	8986.7
506.567	9083.19
506.936	9078.67
507.304	9199.12
507.672	9278.44
508.041	9328.61
508.409	9402.51
508.777	9564.54
509.145	9606.34
509.514	9641.6
509.882	9724.98
510.25	9765.21
510.618	9846.79
510.986	9924.53
511.354	10035.94
511.722	10077.29
512.09	10216.72
512.458	10163.16
512.826	10251.98
513.193	10424.18
513.561	10416.94
513.929	10485.87
514.297	10590.5
514.664	10663.72
515.032	10728.35
515.4	10766.99
515.767	10842.47
516.135	10951.84
516.502	10784.17
516.869	11079.75
517.237	11086.3
517.604	11099.19
517.972	11213.08
518.339	11277.03
518.706	11314.32
519.073	11366.52
519.44	11387.09
519.808	11587.76
520.175	11562.68
520.542	11775.1
520.909	11818.49
521.276	11773.97
521.643	11893.06
522.009	12010.57
522.376	12118.82
522.743	12132.38
523.11	12192.26
523.477	12337.35
523.843	12421.41
524.21	12489.21
524.577	12584.8
524.943	12593.84
525.31	12694.4
525.676	12729.43
526.043	12879.93
526.409	12956.31
526.776	13117.21
527.142	13115.18
527.508	13169.87
527.874	13294.38
528.241	13302.97
528.607	13400.37
528.973	13591.55
529.339	13535.05
529.705	13683.98
530.071	13825.44
530.437	13835.84
530.803	13883.07
531.169	14014.36
531.535	14009.62
531.901	14023.63
532.267	14159.9
532.632	14279.44
532.998	14361.7
533.364	14402.6
533.73	14429.72
534.095	14471.3
534.461	14540.68
534.826	14632.65
535.192	14647.79
535.557	14818.64
535.923	14815.7
536.288	14888.24
536.653	14954.45
537.019	14874.23
537.384	14922.59
537.749	15116.93
538.114	15129.59
538.479	15128.68
538.845	15239.42
539.21	15351.28
539.575	15338.85
539.94	15373.42
540.305	15537.94
540.67	15560.09
541.034	15541.55
541.399	15675.34
541.764	15697.71
542.129	15727.09
542.494	15784.49
542.858	15971.37
543.223	16005.95
543.587	16144.02
543.952	16056.34
544.316	16116
544.681	16145.15
545.045	16122.1
545.41	16287.3
545.774	16249.56
546.138	16364.13
546.503	16384.02
546.867	16529.55
547.231	16655.42
547.595	16645.25
547.959	16714.18
548.324	16734.29
548.688	16885.47
549.052	16787.62
549.416	16902.42
549.779	16929.77
550.143	16998.47
550.507	17013.38
550.871	17098.8
551.235	17119.37
551.599	17358.23
551.962	17269.87
552.326	17398.45
552.689	17606.36
553.053	17447.72
553.417	17495.85
553.78	17708.73
554.143	17658.79
554.507	17699.69
554.87	17762.74
555.234	17901.94
555.597	17817.2
555.96	17933.58
556.323	17986.01
556.686	18004.99
557.05	18143.75
557.413	18204.99
557.776	18211.77
558.139	18384.64
558.502	18374.7
558.865	18418.77
559.228	18531.53
559.59	18597.29
559.953	18665.31
560.316	18787.8
560.679	18854.91
561.041	18954.57
561.404	18926.1
561.767	19272.76
562.129	19093.55
562.492	19293.32
562.854	19252.42
563.217	19241.8
563.579	19377.84
563.941	19456.93
564.304	19549.13
564.666	19600.88
565.028	19662.58
565.39	19688.11
565.753	19857.15
566.115	19827.54
566.477	19944.38
566.839	20050.81
567.201	20146.63
567.563	20179.4
567.925	20283.8
568.287	20312.05
568.648	20394.76
569.01	20520.86
569.372	20661.87
569.734	20514.31
570.095	20760.17
570.457	20872.71
570.819	20922.66
571.18	20919.94
571.542	21045.59
571.903	21163.33
572.265	21247.62
572.626	21415.52
572.987	21406.26
573.349	21489.19
573.71	21615.07
574.071	21644.45
574.432	21789.53
574.794	21928.96
575.155	22006.47
575.516	21977.54
575.877	22121.49
576.238	22291.66
576.599	22361.04
576.96	22516.51
577.32	22556.06
577.681	22689.16
578.042	22812.1
578.403	22881.7
578.763	23025.43
579.124	23162.82
579.485	23308.81
579.845	23593.55
580.206	23545.86
580.566	23738.63
580.927	23813.65
581.287	24078.51
581.648	24033.76
582.008	24382
582.368	24484.37
582.728	24704.03
583.089	24855.66
583.449	24989.44
583.809	25224.92
584.169	25301.75
584.529	25440.28
584.889	25823.32
585.249	25779.48
585.609	25978.79
585.969	26293.81
586.329	26342.85
586.688	26638.66
587.048	26869.17
587.408	26954.59
587.768	27199.55
588.127	27378.76
588.487	27524.52
588.846	27887.9
589.206	27903.04
589.565	28202.01
589.925	28510.93
590.284	28512.51
590.643	28723.13
591.003	29078.37
591.362	29372.38
591.721	29585.25
592.08	29669.54
592.44	30007.84
592.799	30146.82
593.158	30367.38
593.517	30507.71
593.876	30750.65
594.235	30949.74
594.593	31062.95
594.952	31325.55
595.311	31468.14
595.67	31772.09
596.029	32087.79
596.387	32297.27
596.746	32557.15
597.104	32433.77
597.463	32662.91
597.822	32935.67
598.18	33104.26
598.538	33183.58
598.897	33651.13
599.255	33537.69
599.613	34103.55
599.972	34279.59
600.33	34341.96
600.688	34465.58
601.046	34659.24
601.404	34935.85
601.762	34925
602.12	35390.75
602.478	35464.42
602.836	35632.78
603.194	35620.57
603.552	35828.93
603.91	35837.29
604.268	36204.29
604.625	36222.14
604.983	36481.79
605.341	36529.03
605.698	36815.35
606.056	36910.71
606.413	37007.2
606.771	37250.36
607.128	37413.07
607.485	37340.53
607.843	37519.06
608.2	37853.51
608.557	37936.45
608.914	37953.17
609.272	38300.28
609.629	38290.11
609.986	38601.51
610.343	38540.05
610.7	38827.27
611.057	38758.35
611.414	38895.29
611.771	39038.11
612.127	39371.66
612.484	39372.79
612.841	39598.32
613.198	39643.75
613.554	39666.34
613.911	39980.69
614.267	40000.12
614.624	40054.13
614.98	40159.89
615.337	40513.78
615.693	40470.39
616.05	40385.42
616.406	40833.77
616.762	40757.84
617.118	40791.29
617.475	40881.68
617.831	40930.94
618.187	41139.3
618.543	41219.75
618.899	41370.93
619.255	41373.19
619.611	41386.98
619.967	41565.73
620.323	41725.95
620.678	41603.92
621.034	41526.86
621.39	41772.96
621.746	41645.28
622.101	42098.37
622.457	41956.68
622.812	42073.96
623.168	42125.49
623.523	42265.82
623.879	42302.43
624.234	42181.76
624.589	42328.65
624.945	42359.83
625.3	42439.38
625.655	42574.97
626.01	42620.16
626.365	42639.15
626.72	42497
627.075	42508.76
627.43	42513.5
627.785	42504.01
628.14	42768.64
628.495	42686.15
628.85	42758.01
629.205	42575.87
629.559	42908.74
629.914	42718.92
630.269	42823.32
630.623	42709.88
630.978	42666.27
631.332	42910.78
631.687	43070.1
632.041	42718.02
632.396	42937.9
632.75	42738.13
633.104	42939.7
633.459	42535.65
633.813	42731.35
634.167	42771.12
634.521	42701.29
634.875	42851.35
635.229	42750.33
635.583	42652.03
635.937	42639.6
636.291	42665.36
636.645	42520.73
636.999	42737
637.352	42775.87
637.706	42413.84
638.06	42700.39
638.413	42535.65
638.767	42540.39
639.121	42551.24
639.474	42428.98
639.828	42514.18
640.181	42433.95
640.534	42509.21
640.888	42381.75
641.241	42203.45
641.594	42404.58
641.947	42518.02
642.301	42482.99
642.654	42440.96
643.007	42364.8
643.36	42424.46
643.713	42346.05
644.066	42475.54
644.419	42017.47
644.771	41979.96
645.124	41551.94
645.477	41496.8
645.83	41203.25
646.182	41170.03
646.535	41065.86
646.888	41237.15
647.24	40915.35
647.593	41229.47
647.945	41074.67
648.298	40972.98
648.65	40984.05
649.002	40786.54
649.355	40957.16
649.707	40914.67
650.059	41134.78
650.411	41458.84
650.763	41528.67
651.115	42048.2
651.467	41716.23
651.819	41826.97
652.171	41808.21
652.523	41671.04
652.875	41623.35
653.227	41525.96
653.578	41839.85
653.93	41743.8
654.282	41494.09
654.633	41418.39
654.985	41671.26
655.337	41636.24
655.688	41521.21
656.039	41739.96
656.391	41300.88
656.742	41509.46
657.094	41433.76
657.445	41593.07
657.796	41515.33
658.147	41411.16
658.498	41417.26
658.849	41432.4
659.2	41426.75
659.551	41353.31
659.902	41426.98
660.253	41445.51
660.604	41431.72
660.955	41143.37
661.306	41373.87
661.656	41359.41
662.007	41297.94
662.358	41220.2
662.708	41292.97
663.059	41365.73
663.409	41194.89
663.76	41354.66
664.11	41383.14
664.461	41401.67
664.811	41303.36
665.161	41331.84
665.511	41201.44
665.862	41411.16
666.212	41379.97
666.562	41355.79
666.912	41237.38
667.262	41192.63
667.612	41214.1
667.962	41297.94
668.312	41123.93
668.662	41425.39
669.011	41263.59
669.361	41144.5
669.711	41085.29
670.06	41067.21
670.41	40988.12
670.76	40993.09
671.109	41177.04
671.459	41030.38
671.808	40949.02
672.157	41086.87
672.507	40905.18
672.856	40869.48
673.205	41051.84
673.554	41132.97
673.904	40829.7
674.253	41073.76
674.602	40979.76
674.951	40416.61
675.3	40199.21
675.649	40865.63
675.998	40839.42
676.346	40715.81
676.695	41065.86
677.044	40585.64
677.393	40719.42
677.741	40760.55
678.09	40732.3
678.438	40617.96
678.787	40570.5
679.135	40691.85
679.484	40332.09
679.832	40614.12
680.181	40316.04
680.529	40359.89
680.877	40365.53
681.225	40344.52
681.573	40477.4
681.922	40269.72
682.27	40107.24
682.618	40223.39
682.966	40091.87
683.314	40050.97
683.661	39979.56
684.009	39897.07
684.357	39760.13
684.705	39739.11
685.053	39787.24
685.4	39685.33
685.748	39601.71
686.095	39499.57
686.443	39348.61
686.79	39368.95
687.138	39464.77
687.485	39376.18
687.832	39147.04
688.18	39234.72
688.527	39103.42
688.874	39067.26
689.221	38999.92
689.568	38936.19
689.915	38787.95
690.262	39013.93
690.609	38807.61
690.956	38692.36
691.303	38574.85
691.65	38459.82
691.997	38475.41
692.344	38230.22
692.69	38233.39
693.037	38191.58
693.383	37964.02
693.73	38000.4
694.077	37827.97
694.423	37851.93
694.769	37616.45
695.116	37548.21
695.462	37722.67
695.808	37370.13
696.155	37334.65
696.501	37219.4
696.847	37285.84
697.193	36924.04
697.539	37005.4
697.885	36833.2
698.231	36765.63
698.577	36754.33
698.923	36768.34
699.269	36509.36
699.614	36490.16
699.96	36282.03
700.306	36312.99
700.651	36136.72
700.997	36052.65
701.342	36007.23
701.688	35955.71
702.033	35738.09
702.379	35760.91
702.724	35581.25
703.069	35681.14
703.415	35390.52
703.76	35577.86
704.105	35525.44
704.45	35319.79
704.795	35186.01
705.14	35073.47
705.485	35147.14
705.83	34886.81
706.175	34971.33
706.52	34892.68
706.865	34832.35
707.209	34775.17
707.554	34608.62
707.899	34819.47
708.243	34444.56
708.588	34358.46
708.932	34160.5
709.277	34152.82
709.621	34282.76
709.966	34008.87
710.31	34043.44
710.654	33860.62
710.998	33792.15
711.342	33860.39
711.687	33661.98
712.031	33524.13
712.375	33451.59
712.719	33561.42
713.063	33396.9
713.407	33642.32
713.75	33071.04
714.094	33378.37
714.438	33144.03
714.782	33297.02
715.125	33048.66
715.469	33154.42
715.812	32954.2
716.156	32726.41
716.499	32818.39
716.843	32844.38
717.186	32549.24
717.53	32734.1
717.873	32639.41
718.216	32601.9
718.559	32466.99
718.902	32200.55
719.246	32301.11
719.589	32247.56
719.932	32223.38
720.275	32205.75
720.617	32082.81
720.96	32031.06
721.303	32140.89
721.646	32001.69
721.989	31775.03
722.331	31804.63
722.674	31705.88
723.016	31857.06
723.359	31704.52
723.701	31712.88
724.044	31508.82
724.386	31461.14
724.729	31595.82
725.071	31384.98
725.413	31545.88
725.755	31371.87
726.097	31281.71
726.439	31101.82
726.782	31059.56
727.124	31255.72
727.465	31159.45
727.807	31076.06
728.149	30960.13
728.491	31002.62
728.833	30996.74
729.175	30853.02
729.516	30727.37
729.858	30733.47
730.199	30828.61
730.541	30760.82
730.882	30640.14
731.224	30720.59
731.565	30469.75
731.906	30575.06
732.248	30480.82
732.589	30263.88
732.93	30335.97
733.271	30367.61
733.612	30303.43
733.953	30325.57
734.294	30191.11
734.635	30219.36
734.976	30114.5
735.317	29971.68
735.658	30012.59
735.999	29990.44
736.339	29899.82
736.68	29971.01
737.021	29888.75
737.361	29677.91
737.702	29976.43
738.042	29791.58
738.383	29693.72
738.723	29749.99
739.063	29476.1
739.404	29730.56
739.744	29526.95
740.084	29465.03
740.424	29550.68
740.764	29500.74
741.104	29474.97
741.444	29307.52
741.784	29343.9
742.124	29341.42
742.464	29359.04
742.804	29081.31
743.143	29141.87
743.483	29276.11
743.823	29010.13
744.162	29086.51
744.502	29086.06
744.841	28919.73
745.181	29010.13
745.52	28936.91
745.86	28954.54
746.199	28806.74
746.538	28776.46
746.877	28946.17
747.216	28745.5
747.556	28586.86
747.895	28601.55
748.234	28646.29
748.573	28578.95
748.911	28533.76
749.25	28478.16
749.589	28270.94
749.928	28380.54
750.267	28381.44
750.605	28272.29
750.944	28148.45
751.283	28028.68
751.621	28200.43
751.96	27934.22
752.298	28011.74
752.636	28032.07
752.975	27839.54
753.313	27845.86
753.651	27844.96
753.989	27633.89
754.327	27714.12
754.666	27531.97
755.004	27554.12
755.342	27627.79
755.679	27552.76
756.017	27356.16
756.355	27379.44
756.693	27299.44
