Data from hue_270_FLMS001491_00036.txt Node
Date: Tue Feb 07 15:57:06 GMT 2017
User: dcchb
Spectrometer: FLMS00149
Trigger mode: 0
Integration Time (sec): 2.000000E-2
Scans to average: 10
Electric dark correction enabled: true
Nonlinearity correction enabled: false
Boxcar width: 0
XAxis mode: Wavelengths
Number of Pixels in Spectrum: 2048
>>>>>Begin Spectral Data<<<<<
341.393	-6.45
341.776	-6.45
342.16	-6.45
342.543	-55.27
342.927	-79.67
343.31	-74.25
343.693	-74.25
344.077	-79.67
344.46	-61.59
344.843	-73.12
345.226	-46.68
345.61	-0.58
345.993	-18.66
346.376	9.59
346.759	1.23
347.142	7.1
347.525	52.98
347.908	64.73
348.291	92.98
348.674	86.88
349.057	113.32
349.44	113.54
349.823	145.41
350.206	161.9
350.588	171.62
350.971	189.02
351.354	204.39
351.737	231.73
352.119	239.19
352.502	260.88
352.884	243.26
353.267	246.65
353.65	288
354.032	305.18
354.414	288.23
354.797	301.33
355.179	312.86
355.562	320.54
355.944	312.41
356.326	308.11
356.709	313.76
357.091	319.64
357.473	338.4
357.855	331.16
358.238	325.29
358.62	321.67
359.002	342.91
359.384	337.94
359.766	338.62
360.148	334.1
360.53	338.62
360.912	307.89
361.294	326.64
361.676	329.81
362.057	329.13
362.439	294.33
362.821	302.46
363.203	323.03
363.584	314.21
363.966	285.52
364.348	302.69
364.729	304.05
365.111	297.04
365.493	320.09
365.874	315.12
366.256	303.59
366.637	300.43
367.019	269.47
367.4	296.59
367.781	289.81
368.163	311.28
368.544	287.77
368.925	304.05
369.306	319.64
369.688	299.53
370.069	296.36
370.45	302.92
370.831	318.06
371.212	309.92
371.593	310.83
371.974	304.72
372.355	299.53
372.736	289.81
373.117	290.94
373.498	290.94
373.879	300.43
374.26	297.72
374.641	285.06
375.021	289.58
375.402	308.34
375.783	298.17
376.163	306.76
376.544	324.38
376.925	318.06
377.305	309.92
377.686	315.34
378.066	329.13
378.447	338.17
378.827	311.05
379.208	301.56
379.588	297.04
379.968	332.52
380.349	328.45
380.729	322.35
381.109	325.74
381.489	348.34
381.87	329.13
382.25	335.23
382.63	327.77
383.01	320.99
383.39	337.72
383.77	337.04
384.15	316.47
384.53	331.84
384.91	343.37
385.29	347.21
385.67	330.49
386.049	323.25
386.429	351.5
386.809	338.85
387.189	353.76
387.568	339.52
387.948	342.69
388.328	350.15
388.707	351.05
389.087	350.82
389.466	358.06
389.846	330.03
390.225	358.51
390.605	377.94
390.984	346.98
391.363	359.86
391.743	366.87
392.122	366.87
392.501	367.55
392.881	365.74
393.26	372.07
393.639	364.84
394.018	371.61
394.397	393.53
394.776	368.68
395.155	377.26
395.534	369.58
395.913	376.81
396.292	380.43
396.671	372.97
397.05	385.4
397.429	393.76
397.808	381.78
398.186	370.03
398.565	390.6
398.944	396.92
399.323	390.82
399.701	389.24
400.08	373.2
400.458	409.13
400.837	415.91
401.215	401.22
401.594	390.37
401.972	409.58
402.351	399.18
402.729	405.74
403.107	419.75
403.486	421.56
403.864	414.1
404.242	420.43
404.62	418.17
404.999	413.87
405.377	430.37
405.755	451.84
406.133	434.21
406.511	454.32
406.889	468.79
407.267	458.17
407.645	453.42
408.023	460.2
408.401	459.52
408.779	446.41
409.156	462.91
409.534	488.22
409.912	479.86
410.29	492.29
410.667	483.93
411.045	490.48
411.422	520.09
411.8	517.83
412.178	537.26
412.555	527.32
412.933	533.64
413.31	546.75
413.687	532.97
414.065	530.48
414.442	561.89
414.819	547.43
415.197	571.16
415.574	557.37
415.951	570.93
416.328	574.55
416.705	587.2
417.082	594.66
417.46	587.65
417.837	602.34
418.214	618.84
418.591	615.22
418.967	618.16
419.344	627.65
419.721	637.14
420.098	645.51
420.475	651.61
420.852	684.83
421.228	678.05
421.605	674.88
421.982	680.08
422.358	683.47
422.735	704.04
423.111	704.26
423.488	716.01
423.864	722.34
424.241	749.01
424.617	772.73
424.994	748.1
425.37	740.64
425.746	795.11
426.123	780.87
426.499	772.73
426.875	805.05
427.251	810.47
427.627	860.42
428.003	836.01
428.379	857.25
428.756	830.36
429.132	878.49
429.507	867.42
429.883	902
430.259	898.83
430.635	912.17
431.011	904.71
431.387	948.55
431.763	937.02
432.138	947.64
432.514	976.8
432.89	970.24
433.265	985.38
433.641	968.43
434.016	1004.14
434.392	1017.25
434.767	1054.53
435.143	1065.83
435.518	1076
435.894	1091.6
436.269	1115.32
436.644	1136.57
437.02	1130.69
437.395	1125.49
437.77	1144.7
438.145	1176.34
438.52	1205.04
438.895	1208.65
439.271	1213.63
439.646	1251.59
440.021	1286.84
440.395	1264.25
440.77	1259.05
441.145	1292.04
441.52	1311.93
441.895	1317.35
442.27	1331.14
442.645	1361.64
443.019	1337.24
443.394	1349.89
443.769	1388.99
444.143	1382.21
444.518	1406.84
444.892	1391.7
445.267	1408.65
445.641	1412.72
446.016	1419.27
446.39	1448.2
446.764	1466.73
447.139	1444.81
447.513	1471.47
447.887	1458.59
448.262	1467.18
448.636	1477.12
449.01	1530.23
449.384	1539.72
449.758	1511.7
450.132	1540.85
450.506	1529.32
450.88	1558.48
451.254	1544.92
451.628	1601.64
452.002	1589.89
452.376	1621.07
452.75	1613.62
453.123	1632.15
453.497	1661.3
453.871	1655.65
454.244	1681.86
454.618	1687.96
454.992	1682.09
455.365	1699.26
455.739	1759.37
456.112	1774.97
456.486	1772.03
456.859	1787.85
457.232	1824.01
457.606	1792.37
457.979	1829.88
458.352	1847.06
458.725	1852.71
459.099	1874.63
459.472	1929.99
459.845	1918.69
460.218	1920.27
460.591	1936.55
460.964	1964.57
461.337	1982.19
461.71	2038.92
462.083	2052.47
462.456	2028.97
462.829	2069.2
463.201	2093.83
463.574	2106.48
463.947	2144.68
464.32	2154.84
464.692	2196.2
465.065	2174.5
465.438	2181.96
465.81	2251.79
466.183	2241.85
466.555	2282.07
466.928	2285.91
467.3	2292.02
467.672	2349.19
468.045	2365.69
468.417	2429.41
468.789	2373.14
469.161	2386.25
469.534	2474.16
469.906	2511.9
470.278	2508.73
470.65	2517.32
471.022	2610.2
471.394	2609.07
471.766	2631.67
472.138	2626.47
472.51	2707.82
472.882	2717.09
473.253	2748.05
473.625	2805.45
473.997	2810.87
474.369	2850.65
474.74	2865.79
475.112	2916.86
475.484	3006.57
475.855	2996.86
476.227	3014.03
476.598	3074.37
476.97	3088.38
477.341	3148.72
477.713	3224.42
478.084	3216.74
478.455	3259.22
478.827	3278.43
479.198	3353.91
479.569	3392.1
479.94	3447.69
480.311	3458.09
480.682	3528.82
481.053	3606.33
481.424	3652.43
481.795	3656.05
482.166	3706.89
482.537	3736.05
482.908	3797.29
483.279	3845.65
483.65	3887.91
484.021	3913.22
484.391	3959.77
484.762	4017.62
485.133	4009.71
485.503	4075.92
485.874	4158.18
486.244	4160.44
486.615	4203.6
486.985	4222.13
487.356	4319.76
487.726	4338.06
488.097	4416.48
488.467	4461.22
488.837	4506.87
489.207	4583.48
489.578	4611.5
489.948	4626.19
490.318	4674.1
490.688	4719.07
491.058	4760.43
491.428	4774.21
491.798	4858.73
492.168	4894.66
492.538	4968.78
492.908	4935.11
493.278	5010.36
493.648	5025.5
494.017	5085.16
494.387	5107.08
494.757	5131.49
495.126	5147.76
495.496	5166.29
495.866	5190.7
496.235	5256.91
496.605	5249.68
496.974	5309.11
497.344	5394.08
497.713	5376
498.082	5403.8
498.452	5404.02
498.821	5484.7
499.19	5409.22
499.559	5526.96
499.928	5506.85
500.298	5542.1
500.667	5600.18
501.036	5580.52
501.405	5645.15
501.774	5579.84
502.143	5632.49
502.512	5654.19
502.88	5763.34
503.249	5668.42
503.618	5703.45
503.987	5688.99
504.356	5805.37
504.724	5781.42
505.093	5811.92
505.462	5836.1
505.83	5822.09
506.199	5897.12
506.567	5950.68
506.936	5945.48
507.304	5938.47
507.672	6024.8
508.041	5980.51
508.409	6037.45
508.777	6092.59
509.145	6096.66
509.514	6050.11
509.882	6076.78
510.25	6152.25
510.618	6136.43
510.986	6032.48
511.354	6149.77
511.722	6179.82
512.09	6208.98
512.458	6211.91
512.826	6211.69
513.193	6177.11
513.561	6221.4
513.929	6291.46
514.297	6265.47
514.664	6282.65
515.032	6309.99
515.4	6340.5
515.767	6383.66
516.135	6362.64
516.502	6229.99
516.869	6394.96
517.237	6359.25
517.604	6344.79
517.972	6385.92
518.339	6411.23
518.706	6377.78
519.073	6389.54
519.44	6485.58
519.808	6452.36
520.175	6489.19
520.542	6490.55
520.909	6563.77
521.276	6538.91
521.643	6557.21
522.009	6562.86
522.376	6569.19
522.743	6624.33
523.11	6601.51
523.477	6709.53
523.843	6620.26
524.21	6679.02
524.577	6751.79
524.943	6710.43
525.31	6720.15
525.676	6831.11
526.043	6803.54
526.409	6811.22
526.776	6814.83
527.142	6813.48
527.508	6824.55
527.874	6894.83
528.241	6911.78
528.607	6890.77
528.973	6977.77
529.339	6891.67
529.705	6962.85
530.071	7026.35
530.437	6983.42
530.803	7026.13
531.169	7026.58
531.535	6998.56
531.901	7036.75
532.267	7024.77
532.632	7036.98
532.998	7050.53
533.364	7145.67
533.73	7062.74
534.095	7158.33
534.461	7061.38
534.826	7138.89
535.192	7114.94
535.557	7180.25
535.923	7124.88
536.288	7138.67
536.653	7189.29
537.019	7133.24
537.384	7152.23
537.749	7183.41
538.114	7144.09
538.479	7124.88
538.845	7158.33
539.21	7126.01
539.575	7180.25
539.94	7176.18
540.305	7194.94
540.67	7224.32
541.034	7193.36
541.399	7215.5
541.764	7198.1
542.129	7220.47
542.494	7245.78
542.858	7275.16
543.223	7158.33
543.587	7236.52
543.952	7232.45
544.316	7257.08
544.681	7239.23
545.045	7295.95
545.41	7293.01
545.774	7311.09
546.138	7278.1
546.503	7304.99
546.867	7310.42
547.231	7325.1
547.595	7290.08
547.959	7274.71
548.324	7307.7
548.688	7279.23
549.052	7300.25
549.416	7349.28
549.779	7305.67
550.143	7274.94
550.507	7328.27
550.871	7308.16
551.235	7315.39
551.599	7320.36
551.962	7352
552.326	7361.49
552.689	7334.6
553.053	7358.78
553.417	7272.9
553.78	7412.33
554.143	7359.68
554.507	7429.73
554.87	7447.81
555.234	7443.97
555.597	7412.33
555.96	7440.36
556.323	7452.33
556.686	7433.58
557.05	7477.19
557.413	7516.29
557.776	7546.79
558.139	7450.3
558.502	7479.45
558.865	7489.39
559.228	7540.92
559.59	7557.19
559.953	7548.83
560.316	7658.2
560.679	7596.06
561.041	7627.02
561.404	7667.24
561.767	7730.07
562.129	7699.78
562.492	7711.08
562.854	7780.01
563.217	7774.13
563.579	7807.13
563.941	7845.54
564.304	7864.52
564.666	7867.91
565.028	7883.51
565.39	7853.68
565.753	7905.2
566.115	7936.84
566.477	7988.82
566.839	7985.88
567.201	8000.57
567.563	8045.99
567.925	8168.7
568.287	8096.84
568.648	8132.77
569.01	8177.51
569.372	8187.45
569.734	8151.07
570.095	8172.09
570.457	8287.34
570.819	8239.2
571.18	8303.84
571.542	8318.75
571.903	8317.17
572.265	8403.49
572.626	8377.96
572.987	8347
573.349	8377.28
573.71	8455.24
574.071	8488.01
574.432	8525.98
574.794	8573.66
575.155	8543.6
575.516	8566.43
575.877	8621.57
576.238	8661.11
576.599	8675.58
576.96	8637.39
577.32	8632.87
577.681	8726.42
578.042	8675.13
578.403	8784.5
578.763	8753.77
579.124	8812.3
579.485	8904.5
579.845	8912.63
580.206	8960.99
580.566	8906.53
580.927	8968
581.287	8996.47
581.648	8952.18
582.008	9037.15
582.368	9041.22
582.728	9064.27
583.089	9078.28
583.449	9121.89
583.809	9176.81
584.169	9191.27
584.529	9108.79
584.889	9298.84
585.249	9245.28
585.609	9180.65
585.969	9332.51
586.329	9304.94
586.688	9334.77
587.048	9374.09
587.408	9334.32
587.768	9376.35
588.127	9439.4
588.487	9486.18
588.846	9586.06
589.206	9459.96
589.565	9499.96
589.925	9614.31
590.284	9632.84
590.643	9560.07
591.003	9614.76
591.362	9690.47
591.721	9673.06
592.08	9716
592.44	9692.5
592.799	9777.92
593.158	9647.53
593.517	9734.98
593.876	9864.02
594.235	9776.56
594.593	9939.72
594.952	9849.33
595.311	9840.29
595.67	9890.91
596.029	9948.99
596.387	9946.5
596.746	9918.48
597.104	9950.8
597.463	9892.95
597.822	10024.02
598.18	9998.25
598.538	9972.72
598.897	9986.73
599.255	9969.78
599.613	10098.82
599.972	10053.62
600.33	10157.35
600.688	10082.09
601.046	10153.28
601.404	10122.77
601.762	10167.29
602.12	10320.96
602.478	10249.32
602.836	10222.88
603.194	10200.06
603.552	10171.13
603.91	10176.33
604.268	10245.71
604.625	10231.24
604.983	10261.98
605.341	10203.45
605.698	10298.81
606.056	10376.32
606.413	10332.26
606.771	10356.21
607.128	10286.38
607.485	10299.49
607.843	10269.66
608.2	10310.34
608.557	10365.02
608.914	10378.36
609.272	10404.12
609.629	10440.28
609.986	10516.88
610.343	10373.61
610.7	10518.24
611.057	10448.41
611.414	10450.45
611.771	10509.2
612.127	10533.16
612.484	10495.64
612.841	10560.5
613.198	10530.67
613.554	10509.88
613.911	10642.08
614.267	10567.05
614.624	10540.39
614.98	10610.89
615.337	10621.97
615.693	10668.52
616.05	10640.27
616.406	10671
616.762	10618.35
617.118	10665.36
617.475	10663.55
617.831	10697.44
618.187	10706.94
618.543	10689.76
618.899	10752.58
619.255	10711.68
619.611	10716.2
619.967	10720.49
620.323	10794.39
620.678	10748.06
621.034	10674.39
621.39	10781.06
621.746	10696.99
622.101	10853.82
622.457	10739.03
622.812	10744.22
623.168	10839.81
623.523	10722.3
623.879	10905.12
624.234	10788.74
624.589	10723.43
624.945	10850.21
625.3	10805.92
625.655	10808.4
626.01	10771.34
626.365	10788.06
626.72	10768.63
627.075	10690.21
627.43	10781.96
627.785	10667.84
628.14	10722.53
628.495	10708.74
628.85	10702.64
629.205	10760.27
629.559	10728.4
629.914	10696.77
630.269	10693.6
630.623	10735.41
630.978	10684.56
631.332	10728.86
631.687	10758.69
632.041	10649.76
632.396	10699.7
632.75	10626.94
633.104	10705.81
633.459	10678.69
633.813	10604.79
634.167	10652.7
634.521	10628.97
634.875	10654.96
635.229	10594.85
635.583	10529.54
635.937	10487.28
636.291	10557.56
636.645	10565.24
636.999	10501.29
637.352	10539.71
637.706	10465.81
638.06	10526.6
638.413	10393.27
638.767	10441.86
639.121	10402.54
639.474	10354.4
639.828	10355.53
640.181	10348.53
640.534	10365.25
640.888	10331.58
641.241	10387.4
641.594	10375.87
641.947	10374.29
642.301	10340.17
642.654	10362.31
643.007	10363.22
643.36	10346.49
643.713	10269.21
644.066	10332.26
644.419	10269.66
644.771	10290.9
645.124	10112.15
645.477	10142.21
645.83	10120.51
646.182	9996.67
646.535	10004.81
646.888	10018.59
647.24	9993.06
647.593	9998.03
647.945	9974.3
648.298	9918.93
648.65	9913.51
649.002	9969.55
649.355	9965.71
649.707	9945.37
650.059	10041.64
650.411	10094.3
650.763	10122.09
651.115	10285.93
651.467	10238.02
651.819	10164.13
652.171	10185.59
652.523	10143.56
652.875	10185.59
653.227	10163
653.578	10284.12
653.93	10195.31
654.282	10115.54
654.633	10112.6
654.985	10128.19
655.337	10195.99
655.688	10170.23
656.039	10228.08
656.391	10094.75
656.742	10092.71
657.094	10157.35
657.445	10130.23
657.796	10098.14
658.147	10096.78
658.498	10134.52
658.849	10146.05
659.2	10134.52
659.551	10146.72
659.902	10138.59
660.253	10145.82
660.604	10104.01
660.955	10073.51
661.306	10185.59
661.656	10113.96
662.007	10173.84
662.358	10158.7
662.708	10193.5
663.059	10163.9
663.409	10064.69
663.76	10150.79
664.11	10151.7
664.461	10163.67
664.811	10188.98
665.161	10185.37
665.511	10183.79
665.862	10188.31
666.212	10170.45
666.562	10162.54
666.912	10202.09
667.262	10112.38
667.612	10098.59
667.962	10177.46
668.312	10194.86
668.662	10285.48
669.011	10115.99
669.361	10137.23
669.711	10122.32
670.06	10103.56
670.41	10145.82
670.76	10114.18
671.109	10136.78
671.459	10110.79
671.808	10092.04
672.157	10181.98
672.507	10043.45
672.856	10043
673.205	10095.88
673.554	10096.33
673.904	10129.55
674.253	10026.05
674.602	10062.43
674.951	9930.01
675.3	9835.55
675.649	10091.36
675.998	10047.52
676.346	10008.2
676.695	9978.59
677.044	9892.04
677.393	10029.67
677.741	9965.71
678.09	9927.07
678.438	9909.89
678.787	9933.17
679.135	9943.57
679.484	9846.62
679.832	9933.4
680.181	9851.59
680.529	9901.53
680.877	9852.27
681.225	9884.58
681.573	9901.08
681.922	9850.01
682.27	9785.6
682.618	9774.53
682.966	9766.4
683.314	9804.13
683.661	9826.73
684.009	9727.75
684.357	9683.23
684.705	9622.9
685.053	9680.97
685.4	9615.44
685.748	9593.29
686.095	9586.29
686.443	9559.17
686.79	9603.69
687.138	9541.99
687.485	9595.55
687.832	9496.57
688.18	9516.91
688.527	9424.26
688.874	9452.05
689.221	9417.7
689.568	9380.64
689.915	9364.82
690.262	9318.27
690.609	9307.42
690.956	9291.15
691.303	9252.96
691.65	9183.36
691.997	9193.3
692.344	9144.72
692.69	9130.03
693.037	9094.1
693.383	9017.94
693.73	8995.34
694.077	8961.9
694.423	8988.79
694.769	8964.38
695.116	8936.14
695.462	8915.12
695.808	8847.1
696.155	8835.57
696.501	8826.76
696.847	8853.88
697.193	8781.56
697.539	8760.55
697.885	8660.21
698.231	8655.69
698.577	8705.41
698.923	8670.38
699.269	8597.16
699.614	8518.52
699.96	8554.68
700.306	8518.74
700.651	8438.97
700.997	8361.23
701.342	8301.8
701.688	8333.21
702.033	8359.88
702.379	8330.95
702.724	8368.24
703.069	8365.08
703.415	8217.96
703.76	8273.1
704.105	8231.52
704.45	8241.24
704.795	8119.89
705.14	8108.13
705.485	8109.94
705.83	8134.8
706.175	8107.46
706.52	8061.58
706.865	7982.94
707.209	8021.81
707.554	7981.81
707.899	7986.56
708.243	7989.04
708.588	7944.3
708.932	7928.93
709.277	7885.99
709.621	7925.31
709.966	7825.2
710.31	7877.18
710.654	7692.78
710.998	7787.92
711.342	7740.23
711.687	7745.21
712.031	7663.85
712.375	7681.25
712.719	7692.55
713.063	7653.91
713.407	7728.26
713.75	7617.75
714.094	7646.9
714.438	7643.29
714.782	7623.63
715.125	7546.79
715.469	7610.75
715.812	7552.67
716.156	7476.51
716.499	7496.17
716.843	7448.49
717.186	7498.66
717.53	7452.33
717.873	7530.97
718.216	7485.33
718.559	7472.67
718.902	7368.04
719.246	7385.67
719.589	7314.03
719.932	7337.08
720.275	7333.92
720.617	7350.87
720.96	7316.97
721.303	7297.76
721.646	7303.64
721.989	7261.83
722.331	7321.04
722.674	7307.25
723.016	7270.42
723.359	7284.43
723.701	7249.4
724.044	7218.21
724.386	7199.23
724.729	7297.53
725.071	7314.26
725.413	7262.05
725.755	7241.26
726.097	7191.32
726.439	7106.13
726.782	7178.89
727.124	7168.72
727.465	7197.88
727.807	7152.23
728.149	7137.76
728.491	7187.93
728.833	7197.2
729.175	7111.1
729.516	7132.11
729.858	7115.62
730.199	7153.81
730.541	7157.88
730.882	7197.65
731.224	7205.79
731.565	7141.83
731.906	7180.7
732.248	7141.83
732.589	7116.52
732.93	7105.9
733.271	7142.74
733.612	7143.41
733.953	7112.68
734.294	7131.21
734.635	7119.91
734.976	7104.54
735.317	7133.02
735.658	7112
735.999	7157.88
736.339	7096.18
736.68	7184.09
737.021	7136.41
737.361	7054.15
737.702	7124.66
738.042	7124.43
738.383	7118.78
738.723	7142.96
739.063	7116.07
739.404	7198.78
739.744	7098.9
740.084	7121.72
740.424	7140.02
740.764	7187.71
741.104	7224.09
741.444	7183.19
741.784	7163.98
742.124	7153.81
742.464	7254.15
742.804	7248.72
743.143	7201.94
743.483	7303.41
743.823	7237.2
744.162	7262.96
744.502	7340.7
744.841	7406.91
745.181	7333.47
745.52	7419.79
745.86	7420.47
746.199	7453.69
746.538	7403.97
746.877	7489.17
747.216	7601.48
747.556	7530.52
747.895	7624.76
748.234	7662.95
748.573	7656.62
748.911	7766
749.25	7756.05
749.589	7832.89
749.928	7855.71
750.267	7950.85
750.605	7990.62
750.944	8076.27
751.283	8093.67
751.621	8190.17
751.96	8239.66
752.298	8313.78
752.636	8436.94
752.975	8449.59
753.313	8539.08
753.651	8627.22
753.989	8716.25
754.327	8773.65
754.666	8847.78
755.004	9038.05
755.342	9156.92
755.679	9241.44
756.017	9323.7
756.355	9479.4
756.693	9552.39
757.031	9653.18
757.368	9801.2
757.706	9882.78
758.044	10065.82
758.381	10200.51
758.719	10317.57
759.056	10530.67
759.394	10579.93
759.731	10751
760.068	10867.16
760.405	11021.05
760.743	11120.48
761.08	11263.98
761.417	11360.7
761.754	11610.19
762.091	11747.13
762.428	11830.75
762.765	11940.12
763.102	12179.21
763.438	12247.01
763.775	12498.53
764.112	12651.52
764.449	12799.76
764.785	12957.05
765.122	13048.8
765.458	13141.9
