Data from hue_22_FLMS001491_00040.txt Node
Date: Tue Feb 07 17:10:02 GMT 2017
User: dcchb
Spectrometer: FLMS00149
Trigger mode: 0
Integration Time (sec): 2.000000E-2
Scans to average: 10
Electric dark correction enabled: true
Nonlinearity correction enabled: false
Boxcar width: 0
XAxis mode: Wavelengths
Number of Pixels in Spectrum: 2048
>>>>>Begin Spectral Data<<<<<
341.393	-15.95
341.776	-15.95
342.16	-15.95
342.543	-71.54
342.927	-81.48
343.31	-63.85
343.693	-78.77
344.077	-78.32
344.46	-56.62
344.843	-51.88
345.226	-29.05
345.61	-39
345.993	15.92
346.376	-5.32
346.759	-2.16
347.142	24.51
347.525	41.91
347.908	64.28
348.291	81.68
348.674	79.64
349.057	97.05
349.44	134.56
349.823	162.13
350.206	176.59
350.588	193.54
350.971	185.18
351.354	216.59
351.737	244.84
352.119	254.33
352.502	285.97
352.884	274.22
353.267	291.16
353.65	290.49
354.032	305.85
354.414	328
354.797	321.45
355.179	332.75
355.562	330.71
355.944	317.38
356.326	321.67
356.709	327.32
357.091	350.37
357.473	358.51
357.855	337.04
358.238	338.17
358.62	332.52
359.002	359.41
359.384	342.01
359.766	345.85
360.148	347.66
360.53	326.19
360.912	330.94
361.294	326.64
361.676	325.06
362.057	339.75
362.439	312.63
362.821	327.32
363.203	316.02
363.584	297.94
363.966	335.68
364.348	329.81
364.729	331.84
365.111	335.01
365.493	321.67
365.874	312.41
366.256	327.77
366.637	336.59
367.019	328.68
367.4	304.72
367.781	323.71
368.163	311.05
368.544	300.43
368.925	303.59
369.306	319.86
369.688	324.61
370.069	333.2
370.45	317.38
370.831	310.83
371.212	312.63
371.593	288.9
371.974	327.32
372.355	305.18
372.736	326.42
373.117	321.67
373.498	321.45
373.879	327.1
374.26	324.84
374.641	324.38
375.021	317.15
375.402	327.55
375.783	335.23
376.163	342.24
376.544	335.68
376.925	334.1
377.305	324.61
377.686	337.27
378.066	310.15
378.447	340.43
378.827	322.35
379.208	330.49
379.588	341.78
379.968	326.64
380.349	323.71
380.729	347.66
381.109	335.68
381.489	348.56
381.87	338.4
382.25	346.76
382.63	342.46
383.01	347.21
383.39	352.86
383.77	329.81
384.15	338.4
384.53	364.38
384.91	359.64
385.29	355.34
385.67	349.24
386.049	350.37
386.429	370.48
386.809	350.15
387.189	372.29
387.568	360.09
387.948	377.72
388.328	336.81
388.707	365.96
389.087	362.8
389.466	359.19
389.846	370.94
390.225	353.08
390.605	363.93
390.984	351.73
391.363	376.13
391.743	390.15
392.122	380.43
392.501	351.73
392.881	361.22
393.26	372.29
393.639	355.8
394.018	383.82
394.397	387.43
394.776	380.2
395.155	388.56
395.534	372.97
395.913	371.84
396.292	381.78
396.671	391.95
397.05	388.11
397.429	396.7
397.808	384.27
398.186	380.88
398.565	408.22
398.944	397.83
399.323	405.51
399.701	412.52
400.08	395.79
400.458	407.77
400.837	417.49
401.215	407.55
401.594	397.15
401.972	423.36
402.351	431.05
402.729	409.58
403.107	424.72
403.486	407.77
403.864	412.97
404.242	426.75
404.62	428.34
404.999	418.39
405.377	440.09
405.755	429.69
406.133	433.31
406.511	445.51
406.889	447.54
407.267	433.76
407.645	429.01
408.023	431.73
408.401	434.44
408.779	450.93
409.156	442.8
409.534	467.66
409.912	469.24
410.29	447.77
410.667	450.48
411.045	474.66
411.422	474.89
411.8	451.61
412.178	464.72
412.555	480.54
412.933	485.51
413.31	461.33
413.687	483.25
414.065	488
414.442	482.12
414.819	497.94
415.197	503.59
415.574	503.81
415.951	504.04
416.328	519.63
416.705	525.73
417.082	511.27
417.46	509.92
417.837	518.05
418.214	532.51
418.591	494.32
418.967	519.18
419.344	530.48
419.721	516.92
420.098	527.09
420.475	558.05
420.852	519.41
421.228	535.45
421.605	542.01
421.982	541.33
422.358	548.33
422.735	571.16
423.111	566.86
423.488	572.74
423.864	553.98
424.241	568.67
424.617	585.85
424.994	559.18
425.37	574.77
425.746	575
426.123	587.43
426.499	570.71
426.875	601.21
427.251	607.54
427.627	586.3
428.003	617.71
428.379	617.94
428.756	616.81
429.132	606.18
429.507	615.68
429.883	612.06
430.259	616.13
430.635	632.85
431.011	659.97
431.387	632.85
431.763	634.88
432.138	657.93
432.514	679.18
432.89	670.14
433.265	684.37
433.641	693.87
434.016	706.29
434.392	690.25
434.767	721.21
435.143	704.49
435.518	708.78
435.894	689.35
436.269	720.98
436.644	751.04
437.02	728.22
437.395	755.33
437.77	743.81
438.145	755.33
438.52	777.25
438.895	757.82
439.271	786.29
439.646	786.74
440.021	797.37
440.395	774.32
440.77	775.22
441.145	812.05
441.52	770.7
441.895	767.99
442.27	791.26
442.645	817.48
443.019	821.32
443.394	807.54
443.769	822.9
444.143	824.03
444.518	824.48
444.892	831.26
445.267	829.68
445.641	842.79
446.016	849.12
446.39	827.87
446.764	824.03
447.139	888.89
447.513	889.57
447.887	855.9
448.262	890.02
448.636	857.93
449.01	901.32
449.384	902.67
449.758	890.7
450.132	911.94
450.506	932.28
450.88	903.13
451.254	899.28
451.628	917.81
452.002	920.07
452.376	934.09
452.75	926.18
453.123	954.65
453.497	978.15
453.871	978.15
454.244	962.79
454.618	977.02
454.992	984.48
455.365	1021.77
455.739	1036.91
456.112	1021.99
456.486	1033.74
456.859	1038.49
457.232	1078.94
457.606	1067.42
457.979	1069.9
458.352	1095.66
458.725	1100.63
459.099	1116.91
459.472	1125.72
459.845	1123.01
460.218	1132.72
460.591	1127.07
460.964	1167.98
461.337	1145.83
461.71	1209.56
462.083	1188.54
462.456	1217.47
462.829	1190.58
463.201	1232.38
463.574	1257.47
463.947	1277.35
464.32	1268.99
464.692	1266.51
465.065	1308.99
465.438	1331.82
465.81	1316.67
466.183	1364.13
466.555	1388.31
466.928	1370.46
467.3	1392.38
467.672	1385.83
468.045	1449.1
468.417	1419.04
468.789	1431.7
469.161	1465.82
469.534	1504.01
469.906	1540.4
470.278	1532.26
470.65	1548.08
471.022	1559.15
471.394	1607.51
471.766	1636.21
472.138	1633.28
472.51	1659.04
472.882	1665.37
473.253	1696.1
473.625	1706.95
473.997	1781.07
474.369	1789.66
474.74	1809.54
475.112	1830.79
475.484	1880.28
475.855	1909.2
476.227	1935.19
476.598	2003.44
476.97	1978.35
477.341	2020.16
477.713	2082.08
478.084	2095.86
478.455	2131.79
478.827	2187.16
479.198	2198.91
479.569	2245.01
479.94	2297.21
480.311	2313.48
480.682	2393.93
481.053	2459.24
481.424	2467.6
481.795	2530.43
482.166	2572.46
482.537	2578.79
482.908	2659.24
483.279	2641.61
483.65	2725.45
484.021	2795.96
484.391	2855.39
484.762	2862.85
485.133	2873.02
485.503	2932.23
485.874	3007.7
486.244	3004.99
486.615	3058.78
486.985	3115.5
487.356	3212.9
487.726	3202.27
488.097	3263.74
488.467	3275.49
488.837	3370.86
489.207	3448.6
489.578	3448.82
489.948	3535.6
490.318	3562.49
490.688	3612.43
491.058	3673.45
491.428	3747.12
491.798	3780.34
492.168	3824.63
492.538	3856.49
492.908	3901.69
493.278	3968.36
493.648	3967.68
494.017	4007.68
494.387	4046.32
494.757	4142.59
495.126	4167.67
495.496	4200.44
495.866	4195.69
496.235	4261.46
496.605	4317.27
496.974	4368.12
497.344	4369.93
497.713	4390.04
498.082	4432.52
498.452	4500.55
498.821	4495.57
499.19	4531.73
499.559	4564.5
499.928	4611.05
500.298	4631.39
500.667	4689.92
501.036	4669.35
501.405	4734.66
501.774	4748.22
502.143	4819.41
502.512	4790.93
502.88	4834.1
503.249	4862.12
503.618	4901.44
503.987	4910.25
504.356	4943.7
504.724	4912.96
505.093	5010.14
505.462	5051.49
505.83	5050.59
506.199	5108.67
506.567	5161.32
506.936	5190.47
507.304	5198.15
507.672	5223.46
508.041	5189.11
508.409	5243.8
508.777	5327.87
509.145	5340.3
509.514	5341.88
509.882	5333.52
510.25	5414.87
510.618	5449
510.986	5399.96
511.354	5461.65
511.722	5520.41
512.09	5574.64
512.458	5563.34
512.826	5630.23
513.193	5663
513.561	5622.55
513.929	5698.93
514.297	5755.2
514.664	5737.12
515.032	5778.03
515.4	5767.86
515.767	5840.4
516.135	5868.65
516.502	5813.05
516.869	5895.76
517.237	5956.1
517.604	5918.81
517.972	5990
518.339	6035.87
518.706	6004.23
519.073	5997
519.44	6035.19
519.808	6102.76
520.175	6107.96
520.542	6218.01
520.909	6218.01
521.276	6246.26
521.643	6233.38
522.009	6269.09
522.376	6278.58
522.743	6344.34
523.11	6371.23
523.477	6429.99
523.843	6461.85
524.21	6529.64
524.577	6552.47
524.943	6572.13
525.31	6631.34
525.676	6649.64
526.043	6742.52
526.409	6761.5
526.776	6779.81
527.142	6761.95
527.508	6841.05
527.874	6907.26
528.241	6850.99
528.607	6951.33
528.973	7016.64
529.339	7014.38
529.705	6999.91
530.071	7119.23
530.437	7158.33
530.803	7171.89
531.169	7241.72
531.535	7220.93
531.901	7248.5
532.267	7286.69
532.632	7320.36
532.998	7394.03
533.364	7404.88
533.73	7402.62
534.095	7469.96
534.461	7489.85
534.826	7513.8
535.192	7594.25
535.557	7636.73
535.923	7580.69
536.288	7642.16
536.653	7720.8
537.019	7598.32
537.384	7733.23
537.749	7796.05
538.114	7758.31
538.479	7785.2
538.845	7791.08
539.21	7852.77
539.575	7814.58
539.94	7931.64
540.305	7923.96
540.67	8005.54
541.034	8043.05
541.399	8023.39
541.764	8071.07
542.129	8163.27
542.494	8118.98
542.858	8168.7
543.223	8169.6
543.587	8238.75
543.952	8175.48
544.316	8298.86
544.681	8336.38
545.045	8356.72
545.41	8379.99
545.774	8379.09
546.138	8438.52
546.503	8458.41
546.867	8420.44
547.231	8551.06
547.595	8542.93
547.959	8616.6
548.324	8568.91
548.688	8616.82
549.052	8704.95
549.416	8644.17
549.779	8668.12
550.143	8716.48
550.507	8780.43
550.871	8819.98
551.235	8791.05
551.599	8893.2
551.962	8856.59
552.326	8905.85
552.689	8979.52
553.053	8970.48
553.417	9006.87
553.78	9063.82
554.143	9082.57
554.507	9107.66
554.87	9109.92
555.234	9228.1
555.597	9174.32
555.96	9239.86
556.323	9260.87
556.686	9265.39
557.05	9363.92
557.413	9376.12
557.776	9419.51
558.139	9473.3
558.502	9436.69
558.865	9517.81
559.228	9520.98
559.59	9586.74
559.953	9545.38
560.316	9669.68
560.679	9652.5
561.041	9650.24
561.404	9747.64
561.767	9857.92
562.129	9776.34
562.492	9822.89
562.854	9812.5
563.217	9878.48
563.579	9988.99
563.941	9970.91
564.304	9983.57
564.666	10106.5
565.028	10054.98
565.39	10110.34
565.753	10148.76
566.115	10194.86
566.477	10243.22
566.839	10266.04
567.201	10344.23
567.563	10319.15
567.925	10374.29
568.287	10408.64
568.648	10421.52
569.01	10461.97
569.372	10524.57
569.734	10479.37
570.095	10617.9
570.457	10636.66
570.819	10702.64
571.18	10697.9
571.542	10805.69
571.903	10839.14
572.265	10929.98
572.626	10988.51
572.987	11006.59
573.349	11031.22
573.71	11069.19
574.071	11146.92
574.432	11157.55
574.794	11396.41
575.155	11314.15
575.516	11293.14
575.877	11416.75
576.238	11545.56
576.599	11499.01
576.96	11605.44
577.32	11677.53
577.681	11751.88
578.042	11873.91
578.403	11877.53
578.763	12014.02
579.124	12020.35
579.485	12188.03
579.845	12301.47
580.206	12309.83
580.566	12444.07
580.927	12661.46
581.287	12723.15
581.648	12744.62
582.008	13034.33
582.368	13105.29
582.728	13289.47
583.089	13445.85
583.449	13482.91
583.809	13659.63
584.169	13805.16
584.529	13993.4
584.889	14199.95
585.249	14456.89
585.609	14453.5
585.969	14767.39
586.329	14868.86
586.688	15094.62
587.048	15243.31
587.408	15501.39
587.768	15696.18
588.127	15940.92
588.487	16082.39
588.846	16485.99
589.206	16641.02
589.565	16775.03
589.925	17212.53
590.284	17399.87
590.643	17699.07
591.003	18015.9
591.362	18369.33
591.721	18507.86
592.08	18767.29
592.44	19166.15
592.799	19404.33
593.158	19583.09
593.517	19859.24
593.876	20385.55
594.235	20450.63
594.593	20751.19
594.952	21094.91
595.311	21267.79
595.67	21768.79
596.029	22103.02
596.387	22487.19
596.746	22727.64
597.104	22900.97
597.463	23206.27
597.822	23606.71
598.18	23802.64
598.538	24163.98
598.897	24535.5
599.255	24649.17
599.613	25328.25
599.972	25470.62
600.33	25776.37
600.688	26079.41
601.046	26443.92
601.404	26818.38
601.762	26977.69
602.12	27526.61
602.478	27685.7
602.836	27897.22
603.194	28083.65
603.552	28350.99
603.91	28561.16
604.268	29058.09
604.625	29201.59
604.983	29630.51
605.341	29841.35
605.698	30098.06
606.056	30546.41
606.413	30848.78
606.771	31101.88
607.128	31316.56
607.485	31508.65
607.843	31837.23
608.2	32103.89
608.557	32455.97
608.914	32684.89
609.272	33070.42
609.629	33302.27
609.986	33570.74
610.343	33570.06
610.7	34043.05
611.057	34160.1
611.414	34170.27
611.771	34632.63
612.127	34930.48
612.484	34974.32
612.841	35395.55
613.198	35386.97
613.554	35698.14
613.911	36047.51
614.267	36175.64
614.624	36296.32
614.98	36518.69
615.337	36773.14
615.693	37042.51
616.05	37145.56
616.406	37489.06
616.762	37389.4
617.118	37623.52
617.475	37839.1
617.831	38067.57
618.187	38180.79
618.543	38423.72
618.899	38669.14
619.255	38842.24
619.611	38781.9
619.967	39213.98
620.323	39280.2
620.678	39366.97
621.034	39293.3
621.39	39600.41
621.746	39569.68
622.101	40097.35
622.457	39858.03
622.812	40122.89
623.168	40242.43
623.523	40385.7
623.879	40548.41
624.234	40282.66
624.589	40625.02
624.945	40610.1
625.3	40836.54
625.655	40792.7
626.01	40877.44
626.365	40996.08
626.72	41136.87
627.075	41194.95
627.43	41173.71
627.785	41163.76
628.14	41365.11
628.495	41401.95
628.85	41576.86
629.205	41472.91
629.559	41793.35
629.914	41643.98
630.269	41799.9
630.623	41669.29
630.978	41692.79
631.332	41835.38
631.687	42000.35
632.041	41935.95
632.396	42107.47
632.75	41867.02
633.104	41912.67
633.459	41940.92
633.813	42015.27
634.167	41927.81
634.521	42082.16
634.875	42172.1
635.229	42038.99
635.583	41767.59
635.937	42036.06
636.291	41982.5
636.645	41998.77
636.999	41914.93
637.352	42144.75
637.706	41933.01
638.06	42195.15
638.413	41903.63
638.767	41996.51
639.121	42087.58
639.474	42016.17
639.828	41987.92
640.181	41989.73
640.534	41961.71
640.888	42033.8
641.241	41836.29
641.594	41927.36
641.947	41986.34
642.301	42058.65
642.654	42020.46
643.007	41958.09
643.36	42001.93
643.713	41989.28
644.066	42231.53
644.419	41763.97
644.771	41658.89
645.124	41272.01
645.477	41060.26
645.83	41080.37
646.182	40890.78
646.535	40882.64
646.888	40891
647.24	40740.04
647.593	41034.27
647.945	40799.03
648.298	40653.49
648.65	40618.69
649.002	40555.42
649.355	40620.73
649.707	40745.02
650.059	40923.54
650.411	41192.46
650.763	41180.03
651.115	41627.93
651.467	41573.92
651.819	41535.96
652.171	41478.33
652.523	41446.01
652.875	41446.92
653.227	41272.91
653.578	41696.86
653.93	41558.78
654.282	41317.2
654.633	41323.98
654.985	41511.78
655.337	41461.61
655.688	41359.46
656.039	41603.98
656.391	41300.26
656.742	41275.62
657.094	41352.68
657.445	41435.39
657.796	41318.79
658.147	41239.92
658.498	41364.43
658.849	41345
659.2	41188.85
659.551	41128.06
659.902	41350.2
660.253	41287.83
660.604	41343.87
660.955	41270.43
661.306	41314.94
661.656	41347.71
662.007	41214.16
662.358	41243.08
662.708	41214.16
663.059	41181.84
663.409	41015.52
663.76	41300.48
664.11	41325.34
664.461	41363.08
664.811	41287.83
665.161	41159.92
665.511	41074.27
665.862	41214.83
666.212	41220.48
666.562	41284.21
666.912	41045.57
667.262	41103.88
667.612	41096.87
667.962	41156.3
668.312	41011.9
668.662	41263.65
669.011	41179.36
669.361	41005.12
669.711	41088.74
670.06	41043.77
670.41	40964.9
670.76	40962.64
671.109	41130.77
671.459	40887.39
671.808	40938.68
672.157	41134.61
672.507	40858.46
672.856	40817.33
673.205	40901.85
673.554	41002.41
673.904	40935.29
674.253	41086.93
674.602	40902.98
674.951	40407.85
675.3	40190.68
675.649	40837.67
675.998	40655.3
676.346	40802.87
676.695	40863.88
677.044	40726.94
677.393	40722.87
677.741	40794.28
678.09	40711.12
678.438	40669.09
678.787	40695.98
679.135	40590.22
679.484	40298.02
679.832	40506.6
680.181	40252.83
680.529	40474.97
680.877	40312.94
681.225	40236.78
681.573	40465.7
681.922	40267.97
682.27	40017.8
682.618	40154.3
682.966	39959.05
683.314	40131.47
683.661	39955.66
684.009	39848.54
684.357	39743.91
684.705	39690.81
685.053	39822.55
685.4	39771.48
685.748	39498.95
686.095	39495.78
686.443	39328.78
686.79	39399.29
687.138	39531.94
687.485	39425.28
687.832	39272.74
688.18	39311.61
688.527	39066.64
688.874	39074.78
689.221	38992.52
689.568	38895.8
689.915	38795.46
690.262	39011.28
690.609	38634.11
690.956	38547.33
691.303	38517.05
691.65	38343.5
691.997	38495.36
692.344	38098.76
692.69	38199.77
693.037	38111.87
693.383	37953.9
693.73	38002.04
694.077	37725.66
694.423	37844.08
694.769	37638.66
695.116	37586.91
695.462	37514.37
695.808	37455.84
696.155	37373.13
696.501	37273.02
696.847	37281.15
697.193	36943.08
697.539	37058.33
697.885	36820.37
698.231	36687.72
698.577	36761.84
698.923	36641.85
699.269	36485.24
699.614	36341.06
699.96	36226.94
700.306	36301.74
700.651	36106.72
700.997	36039.38
701.342	35941.75
701.688	35813.85
702.033	35816.33
702.379	35788.31
702.724	35726.39
703.069	35641.65
703.415	35360.98
703.76	35300.19
704.105	35358.94
704.45	35421.54
704.795	35169.8
705.14	34977.03
705.485	34758.96
705.83	34995.11
706.175	34832.86
706.52	34786.3
706.865	34769.58
707.209	34610.49
707.554	34583.37
707.899	34575.69
708.243	34379.76
708.588	34404.39
708.932	34181.35
709.277	34101.58
709.621	34095.47
709.966	33895.25
710.31	34086.43
710.654	33687.35
710.998	33826.1
711.342	33806.44
711.687	33669.72
712.031	33355.83
712.375	33403.97
712.719	33507.24
713.063	33479.22
713.407	33438.77
713.75	33326
714.094	33281.94
714.438	32990.19
714.782	33118.55
715.125	33048.95
715.469	33046.24
715.812	32901.83
716.156	32724.44
716.499	32828.16
716.843	32695.28
717.186	32499.58
717.53	32685.12
717.873	32742.74
718.216	32657.09
718.559	32536.87
718.902	32281.74
719.246	32308.18
719.589	32171.46
719.932	32110.44
720.275	32138.01
720.617	32164
720.96	31989.54
721.303	32104.34
721.646	32041.29
721.989	31811.69
722.331	31946.15
722.674	31772.82
723.016	31882.88
723.359	31675.65
723.701	31750.9
724.044	31553.17
724.386	31352.27
724.729	31562.66
725.071	31466.39
725.413	31430.91
725.755	31321.76
726.097	31126.74
726.439	31075.21
726.782	31102.33
727.124	31166.29
727.465	31006.06
727.807	30901.43
728.149	30945.27
728.491	30984.59
728.833	30948.44
729.175	30677.26
729.516	30811.94
729.858	30747.54
730.199	30808.1
730.541	30623.93
730.882	30520.88
731.224	30777.59
731.565	30543.93
731.906	30488.79
732.248	30595
732.589	30372.86
732.93	30282.47
733.271	30212.86
733.612	30295.8
733.953	30272.98
734.294	30178.74
734.635	30208.12
734.976	30233.65
735.317	30002.47
735.658	30132.41
735.999	30075.24
736.339	30001.8
736.68	30113.88
737.021	29826.89
737.361	29798.19
737.702	29964.96
738.042	29773.1
738.383	29677.06
738.723	29765.64
739.063	29638.87
739.404	29707.11
739.744	29536.72
740.084	29550.96
740.424	29537.4
740.764	29520.68
741.104	29589.38
741.444	29402.49
741.784	29330.4
742.124	29317.07
742.464	29383.51
742.804	29286.33
743.143	29202.49
743.483	29277.07
743.823	29173.57
744.162	29037.75
744.502	29131.54
744.841	28903.29
745.181	29092.22
745.52	28980.35
745.86	28875.05
746.199	28819.45
746.538	28730.42
746.877	28882.96
747.216	28915.5
747.556	28830.98
747.895	28769.96
748.234	28598.22
748.573	28527.03
748.911	28614.04
749.25	28553.25
749.589	28468.05
749.928	28547.37
750.267	28459.92
750.605	28489.29
750.944	28333.82
751.283	28232.58
751.621	28284.55
751.96	28139.7
752.298	28054.73
752.636	28182.41
752.975	28021.51
753.313	27946.93
753.651	27979.48
753.989	27879.82
754.327	27744.91
754.666	27734.51
755.004	27789.2
755.342	27772.25
755.679	27640.73
756.017	27465.14
756.355	27587.4
756.693	27507.62
757.031	27581.29
757.368	27310.12
757.706	27206.62
758.044	27236.67
758.381	27264.01
758.719	27174.3
759.056	27172.49
759.394	27121.19
759.731	26988.32
