Data from hue_200_FLMS001491_00059.txt Node
Date: Tue Feb 07 16:43:39 GMT 2017
User: dcchb
Spectrometer: FLMS00149
Trigger mode: 0
Integration Time (sec): 2.000000E-2
Scans to average: 10
Electric dark correction enabled: true
Nonlinearity correction enabled: false
Boxcar width: 0
XAxis mode: Wavelengths
Number of Pixels in Spectrum: 2048
>>>>>Begin Spectral Data<<<<<
341.393	5.65
341.776	5.65
342.16	5.65
342.543	-53.56
342.927	-60.56
343.31	-67.12
343.693	-82.48
344.077	-61.47
344.46	-71.64
344.843	-37.74
345.226	-33.67
345.61	-35.25
345.993	-4.52
346.376	5.2
346.759	9.94
347.142	12.2
347.525	52.2
347.908	31.64
348.291	77.74
348.674	82.26
349.057	122.71
349.44	103.27
349.823	145.08
350.206	152.99
350.588	165.65
350.971	184.63
351.354	218.53
351.737	237.73
352.119	242.03
352.502	269.15
352.884	281.8
353.267	262.82
353.65	278.86
354.032	294.23
354.414	328.13
354.797	298.52
355.179	305.75
355.562	305.3
355.944	330.16
356.326	332.87
356.709	322.48
357.091	326.32
357.473	351.18
357.855	326.32
358.238	340.56
358.62	337.39
359.002	326.55
359.384	330.84
359.766	332.87
360.148	343.49
360.53	339.2
360.912	332.42
361.294	318.18
361.676	341.46
362.057	340.78
362.439	327.22
362.821	334.45
363.203	327.22
363.584	302.82
363.966	312.76
364.348	308.92
364.729	310.73
365.111	307.56
365.493	323.16
365.874	297.39
366.256	315.47
366.637	310.5
367.019	295.59
367.4	328.58
367.781	300.11
368.163	295.36
368.544	277.96
368.925	310.5
369.306	290.39
369.688	295.36
370.069	307.11
370.45	292.42
370.831	321.57
371.212	292.42
371.593	308.01
371.974	287.22
372.355	302.59
372.736	309.14
373.117	315.47
373.498	296.49
373.879	303.27
374.26	309.14
374.641	315.92
375.021	300.33
375.402	308.92
375.783	319.31
376.163	294.46
376.544	299.65
376.925	307.56
377.305	313.44
377.686	327.45
378.066	336.26
378.447	322.25
378.827	312.31
379.208	326.09
379.588	351.63
379.968	324.51
380.349	325.64
380.729	325.42
381.109	316.38
381.489	312.76
381.87	338.97
382.25	335.58
382.63	339.65
383.01	358.63
383.39	331.29
383.77	311.4
384.15	335.36
384.53	324.29
384.91	341.69
385.29	359.99
385.67	339.2
386.049	353.44
386.429	350.73
386.809	355.24
387.189	335.81
387.568	341.23
387.948	361.35
388.328	344.17
388.707	361.8
389.087	352.76
389.466	356.37
389.846	360.22
390.225	376.26
390.605	354.79
390.984	353.89
391.363	350.73
391.743	378.75
392.122	358.41
392.501	353.44
392.881	372.42
393.26	374.45
393.639	376.49
394.018	350.05
394.397	381.23
394.776	377.84
395.155	381.46
395.534	373.55
395.913	396.6
396.292	383.27
396.671	378.75
397.05	392.76
397.429	388.01
397.808	402.02
398.186	410.84
398.565	420.55
398.944	406.77
399.323	385.3
399.701	397.28
400.08	406.54
400.458	401.57
400.837	402.93
401.215	415.58
401.594	422.14
401.972	414.23
402.351	414.45
402.729	410.61
403.107	430.5
403.486	424.4
403.864	438.63
404.242	444.73
404.62	453.55
404.999	450.16
405.377	442.47
405.755	478.63
406.133	435.69
406.511	429.14
406.889	491.06
407.267	450.61
407.645	451.97
408.023	495.81
408.401	492.19
408.779	502.81
409.156	489.93
409.534	509.59
409.912	545.52
410.29	517.27
410.667	531.51
411.045	540.1
411.422	533.55
411.8	539.87
412.178	576.48
412.555	563.15
412.933	584.84
413.31	586.65
413.687	587.78
414.065	604.28
414.442	643.37
414.819	649.47
415.197	628.23
415.574	642.02
415.951	652.64
416.328	659.42
416.705	678.63
417.082	687.44
417.46	660.1
417.837	684.28
418.214	694.67
418.591	707.33
418.967	704.61
419.344	730.6
419.721	745.52
420.098	758.85
420.475	765.63
420.852	778.74
421.228	780.09
421.605	813.09
421.982	790.04
422.358	840.88
422.735	812.18
423.111	842.92
423.488	879.3
423.864	892.41
424.241	887.89
424.617	906.87
424.994	943.48
425.37	929.02
425.746	944.16
426.123	974.44
426.499	961.56
426.875	995.68
427.251	1017.15
427.627	1038.62
428.003	1038.62
428.379	1071.84
428.756	1071.16
429.132	1088.33
429.507	1071.84
429.883	1107.09
430.259	1137.37
430.635	1114.1
431.011	1162.23
431.387	1177.14
431.763	1172.62
432.138	1215.79
432.514	1195.45
432.89	1239.97
433.265	1287.42
433.641	1265.73
434.016	1295.79
434.392	1346.86
434.767	1357.03
435.143	1367.87
435.518	1392.51
435.894	1407.87
436.269	1465.5
436.644	1457.81
437.02	1519.73
437.395	1544.59
437.77	1546.4
438.145	1586.4
438.52	1617.13
438.895	1630.69
439.271	1619.17
439.646	1695.1
440.021	1704.36
440.395	1751.82
440.77	1747.75
441.145	1726.28
441.52	1800.18
441.895	1838.14
442.27	1828.65
442.645	1850.35
443.019	1898.48
443.394	1883.79
443.769	1909.33
444.143	1917.24
444.518	1953.62
444.892	1946.16
445.267	2009.44
445.641	2000.17
446.016	2015.54
446.39	2042.43
446.764	2074.97
447.139	2067.29
447.513	2113.39
447.887	2093.05
448.262	2124.01
448.636	2140.51
449.01	2141.41
449.384	2185.71
449.758	2209.43
450.132	2217.57
450.506	2244.91
450.88	2245.14
451.254	2271.58
451.628	2293.95
452.002	2347.51
452.376	2331.24
452.75	2364.23
453.123	2371.92
453.497	2432.7
453.871	2428.64
454.244	2487.62
454.618	2526.26
454.992	2530.55
455.365	2550.44
455.739	2591.8
456.112	2615.3
456.486	2630.44
456.859	2638.35
457.232	2728.74
457.606	2708.18
457.979	2714.05
458.352	2805.8
458.725	2821.85
459.099	2806.48
459.472	2905.23
459.845	2930.09
460.218	2970.77
460.591	2983.2
460.964	2999.24
461.337	3083.99
461.71	3100.94
462.083	3168.28
462.456	3175.74
462.829	3175.28
463.201	3235.17
463.574	3215.51
463.947	3283.76
464.32	3360.82
464.692	3390.42
465.065	3430.19
465.438	3465.45
465.81	3503.41
466.183	3540.25
466.555	3636.51
466.928	3653.69
467.3	3634.71
467.672	3690.52
468.045	3782.95
468.417	3782.95
468.789	3809.62
469.161	3844.19
469.534	3923.06
469.906	3978.65
470.278	4044.87
470.65	4061.59
471.022	4145.43
471.394	4229.27
471.766	4226.56
472.138	4254.58
472.51	4383.84
472.882	4442.14
473.253	4476.94
473.625	4532.31
473.997	4645.53
474.369	4638.97
474.74	4682.36
475.112	4771.4
475.484	4825.86
475.855	4886.2
476.227	4970.04
476.598	5083.48
476.97	5123.93
477.341	5238.28
477.713	5297.26
478.084	5346.98
478.455	5475.79
478.827	5520.31
479.198	5636.24
479.569	5635.33
479.94	5774.99
480.311	5825.84
480.682	5986.51
481.053	6103.12
481.424	6133.4
481.795	6179.27
482.166	6301.08
482.537	6385.37
482.908	6452.49
483.279	6513.28
483.65	6709.43
484.021	6802.76
484.391	6817.9
484.762	6920.27
485.133	6932.02
485.503	7013.15
485.874	7172.47
486.244	7196.65
486.615	7315.51
486.985	7376.53
487.356	7514.15
487.726	7547.6
488.097	7715.05
488.467	7630.53
488.837	7880.7
489.207	7967.02
489.578	8020.58
489.948	8105.55
490.318	8201.14
490.688	8199.56
491.058	8400.23
491.428	8470.74
491.798	8493.11
492.168	8649.94
492.538	8691.07
492.908	8681.81
493.278	8828.47
493.648	8850.16
494.017	8913.89
494.387	8987.79
494.757	9023.27
495.126	9096.26
495.496	9112.98
495.866	9167.67
496.235	9277.27
496.605	9298.74
496.974	9285.41
497.344	9444.27
497.713	9475.68
498.082	9522.46
498.452	9631.61
498.821	9646.53
499.19	9629.35
499.559	9693.76
499.928	9710.93
500.298	9731.27
500.667	9838.84
501.036	9856.46
501.405	9892.4
501.774	9890.59
502.143	9919.29
502.512	9926.07
502.88	9982.34
503.249	10044.48
503.618	10104.37
503.987	10086.97
504.356	10107.76
504.724	10155.89
505.093	10137.13
505.462	10128.55
505.83	10199.05
506.199	10294.87
506.567	10398.37
506.936	10265.27
507.304	10350.91
507.672	10378.94
508.041	10406.51
508.409	10498.71
508.777	10447.86
509.145	10610.12
509.514	10599.04
509.882	10508.65
510.25	10568.08
510.618	10643.79
510.986	10562.21
511.354	10655.31
511.722	10646.05
512.09	10765.37
512.458	10681.08
512.826	10799.04
513.193	10802.2
513.561	10764.69
513.929	10803.33
514.297	10841.97
514.664	10819.83
515.032	10857.57
515.4	10985.25
515.767	10900.28
516.135	10952.03
516.502	10822.99
516.869	10978.69
517.237	10928.98
517.604	10910.22
517.972	10945.25
518.339	10968.07
518.706	10947.28
519.073	10970.11
519.44	10950.45
519.808	11034.06
520.175	11069.99
520.542	11110.89
520.909	11069.54
521.276	11042.42
521.643	11135.75
522.009	11067.73
522.376	11091.46
522.743	11128.97
523.11	11202.19
523.477	11203.1
523.843	11116.32
524.21	11263.66
524.577	11274.96
524.943	11211.46
525.31	11238.35
525.676	11266.82
526.043	11257.33
526.409	11341.17
526.776	11371.68
527.142	11292.13
527.508	11307.95
527.874	11333.71
528.241	11260.04
528.607	11246.94
528.973	11339.36
529.339	11214.39
529.705	11267.73
530.071	11294.84
530.437	11244
530.803	11242.42
531.169	11333.04
531.535	11155.64
531.901	11168.75
532.267	11162.42
532.632	11155.64
532.998	11132.81
533.364	11233.38
533.73	11138.46
534.095	11156.77
534.461	11122.87
534.826	11101.4
535.192	11121.74
535.557	11040.16
535.923	10983.44
536.288	10976.66
536.653	10954.97
537.019	10895.53
537.384	10911.13
537.749	10815.76
538.114	10742.77
538.479	10814.18
538.845	10738.02
539.21	10729.21
539.575	10703
539.94	10616.9
540.305	10585.03
540.67	10531.47
541.034	10500.06
541.399	10496.22
541.764	10508.42
542.129	10462.32
542.494	10345.49
542.858	10326.73
543.223	10249.67
543.587	10228.21
543.952	10255.78
544.316	10206.96
544.681	10066.18
545.045	10080.19
545.41	10108.89
545.774	10116.57
546.138	10046.97
546.503	9960.42
546.867	9872.96
547.231	9929.91
547.595	9941.21
547.959	9811.49
548.324	9751.38
548.688	9729.46
549.052	9738.95
549.416	9700.99
549.779	9626.64
550.143	9583.48
550.507	9583.02
550.871	9609.01
551.235	9539.64
551.599	9526.08
551.962	9494.21
552.326	9474.55
552.689	9448.79
553.053	9316.82
553.417	9315.69
553.78	9392.75
554.143	9360.66
554.507	9352.97
554.87	9252.41
555.234	9293.09
555.597	9173.54
555.96	9171.96
556.323	9155.24
556.686	9095.35
557.05	9076.37
557.413	9126.09
557.776	9114.34
558.139	9057.61
558.502	9077.5
558.865	9048.12
559.228	9044.96
559.59	9040.44
559.953	9008.35
560.316	9049.48
560.679	8941.46
561.041	9019.88
561.404	8984.17
561.767	8967.67
562.129	8899.43
562.492	8986.43
562.854	8970.61
563.217	8890.16
563.579	8889.48
563.941	9000.22
564.304	8947.79
564.666	9016.94
565.028	8952.98
565.39	8998.18
565.753	9015.58
566.115	8897.85
566.477	8929.93
566.839	9000.89
567.201	9003.83
567.563	8919.31
567.925	8917.51
568.287	8970.39
568.648	8965.87
569.01	9004.96
569.372	9032.08
569.734	8931.97
570.095	8932.65
570.457	8959.54
570.819	8935.81
571.18	8905.98
571.542	9039.76
571.903	8941.69
572.265	8988.69
572.626	9047.22
572.987	9048.35
573.349	9009.93
573.71	9050.84
574.071	9102.36
574.432	9045.86
574.794	9101.68
575.155	8995.92
575.516	8963.83
575.877	9044.73
576.238	9027.33
576.599	9060.33
576.96	9031.63
577.32	9082.25
577.681	9094.22
578.042	9076.6
578.403	9122.47
578.763	9020.33
579.124	9072.98
579.485	9172.64
579.845	9113.21
580.206	9035.92
580.566	9104.85
580.927	9055.36
581.287	9027.33
581.648	9079.31
582.008	9077.73
582.368	9049.25
582.728	9100.33
583.089	9063.72
583.449	9014.9
583.809	9064.39
584.169	9031.17
584.529	9034.34
584.889	9066.2
585.249	9030.27
585.609	8978.97
585.969	9027.56
586.329	9066.2
586.688	9070.95
587.048	9049.93
587.408	8945.53
587.768	8967.9
588.127	8976.26
588.487	8981.68
588.846	9020.1
589.206	8968.58
589.565	8978.75
589.925	8980.55
590.284	8986.88
590.643	8978.75
591.003	8970.84
591.362	8957.73
591.721	8967.45
592.08	8951.86
592.44	8940.56
592.799	8966.32
593.158	8946.43
593.517	8896.49
593.876	8927.22
594.235	8887
594.593	8921.8
594.952	8943.95
595.311	8967.67
595.67	8918.86
596.029	8977.62
596.387	8919.77
596.746	8938.97
597.104	8868.24
597.463	8855.81
597.822	8882.48
598.18	8853.55
598.538	8801.8
598.897	8894.68
599.255	8825.98
599.613	8915.7
599.972	8889.48
600.33	8963.61
600.688	8873.89
601.046	8891.29
601.404	8897.85
601.762	8864.85
602.12	8871.63
602.478	8831.63
602.836	8866.89
603.194	8867.11
603.552	8833.21
603.91	8813.33
604.268	8825.3
604.625	8831.86
604.983	8854.23
605.341	8853.55
605.698	8934.68
606.056	8859.43
606.413	8846.32
606.771	8875.47
607.128	8911.18
607.485	8832.99
607.843	8890.16
608.2	8955.7
608.557	8961.57
608.914	8891.29
609.272	8884.74
609.629	8981.23
609.986	8951.63
610.343	8822.37
610.7	8945.75
611.057	8931.06
611.414	8911.86
611.771	8911.86
612.127	8965.19
612.484	8968.13
612.841	8988.24
613.198	8967.45
613.554	8950.27
613.911	8981.46
614.267	8962.7
614.624	8978.07
614.98	9002.7
615.337	9012.64
615.693	8993.21
616.05	8983.72
616.406	9025.75
616.762	9000.89
617.118	9054
617.475	8989.59
617.831	9006.32
618.187	8990.27
618.543	9054.23
618.899	9084.96
619.255	9046.32
619.611	9008.35
619.967	9116.14
620.323	9068.69
620.678	9052.64
621.034	9044.06
621.39	9050.61
621.746	8974.45
622.101	9134.68
622.457	9046.99
622.812	9035.47
623.168	9045.19
623.523	9141
623.879	9131.29
624.234	9009.71
624.589	9070.72
624.945	9094.45
625.3	9112.3
625.655	9041.34
626.01	9057.61
626.365	9022.36
626.72	9046.77
627.075	8996.6
627.43	9079.08
627.785	8973.55
628.14	9014.45
628.495	9029.59
628.85	9046.99
629.205	8945.53
629.559	9086.99
629.914	8973.32
630.269	8956.83
630.623	8966.77
630.978	8940.1
631.332	8942.82
631.687	8923.83
632.041	8936.71
632.396	8968.35
632.75	8862.14
633.104	8945.53
633.459	8860.11
633.813	8819.2
634.167	8883.61
634.521	8837.06
634.875	8856.49
635.229	8796.15
635.583	8808.58
635.937	8803.84
636.291	8766.32
636.645	8775.81
636.999	8780.79
637.352	8834.8
637.706	8745.31
638.06	8742.14
638.413	8695.14
638.767	8667.34
639.121	8731.75
639.474	8723.61
639.828	8702.14
640.181	8712.99
640.534	8780.79
640.888	8706.21
641.241	8632.09
641.594	8695.14
641.947	8704.18
642.301	8734.91
642.654	8661.92
643.007	8633.45
643.36	8607.46
643.713	8652.43
644.066	8660.79
644.419	8595.48
644.771	8529.72
645.124	8481.13
645.477	8487.91
645.83	8435.48
646.182	8337.18
646.535	8356.39
646.888	8351.19
647.24	8290.18
647.593	8362.04
647.945	8289.05
648.298	8298.99
648.65	8230.07
649.002	8295.15
649.355	8365.88
649.707	8259.22
650.059	8357.75
650.411	8500.12
650.763	8463.51
651.115	8553.22
651.467	8531.98
651.819	8529.49
652.171	8478.87
652.523	8439.1
652.875	8489.27
653.227	8484.07
653.578	8540.79
653.93	8510.96
654.282	8430.74
654.633	8439.1
654.985	8460.12
655.337	8507.8
655.688	8463.96
656.039	8528.59
656.391	8494.92
656.742	8505.99
657.094	8513
657.445	8552.54
657.796	8540.34
658.147	8492.21
658.498	8507.12
658.849	8463.05
659.2	8430.51
659.551	8510.74
659.902	8533.56
660.253	8498.76
660.604	8509.38
660.955	8490.17
661.306	8617.85
661.656	8541.92
662.007	8498.08
662.358	8547.8
662.708	8510.96
663.059	8468.93
663.409	8480
663.76	8596.38
664.11	8520.91
664.461	8661.69
664.811	8571.98
665.161	8530.85
665.511	8565.88
665.862	8527.91
666.212	8543.96
666.562	8585.76
666.912	8522.26
667.262	8570.85
667.612	8513.45
667.962	8557.74
668.312	8533.33
668.662	8590.73
669.011	8536.72
669.361	8547.8
669.711	8493.34
670.06	8485.43
670.41	8514.13
670.76	8470.74
671.109	8517.06
671.459	8421.7
671.808	8493.11
672.157	8519.78
672.507	8415.37
672.856	8442.04
673.205	8415.82
673.554	8484.75
673.904	8486.78
674.253	8512.09
674.602	8504.18
674.951	8373.57
675.3	8284.75
675.649	8452.66
675.998	8385.09
676.346	8442.04
676.695	8493.34
677.044	8378.31
677.393	8331.98
677.741	8409.72
678.09	8339.67
678.438	8335.37
678.787	8344.87
679.135	8338.76
679.484	8283.17
679.832	8290.18
680.181	8229.61
680.529	8285.21
680.877	8205.66
681.225	8236.62
681.573	8280.69
681.922	8217.41
682.27	8155.04
682.618	8219.44
682.966	8171.76
683.314	8226
683.661	8159.79
684.009	8115.27
684.357	8031.65
684.705	8032.11
685.053	8109.17
685.4	8049.28
685.748	7999.79
686.095	8047.25
686.443	8019.22
686.79	7966.12
687.138	7965.89
687.485	7949.4
687.832	7933.8
688.18	7935.61
688.527	7879.79
688.874	7876.86
689.221	7840.92
689.568	7900.13
689.915	7860.13
690.262	7820.81
690.609	7776.29
690.956	7701.27
691.303	7764.54
691.65	7733.81
691.997	7736.52
692.344	7625.56
692.69	7607.48
693.037	7569.74
693.383	7524.32
693.73	7548.95
694.077	7466.47
694.423	7555.51
694.769	7480.26
695.116	7453.36
695.462	7401.39
695.808	7353.25
696.155	7391.22
696.501	7252.46
696.847	7372.01
697.193	7287.27
697.539	7329.3
697.885	7196.19
698.231	7200.04
698.577	7118.46
698.923	7195.29
699.269	7151.68
699.614	7076.2
699.96	7042.98
700.306	7102.19
700.651	7058.12
700.997	7002.53
701.342	7000.49
701.688	6977.44
702.033	7003.43
702.379	6922.98
702.724	6908.97
703.069	6897.67
703.415	6792.36
703.76	6802.08
704.105	6824.23
704.45	6794.85
704.795	6727.73
705.14	6736.32
705.485	6734.06
705.83	6738.58
706.175	6672.82
706.52	6675.76
706.865	6607.51
707.209	6635.76
707.554	6613.84
707.899	6614.06
708.243	6526.16
708.588	6506.5
708.932	6505.37
709.277	6485.71
709.621	6523.44
709.966	6490.68
710.31	6488.87
710.654	6415.88
710.998	6405.93
711.342	6362.32
711.687	6371.36
712.031	6411.58
712.375	6375.88
712.719	6377.23
713.063	6347.4
713.407	6334.07
713.75	6260.63
714.094	6334.52
714.438	6298.82
714.782	6268.54
715.125	6283
715.469	6252.94
715.812	6198.71
716.156	6216.79
716.499	6186.96
716.843	6167.52
717.186	6186.96
717.53	6181.53
717.873	6230.12
718.216	6173.17
718.559	6127.3
718.902	6150.57
719.246	6149.44
719.589	6126.84
719.932	6072.83
720.275	6108.99
720.617	6133.4
720.96	6088.88
721.303	6066.96
721.646	6111.48
721.989	6026.73
722.331	6082.1
722.674	6023.57
723.016	6031.93
723.359	6009.79
723.701	6041.88
724.044	6010.92
724.386	6027.64
724.729	6007.3
725.071	6028.99
725.413	6031.48
725.755	6007.07
726.097	5947.64
726.439	5972.95
726.782	5923.91
727.124	5965.72
727.465	5966.17
727.807	5953.74
728.149	5928.88
728.491	5965.94
728.833	5931.82
729.175	5908.55
729.516	5924.82
729.858	5947.41
730.199	5974.53
730.541	5951.48
730.882	5955.78
731.224	5959.17
731.565	5941.09
731.906	5928.88
732.248	5975.44
732.589	5914.19
732.93	5954.65
733.271	5888.66
733.612	5911.93
733.953	5974.08
734.294	5923.69
734.635	5974.31
734.976	5908.77
735.317	5994.64
735.658	5976.79
735.999	5927.98
736.339	5946.96
736.68	6043.91
737.021	5996.9
737.361	5955.1
737.702	5969.33
738.042	6009.11
738.383	5955.1
738.723	6013.63
739.063	6025.38
739.404	6025.15
739.744	5988.32
740.084	5973.18
740.424	6058.82
740.764	6047.98
741.104	6069.67
741.444	6033.97
741.784	6087.52
742.124	6110.8
742.464	6082.1
742.804	6102.21
743.143	6164.81
743.483	6151.7
743.823	6125.94
744.162	6231.25
744.502	6220.4
744.841	6218.37
745.181	6230.12
745.52	6238.71
745.86	6252.26
746.199	6346.73
746.538	6358.48
746.877	6392.83
747.216	6466.04
747.556	6474.86
747.895	6524.12
748.234	6570
748.573	6634.4
748.911	6582.2
749.25	6731.57
749.589	6797.79
749.928	6788.07
750.267	6901.06
750.605	6929.99
750.944	6985.35
751.283	7034.84
751.621	7141.73
751.96	7254.27
752.298	7337.21
752.636	7395.51
752.975	7469.63
753.313	7484.32
753.651	7714.37
753.989	7780.81
754.327	7809.29
754.666	7898.32
755.004	8022.84
755.342	8220.8
755.679	8304.64
756.017	8438.42
756.355	8581.47
756.693	8668.7
757.031	8800.22
757.368	8913.66
757.706	9032.3
758.044	9238.63
758.381	9267.55
758.719	9463.93
759.056	9707.77
759.394	9850.81
759.731	9949.79
760.068	10105.5
760.405	10215.78
760.743	10410.12
761.08	10555.65
761.417	10740.51
761.754	10938.7
762.091	11016.43
762.428	11248.07
762.765	11331.23
763.102	11634.27
763.438	11689.64
763.775	11849.41
764.112	12114.48
764.449	12306.12
764.785	12360.13
765.122	12561.93
765.458	12740.23
765.795	12882.6
766.131	13065.19
766.467	13237.39
