Data from hue_26_FLMS001491_00067.txt Node
Date: Tue Feb 07 17:14:21 GMT 2017
User: dcchb
Spectrometer: FLMS00149
Trigger mode: 0
Integration Time (sec): 2.000000E-2
Scans to average: 10
Electric dark correction enabled: true
Nonlinearity correction enabled: false
Boxcar width: 0
XAxis mode: Wavelengths
Number of Pixels in Spectrum: 2048
>>>>>Begin Spectral Data<<<<<
341.393	-20.64
341.776	-20.64
342.16	-20.64
342.543	-65.38
342.927	-69.22
343.31	-49.56
343.693	-75.77
344.077	-75.1
344.46	-51.59
344.843	-59.28
345.226	-52.72
345.61	-35.32
345.993	-12.27
346.376	-3.23
346.759	19.14
347.142	5.13
347.525	32.24
347.908	60.49
348.291	75.63
348.674	94.84
349.057	127.38
349.44	121.51
349.823	134.39
350.206	156.99
350.588	195.63
350.971	211.22
351.354	218.91
351.737	255.52
352.119	243.31
352.502	288.51
352.884	273.37
353.267	289.64
353.65	310.43
354.032	316.98
354.414	303.88
354.797	305.01
355.179	316.31
355.562	342.97
355.944	347.04
356.326	330.77
356.709	345.91
357.091	332.12
357.473	358.11
357.855	353.37
358.238	356.08
358.62	385.91
359.002	356.76
359.384	351.78
359.766	345.91
360.148	348.85
360.53	380.26
360.912	363.54
361.294	352.91
361.676	350.2
362.057	359.24
362.439	332.58
362.821	327.15
363.203	331.9
363.584	343.42
363.966	333.48
364.348	341.84
364.729	326.93
365.111	322.63
365.493	323.76
365.874	332.58
366.256	333.93
366.637	346.36
367.019	343.42
367.4	334.38
367.781	319.92
368.163	323.99
368.544	323.54
368.925	325.57
369.306	323.76
369.688	325.57
370.069	323.99
370.45	349.3
370.831	336.42
371.212	331.9
371.593	321.28
371.974	322.41
372.355	350.88
372.736	335.97
373.117	313.59
373.498	336.87
373.879	339.58
374.26	341.62
374.641	348.62
375.021	335.97
375.402	340.94
375.783	323.31
376.163	347.94
376.544	348.17
376.925	334.16
377.305	338
377.686	334.38
378.066	348.85
378.447	354.27
378.827	333.48
379.208	359.47
379.588	350.2
379.968	361.73
380.349	376.19
380.729	352.24
381.109	351.11
381.489	367.38
381.87	358.56
382.25	379.81
382.63	352.69
383.01	340.03
383.39	373.48
383.77	363.31
384.15	364.44
384.53	366.47
384.91	373.93
385.29	369.86
385.67	357.21
386.049	384.55
386.429	374.61
386.809	396.08
387.189	382.07
387.568	381.84
387.948	384.78
388.328	379.13
388.707	378.45
389.087	385.91
389.466	363.31
389.846	373.7
390.225	386.59
390.605	399.92
390.984	383.2
391.363	378
391.743	397.89
392.122	409.86
392.501	397.43
392.881	410.77
393.26	412.57
393.639	423.2
394.018	411.22
394.397	418
394.776	399.92
395.155	422.74
395.534	408.51
395.913	420.03
396.292	428.17
396.671	395.4
397.05	387.72
397.429	427.49
397.808	420.94
398.186	420.26
398.565	407.15
398.944	432.23
399.323	432.69
399.701	429.07
400.08	446.47
400.458	416.42
400.837	425
401.215	447.83
401.594	437.21
401.972	440.37
402.351	442.63
402.729	436.75
403.107	450.54
403.486	452.8
403.864	453.02
404.242	453.7
404.62	468.39
404.999	454.83
405.377	458.67
405.755	466.81
406.133	462.29
406.511	483.31
406.889	481.95
407.267	465.68
407.645	468.17
408.023	491.22
408.401	481.72
408.779	497.77
409.156	500.03
409.534	490.99
409.912	491.44
410.29	504.1
410.667	510.65
411.045	488.28
411.422	510.65
411.8	506.13
412.178	530.31
412.555	509.07
412.933	536.41
413.31	552.46
413.687	552.46
414.065	562.17
414.442	523.76
414.819	567.15
415.197	544.55
415.574	545.9
415.951	568.5
416.328	560.82
416.705	560.82
417.082	589.74
417.46	580.71
417.837	573.02
418.214	580.48
418.591	589.97
418.967	574.83
419.344	588.16
419.721	600.59
420.098	603.98
420.475	602.17
420.852	593.81
421.228	596.3
421.605	603.53
421.982	623.42
422.358	623.42
422.735	632.68
423.111	617.31
423.488	625.22
423.864	646.47
424.241	638.78
424.617	641.49
424.994	634.26
425.37	658.67
425.746	653.25
426.123	655.51
426.499	670.65
426.875	669.29
427.251	675.39
427.627	692.57
428.003	679.69
428.379	679.69
428.756	698.44
429.132	706.58
429.507	714.71
429.883	715.16
430.259	721.27
430.635	730.53
431.011	722.62
431.387	742.06
431.763	744.09
432.138	772.79
432.514	753.36
432.89	762.62
433.265	774.37
433.641	798.78
434.016	777.54
434.392	821.38
434.767	812.11
435.143	809.4
435.518	804.65
435.894	836.07
436.269	826.35
436.644	828.38
437.02	832.22
437.395	843.3
437.77	866.8
438.145	854.37
438.52	872.67
438.895	885.1
439.271	869.51
439.646	873.8
440.021	928.04
440.395	896.4
440.77	897.76
441.145	904.09
441.52	922.39
441.895	893.92
442.27	944.31
442.645	940.24
443.019	948.61
443.394	939.57
443.769	971.88
444.143	945.67
444.518	949.51
444.892	962.16
445.267	966.68
445.641	959.9
446.016	983.63
446.39	976.85
446.764	1027.47
447.139	998.77
447.513	1012.33
447.887	1037.19
448.262	1008.94
448.636	979.34
449.01	1023.86
449.384	1039.22
449.758	1047.13
450.132	1034.48
450.506	1067.25
450.88	1061.6
451.254	1083.06
451.628	1092.33
452.002	1075.38
452.376	1098.66
452.75	1113.8
453.123	1145.21
453.497	1119.45
453.871	1159.9
454.244	1159.22
454.618	1160.58
454.992	1161.03
455.365	1180.46
455.739	1191.76
456.112	1203.51
456.486	1194.02
456.859	1208.71
457.232	1253.68
457.606	1239.44
457.979	1273.79
458.352	1287.58
458.725	1295.04
459.099	1301.36
459.472	1331.87
459.845	1350.4
460.218	1349.95
460.591	1337.75
460.964	1365.77
461.337	1376.62
461.71	1359.67
462.083	1415.26
462.456	1436.05
462.829	1445.09
463.201	1454.81
463.574	1473.11
463.947	1511.98
464.32	1505.2
464.692	1545.43
465.065	1534.35
465.438	1564.41
465.81	1592.66
466.183	1612.32
466.555	1618.19
466.928	1650.28
467.3	1630.85
467.672	1649.38
468.045	1717.4
468.417	1698.87
468.789	1721.24
469.161	1752.88
469.534	1788.13
469.906	1826.32
470.278	1822.25
470.65	1852.99
471.022	1887.56
471.394	1899.09
471.766	1910.61
472.138	1960.33
472.51	1987.67
472.882	2032.19
473.253	2030.61
473.625	2093.21
473.997	2135.92
474.369	2112.42
474.74	2170.95
475.112	2186.54
475.484	2231.96
475.855	2273.99
476.227	2316.7
476.598	2379.53
476.97	2367.1
477.341	2429.7
477.713	2471.28
478.084	2513.76
478.455	2587.43
478.827	2603.7
479.198	2672.85
479.569	2663.14
479.94	2778.16
480.311	2801.89
480.682	2863.81
481.053	2946.07
481.424	2979.29
481.795	3059.28
482.166	3059.74
482.537	3120.07
482.908	3192.84
483.279	3256.57
483.65	3304.25
484.021	3359.16
484.391	3412.95
484.762	3469.67
485.133	3506.5
485.503	3554.41
485.874	3654.75
486.244	3683
486.615	3778.59
486.985	3843.22
487.356	3903.33
487.726	3943.78
488.097	4007.28
488.467	4094.74
488.837	4153.72
489.207	4173.38
489.578	4285.47
489.948	4305.35
490.318	4381.28
490.688	4386.25
491.058	4472.58
491.428	4600.94
491.798	4596.42
492.168	4705.12
492.538	4786.92
492.908	4783.31
493.278	4879.12
493.648	4863.76
494.017	4991.89
494.387	5011.78
494.757	5066.24
495.126	5096.52
495.496	5161.83
495.866	5146.01
496.235	5256.51
496.605	5323.18
496.974	5355.27
497.344	5419
497.713	5447.7
498.082	5512.55
498.452	5492.89
498.821	5617.18
499.19	5579.67
499.559	5666.45
499.928	5659.67
500.298	5768.37
500.667	5771.08
501.036	5780.12
501.405	5841.36
501.774	5893.33
502.143	5941.02
502.512	5951.41
502.88	6028.47
503.249	5988.02
503.618	6157.28
503.987	6119.09
504.356	6132.88
504.724	6193.44
505.093	6224.17
505.462	6289.48
505.83	6286.32
506.199	6337.62
506.567	6425.52
506.936	6444.73
507.304	6496.03
507.672	6533.32
508.041	6503.94
508.409	6555.69
508.777	6610.83
509.145	6658.74
509.514	6685.4
509.882	6770.82
510.25	6720.43
510.618	6762.24
510.986	6812.63
511.354	6875.45
511.722	6929.92
512.09	6977.37
512.458	6964.27
512.826	6987.54
513.193	7055.56
513.561	7109.35
513.929	7152.74
514.297	7186.41
514.664	7178.27
515.032	7188.44
515.4	7245.39
515.767	7289.23
516.135	7312.96
516.502	7329.23
516.869	7438.83
517.237	7445.16
517.604	7532.16
517.972	7514.08
518.339	7537.36
518.706	7576.91
519.073	7542.78
519.44	7589.56
519.808	7660.07
520.175	7702.33
520.542	7736.22
520.909	7801.76
521.276	7768.09
521.643	7878.37
522.009	7929.66
522.376	7996.1
522.743	8047.63
523.11	8045.59
523.477	8165.59
523.843	8148.42
524.21	8248.75
524.577	8309.32
524.943	8383.66
525.31	8393.38
525.676	8405.36
526.043	8498.24
526.409	8491.68
526.776	8563.55
527.142	8602.64
527.508	8655.97
527.874	8711.79
528.241	8715.41
528.607	8782.07
528.973	8867.04
529.339	8810.09
529.705	8950.2
530.071	9017.32
530.437	9063.19
530.803	9110.2
531.169	9149.97
531.535	9087.83
531.901	9211.66
532.267	9201.95
532.632	9352.23
532.998	9324.43
533.364	9383.41
533.73	9398.1
534.095	9473.58
534.461	9517.42
534.826	9604.42
535.192	9630.64
535.557	9620.02
535.923	9599.45
536.288	9722.16
536.653	9757.64
537.019	9722.16
537.384	9803.06
537.749	9844.42
538.114	9866.79
538.479	9976.84
538.845	9951.98
539.21	10039.44
539.575	9930.97
539.94	10047.12
540.305	10065.43
540.67	10148.59
541.034	10121.7
541.399	10243.73
541.764	10254.12
542.129	10324.86
542.494	10348.58
542.858	10475.13
543.223	10454.34
543.587	10486.21
543.952	10469.48
544.316	10528.92
544.681	10581.35
545.045	10637.39
545.41	10683.72
545.774	10710.38
546.138	10746.54
546.503	10747.22
546.867	10828.35
547.231	10876.71
547.595	10924.39
547.959	10956.03
548.324	10943.37
548.688	10997.15
549.052	11115.8
549.416	11074.89
549.779	11112.86
550.143	11141.78
550.507	11246.87
550.871	11209.35
551.235	11215
551.599	11323.47
551.962	11307.65
552.326	11367.09
552.689	11449.12
553.053	11378.61
553.417	11490.25
553.78	11638.49
554.143	11484.83
554.507	11619.06
554.87	11613.86
555.234	11762.56
555.597	11695.22
555.96	11709.9
556.323	11769.11
556.686	11865.61
557.05	11896.57
557.413	11961.87
557.776	11966.39
558.139	12098.59
558.502	12056.56
558.865	12155.09
559.228	12203.68
559.59	12202.09
559.953	12234.18
560.316	12421.3
560.679	12381.75
561.041	12431.01
561.404	12448.42
561.767	12515.53
562.129	12456.33
562.492	12667.84
562.854	12674.85
563.217	12593.95
563.579	12684.34
563.941	12735.41
564.304	12783.77
564.666	12893.38
565.028	12858.12
565.39	13006.14
565.753	13023.99
566.115	13105.8
566.477	13106.93
566.839	13254.27
567.201	13305.79
567.563	13218.34
567.925	13328.62
568.287	13379.92
568.648	13402.06
569.01	13452.68
569.372	13546.92
569.734	13540.14
570.095	13606.13
570.457	13725.22
570.819	13795.27
571.18	13807.02
571.542	13824.65
571.903	13849.73
572.265	13932.9
572.626	14021.71
572.987	14050.18
573.349	14137.18
573.71	14192.32
574.071	14262.83
574.432	14338.76
574.794	14459.21
575.155	14525.2
575.516	14545.08
575.877	14625.53
576.238	14721.12
576.599	14806.32
576.96	14897.16
577.32	14974.9
577.681	15059.42
578.042	15238.4
578.403	15299.41
578.763	15363.59
579.124	15399.75
579.485	15645.39
579.845	15745.5
580.206	15847.65
580.566	15949.57
580.927	16122.9
581.287	16260.97
581.648	16310.46
582.008	16591.13
582.368	16653.28
582.728	16842.88
583.089	17053.94
583.449	17212.58
583.809	17378.23
584.169	17691.22
584.529	17786.81
584.889	18084.65
585.249	18227.7
585.609	18369.39
585.969	18635.15
586.329	18776.61
586.688	19127.34
587.048	19318.52
587.408	19559.64
587.768	19893.87
588.127	20026.75
588.487	20259.96
588.846	20718.25
589.206	20755.99
589.565	21109.43
589.925	21393.04
590.284	21605.46
590.643	21971.1
591.003	22339.45
591.362	22713
591.721	22927.69
592.08	23228.92
592.44	23586.65
592.799	23844.95
593.158	24264.38
593.517	24474.99
593.876	24889.44
594.235	25163.11
594.593	25399.71
594.952	25799.25
595.311	26111.79
595.67	26568.5
596.029	26926
596.387	27317.63
596.746	27631.97
597.104	27849.14
597.463	28139.3
597.822	28573.87
598.18	28815.89
598.538	29112.38
598.897	29663.1
599.255	29763.67
599.613	30413.14
599.972	30652.46
600.33	30977.87
600.688	31162.05
601.046	31548.25
601.404	31991.86
601.762	32185.07
602.12	32691.05
602.478	33014.88
602.836	33329.9
603.194	33428.43
603.552	33843.33
603.91	34020.05
604.268	34401.06
604.625	34643.76
604.983	35042.17
605.341	35198.78
605.698	35625.89
606.056	35982.03
606.413	36197.17
606.771	36563.71
607.128	36822.24
607.485	36865.17
607.843	37164.38
608.2	37690.69
608.557	38061.08
608.914	37960.29
609.272	38553.94
609.629	38733.37
609.986	39188.96
610.343	39108.96
610.7	39711.65
611.057	39789.17
611.414	39815.61
611.771	40240.91
612.127	40457.85
612.484	40621.01
612.841	40988.68
613.198	41046.76
613.554	41159.3
613.911	41612.39
614.267	41784.82
614.624	41891.48
614.98	42068.2
615.337	42441.53
615.693	42608.75
616.05	42714.29
616.406	43088.74
616.762	42856.88
617.118	43215.74
617.475	43411.22
617.831	43656.63
618.187	43703.86
618.543	43921.03
618.899	44141.82
619.255	44378.42
619.611	44416.16
619.967	44548.36
620.323	44705.87
620.678	44844.4
621.034	44776.83
621.39	44977.05
621.746	45054.79
622.101	45666.3
622.457	45353.99
622.812	45469.92
623.168	45683.47
623.523	45751.72
623.879	45890.25
624.234	45693.87
624.589	45979.06
624.945	46120.3
625.3	46299.73
625.655	46215.66
626.01	46571.59
626.365	46473.06
626.72	46483.23
627.075	46615.2
627.43	46622.88
627.785	46574.52
628.14	46747.17
628.495	46809.55
628.85	46824.46
629.205	46708.53
629.559	47004.34
629.914	46821.98
630.269	46914.18
630.623	46885.02
630.978	46817.46
631.332	46983.33
631.687	47176.32
632.041	47004.12
632.396	47179.93
632.75	46901.52
633.104	47149.42
633.459	47008.86
633.813	47176.54
634.167	47136.32
634.521	47217.44
634.875	47115.53
635.229	47125.02
635.583	47013.16
635.937	47083.21
636.291	47064.68
636.645	46983.33
636.999	47109.2
637.352	47169.08
637.706	47022.87
638.06	47155.53
638.413	47210.67
638.767	47145.13
639.121	47176.32
639.474	46848.87
639.828	47230.1
640.181	46989.2
640.534	47030.78
640.888	46863.78
641.241	46779.72
641.594	46936.1
641.947	47082.76
642.301	46943.33
642.654	46959.82
643.007	46946.27
643.36	46980.61
643.713	46842.54
644.066	47121.85
644.419	46826.04
644.771	46505.83
645.124	46137.7
645.477	46103.12
645.83	45849.57
646.182	45759.86
646.535	45670.59
646.888	45893.19
647.24	45530.03
647.593	45877.37
647.945	45793.3
648.298	45597.83
648.65	45474.89
649.002	45332.07
649.355	45661.55
649.707	45611.39
650.059	45742.23
650.411	46221.09
650.763	46112.39
651.115	46663.11
651.467	46485.94
651.819	46377.47
652.171	46394.87
652.523	46296.79
652.875	46401.87
653.227	46164.59
653.578	46523.23
653.93	46371.82
654.282	46131.82
654.633	46140.64
654.985	46214.76
655.337	46245.95
655.688	46316.23
656.039	46416.56
656.391	46063.35
656.742	46291.14
657.094	46190.58
657.445	46357.81
657.796	46227.41
658.147	46130.02
658.498	46127.08
658.849	46118.49
659.2	46109.23
659.551	46080.98
659.902	46289.79
660.253	45985.16
660.604	46232.16
660.955	45840.53
661.306	46111.03
661.656	45957.59
662.007	46019.96
662.358	46119.39
662.708	45966.18
663.059	46014.09
663.409	45790.36
663.76	46090.92
664.11	46078.49
664.461	46000.08
664.811	45995.78
665.161	46078.27
665.511	45802.34
665.862	45854.77
666.212	45974.77
666.562	45899.51
666.912	45947.42
667.262	45903.13
667.612	45899.51
667.962	45962.56
668.312	45960.3
668.662	46055.89
669.011	45884.37
669.361	45916.01
669.711	45904.49
670.06	45770.93
670.41	45667.66
670.76	45732.74
671.109	45952.85
671.459	45736.35
671.808	45698.61
672.157	45847.09
672.507	45516.92
672.856	45560.77
673.205	45534.55
673.554	45875.56
673.904	45592.18
674.253	45798.27
674.602	45711.5
674.951	44930.73
675.3	44911.52
675.649	45496.59
675.998	45534.55
676.346	45444.38
676.695	45707.88
677.044	45365.29
677.393	45384.72
677.741	45462.46
678.09	45332.97
678.438	45161.91
678.787	45428.34
679.135	45246.42
679.484	45025.64
679.832	45208.91
680.181	44859.77
680.529	45030.38
680.877	44980.89
681.225	44985.41
681.573	45173.43
681.922	44838.52
682.27	44709.94
682.618	44699.32
682.966	44560.34
683.314	44766.21
683.661	44587.01
684.009	44484.41
684.357	44330.97
684.705	44442.15
685.053	44293.68
685.4	44225.43
685.748	44100.46
686.095	44096.62
686.443	43972.56
686.79	43799.91
687.138	44019.56
687.485	43976.63
687.832	43746.12
688.18	43821.6
688.527	43434.72
688.874	43591.78
689.221	43593.36
689.568	43309.3
689.915	43332.12
690.262	43302.97
690.609	43126.93
690.956	43076.31
691.303	43109.3
691.65	42840.16
691.997	42735.75
692.344	42501.86
692.69	42683.33
693.037	42620.73
693.383	42291.47
693.73	42523.33
694.077	42253.28
694.423	42220.06
694.769	42212.6
695.116	41863.01
695.462	41967.41
695.808	41869.79
696.155	41877.02
696.501	41664.82
696.847	41611.72
697.193	41306.41
697.539	41374.66
697.885	41107.1
698.231	41179.86
698.577	41271.84
698.923	40965.18
699.269	40922.24
699.614	40703.94
699.96	40613.78
700.306	40555.93
700.651	40341.02
700.997	40343.28
701.342	40348.02
701.688	40286.55
702.033	40182.15
702.379	40063.06
702.724	39929.73
703.069	40091.3
703.415	39673.91
703.76	39598.21
704.105	39614.71
704.45	39447.71
704.795	39308.73
705.14	39226.69
705.485	39115.74
705.83	38864.22
706.175	38954.39
706.52	38924.78
706.865	38768.4
707.209	38685.92
707.554	38536.77
707.899	38643.89
708.243	38323.67
708.588	38386.26
708.932	38193.5
709.277	38151.69
709.621	38314.4
709.966	37935.2
710.31	38144.01
710.654	37638.49
710.998	37864.47
711.342	37756.68
711.687	37685.27
712.031	37468.32
712.375	37395.56
712.719	37457.02
713.063	37378.83
713.407	37466.51
713.75	37221.1
714.094	37296.12
714.438	36994.44
714.782	37065.85
715.125	36881.67
715.469	37011.39
715.812	36747.89
716.156	36546.54
716.499	36679.64
716.843	36550.83
717.186	36499.99
717.53	36627.21
717.873	36564.17
718.216	36529.14
718.559	36252.08
718.902	36203.05
719.246	36163.5
719.589	36031.07
719.932	35998.76
720.275	35888.03
720.617	35867.69
720.96	35815.26
721.303	35861.81
721.646	35725.32
721.989	35683.51
722.331	35734.58
722.674	35513.35
723.016	35581.37
723.359	35446.68
723.701	35517.64
724.044	35237.19
724.386	35183.86
724.729	35281.04
725.071	35187.03
725.413	35075.62
725.755	35140.25
726.097	34834.04
726.439	34837.66
726.782	34705.68
727.124	34970.08
727.465	34721.05
727.807	34807.15
728.149	34715.85
728.491	34585.01
728.833	34647.38
729.175	34488.29
729.516	34450.55
729.858	34444.22
730.199	34318.8
730.541	34422.75
730.882	34272.25
731.224	34352.02
731.565	34182.99
731.906	34115.64
732.248	34145.47
732.589	33842.88
732.93	33805.59
733.271	33927.17
733.612	33861.86
733.953	33834.52
734.294	33774.86
734.635	33698.25
734.976	33747.06
735.317	33606.28
735.658	33567.41
735.999	33590.68
736.339	33606.73
736.68	33695.31
737.021	33355.44
737.361	33192.73
737.702	33415.77
738.042	33297.13
738.383	33250.58
738.723	33360.41
739.063	33049.46
739.404	33218.04
739.744	33124.26
740.084	32957.71
740.424	33042.9
740.764	32838.61
741.104	33039.74
741.444	32881.55
741.784	32723.81
742.124	32750.48
742.464	32762.01
742.804	32651.5
743.143	32546.87
743.483	32557.49
743.823	32338.74
744.162	32380.77
744.502	32356.59
744.841	32306.65
745.181	32347.1
745.52	32335.12
745.86	32352.75
746.199	32249.93
746.538	32140.33
746.877	32190.04
747.216	32274.79
747.556	32060.33
747.895	32156.82
748.234	31850.17
748.573	31887.45
748.911	31801.81
749.25	31842.03
749.589	31754.35
749.928	31813.33
750.267	31805.87
750.605	31755.93
750.944	31703.5
751.283	31575.82
751.621	31536.73
751.96	31351.87
752.298	31455.15
752.636	31418.76
752.975	31257.41
753.313	31238.2
753.651	31308.71
753.989	31038.44
754.327	31042.95
754.666	30983.75
755.004	30977.42
755.342	30914.82
755.679	30877.31
756.017	30597.54
756.355	30790.08
756.693	30566.58
757.031	30687.03
757.368	30431.67
757.706	30442.74
