Data from hue_320_FLMS001491_64.txt Node
Date: Mon Feb 06 15:47:32 GMT 2017
User: dcchb
Spectrometer: FLMS00149
Trigger mode: 0
Integration Time (sec): 2.000000E-2
Scans to average: 10
Electric dark correction enabled: true
Nonlinearity correction enabled: false
Boxcar width: 0
XAxis mode: Wavelengths
Number of Pixels in Spectrum: 2048
>>>>>Begin Spectral Data<<<<<
341.393	-14.05
341.776	-14.05
342.16	-14.05
342.543	-80.94
342.927	-70.77
343.31	-74.39
343.693	-59.02
344.077	-65.35
344.46	-62.87
344.843	-61.28
345.226	-46.59
345.61	-28.06
345.993	-25.13
346.376	-17.22
346.759	16.23
347.142	27.75
347.525	35.66
347.908	77.47
348.291	79.05
348.674	78.15
349.057	125.6
349.44	139.39
349.823	138.26
350.206	176.45
350.588	165.15
350.971	212.83
351.354	231.82
351.737	258.71
352.119	261.87
352.502	253.96
352.884	278.59
353.267	276.56
353.65	289.44
354.032	294.19
354.414	295.54
354.797	307.29
355.179	304.58
355.562	328.99
355.944	321.31
356.326	315.66
356.709	314.3
357.091	327.18
357.473	324.24
357.855	318.82
358.238	349.78
358.62	340.51
359.002	343.9
359.384	332.6
359.766	361.3
360.148	329.44
360.53	339.61
360.912	343.45
361.294	319.05
361.676	316.56
362.057	343.23
362.439	321.98
362.821	325.37
363.203	312.49
363.584	325.82
363.966	307.29
364.348	327.18
364.729	286.73
365.111	315.2
365.493	318.59
365.874	304.13
366.256	309.55
366.637	310.46
367.019	289.22
367.4	337.35
367.781	310.46
368.163	322.21
368.544	313.62
368.925	296.22
369.306	316.11
369.688	329.89
370.069	302.77
370.45	308.88
370.831	292.15
371.212	298.48
371.593	296.45
371.974	291.25
372.355	320.85
372.736	288.99
373.117	311.14
373.498	309.33
373.879	282.44
374.26	304.81
374.641	313.85
375.021	308.2
375.402	309.1
375.783	312.04
376.163	341.64
376.544	318.59
376.925	315.2
377.305	316.11
377.686	316.11
378.066	310.91
378.447	331.02
378.827	319.5
379.208	331.02
379.588	329.67
379.968	322.44
380.349	315.43
380.729	344.58
381.109	336.9
381.489	316.33
381.87	340.06
382.25	333.73
382.63	318.59
383.01	334.41
383.39	350.23
383.77	341.42
384.15	311.81
384.53	336.67
384.91	324.92
385.29	334.86
385.67	341.87
386.049	353.17
386.429	301.19
386.809	345.71
387.189	331.47
387.568	315.66
387.948	355.65
388.328	339.16
388.707	332.83
389.087	344.81
389.466	365.6
389.846	352.49
390.225	374.64
390.605	347.52
390.984	351.13
391.363	344.58
391.743	327.41
392.122	332.83
392.501	345.71
392.881	360.63
393.26	357.69
393.639	377.35
394.018	366.28
394.397	332.38
394.776	354.98
395.155	352.26
395.534	375.54
395.913	358.37
396.292	369.67
396.671	370.57
397.05	380.96
397.429	358.37
397.808	371.25
398.186	378.03
398.565	393.17
398.944	379.61
399.323	367.41
399.701	382.55
400.08	388.87
400.458	405.14
400.837	373.51
401.215	376.67
401.594	384.58
401.972	384.13
402.351	397.01
402.729	399.95
403.107	388.87
403.486	383.22
403.864	378.93
404.242	398.82
404.62	397.91
404.999	400.4
405.377	418.93
405.755	397.24
406.133	413.28
406.511	412.83
406.889	401.3
407.267	427.29
407.645	436.78
408.023	412.83
408.401	424.13
408.779	434.97
409.156	465.48
409.534	459.61
409.912	447.63
410.29	444.01
410.667	474.97
411.045	454.18
411.422	468.87
411.8	474.3
412.178	509.55
412.555	492.15
412.933	478.36
413.31	498.7
413.687	489.21
414.065	468.42
414.442	506.84
414.819	541.19
415.197	510.68
415.574	524.69
415.951	535.08
416.328	511.81
416.705	554.52
417.082	562.65
417.46	536.67
417.837	566.5
418.214	589.32
418.591	581.41
418.967	578.93
419.344	584.58
419.721	611.92
420.098	600.39
420.475	613.5
420.852	591.35
421.228	637.23
421.605	634.07
421.982	608.53
422.358	650.34
422.735	633.16
423.111	638.13
423.488	662.31
423.864	638.81
424.241	645.59
424.617	649.21
424.994	654.4
425.37	680.62
425.746	685.59
426.123	704.35
426.499	710.45
426.875	719.03
427.251	713.39
427.627	725.14
428.003	725.14
428.379	723.78
428.756	734.85
429.132	739.15
429.507	772.14
429.883	776.66
430.259	770.11
430.635	785.02
431.011	780.5
431.387	776.21
431.763	807.85
432.138	829.09
432.514	819.15
432.89	849.65
433.265	821.4
433.641	844.46
434.016	852.14
434.392	843.1
434.767	875.41
435.143	864.57
435.518	865.92
435.894	889.2
436.269	906.83
436.644	924.68
437.02	943.89
437.395	912.02
437.77	923.32
438.145	948.86
438.52	943.89
438.895	959.71
439.271	959.71
439.646	974.17
440.021	994.96
440.395	968.75
440.77	987.95
441.145	979.59
441.52	1023.66
441.895	1047.61
442.27	1009.87
442.645	996.99
443.019	1026.6
443.394	1001.29
443.769	1032.47
444.143	1015.75
444.518	1033.38
444.892	1034.05
445.267	1034.51
445.641	1047.84
446.016	1037.22
446.39	1057.56
446.764	1056.88
447.139	1067.27
447.513	1034.51
447.887	1073.83
448.262	1085.13
448.636	1080.61
449.01	1094.39
449.384	1078.35
449.758	1111.57
450.132	1126.26
450.506	1113.15
450.88	1100.49
451.254	1093.04
451.628	1119.93
452.002	1150.89
452.376	1132.13
452.75	1122.64
453.123	1139.14
453.497	1153.6
453.871	1154.28
454.244	1174.62
454.618	1186.82
454.992	1185.46
455.365	1197.44
455.739	1194.5
456.112	1208.29
456.486	1229.08
456.859	1235.63
457.232	1244.9
457.606	1247.83
457.979	1237.21
458.352	1265.69
458.725	1273.6
459.099	1267.49
459.472	1280.15
459.845	1266.37
460.218	1281.51
460.591	1319.92
460.964	1276.31
461.337	1350.43
461.71	1360.15
462.083	1372.58
462.456	1359.24
462.829	1355.63
463.201	1368.96
463.574	1391.79
463.947	1378
464.32	1433.37
464.692	1397.89
465.065	1440.82
465.438	1461.61
465.81	1443.76
466.183	1456.42
466.555	1490.99
466.928	1500.94
467.3	1486.02
467.672	1497.32
468.045	1555.62
468.417	1529.86
468.789	1561.95
469.161	1516.75
469.534	1595.17
469.906	1617.09
470.278	1593.59
470.65	1629.97
471.022	1621.16
471.394	1658.67
471.766	1674.94
472.138	1687.82
472.51	1705.9
472.882	1733.47
473.253	1725.56
473.625	1749.29
473.997	1757.43
474.369	1804.43
474.74	1811.89
475.112	1801.72
475.484	1835.16
475.855	1843.98
476.227	1860.7
476.598	1899.57
476.97	1924.43
477.341	1942.05
477.713	1934.6
478.084	1952.9
478.455	1999.91
478.827	2015.27
479.198	2051.43
479.569	2051.88
479.94	2091.43
480.311	2106.79
480.682	2166
481.053	2216.17
481.424	2238.32
481.795	2206.91
482.166	2245.77
482.537	2262.72
482.908	2333.68
483.279	2316.73
483.65	2333
484.021	2356.51
484.391	2420.46
484.762	2418.2
485.133	2457.29
485.503	2452.77
485.874	2461.14
486.244	2512.89
486.615	2557.63
486.985	2603.96
487.356	2574.81
487.726	2602.83
488.097	2670.85
488.467	2672.2
488.837	2704.75
489.207	2725.31
489.578	2747.46
489.948	2787
490.318	2802.37
490.688	2813.44
491.058	2866.1
491.428	2873.55
491.798	2862.48
492.168	2927.11
492.538	2952.87
492.908	2973.21
493.278	3013.21
493.648	3009.37
494.017	3026.77
494.387	3059.31
494.757	3048.92
495.126	3114.9
495.496	3116.26
495.866	3146.09
496.235	3166.43
496.605	3132.3
496.974	3178.41
497.344	3234.9
497.713	3212.75
498.082	3214.79
498.452	3235.35
498.821	3255.47
499.19	3267.67
499.559	3327.55
499.928	3326.65
500.298	3289.81
500.667	3335.24
501.036	3319.19
501.405	3403.48
501.774	3361.68
502.143	3385.41
502.512	3382.02
502.88	3415.69
503.249	3416.36
503.618	3453.43
503.987	3430.83
504.356	3490.49
504.724	3471.28
505.093	3479.41
505.462	3517.83
505.83	3534.33
506.199	3537.72
506.567	3591.73
506.936	3542.69
507.304	3564.16
507.672	3584.04
508.041	3592.41
508.409	3612.97
508.777	3654.55
509.145	3657.04
509.514	3605.51
509.882	3660.2
510.25	3647.09
510.618	3692.74
510.986	3712.18
511.354	3740.2
511.722	3737.71
512.09	3756.02
512.458	3748.56
512.826	3765.51
513.193	3765.96
513.561	3800.76
513.929	3800.31
514.297	3786.98
514.664	3826.07
515.032	3796.24
515.4	3815.68
515.767	3857.94
516.135	3855.68
516.502	3871.95
516.869	3901.78
517.237	3901.32
517.604	3882.57
517.972	3850.48
518.339	3897.26
518.706	3928.89
519.073	3896.35
519.44	3871.95
519.808	3990.59
520.175	3941.1
520.542	3959.85
520.909	3991.94
521.276	3980.42
521.643	3985.62
522.009	4013.86
522.376	4008.67
522.743	4046.4
523.11	4076.23
523.477	4078.72
523.843	4122.11
524.21	4145.61
524.577	4109
524.943	4154.42
525.31	4135.44
525.676	4199.85
526.043	4237.36
526.409	4209.56
526.776	4220.19
527.142	4245.95
527.508	4291.37
527.874	4302.9
528.241	4314.87
528.607	4307.41
528.973	4347.87
529.339	4371.82
529.705	4406.62
530.071	4456.56
530.437	4459.28
530.803	4433.51
531.169	4515.09
531.535	4475.77
531.901	4437.13
532.267	4474.19
532.632	4516
532.998	4542.89
533.364	4569.1
533.73	4611.36
534.095	4656.33
534.461	4668.76
534.826	4608.2
535.192	4681.87
535.557	4694.98
535.923	4682.32
536.288	4744.92
536.653	4784.69
537.019	4768.42
537.384	4762.32
537.749	4806.38
538.114	4818.14
538.479	4805.03
538.845	4830.79
539.21	4833.95
539.575	4839.38
539.94	4872.6
540.305	4953.27
540.67	4920.51
541.034	4928.19
541.399	5004.12
541.764	4977
542.129	4997.79
542.494	5068.07
542.858	5021.29
543.223	5079.82
543.587	5081.86
543.952	5120.73
544.316	5108.3
544.681	5142.65
545.045	5108.75
545.41	5160.73
545.774	5204.34
546.138	5214.28
546.503	5214.51
546.867	5229.2
547.231	5323.21
547.595	5332.25
547.959	5340.16
548.324	5302.87
548.688	5297.67
549.052	5344.9
549.416	5386.71
549.779	5428.06
550.143	5432.58
550.507	5449.53
550.871	5484.11
551.235	5462.64
551.599	5507.84
551.962	5500.83
552.326	5573.14
552.689	5588.74
553.053	5536.31
553.417	5560.94
553.78	5636.19
554.143	5620.83
554.507	5604.78
554.87	5607.49
555.234	5679.36
555.597	5661.5
555.96	5698.11
556.323	5744.89
556.686	5662.41
557.05	5747.83
557.413	5760.48
557.776	5764.1
558.139	5789.64
558.502	5775.17
558.865	5832.57
559.228	5861.27
559.59	5891.78
559.953	5825.79
560.316	5922.74
560.679	5905.79
561.041	5965.68
561.404	5949.63
561.767	5975.85
562.129	5996.64
562.492	6063.08
562.854	5997.31
563.217	6014.49
563.579	6021.27
563.941	6081.38
564.304	6114.6
564.666	6110.98
565.028	6168.83
565.39	6138.78
565.753	6160.7
566.115	6192.11
566.477	6197.99
566.839	6202.05
567.201	6279.79
567.563	6278.21
567.925	6335.61
568.287	6336.06
568.648	6344.2
569.01	6371.54
569.372	6397.3
569.734	6426
570.095	6385.1
570.457	6419.68
570.819	6507.13
571.18	6464.19
571.542	6555.49
571.903	6638.43
572.265	6646.34
572.626	6635.04
572.987	6669.84
573.349	6711.42
573.71	6778.99
574.071	6789.61
574.432	6878.42
574.794	6887.23
575.155	6944.86
575.516	6947.8
575.877	7063.95
576.238	7081.13
576.599	7169.49
576.96	7216.27
577.32	7290.84
577.681	7379.65
578.042	7484.51
578.403	7474.34
578.763	7543.49
579.124	7733.99
579.485	7743.26
579.845	7890.6
580.206	7919.3
580.566	8031.84
580.927	8136.01
581.287	8322.45
581.648	8339.85
582.008	8547.98
582.368	8643.57
582.728	8813.96
583.089	8865.94
583.449	9040.4
583.809	9211.92
584.169	9444.91
584.529	9525.81
584.889	9788.63
585.249	9812.58
585.609	10128.96
585.969	10293.25
586.329	10422.73
586.688	10614.14
587.048	10892.78
587.408	11022.04
587.768	11295.48
588.127	11442.37
588.487	11703.38
588.846	12044.39
589.206	12085.97
589.565	12425.17
589.925	12671.94
590.284	12859.05
590.643	13156.22
591.003	13406.84
591.362	13682.76
591.721	14024.67
592.08	14246.81
592.44	14529.75
592.799	14803.18
593.158	15037.08
593.517	15248.6
593.876	15573.56
594.235	15879.31
594.593	16105.52
594.952	16468
595.311	16728.11
595.67	17047.42
596.029	17356.34
596.387	17566.73
596.746	17994.06
597.104	18090.33
597.463	18374.16
597.822	18719.69
598.18	19021.6
598.538	19239.45
598.897	19707.46
599.255	19804.41
599.613	20316.49
599.972	20506.31
600.33	20770.03
600.688	21031.95
601.046	21402.11
601.404	21646.17
601.762	21996.89
602.12	22222.88
602.478	22468.52
602.836	22791.67
603.194	22920.03
603.552	23155.06
603.91	23413.81
604.268	23675.95
604.625	23867.58
604.983	24169.27
605.341	24286.55
605.698	24649.93
606.056	24964.5
606.413	25067.1
606.771	25390.7
607.128	25758.83
607.485	25829.33
607.843	26081.76
608.2	26479.49
608.557	26717.9
608.914	26747.73
609.272	27171.9
609.629	27345.23
609.986	27546.35
610.343	27674.03
610.7	28115.6
611.057	28152.21
611.414	28372.09
611.771	28534.57
612.127	28780.44
612.484	28868.13
612.841	29142.02
613.198	29237.61
613.554	29395.79
613.911	29590.82
614.267	29835.11
614.624	29971.6
614.98	30278.71
615.337	30458.14
615.693	30551.02
616.05	30696.33
616.406	30971.8
616.762	30968.86
617.118	31115.07
617.475	31183.32
617.831	31493.37
618.187	31665.11
618.543	31805.9
618.899	32086.12
619.255	32061.26
619.611	32218.32
619.967	32329.96
620.323	32561.59
620.678	32630.51
621.034	32557.52
621.39	32740.57
621.746	32792.77
622.101	33360.89
622.457	32996.15
622.812	33205.86
623.168	33343.49
623.523	33355.01
623.879	33638.85
624.234	33396.37
624.589	33611.5
624.945	33809.46
625.3	33848.11
625.655	33964.04
626.01	34015.33
626.365	34166.06
626.72	33940.53
627.075	34150.25
627.43	34227.08
627.785	34228.44
628.14	34302.33
628.495	34484.47
628.85	34623.45
629.205	34392.73
629.559	34675.2
629.914	34619.84
630.269	34656
630.623	34596.56
630.978	34589.56
631.332	34865.93
631.687	34992.48
632.041	34792.26
632.396	34830.45
632.75	34794.75
633.104	34920.85
633.459	34820.29
633.813	34779.38
634.167	34867.06
634.521	34803.56
634.875	35037
635.229	34883.56
635.583	34860.96
635.937	34789.33
636.291	34857.12
636.645	34784.13
636.999	34789.55
637.352	34935.08
637.706	34701.87
638.06	34999.04
638.413	34787.74
638.767	34851.02
639.121	34960.17
639.474	34690.57
639.828	34896.44
640.181	34878.36
640.534	34872.04
640.888	34824.13
641.241	34759.5
641.594	34870
641.947	34954.07
642.301	34810.79
642.654	34909.32
643.007	34911.81
643.36	34926.04
643.713	34888.98
644.066	34950.23
644.419	34775.99
644.771	34552.95
645.124	34217.59
645.477	34117.48
645.83	34078.38
646.182	33884.72
646.535	33750.48
646.888	33867.54
647.24	33736.92
647.593	34001.55
647.945	33778.96
648.298	33744.83
648.65	33586.87
649.002	33635.68
649.355	33776.92
649.707	33775.57
650.059	33757.04
650.411	34154.54
650.763	34292.62
651.115	34676.11
651.467	34522.89
651.819	34508.43
652.171	34511.59
652.523	34514.98
652.875	34503.01
653.227	34313.63
653.578	34517.47
653.93	34448.54
654.282	34266.63
654.633	34308.43
654.985	34225.95
655.337	34241.54
655.688	34335.33
656.039	34412.84
656.391	34149.79
656.742	34263.92
657.094	34227.31
657.445	34360.86
657.796	34343.24
658.147	34218.49
658.498	34282.9
658.849	34341.43
659.2	34280.64
659.551	34153.86
659.902	34237.7
660.253	34110.47
660.604	34254.88
660.955	34114.31
661.306	34005.62
661.656	34051.72
662.007	34157.7
662.358	34152.96
662.708	34118.16
663.059	34113.18
663.409	33952.29
663.76	34127.2
664.11	34089.46
664.461	34262.11
664.811	34057.14
665.161	34121.55
665.511	34006.52
665.862	34134.88
666.212	34202.67
666.562	34177.59
666.912	34054.43
667.262	34069.34
667.612	34030.93
667.962	34110.02
668.312	33973.53
668.662	34153.18
669.011	33999.06
669.361	33949.12
669.711	34049.68
670.06	33931.72
670.41	33818.73
670.76	33857.37
671.109	34055.56
671.459	33863.47
671.808	33849.24
672.157	33898.5
672.507	33849.46
672.856	33792.06
673.205	33851.95
673.554	33841.33
673.904	33855.56
674.253	34084.71
674.602	33736.47
674.951	33441.79
675.3	33309.14
675.649	33693.08
675.998	33664.16
676.346	33718.17
676.695	33859.63
677.044	33579.19
677.393	33687.66
677.741	33783.02
678.09	33556.82
678.438	33526.53
678.787	33506.42
679.135	33584.16
679.484	33422.81
679.832	33402.7
680.181	33340.1
680.529	33343.04
680.877	33383.03
681.225	33267.78
681.573	33526.99
681.922	33161.12
682.27	33209.03
682.618	33085.42
682.966	33081.57
683.314	33097.84
683.661	33086.09
684.009	32929.26
684.357	32807.46
684.705	32755.25
685.053	32799.32
685.4	32700.34
685.748	32520.01
686.095	32593.22
686.443	32650.85
686.79	32420.57
687.138	32454.02
687.485	32454.02
687.832	32406.79
688.18	32314.81
688.527	32181.48
688.874	32299.67
689.221	32259
689.568	32052.9
689.915	31958.44
690.262	32056.52
690.609	31927.25
690.956	31896.07
691.303	31712.8
691.65	31659.69
691.997	31555.06
692.344	31492.46
692.69	31520.71
693.037	31374.5
693.383	31167.73
693.73	31175.64
694.077	31095.86
694.423	31161.17
694.769	31089.76
695.116	31002.76
695.462	30923.66
695.808	30890.9
696.155	30960.05
696.501	30777.45
696.847	30723.9
697.193	30483
697.539	30597.57
697.885	30293.85
698.231	30207.07
698.577	30338.14
698.923	30301.76
699.269	29981.09
699.614	29821.32
699.96	29878.27
700.306	29824.94
700.651	29804.15
700.997	29617.94
701.342	29694.77
701.688	29556.92
702.033	29497.71
702.379	29437.83
702.724	29453.65
703.069	29474.21
703.415	29121
703.76	29144.73
704.105	29203.94
704.45	29001.91
704.795	28859.99
705.14	28845.3
705.485	28847.33
705.83	28739.77
706.175	28757.17
706.52	28542.71
706.865	28574.57
707.209	28516.04
707.554	28412.32
707.899	28371.42
708.243	28300.23
708.588	28267.69
708.932	28189.05
709.277	28021.37
709.621	28090.07
709.966	27937.08
710.31	27930.3
710.654	27806.68
710.998	27853.24
711.342	27811.43
711.687	27781.83
712.031	27628.38
712.375	27521.04
712.719	27515.39
713.063	27538.22
713.407	27548.16
713.75	27370.54
714.094	27363.31
714.438	27390.2
714.782	27283.53
715.125	27109.98
715.469	27171.9
715.812	27042.18
716.156	26930.32
716.499	26872.25
716.843	26869.76
717.186	26841.29
717.53	26963.54
717.873	26807.61
718.216	26797.9
718.559	26793.6
718.902	26522.65
719.246	26547.96
719.589	26481.3
719.932	26530.56
720.275	26453.27
720.617	26435.65
720.96	26326.05
721.303	26344.35
721.646	26326.5
721.989	26136.45
722.331	26145.48
722.674	26154.52
723.016	26151.13
723.359	26004.25
723.701	26031.59
724.044	25915.66
724.386	25677.25
724.729	25934.64
725.071	25810.35
725.413	25830.01
725.755	25820.3
726.097	25557.25
726.439	25604.03
726.782	25664.82
727.124	25770.13
727.465	25474.77
727.807	25466.18
728.149	25485.39
728.491	25410.59
728.833	25349.35
729.175	25317.48
729.516	25353.64
729.858	25238.62
730.199	25279.97
730.541	25279.52
730.882	25246.07
731.224	25244.94
731.565	25036.59
731.906	24960.43
732.248	25145.29
732.589	24983.26
732.93	24910.04
733.271	24932.18
733.612	24950.26
733.953	24939.87
734.294	24621.23
734.635	24754.56
734.976	24791.17
735.317	24606.54
735.658	24668.24
735.999	24640.21
736.339	24545.98
736.68	24524.28
737.021	24512.76
737.361	24414.23
737.702	24539.43
738.042	24405.64
738.383	24385.08
738.723	24405.87
739.063	24338.98
739.404	24364.06
739.744	24280.22
740.084	24232.99
740.424	24195.71
740.764	24212.88
741.104	24252.43
741.444	24118.19
741.784	24027.8
742.124	24025.09
742.464	24002.49
742.804	23926.33
743.143	23917.52
743.483	23831.2
743.823	23847.47
744.162	23756.4
744.502	23790.07
744.841	23696.74
745.181	23708.03
745.52	23594.37
745.86	23656.96
746.199	23618.09
746.538	23560.24
746.877	23581.48
747.216	23524.76
747.556	23518.66
747.895	23511.43
748.234	23315.95
748.573	23298.33
748.911	23385.78
749.25	23317.54
749.589	23127.49
749.928	23260.36
750.267	23242.51
750.605	23086.81
750.944	23100.37
751.283	23126.81
751.621	23062.63
751.96	22911.45
752.298	22959.13
752.636	22871.67
752.975	22901.05
753.313	22738.34
753.651	22880.26
753.989	22683.43
754.327	22629.87
754.666	22538.35
755.004	22518.24
755.342	22621.28
755.679	22470.78
756.017	22382.87
756.355	22447.28
756.693	22461.06
757.031	22309.43
757.368	22174.52
757.706	22126.38
758.044	22156.21
758.381	22089.32
758.719	22075.31
759.056	22006.38
759.394	22038.25
759.731	21833.51
760.068	21825.6
760.405	21692.04
