Data from hue_140_FLMS001491_00062.txt Node
Date: Tue Feb 07 16:56:14 GMT 2017
User: dcchb
Spectrometer: FLMS00149
Trigger mode: 0
Integration Time (sec): 2.000000E-2
Scans to average: 10
Electric dark correction enabled: true
Nonlinearity correction enabled: false
Boxcar width: 0
XAxis mode: Wavelengths
Number of Pixels in Spectrum: 2048
>>>>>Begin Spectral Data<<<<<
341.393	15.23
341.776	15.23
342.16	15.23
342.543	-62.74
342.927	-60.48
343.31	-76.07
343.693	-72.91
344.077	-68.61
344.46	-62.06
344.843	-52.8
345.226	-48.28
345.61	-2.85
345.993	-27.03
346.376	-4.43
346.759	11.16
347.142	40.54
347.525	48.45
347.908	45.73
348.291	71.5
348.674	89.57
349.057	108.1
349.44	134.77
349.823	125.05
350.206	163.24
350.588	175
350.971	206.18
351.354	220.19
351.737	232.17
352.119	260.42
352.502	253.86
352.884	257.48
353.267	280.76
353.65	282.79
354.032	303.13
354.414	295.44
354.797	319.4
355.179	307.65
355.562	314.65
355.944	306.74
356.326	311.94
356.709	340.87
357.091	340.64
357.473	336.12
357.855	342.45
358.238	334.09
358.62	337.93
359.002	343.35
359.384	323.24
359.766	333.41
360.148	331.38
360.53	351.04
360.912	333.18
361.294	319.4
361.676	325.73
362.057	323.92
362.439	328.89
362.821	330.92
363.203	323.47
363.584	329.34
363.966	319.62
364.348	329.34
364.729	316.46
365.111	289.12
365.493	324.37
365.874	332.28
366.256	322.34
366.637	312.39
367.019	304.48
367.4	312.17
367.781	323.01
368.163	319.4
368.544	308.33
368.925	308.78
369.306	319.17
369.688	324.14
370.069	299.51
370.45	311.94
370.831	303.13
371.212	330.02
371.593	316.69
371.974	311.71
372.355	298.16
372.736	305.39
373.117	313.75
373.498	304.26
373.879	317.14
374.26	305.84
374.641	325.05
375.021	334.54
375.402	335.44
375.783	333.64
376.163	319.62
376.544	336.57
376.925	331.38
377.305	319.17
377.686	326.4
378.066	328.89
378.447	341.32
378.827	334.31
379.208	315.56
379.588	321.88
379.968	319.62
380.349	329.79
380.729	360.3
381.109	323.01
381.489	350.81
381.87	333.18
382.25	332.51
382.63	347.19
383.01	343.8
383.39	323.24
383.77	344.93
384.15	342.45
384.53	351.04
384.91	326.4
385.29	346.97
385.67	350.13
386.049	345.39
386.429	364.82
386.809	349.23
387.189	366.18
387.568	350.81
387.948	350.58
388.328	354.43
388.707	347.65
389.087	352.84
389.466	351.71
389.846	335.9
390.225	360.98
390.605	387.65
390.984	345.16
391.363	346.74
391.743	353.97
392.122	364.14
392.501	356.46
392.881	384.26
393.26	368.21
393.639	395.78
394.018	347.42
394.397	383.58
394.776	377.93
395.155	371.83
395.534	385.39
395.913	381.77
396.292	390.81
396.671	367.31
397.05	384.03
397.429	370.47
397.808	399.4
398.186	388.1
398.565	384.93
398.944	388.78
399.323	393.75
399.701	400.07
400.08	385.16
400.458	398.04
400.837	391.03
401.215	411.15
401.594	419.73
401.972	408.89
402.351	410.92
402.729	402.11
403.107	383.35
403.486	400.75
403.864	432.39
404.242	417.25
404.62	403.92
404.999	412.96
405.377	426.51
405.755	441.43
406.133	436.01
406.511	447.76
406.889	433.29
407.267	436.68
407.645	451.15
408.023	446.17
408.401	401.66
408.779	432.62
409.156	451.37
409.534	435.78
409.912	440.98
410.29	443.01
410.667	459.28
411.045	458.15
411.422	460.64
411.8	468.77
412.178	460.41
412.555	459.96
412.933	467.64
413.31	452.28
413.687	480.07
414.065	484.37
414.442	484.82
414.819	475.78
415.197	499.28
415.574	507.19
415.951	483.69
416.328	516.23
416.705	505.83
417.082	508.32
417.46	505.38
417.837	522.56
418.214	496.34
418.591	516.23
418.967	507.42
419.344	524.14
419.721	518.26
420.098	508.77
420.475	517.36
420.852	532.5
421.228	523.01
421.605	540.41
421.982	515.33
422.358	555.32
422.735	564.36
423.111	529.79
423.488	542.67
423.864	565.95
424.241	583.12
424.617	548.77
424.994	558.94
425.37	564.59
425.746	577.02
426.123	567.98
426.499	559.17
426.875	594.65
427.251	603.91
427.627	565.95
428.003	606.17
428.379	618.6
428.756	619.5
429.132	619.28
429.507	630.58
429.883	627.64
430.259	647.98
430.635	631.03
431.011	665.15
431.387	627.19
431.763	637.13
432.138	648.2
432.514	677.36
432.89	667.64
433.265	659.5
433.641	682.33
434.016	669.45
434.392	719.39
434.767	692.72
435.143	692.27
435.518	716.9
435.894	730.69
436.269	734.08
436.644	707.41
437.02	730.91
437.395	727.52
437.77	719.16
438.145	751.03
438.52	759.84
438.895	777.24
439.271	767.75
439.646	751.48
440.021	771.14
440.395	771.59
440.77	782.66
441.145	773.85
441.52	777.69
441.895	796.22
442.27	814.3
442.645	798.26
443.019	791.7
443.394	820.4
443.769	808.65
444.143	821.98
444.518	846.16
444.892	849.55
445.267	825.37
445.641	869.67
446.016	846.39
446.39	861.08
446.764	867.86
447.139	850.23
447.513	848.2
447.887	866.5
448.262	871.02
448.636	878.25
449.01	873.96
449.384	888.42
449.758	891.36
450.132	927.74
450.506	916.22
450.88	933.85
451.254	932.26
451.628	920.29
452.002	958.93
452.376	948.53
452.75	949.89
453.123	986.27
453.497	972.71
453.871	971.13
454.244	1009.55
454.618	996.89
454.992	998.7
455.365	1037.35
455.739	1064.92
456.112	1066.05
456.486	1077.8
456.859	1101.52
457.232	1098.81
457.606	1101.98
457.979	1096.33
458.352	1114.86
458.725	1139.04
459.099	1139.72
459.472	1193.95
459.845	1135.2
460.218	1172.94
460.591	1182.65
460.964	1213.16
461.337	1223.56
461.71	1240.73
462.083	1237.79
462.456	1254.29
462.829	1305.36
463.201	1302.42
463.574	1270.11
463.947	1351.01
464.32	1359.37
464.692	1365.92
465.065	1387.39
465.438	1410.22
465.81	1424.23
466.183	1445.47
466.555	1484.34
466.928	1449.76
467.3	1481.4
467.672	1503.1
468.045	1542.19
468.417	1566.6
468.789	1612.47
469.161	1612.25
469.534	1613.83
469.906	1659.25
470.278	1712.58
470.65	1715.97
471.022	1778.8
471.394	1809.53
471.766	1818.12
472.138	1840.71
472.51	1883.65
472.882	1941.95
473.253	1937.66
473.625	2014.95
473.997	2051.33
474.369	2038.45
474.74	2119.58
475.112	2185.79
475.484	2219.69
475.855	2318.67
476.227	2329.52
476.598	2402.28
476.97	2452.68
477.341	2486.57
477.713	2576.29
478.084	2586.23
478.455	2704.87
478.827	2743.29
479.198	2818.54
479.569	2882.27
479.94	2976.96
480.311	3049.27
480.682	3154.58
481.053	3231.41
481.424	3275.93
481.795	3417.4
482.166	3476.38
482.537	3525.64
482.908	3666.43
483.279	3748.23
483.65	3826.2
484.021	3959.3
484.391	4110.03
484.762	4136.25
485.133	4250.37
485.503	4382.79
485.874	4460.31
486.244	4534.65
486.615	4726.06
486.985	4816.23
487.356	4905.49
487.726	5036.34
488.097	5140.97
488.467	5274.97
488.837	5482.88
489.207	5548.64
489.578	5722.42
489.948	5785.7
490.318	5994.73
490.688	6041.06
491.058	6244.67
491.428	6394.04
491.798	6472.91
492.168	6607.59
492.538	6741.15
492.908	6909.96
493.278	7040.13
493.648	7045.78
494.017	7261.14
494.387	7358.76
494.757	7518.98
495.126	7648.25
495.496	7675.82
495.866	7822.7
496.235	7958.29
496.605	8055.01
496.974	8214.33
497.344	8313.76
497.713	8430.82
498.082	8518.05
498.452	8652.29
498.821	8792.4
499.19	8861.77
499.559	8986.06
499.928	9027.19
500.298	9174.76
500.667	9360.06
501.036	9327.98
501.405	9432.38
501.774	9528.65
502.143	9630.34
502.512	9638.02
502.88	9761.86
503.249	9805.93
503.618	9982.2
503.987	10031.69
504.356	10116.65
504.724	10167.28
505.093	10300.83
505.462	10300.83
505.83	10389.42
506.199	10546.93
506.567	10619.24
506.936	10594.38
507.304	10680.48
507.672	10861.72
508.041	10847.71
508.409	10943.98
508.777	11059.68
509.145	11167.25
509.514	11161.6
509.882	11201.82
510.25	11285.89
510.618	11238.89
510.986	11321.59
511.354	11437.07
511.722	11507.58
512.09	11581.93
512.458	11556.84
512.826	11629.16
513.193	11628.25
513.561	11691.53
513.929	11760.23
514.297	11850.17
514.664	11903.95
515.032	11938.75
515.4	12016.04
515.767	12056.26
516.135	12084.29
516.502	11986.89
516.869	12154.12
517.237	12126.55
517.604	12061.69
517.972	12235.24
518.339	12381.23
518.706	12246.32
519.073	12314.56
519.44	12367.67
519.808	12451.73
520.175	12354.79
520.542	12498.97
520.909	12531.96
521.276	12550.72
521.643	12575.8
522.009	12597.04
522.376	12648.57
522.743	12742.12
523.11	12762.91
523.477	12839.75
523.843	12793.65
524.21	12917.03
524.577	12875.23
524.943	12915
525.31	12959.29
525.676	13008.56
526.043	13026.63
526.409	13033.41
526.776	13184.37
527.142	13111.15
527.508	13145.73
527.874	13171.72
528.241	13184.14
528.607	13154.99
528.973	13238.15
529.339	13202.45
529.705	13253.75
530.071	13211.26
530.437	13203.35
530.803	13247.87
531.169	13381.2
531.535	13161.55
531.901	13132.62
532.267	13217.14
532.632	13208.78
532.998	13175.33
533.364	13164.94
533.73	13221.21
534.095	13236.57
534.461	13245.61
534.826	13209
535.192	13243.35
535.557	13258.49
535.923	13317.47
536.288	13127.42
536.653	13152.28
537.019	13057.14
537.384	13077.26
537.749	13117.93
538.114	12985.05
538.479	13034.09
538.845	13014.21
539.21	12909.8
539.575	12910.93
539.94	12885.4
540.305	12997.94
540.67	12889.24
541.034	12791.61
541.399	12839.07
541.764	12792.52
542.129	12805.62
542.494	12756.36
542.858	12711.39
543.223	12694.67
543.587	12704.84
543.952	12571.73
544.316	12614.44
544.681	12584.84
545.045	12574.44
545.41	12618.28
545.774	12521.56
546.138	12531.28
546.503	12494.67
546.867	12461.68
547.231	12459.42
547.595	12422.36
547.959	12430.27
548.324	12305.07
548.688	12361.57
549.052	12294
549.416	12240.21
549.779	12235.47
550.143	12188.46
550.507	12203.83
550.871	12224.85
551.235	12117.28
551.599	12186.21
551.962	12073.21
552.326	12093.78
552.689	12126.77
553.053	12041.58
553.417	12008.81
553.78	12086.77
554.143	12072.99
554.507	12034.57
554.87	12001.13
555.234	12037.51
555.597	11985.53
555.96	11999.77
556.323	11914.35
556.686	11956.83
557.05	11811.75
557.413	11915.25
557.776	11899.21
558.139	11912.09
558.502	11779.21
558.865	11794.12
559.228	11893.56
559.59	11818.31
559.953	11853.33
560.316	11974.23
560.679	11907.12
561.041	11942.6
561.404	11879.77
561.767	11949.15
562.129	11859.21
562.492	11963.84
562.854	11931.07
563.217	11896.27
563.579	11937.4
563.941	12022.14
564.304	12034.12
564.666	12000.22
565.028	12033.89
565.39	12150.5
565.753	12061.24
566.115	12018.53
566.477	12075.47
566.839	12003.38
567.201	12110.27
567.563	12059.43
567.925	12156.83
568.287	12133.55
568.648	12101.46
569.01	12152.08
569.372	12141.91
569.734	12148.24
570.095	12181.46
570.457	12183.49
570.819	12156.83
571.18	12117.96
571.542	12269.59
571.903	12238.86
572.265	12343.49
572.626	12297.39
572.987	12292.87
573.349	12273.66
573.71	12287.9
574.071	12395.01
574.432	12343.04
574.794	12474.11
575.155	12385.52
575.516	12328.8
575.877	12327.9
576.238	12367.22
576.599	12457.38
576.96	12376.26
577.32	12363.15
577.681	12392.08
578.042	12382.36
578.403	12347.1
578.763	12384.17
579.124	12374.45
579.485	12429.14
579.845	12479.76
580.206	12397.72
580.566	12402.02
580.927	12360.89
581.287	12429.59
581.648	12400.44
582.008	12466.42
582.368	12384.84
582.728	12410.83
583.089	12420.78
583.449	12413.32
583.809	12345.52
584.169	12348.69
584.529	12359.08
584.889	12405.86
585.249	12371.51
585.609	12312.53
585.969	12421.45
586.329	12321.57
586.688	12375.35
587.048	12315.69
587.408	12312.08
587.768	12320.66
588.127	12347.33
588.487	12308.24
588.846	12320.44
589.206	12265.52
589.565	12269.59
589.925	12336.48
590.284	12209.71
590.643	12253.55
591.003	12263.49
591.362	12301.91
591.721	12241.12
592.08	12283.15
592.44	12291.96
592.799	12242.93
593.158	12235.24
593.517	12203.38
593.876	12294.45
594.235	12209.93
594.593	12230.5
594.952	12162.25
595.311	12291.96
595.67	12222.36
596.029	12248.12
596.387	12247.45
596.746	12197.73
597.104	12232.31
597.463	12196.83
597.822	12232.53
598.18	12130.84
598.538	12087
598.897	12236.15
599.255	12116.6
599.613	12253.32
599.972	12205.87
600.33	12211.06
600.688	12107.56
601.046	12188.01
601.404	12246.77
601.762	12127
602.12	12252.19
602.478	12218.29
602.836	12234.34
603.194	12182.36
603.552	12160.44
603.91	12156.38
604.268	12145.75
604.625	12209.03
604.983	12216.94
605.341	12175.36
605.698	12191.63
606.056	12226.2
606.413	12196.15
606.771	12240.89
607.128	12224.85
607.485	12256.71
607.843	12224.62
608.2	12277.95
608.557	12383.49
608.914	12273.66
609.272	12344.84
609.629	12331.74
609.986	12337.61
610.343	12292.42
610.7	12445.41
611.057	12265.52
611.414	12333.55
611.771	12378.52
612.127	12333.55
612.484	12264.17
612.841	12383.71
613.198	12300.78
613.554	12345.07
613.911	12467.55
614.267	12383.26
614.624	12354.79
614.98	12412.19
615.337	12512.07
615.693	12457.84
616.05	12446.76
616.406	12550.72
616.762	12515.91
617.118	12505.29
617.475	12504.61
617.831	12565.63
618.187	12589.36
618.543	12582.35
618.899	12623.48
619.255	12554.56
619.611	12664.38
619.967	12606.31
620.323	12641.11
620.678	12567.44
621.034	12574.67
621.39	12543.71
621.746	12512.75
622.101	12660.09
622.457	12625.29
622.812	12652.41
623.168	12680.2
623.523	12655.8
623.879	12602.69
624.234	12620.32
624.589	12596.82
624.945	12632.97
625.3	12687.89
625.655	12575.8
626.01	12589.36
626.365	12637.27
626.72	12572.18
627.075	12598.4
627.43	12531.73
627.785	12549.13
628.14	12588.68
628.495	12558.4
628.85	12573.99
629.205	12492.41
629.559	12559.98
629.914	12465.97
630.269	12535.35
630.623	12470.04
630.978	12509.59
631.332	12505.97
631.687	12589.36
632.041	12462.13
632.396	12491.51
632.75	12420.32
633.104	12420.1
633.459	12333.77
633.813	12425.07
634.167	12334.45
634.521	12377.39
634.875	12386.88
635.229	12325.18
635.583	12234.11
635.937	12291.74
636.291	12262.59
636.645	12260.78
636.999	12268.46
637.352	12296.26
637.706	12170.84
638.06	12270.27
638.413	12210.61
638.767	12175.13
639.121	12206.09
639.474	12112.08
639.828	12120.67
640.181	12119.31
640.534	12094
640.888	12092.65
641.241	12066.43
641.594	12051.75
641.947	12118.18
642.301	12077.06
642.654	12032.76
643.007	12115.47
643.36	12071.41
643.713	12057.17
644.066	12102.82
644.419	12051.97
644.771	11917.51
645.124	11892.2
645.477	11831.86
645.83	11764.07
646.182	11716.84
646.535	11661.25
646.888	11750.96
647.24	11651.08
647.593	11619.67
647.945	11676.39
648.298	11619.89
648.65	11595.94
649.002	11556.62
649.355	11638.2
649.707	11605.2
650.059	11666.22
650.411	11806.1
650.763	11829.6
651.115	11934.69
651.467	11887
651.819	11908.7
652.171	11832.32
652.523	11873.44
652.875	11881.13
653.227	11942.14
653.578	11911.64
653.93	11890.17
654.282	11828.02
654.633	11812.88
654.985	11906.21
655.337	11786.67
655.688	11879.32
656.039	11890.62
656.391	11874.57
656.742	11897.4
657.094	11832.54
657.445	11919.77
657.796	11827.57
658.147	11808.14
658.498	11862.82
658.849	11912.31
659.2	11880.22
659.551	11860.79
659.902	11932.43
660.253	11889.26
660.604	11925.42
660.955	11897.4
661.306	11897.63
661.656	11873.44
662.007	11920.22
662.358	11896.72
662.708	11941.92
663.059	11860.56
663.409	11901.01
663.76	11932.43
664.11	11900.34
664.461	11904.63
664.811	11949.6
665.161	11918.64
665.511	11941.01
665.862	11803.39
666.212	11868.47
666.562	11897.17
666.912	11900.34
667.262	11870.51
667.612	11945.53
667.962	11912.31
668.312	11857.17
668.662	11878.19
669.011	11889.04
669.361	11884.74
669.711	11816.27
670.06	11755.48
670.41	11789.15
670.76	11701.25
671.109	11854.24
671.459	11932.2
671.808	11840
672.157	11776.27
672.507	11827.34
672.856	11772.43
673.205	11843.84
673.554	11765.2
673.904	11791.19
674.253	11831.86
674.602	11804.07
674.951	11639.55
675.3	11586.45
675.649	11771.07
675.998	11754.8
676.346	11755.93
676.695	11759.32
677.044	11638.87
677.393	11670.51
677.741	11686.56
678.09	11654.02
678.438	11623.73
678.787	11649.5
679.135	11675.26
679.484	11508.71
679.832	11643.17
680.181	11482.95
680.529	11619.67
680.877	11587.58
681.225	11552.78
681.573	11508.03
681.922	11545.54
682.27	11453.12
682.618	11428.94
682.966	11502.38
683.314	11551.19
683.661	11402.5
684.009	11368.6
684.357	11350.97
684.705	11326.34
685.053	11438.65
685.4	11323.4
685.748	11235.5
686.095	11203.86
686.443	11226.23
686.79	11233.46
687.138	11149.17
687.485	11157.08
687.832	11193.01
688.18	11189.85
688.527	11061.26
688.874	10989.17
689.221	11000.7
689.568	10984.88
689.915	10920.93
690.262	10968.16
690.609	10868.95
690.956	10835.28
691.303	10863.53
691.65	10800.93
691.997	10802.74
692.344	10769.97
692.69	10684.78
693.037	10717.32
693.383	10588.05
693.73	10615.85
694.077	10508.96
694.423	10541.28
694.769	10542.41
695.116	10471.45
695.462	10421.05
695.808	10367.95
696.155	10444.78
696.501	10377.89
696.847	10331.11
697.193	10296.09
697.539	10260.83
697.885	10208.86
698.231	10143.09
698.577	10164.79
698.923	10120.95
699.269	10078.92
699.614	10045.7
699.96	9925.02
700.306	9943.55
700.651	9919.15
700.997	9916.21
701.342	9899.94
701.688	9870.33
702.033	9782.88
702.379	9804.12
702.724	9753.27
703.069	9779.94
703.415	9654.75
703.76	9647.06
704.105	9653.62
704.45	9636.44
704.795	9595.09
705.14	9544.47
705.485	9562.32
705.83	9460.63
706.175	9434.41
706.52	9432.61
706.865	9428.76
707.209	9417.69
707.554	9379.27
707.899	9359.39
708.243	9311.25
708.588	9350.8
708.932	9231.48
709.277	9188.32
709.621	9267.41
709.966	9156.68
710.31	9196.45
710.654	9145.16
710.998	9117.13
711.342	9087.53
711.687	9019.96
712.031	8981.54
712.375	8938.83
712.719	8942.22
713.063	8928.44
713.407	8953.07
713.75	8947.19
714.094	8932.51
714.438	8918.72
714.782	8885.5
715.125	8812.73
715.469	8864.03
715.812	8854.09
716.156	8773.41
716.499	8811.83
716.843	8865.16
717.186	8686.41
717.53	8751.04
717.873	8702.45
718.216	8747.88
718.559	8763.24
718.902	8664.94
719.246	8732.74
719.589	8630.59
719.932	8633.76
720.275	8663.59
720.617	8631.72
720.96	8631.72
721.303	8599.41
721.646	8608.9
721.989	8605.28
722.331	8577.49
722.674	8622
723.016	8542.01
723.359	8510.14
723.701	8573.19
724.044	8539.07
724.386	8438.73
724.729	8472.63
725.071	8412.07
725.413	8458.85
725.755	8474.66
726.097	8449.81
726.439	8444.83
726.782	8476.7
727.124	8502.46
727.465	8372.97
727.807	8471.05
728.149	8391.28
728.491	8392.63
728.833	8440.77
729.175	8368.23
729.516	8368.68
729.858	8384.95
730.199	8381.11
730.541	8356.7
730.882	8357.15
731.224	8386.08
731.565	8381.79
731.906	8316.48
732.248	8398.51
732.589	8355.35
732.93	8341.56
733.271	8309.92
733.612	8372.29
733.953	8391.95
734.294	8368.68
734.635	8332.52
734.976	8293.43
735.317	8341.11
735.658	8296.59
735.999	8349.7
736.339	8268.12
736.68	8404.16
737.021	8358.51
737.361	8366.87
737.702	8360.09
738.042	8403.03
738.383	8365.06
738.723	8300.21
739.063	8334.33
739.404	8383.82
739.744	8356.48
740.084	8296.82
740.424	8346.53
740.764	8421.33
741.104	8416.13
741.444	8457.72
741.784	8414.55
742.124	8444.38
742.464	8461.56
742.804	8513.99
743.143	8516.02
743.483	8497.94
743.823	8473.53
744.162	8540.65
744.502	8582.46
744.841	8577.03
745.181	8647.09
745.52	8671.95
745.86	8701.55
746.199	8717.6
746.538	8749.01
746.877	8858.61
747.216	8855.9
747.556	8885.95
747.895	8944.03
748.234	8989.68
748.573	8963.69
748.911	9049.56
749.25	9094.76
749.589	9181.31
749.928	9187.64
750.267	9235.32
750.605	9367.52
750.944	9396.45
751.283	9469.67
751.621	9529.33
751.96	9638.02
752.298	9727.51
752.636	9841.63
752.975	9850
753.313	9945.13
753.651	10077.79
753.989	10111.46
754.327	10181.51
754.666	10278.01
755.004	10391
755.342	10575.4
755.679	10678.9
756.017	10719.58
756.355	10868.5
756.693	10893.81
757.031	11185.33
757.368	11206.57
757.706	11394.36
758.044	11458.99
758.381	11670.06
758.719	11761.58
759.056	11957.96
759.394	12063.5
