Data from hue_270_FLMS001491_00009.txt Node
Date: Tue Feb 07 15:56:42 GMT 2017
User: dcchb
Spectrometer: FLMS00149
Trigger mode: 0
Integration Time (sec): 2.000000E-2
Scans to average: 10
Electric dark correction enabled: true
Nonlinearity correction enabled: false
Boxcar width: 0
XAxis mode: Wavelengths
Number of Pixels in Spectrum: 2048
>>>>>Begin Spectral Data<<<<<
341.393	-13.36
341.776	-13.36
342.16	-13.36
342.543	-56.07
342.927	-86.13
343.31	-53.59
343.693	-73.47
344.077	-56.07
344.46	-48.61
344.843	-60.37
345.226	-51.33
345.61	-28.28
345.993	-7.94
346.376	1.78
346.759	-2.74
347.142	21.67
347.525	46.75
347.908	47.43
348.291	77.26
348.674	75
349.057	112.51
349.44	129.91
349.823	136.92
350.206	155.9
350.588	192.06
350.971	210.59
351.354	234.99
351.737	217.14
352.119	231.83
352.502	241.77
352.884	279.51
353.267	281.32
353.65	292.85
354.032	273.18
354.414	304.37
354.797	305.05
355.179	306.4
355.562	297.82
355.944	321.32
356.326	329.23
356.709	326.97
357.091	332.17
357.473	338.27
357.855	344.82
358.238	335.56
358.62	332.84
359.002	331.71
359.384	320.19
359.766	330.13
360.148	335.78
360.53	328.32
360.912	326.52
361.294	328.32
361.676	320.87
362.057	329.68
362.439	345.05
362.821	334.2
363.203	323.81
363.584	313.64
363.966	338.95
364.348	328.78
364.729	306.86
365.111	319.51
365.493	312.51
365.874	300.3
366.256	334.43
366.637	329.91
367.019	329.23
367.4	315.67
367.781	303.01
368.163	319.29
368.544	300.3
368.925	319.74
369.306	304.82
369.688	293.3
370.069	325.39
370.45	318.83
370.831	302.56
371.212	299.62
371.593	303.47
371.974	327.19
372.355	312.73
372.736	316.57
373.117	324.26
373.498	312.51
373.879	320.64
374.26	306.86
374.641	298.04
375.021	322.68
375.402	323.81
375.783	309.57
376.163	309.57
376.544	308.44
376.925	346.4
377.305	311.15
377.686	316.12
378.066	339.85
378.447	319.96
378.827	320.19
379.208	334.43
379.588	319.29
379.968	337.36
380.349	330.36
380.729	347.76
381.109	317.93
381.489	315.44
381.87	338.49
382.25	337.82
382.63	345.73
383.01	343.24
383.39	320.87
383.77	347.53
384.15	339.85
384.53	341.43
384.91	350.47
385.29	339.4
385.67	338.04
386.049	340.98
386.429	351.15
386.809	342.56
387.189	342.34
387.568	350.02
387.948	351.6
388.328	356.8
388.707	352.73
389.087	369
389.466	349.12
389.846	363.13
390.225	370.13
390.605	350.02
390.984	362.22
391.363	388.66
391.743	375.56
392.122	368.55
392.501	382.33
392.881	380.98
393.26	384.59
393.639	366.29
394.018	395.44
394.397	367.19
394.776	359.06
395.155	379.4
395.534	381.2
395.913	356.57
396.292	376.23
396.671	408.77
397.05	391.6
397.429	403.12
397.808	400.64
398.186	402.9
398.565	376.01
398.944	390.24
399.323	387.98
399.701	420.07
400.08	420.3
400.458	408.77
400.837	431.82
401.215	434.54
401.594	425.27
401.972	426.63
402.351	439.96
402.729	421.66
403.107	432.73
403.486	429.34
403.864	449.45
404.242	442.45
404.62	461.65
404.999	436.8
405.377	462.78
405.755	462.78
406.133	442.67
406.511	468.89
406.889	483.8
407.267	484.25
407.645	479.73
408.023	465.95
408.401	498.49
408.779	492.39
409.156	484.25
409.534	511.6
409.912	504.82
410.29	507.08
410.667	511.82
411.045	519.96
411.422	541.43
411.8	543.69
412.178	546.4
412.555	556.79
412.933	553.18
413.31	562.44
413.687	571.03
414.065	573.97
414.442	576.45
414.819	590.24
415.197	578.94
415.574	580.52
415.951	624.81
416.328	608.32
416.705	609.67
417.082	601.31
417.46	616.9
417.837	625.72
418.214	646.28
418.591	627.75
418.967	650.35
419.344	655.32
419.721	686.73
420.098	658.94
420.475	685.6
420.852	691.25
421.228	698.94
421.605	733.51
421.982	718.6
422.358	717.47
422.735	738.71
423.111	755.66
423.488	746.84
423.864	757.69
424.241	766.96
424.617	768.99
424.994	808.54
425.37	775.77
425.746	830.91
426.123	827.07
426.499	830.23
426.875	856.22
427.251	841.98
427.627	851.7
428.003	858.25
428.379	892.38
428.756	924.92
429.132	905.03
429.507	944.13
429.883	938.03
430.259	940.96
430.635	947.52
431.011	932.38
431.387	967.86
431.763	1001.75
432.138	1008.53
432.514	998.59
432.89	1027.52
433.265	1042.66
433.641	1036.33
434.016	1065.03
434.392	1090.79
434.767	1086.04
435.143	1106.61
435.518	1136.44
435.894	1109.55
436.269	1161.98
436.644	1176.44
437.02	1168.53
437.395	1182.31
437.77	1220.73
438.145	1233.16
438.52	1245.59
438.895	1259.15
439.271	1261.86
439.646	1318.81
440.021	1320.39
440.395	1313.84
440.77	1320.84
441.145	1352.93
441.52	1367.17
441.895	1387.96
442.27	1417.56
442.645	1385.25
443.019	1413.95
443.394	1410.78
443.769	1404.91
444.143	1426.6
444.518	1468.86
444.892	1444.45
445.267	1473.38
445.641	1502.53
446.016	1485.36
446.39	1472.7
446.764	1525.58
447.139	1527.39
447.513	1522.64
447.887	1545.02
448.262	1559.7
448.636	1531
449.01	1569.2
449.384	1582.08
449.758	1575.75
450.132	1635.63
450.506	1635.41
450.88	1592.92
451.254	1620.27
451.628	1636.76
452.002	1652.81
452.376	1660.27
452.75	1689.42
453.123	1689.87
453.497	1732.36
453.871	1730.55
454.244	1779.81
454.618	1770.32
454.992	1781.85
455.365	1780.04
455.739	1839.02
456.112	1835.18
456.486	1846.7
456.859	1878.79
457.232	1851.67
457.606	1893.26
457.979	1915.63
458.352	1947.27
458.725	1968.96
459.099	1957.66
459.472	2016.87
459.845	2010.54
460.218	2029.75
460.591	2024.78
460.964	2061.39
461.337	2082.85
461.71	2102.06
462.083	2147.94
462.456	2142.97
462.829	2147.03
463.201	2169.86
463.574	2195.17
463.947	2229.29
464.32	2276.75
464.692	2287.82
465.065	2282.17
465.438	2331.21
465.81	2341.38
466.183	2323.07
466.555	2391.32
466.928	2435.16
467.3	2407.37
467.672	2448.95
468.045	2498.21
468.417	2492.56
468.789	2546.35
469.161	2563.07
469.534	2559
469.906	2629.73
470.278	2655.72
470.65	2620.69
471.022	2707.7
471.394	2726.68
471.766	2765.1
472.138	2790.18
472.51	2832.44
472.882	2884.19
473.253	2895.94
473.625	2918.31
473.997	2981.59
474.369	2982.94
474.74	3009.38
475.112	3049.84
475.484	3097.74
475.855	3183.16
476.227	3194.01
476.598	3231.53
476.97	3257.29
477.341	3325.99
477.713	3370.05
478.084	3370.28
478.455	3474.46
478.827	3456.15
479.198	3573.21
479.569	3546.77
479.94	3630.61
480.311	3642.36
480.682	3721.68
481.053	3766.2
481.424	3797.61
481.795	3812.53
482.166	3915.35
482.537	3965.52
482.908	3975.01
483.279	4032.18
483.65	4128.45
484.021	4172.97
484.391	4199.86
484.762	4222.46
485.133	4268.11
485.503	4280.76
485.874	4343.81
486.244	4412.74
486.615	4465.39
486.985	4481.21
487.356	4519.85
487.726	4631.49
488.097	4646.86
488.467	4707.42
488.837	4745.38
489.207	4767.98
489.578	4822.9
489.948	4843.01
490.318	4969.11
490.688	4912.84
491.058	5007.75
491.428	5052.04
491.798	5094.98
492.168	5216.78
492.538	5181.08
492.908	5246.16
493.278	5306.95
493.648	5324.35
494.017	5362.09
494.387	5401.19
494.757	5425.37
495.126	5526.83
495.496	5514.63
495.866	5522.99
496.235	5583.1
496.605	5578.81
496.974	5628.98
497.344	5694.51
497.713	5682.53
498.082	5766.83
498.452	5750.1
498.821	5784
499.19	5781.97
499.559	5813.6
499.928	5865.81
500.298	5875.07
500.667	5896.31
501.036	5904
501.405	6021.51
501.774	5955.3
502.143	5989.42
502.512	6063.54
502.88	6028.74
503.249	6033.71
503.618	6062.86
503.987	6117.55
504.356	6116.87
504.724	6157.32
505.093	6143.54
505.462	6187.38
505.83	6249.3
506.199	6267.6
506.567	6260.82
506.936	6327.94
507.304	6377.21
507.672	6355.51
508.041	6398.22
508.409	6400.48
508.777	6454.27
509.145	6472.57
509.514	6429.41
509.882	6495.17
510.25	6494.94
510.618	6537.43
510.986	6521.83
511.354	6557.77
511.722	6565.67
512.09	6611.32
512.458	6609.29
512.826	6612
513.193	6678.67
513.561	6651.32
513.929	6691.32
514.297	6719.34
514.664	6739.68
515.032	6753.92
515.4	6800.7
515.767	6784.43
516.135	6799.34
516.502	6762.73
516.869	6896.97
517.237	6891.09
517.604	6855.16
517.972	6835.95
518.339	6981.48
518.706	6924.76
519.073	6929.28
519.44	6983.97
519.808	6971.99
520.175	6942.84
520.542	7059
520.909	7047.92
521.276	7046.34
521.643	7063.06
522.009	7098.54
522.376	7126.34
522.743	7117.98
523.11	7246.33
523.477	7268.71
523.843	7261.02
524.21	7315.49
524.577	7386.67
524.943	7383.05
525.31	7350.96
525.676	7403.62
526.043	7456.72
526.409	7366.78
526.776	7476.16
527.142	7464.18
527.508	7523.84
527.874	7519.77
528.241	7614.46
528.607	7691.75
528.973	7673.67
529.339	7620.79
529.705	7675.48
530.071	7703.95
530.437	7727
530.803	7755.7
531.169	7700.33
531.535	7751.86
531.901	7702.82
532.267	7754.12
532.632	7775.81
532.998	7739.2
533.364	7824.4
533.73	7781.91
534.095	7875.24
534.461	7838.64
534.826	7891.74
535.192	7895.36
535.557	7974.45
535.923	7884.51
536.288	7934.68
536.653	7963.6
537.019	7926.54
537.384	7958.86
537.749	7984.62
538.114	7959.31
538.479	8025.3
538.845	8021.91
539.21	8019.42
539.575	8028.91
539.94	8022.13
540.305	8121.11
540.67	8037.5
541.034	8054.45
541.399	8097.39
541.764	8138.51
542.129	8083.15
542.494	8111.85
542.858	8060.1
543.223	8085.63
543.587	8162.92
543.952	8098.52
544.316	8166.76
544.681	8177.61
545.045	8186.2
545.41	8237.95
545.774	8188.68
546.138	8226.2
546.503	8217.83
546.867	8236.59
547.231	8296.48
547.595	8326.31
547.959	8288.12
548.324	8264.39
548.688	8233.65
549.052	8301.67
549.416	8338.74
549.779	8293.54
550.143	8307.55
550.507	8315.01
550.871	8332.41
551.235	8305.29
551.599	8349.36
551.962	8449.24
552.326	8402.91
552.689	8422.8
553.053	8395.46
553.417	8414.67
553.78	8548.45
554.143	8442.69
554.507	8453.53
554.87	8456.47
555.234	8521.33
555.597	8571.27
555.96	8595.23
556.323	8561.78
556.686	8518.84
557.05	8617.82
557.413	8618.05
557.776	8632.51
558.139	8707.31
558.502	8715.67
558.865	8669.8
559.228	8760.19
559.59	8705.96
559.953	8779.4
560.316	8819.4
560.679	8802.45
561.041	8908.89
561.404	8918.38
561.767	8974.43
562.129	8909.12
562.492	8952.73
562.854	8940.75
563.217	9017.81
563.579	8973.75
563.941	9062.11
564.304	9145.04
564.666	9120.86
565.028	9157.92
565.39	9167.19
565.753	9215.55
566.115	9210.35
566.477	9255.1
566.839	9242.67
567.201	9327.41
567.563	9331.25
567.925	9365.6
568.287	9389.33
568.648	9376.45
569.01	9459.16
569.372	9518.14
569.734	9503.45
570.095	9540.06
570.457	9585.93
570.819	9584.8
571.18	9582.54
571.542	9670.68
571.903	9610.11
572.265	9705.03
572.626	9718.13
572.987	9776.21
573.349	9806.95
573.71	9818.02
574.071	9824.57
574.432	9914.74
574.794	9918.13
575.155	9930.33
575.516	9960.39
575.877	10023.89
576.238	9989.99
576.599	10064.57
576.96	10039.26
577.32	10064.11
577.681	10208.29
578.042	10198.8
578.403	10138.24
578.763	10198.35
579.124	10259.36
579.485	10246.48
579.845	10375.07
580.206	10349.76
580.566	10300.04
580.927	10420.94
581.287	10407.38
581.648	10399.02
582.008	10520.6
582.368	10498.68
582.728	10575.06
583.089	10512.01
583.449	10560.82
583.809	10580.71
584.169	10621.84
584.529	10621.61
584.889	10733.47
585.249	10664.78
585.609	10708.16
585.969	10728.96
586.329	10702.29
586.688	10840.59
587.048	10752.01
587.408	10809.18
587.768	10818.9
588.127	10836.97
588.487	10876.97
588.846	10956.07
589.206	10850.76
589.565	10891.66
589.925	11023.86
590.284	10990.19
590.643	11066.8
591.003	11054.82
591.362	11075.84
591.721	11044.65
592.08	11078.78
592.44	11163.07
592.799	11195.84
593.158	11180.92
593.517	11121.04
593.876	11267.7
594.235	11239.68
594.593	11213.46
594.952	11221.6
595.311	11228.15
595.67	11359.9
596.029	11343.18
596.387	11388.37
596.746	11406.68
597.104	11380.46
597.463	11418.88
597.822	11438.09
598.18	11387.69
598.538	11420.69
598.897	11529.16
599.255	11428.82
599.613	11558.76
599.972	11480.57
600.33	11549.27
600.688	11471.31
601.046	11579.55
601.404	11610.29
601.762	11567.35
602.12	11561.48
602.478	11617.29
602.836	11632.89
603.194	11608.25
603.552	11605.32
603.91	11587.69
604.268	11617.29
604.625	11594.24
604.983	11657.97
605.341	11606.9
605.698	11666.56
606.056	11792.88
606.413	11755.37
606.771	11764.18
607.128	11782.49
607.485	11719.44
607.843	11774.13
608.2	11814.35
608.557	11823.39
608.914	11840.79
609.272	11883.28
609.629	11831.07
609.986	11986.78
610.343	11871.3
610.7	11919.88
611.057	11878.98
611.414	11900.22
611.771	11870.17
612.127	11942.93
612.484	11907.46
612.841	12002.82
613.198	11993.1
613.554	11971.41
613.911	12005.98
614.267	12015.93
614.624	11993.55
614.98	11955.14
615.337	12042.14
615.693	12038.75
616.05	12007.34
616.406	12094.79
616.762	12078.75
617.118	12089.6
617.475	12035.14
617.831	12038.75
618.187	12203.49
618.543	12119.88
618.899	12179.09
619.255	12165.75
619.611	12092.99
619.967	12196.26
620.323	12234
620.678	12182.25
621.034	12169.37
621.39	12179.54
621.746	12145.42
622.101	12348.57
622.457	12189.71
622.812	12158.3
623.168	12190.16
623.523	12156.26
623.879	12287.56
624.234	12167.34
624.589	12239.2
624.945	12232.64
625.3	12318.07
625.655	12256.37
626.01	12279.65
626.365	12217.05
626.72	12225.64
627.075	12201.23
627.43	12146.09
627.785	12177.05
628.14	12197.84
628.495	12085.98
628.85	12191.74
629.205	12110.84
629.559	12187.67
629.914	12078.75
630.269	12114
630.623	12106.32
630.978	12078.3
631.332	12181.57
631.687	12103.38
632.041	12057.06
632.396	12020.9
632.75	12037.17
633.104	12018.64
633.459	12029.71
633.813	11970.05
634.167	11960.34
634.521	11962.37
634.875	11921.01
635.229	12006.66
635.583	11907
635.937	11873.11
636.291	11848.47
636.645	11871.3
636.999	11867.68
637.352	11863.39
637.706	11820.45
638.06	11815.93
638.413	11808.25
638.767	11775.71
639.121	11799.89
639.474	11762.83
639.828	11753.11
640.181	11765.99
640.534	11758.76
640.888	11777.06
641.241	11710.4
641.594	11667.91
641.947	11612.55
642.301	11707.91
642.654	11735.71
643.007	11662.94
643.36	11683.73
643.713	11615.26
644.066	11645.09
644.419	11624.3
644.771	11514.92
645.124	11463.4
645.477	11386.79
645.83	11339.33
646.182	11329.62
646.535	11288.94
646.888	11263.86
647.24	11216.4
647.593	11258.21
647.945	11253.24
648.298	11263.18
648.65	11202.16
649.002	11131.66
649.355	11223.41
649.707	11266.34
650.059	11211.88
650.411	11431.76
650.763	11478.09
651.115	11573
651.467	11556.73
651.819	11424.3
652.171	11535.94
652.523	11449.84
652.875	11434.47
653.227	11435.6
653.578	11396.28
653.93	11443.06
654.282	11390.41
654.633	11420.91
654.985	11354.25
655.337	11424.53
655.688	11464.08
656.039	11523.28
656.391	11457.52
656.742	11363.06
657.094	11372.55
657.445	11400.58
657.796	11394.93
658.147	11365.77
658.498	11369.62
658.849	11371.2
659.2	11334.81
659.551	11427.24
659.902	11362.61
660.253	11363.29
660.604	11427.92
660.955	11344.08
661.306	11445.55
661.656	11371.65
662.007	11521.7
662.358	11426.11
662.708	11468.6
663.059	11388.15
663.409	11358.32
663.76	11441.25
664.11	11388.37
664.461	11473.57
664.811	11430.63
665.161	11407.81
665.511	11399.9
665.862	11408.26
666.212	11462.72
666.562	11479.9
666.912	11438.77
667.262	11400.8
667.612	11459.78
667.962	11478.31
668.312	11472.21
668.662	11528.03
669.011	11369.39
669.361	11432.89
669.711	11393.8
670.06	11335.49
670.41	11313.12
670.76	11408.03
671.109	11351.31
671.459	11441.93
671.808	11321.71
672.157	11336.4
672.507	11298.66
672.856	11308.83
673.205	11333.23
673.554	11276.51
673.904	11251.2
674.253	11341.82
674.602	11293.23
674.951	11077.42
675.3	11072.22
675.649	11257.53
675.998	11226.12
676.346	11262.73
676.695	11258.21
677.044	11175.5
677.393	11126.68
677.741	11206.23
678.09	11202.62
678.438	11088.95
678.787	11148.83
679.135	11122.62
679.484	11010.53
679.832	11093.24
680.181	11070.64
680.529	11058.21
680.877	11076.52
681.225	10933.24
681.573	11151.77
681.922	10968.95
682.27	10918.33
682.618	11046.91
682.966	10948.38
683.314	10980.25
683.661	10870.42
684.009	10849.4
684.357	10835.39
684.705	10824.32
685.053	10777.32
685.4	10854.6
685.748	10773.25
686.095	10823.19
686.443	10644.89
686.79	10608.28
687.138	10642.86
687.485	10658.9
687.832	10645.34
688.18	10640.14
688.527	10556.3
688.874	10532.35
689.221	10547.27
689.568	10491.22
689.915	10451.9
690.262	10521.5
690.609	10450.32
690.956	10344.78
691.303	10340.49
691.65	10300.04
691.997	10300.72
692.344	10199.25
692.69	10211.23
693.037	10256.43
693.383	10135.52
693.73	10081.51
694.077	9999.48
694.423	10091.68
694.769	10043.78
695.116	10040.16
695.462	9960.16
695.808	9900.05
696.155	10013.04
696.501	9891.92
696.847	9958.58
697.193	9797.45
697.539	9851.69
697.885	9695.76
698.231	9732.6
698.577	9773.5
698.923	9693.28
699.269	9675.2
699.614	9597.01
699.96	9537.8
700.306	9562.66
700.651	9520.4
700.997	9436.33
701.342	9441.76
701.688	9465.03
702.033	9432.27
702.379	9437.92
702.724	9336.45
703.069	9388.88
703.415	9231.59
703.76	9308.43
704.105	9232.95
704.45	9121.99
704.795	9120.41
705.14	9160.18
705.485	9090.81
705.83	9121.09
706.175	9096.46
706.52	9046.97
706.865	8996.12
707.209	8938.95
707.554	8959.06
707.899	8994.31
708.243	8885.16
708.588	8889.68
708.932	8834.99
709.277	8841.32
709.621	8886.74
709.966	8789.8
710.31	8797.93
710.654	8665.73
710.998	8661.44
711.342	8772.4
711.687	8611.04
712.031	8625.28
712.375	8663.02
712.719	8554.1
713.063	8599.75
713.407	8589.12
713.75	8573.98
714.094	8560.42
714.438	8517.26
714.782	8530.82
715.125	8522.23
715.469	8500.77
715.812	8455.57
716.156	8395.68
716.499	8471.16
716.843	8484.95
717.186	8433.65
717.53	8495.34
717.873	8424.38
718.216	8424.38
718.559	8342.13
718.902	8303.93
719.246	8377.38
719.589	8325.85
719.932	8186.65
720.275	8239.08
720.617	8299.87
720.96	8309.81
721.303	8255.8
721.646	8226.87
721.989	8209.25
722.331	8191.85
722.674	8209.02
723.016	8234.33
723.359	8192.3
723.701	8169.02
724.044	8170.6
724.386	8142.36
724.729	8162.24
725.071	8129.93
725.413	8189.81
725.755	8119.53
726.097	8132.41
726.439	8074.79
726.782	8035.24
727.124	8118.4
727.465	8077.5
727.807	8114.33
728.149	8094.67
728.491	8008.8
728.833	8058.74
729.175	8032.3
729.516	8109.14
729.858	8022.81
730.199	8052.19
730.541	7991.63
730.882	8020.33
731.224	8035.47
731.565	7975.58
731.906	7988.46
732.248	8042.47
732.589	8001.8
732.93	7963.38
733.271	7987.56
733.612	7983.49
733.953	8064.39
734.294	7995.24
734.635	7912.76
734.976	8010.38
735.317	7983.72
735.658	7920.22
735.999	7960.21
736.339	7987.78
736.68	7945.75
737.021	7969.25
737.361	7927.9
737.702	7968.8
738.042	7959.31
738.383	7969.93
738.723	7962.47
739.063	7903.94
739.404	7978.97
739.744	7964.51
740.084	7952.98
740.424	7997.5
740.764	7999.76
741.104	8067.1
741.444	8025.07
741.784	7989.59
742.124	8073.43
742.464	8018.74
742.804	8009.7
743.143	8022.36
743.483	8044.28
743.823	8014.45
744.162	8093.32
744.502	8089.02
744.841	8162.02
745.181	8152.3
745.52	8175.8
745.86	8190.72
746.199	8191.62
746.538	8245.63
746.877	8291.05
747.216	8324.27
747.556	8321.56
747.895	8415.8
748.234	8351.62
748.573	8458.51
748.911	8567.2
749.25	8548.9
749.589	8555.9
749.928	8690.14
750.267	8691.27
750.605	8699.18
750.944	8771.27
751.283	8822.34
751.621	8945.5
751.96	8987.53
752.298	9027.53
752.636	9103.91
752.975	9179.17
753.313	9214.64
753.651	9346.39
753.989	9415.32
754.327	9488.76
754.666	9534.18
755.004	9752.26
755.342	9867.96
755.679	9868.64
756.017	9969.65
756.355	10146.37
756.693	10299.36
757.031	10417.32
757.368	10393.6
757.706	10529.19
758.044	10710.42
758.381	10867.03
758.719	11008.27
759.056	11191.32
759.394	11272.44
759.731	11363.06
760.068	11498.43
760.405	11593.11
760.743	11706.56
761.08	11991.07
761.417	12071.97
761.754	12175.47
762.091	12352.19
762.428	12523.03
762.765	12540.88
763.102	12783.59
