Data from hue_20_FLMS001491_23.txt Node
Date: Mon Feb 06 15:33:49 GMT 2017
User: dcchb
Spectrometer: FLMS00149
Trigger mode: 0
Integration Time (sec): 2.000000E-2
Scans to average: 10
Electric dark correction enabled: true
Nonlinearity correction enabled: false
Boxcar width: 0
XAxis mode: Wavelengths
Number of Pixels in Spectrum: 2048
>>>>>Begin Spectral Data<<<<<
341.393	-14.19
341.776	-14.19
342.16	-14.19
342.543	-62.55
342.927	-61.88
343.31	-61.65
343.693	-96.23
344.077	-77.7
344.46	-59.84
344.843	-65.49
345.226	-17.58
345.61	-44.93
345.993	-27.75
346.376	-5.38
346.759	6.82
347.142	13.6
347.525	51.57
347.908	69.19
348.291	81.62
348.674	114.84
349.057	118.91
349.44	119.36
349.823	149.42
350.206	160.72
350.588	204.78
350.971	214.5
351.354	232.35
351.737	227.16
352.119	258.11
352.502	265.12
352.884	280.49
353.267	310.32
353.65	272.8
354.032	300.83
354.414	329.07
354.797	323.42
355.179	332.24
355.562	320.03
355.944	342.86
356.326	328.4
356.709	329.07
357.091	341.95
357.473	340.15
357.855	345.8
358.238	354.84
358.62	352.12
359.002	343.76
359.384	335.63
359.766	352.58
360.148	320.49
360.53	349.41
360.912	334.5
361.294	325.23
361.676	324.1
362.057	339.69
362.439	305.8
362.821	334.95
363.203	322.52
363.584	315.06
363.966	326.59
364.348	329.3
364.729	319.13
365.111	306.25
365.493	319.81
365.874	324.78
366.256	329.3
366.637	306.47
367.019	311.45
367.4	311.45
367.781	312.8
368.163	326.59
368.544	311.9
368.925	304.22
369.306	320.71
369.688	302.41
370.069	314.84
370.45	319.58
370.831	293.59
371.212	306.7
371.593	327.94
371.974	326.36
372.355	323.2
372.736	347.38
373.117	298.11
373.498	309.41
373.879	311.67
374.26	306.47
374.641	341.5
375.021	301.05
375.402	327.27
375.783	333.59
376.163	333.82
376.544	319.13
376.925	312.12
377.305	307.15
377.686	334.72
378.066	350.99
378.447	347.15
378.827	314.61
379.208	333.59
379.588	331.56
379.968	324.1
380.349	339.02
380.729	323.65
381.109	331.11
381.489	338.11
381.87	335.85
382.25	336.08
382.63	338.11
383.01	340.15
383.39	333.14
383.77	346.93
384.15	333.14
384.53	343.08
384.91	365
385.29	357.1
385.67	357.77
386.049	372.01
386.429	356.42
386.809	346.25
387.189	363.87
387.568	350.32
387.948	361.16
388.328	349.64
388.707	383.99
389.087	350.32
389.466	376.08
389.846	365
390.225	366.36
390.605	371.78
390.984	360.48
391.363	374.72
391.743	351.67
392.122	364.33
392.501	382.41
392.881	369.98
393.26	364.55
393.639	357.77
394.018	373.37
394.397	395.51
394.776	376.98
395.155	387.38
395.534	387.6
395.913	383.76
396.292	394.38
396.671	371.56
397.05	384.21
397.429	380.37
397.808	393.25
398.186	401.16
398.565	376.53
398.944	393.25
399.323	399.35
399.701	385.12
400.08	396.87
400.458	386.47
400.837	395.74
401.215	390.54
401.594	407.72
401.972	384.67
402.351	421.73
402.729	402.29
403.107	389.18
403.486	406.59
403.864	394.61
404.242	401.61
404.62	393.7
404.999	423.08
405.377	426.47
405.755	397.55
406.133	416.53
406.511	421.27
406.889	423.53
407.267	416.08
407.645	423.31
408.023	419.24
408.401	411.11
408.779	433.03
409.156	442.52
409.534	432.35
409.912	445.91
410.29	440.71
410.667	416.98
411.045	444.1
411.422	444.55
411.8	456.08
412.178	437.32
412.555	466.47
412.933	470.54
413.31	465.34
413.687	471.22
414.065	470.54
414.442	479.13
414.819	476.41
415.197	469.18
415.574	475.74
415.951	461.5
416.328	485
416.705	459.47
417.082	483.19
417.46	489.52
417.837	479.35
418.214	493.59
418.591	504.66
418.967	475.74
419.344	486.13
419.721	501.27
420.098	483.19
420.475	518.22
420.852	489.52
421.228	516.41
421.605	506.47
421.982	522.97
422.358	512.35
422.735	514.83
423.111	528.39
423.488	527.71
423.864	524.77
424.241	529.52
424.617	525
424.994	534.49
425.37	520.48
425.746	532.23
426.123	525
426.499	547.15
426.875	558.22
427.251	560.25
427.627	563.64
428.003	563.64
428.379	567.71
428.756	596.41
429.132	576.07
429.507	577.2
429.883	586.47
430.259	568.39
430.635	607.71
431.011	600.7
431.387	605.45
431.763	586.92
432.138	599.12
432.514	612.46
432.89	607.26
433.265	618.33
433.641	613.59
434.016	632.12
434.392	642.06
434.767	653.81
435.143	644.09
435.518	650.65
435.894	630.99
436.269	663.3
436.644	668.95
437.02	663.08
437.395	649.97
437.77	689.97
438.145	689.52
438.52	656.97
438.895	688.84
439.271	689.29
439.646	703.53
440.021	710.76
440.395	699.23
440.77	681.61
441.145	709.4
441.52	723.19
441.895	720.93
442.27	712.11
442.645	719.12
443.019	722.06
443.394	743.98
443.769	740.59
444.143	727.25
444.518	748.95
444.892	754.37
445.267	739.23
445.641	749.85
446.016	765.67
446.39	752.11
446.764	753.02
447.139	771.55
447.513	781.04
447.887	780.36
448.262	769.29
448.636	767.25
449.01	789.17
449.384	797.08
449.758	781.72
450.132	794.37
450.506	807.48
450.88	804.77
451.254	808.61
451.628	798.67
452.002	836.63
452.376	816.74
452.75	834.6
453.123	832.56
453.497	852.45
453.871	887.48
454.244	866.69
454.618	860.13
454.992	870.3
455.365	864.43
455.739	898.78
456.112	891.77
456.486	916.4
456.859	920.24
457.232	937.42
457.606	917.53
457.979	939
458.352	939.68
458.725	935.39
459.099	961.6
459.472	991.65
459.845	974.03
460.218	993.46
460.591	1005.89
460.964	1006.12
461.337	1015.38
461.71	1024.42
462.083	1021.71
462.456	1038.66
462.829	1037.98
463.201	1056.06
463.574	1073.69
463.947	1091.99
464.32	1096.06
464.692	1120.24
465.065	1139.9
465.438	1146
465.81	1153.46
466.183	1150.29
466.555	1190.29
466.928	1169.28
467.3	1180.8
467.672	1191.2
468.045	1236.17
468.417	1212.21
468.789	1249.73
469.161	1228.71
469.534	1265.55
469.906	1303.74
470.278	1331.08
470.65	1308.03
471.022	1342.61
471.394	1404.53
471.766	1384.86
472.138	1377.63
472.51	1444.07
472.882	1462.38
473.253	1464.18
473.625	1509.16
473.997	1519.55
474.369	1564.52
474.74	1541.02
475.112	1558.65
475.484	1628.47
475.855	1625.99
476.227	1666.21
476.598	1729.26
476.97	1735.59
477.341	1764.97
477.713	1820.79
478.084	1803.84
478.455	1870.28
478.827	1869.6
479.198	1911.63
479.569	1926.77
479.94	2030.05
480.311	2041.12
480.682	2074.56
481.053	2112.53
481.424	2168.12
481.795	2184.62
482.166	2202.47
482.537	2258.74
482.908	2293.77
483.279	2324.5
483.65	2383.26
484.021	2439.98
484.391	2476.59
484.762	2504.16
485.133	2555
485.503	2605.62
485.874	2636.81
486.244	2664.15
486.615	2755
486.985	2809.69
487.356	2796.8
487.726	2846.3
488.097	2933.52
488.467	2920.19
488.837	2994.09
489.207	3089.23
489.578	3082.67
489.948	3138.94
490.318	3176.23
490.688	3144.82
491.058	3242.44
491.428	3311.82
491.798	3387.52
492.168	3419.61
492.538	3444.47
492.908	3477.01
493.278	3600.4
493.648	3580.51
494.017	3619.83
494.387	3661.42
494.757	3709.32
495.126	3703
495.496	3741.41
495.866	3782.32
496.235	3832.94
496.605	3792.26
496.974	3914.29
497.344	3943.89
497.713	3991.35
498.082	4008.07
498.452	4036.55
498.821	4035.19
499.19	4070.22
499.559	4097.34
499.928	4147.05
500.298	4157.9
500.667	4197.45
501.036	4203.55
501.405	4247.84
501.774	4267.73
502.143	4284
502.512	4302.08
502.88	4374.39
503.249	4364.45
503.618	4396.99
503.987	4413.49
504.356	4431.56
504.724	4432.02
505.093	4518.12
505.462	4483.09
505.83	4520.15
506.199	4533.26
506.567	4636.08
506.936	4598.11
507.304	4632.24
507.672	4659.35
508.041	4719.92
508.409	4699.81
508.777	4735.74
509.145	4740.48
509.514	4744.55
509.882	4752.01
510.25	4794.72
510.618	4791.1
510.986	4855.28
511.354	4868.84
511.722	4868.84
512.09	4930.08
512.458	4889.41
512.826	4973.47
513.193	5012.79
513.561	4992.23
513.929	4972.79
514.297	5013.24
514.664	5062.51
515.032	5083.75
515.4	5088.95
515.767	5125.78
516.135	5097.76
516.502	5112.68
516.869	5165.78
517.237	5177.76
517.604	5204.65
517.972	5196.06
518.339	5205.1
518.706	5260.7
519.073	5250.53
519.44	5230.41
519.808	5321.71
520.175	5282.62
520.542	5393.35
520.909	5394.7
521.276	5379.11
521.643	5412.78
522.009	5470.18
522.376	5460.92
522.743	5514.93
523.11	5535.72
523.477	5543.85
523.843	5551.31
524.21	5604.64
524.577	5594.47
524.943	5626.11
525.31	5615.94
525.676	5680.8
526.043	5738.42
526.409	5736.84
526.776	5797.63
527.142	5787.01
527.508	5790.4
527.874	5900.68
528.241	5928.25
528.607	5918.08
528.973	5977.29
529.339	5942.48
529.705	6027.68
530.071	6026.78
530.437	6041.24
530.803	6112.65
531.169	6099.99
531.535	6068.58
531.901	6168.02
532.267	6173.44
532.632	6190.39
532.998	6235.81
533.364	6249.14
533.73	6256.38
534.095	6339.76
534.461	6323.04
534.826	6414.34
535.192	6377.73
535.557	6440.1
535.923	6421.79
536.288	6482.58
536.653	6507.89
537.019	6476.71
537.384	6578.4
537.749	6549.02
538.114	6531.4
538.479	6633.09
538.845	6624.73
539.21	6624.73
539.575	6659.75
539.94	6657.49
540.305	6758.73
540.67	6736.14
541.034	6772.97
541.399	6810.71
541.764	6846.64
542.129	6840.77
542.494	6907.43
542.858	6943.14
543.223	6907.21
543.587	6965.06
543.952	7039.41
544.316	7040.99
544.681	7016.13
545.045	7120.31
545.41	7118.27
545.774	7152.17
546.138	7190.59
546.503	7211.38
546.867	7175.45
547.231	7250.02
547.595	7293.64
547.959	7339.96
548.324	7331.83
548.688	7337.48
549.052	7391.49
549.416	7412.95
549.779	7358.94
550.143	7416.12
550.507	7485.72
550.871	7420.86
551.235	7501.09
551.599	7571.82
551.962	7556.23
552.326	7640.29
552.689	7672.83
553.053	7676.9
553.417	7708.09
553.78	7721.2
554.143	7693.85
554.507	7751.48
554.87	7818.14
555.234	7832.15
555.597	7797.58
555.96	7877.12
556.323	7917.35
556.686	7868.99
557.05	7908.31
557.413	7986.27
557.776	7977.69
558.139	8084.8
558.502	7967.97
558.865	8057.91
559.228	8118.92
559.59	8110.56
559.953	8083.9
560.316	8208.87
560.679	8165.25
561.041	8150.11
561.404	8272.14
561.767	8304.68
562.129	8221.3
562.492	8352.14
562.854	8308.07
563.217	8390.56
563.579	8363.44
563.941	8409.31
564.304	8490.21
564.666	8459.25
565.028	8544.68
565.39	8508.75
565.753	8604.11
566.115	8608.63
566.477	8654.28
566.839	8631.68
567.201	8716.65
567.563	8717.55
567.925	8765.91
568.287	8756.2
568.648	8858.79
569.01	8864.44
569.372	8899.02
569.734	8902.86
570.095	8966.59
570.457	8988.51
570.819	9047.94
571.18	9050.2
571.542	9158.9
571.903	9138.56
572.265	9120.25
572.626	9191.44
572.987	9340.81
573.349	9328.38
573.71	9381.49
574.071	9499.91
574.432	9494.71
574.794	9669.17
575.155	9651.54
575.516	9660.58
575.877	9788.94
576.238	9830.74
576.599	9895.83
576.96	9979.22
577.32	10033.45
577.681	10163.84
578.042	10178.53
578.403	10240.45
578.763	10393.22
579.124	10466.89
579.485	10684.28
579.845	10804.28
580.206	10855.58
580.566	10946.42
580.927	11100.32
581.287	11332.63
581.648	11385.51
582.008	11589.12
582.368	11766.74
582.728	11857.81
583.089	12065.26
583.449	12262.54
583.809	12483.1
584.169	12729.2
584.529	12872.47
584.889	13089.19
585.249	13262.07
585.609	13456.64
585.969	13771.21
586.329	13993.57
586.688	14227.01
587.048	14539.1
587.408	14791.74
587.768	14920.33
588.127	15308.79
588.487	15471.95
588.846	15894.99
589.206	16080.52
589.565	16341.76
589.925	16789.66
590.284	17006.15
590.643	17335.41
591.003	17642.52
591.362	18042.73
591.721	18402.27
592.08	18744.63
592.44	19062.59
592.799	19461.9
593.158	19777.83
593.517	20132.39
593.876	20439.5
594.235	20795.43
594.593	21220.28
594.952	21603.77
595.311	21826.14
595.67	22264.99
596.029	22734.13
596.387	23027.01
596.746	23418.18
597.104	23809.59
597.463	24015.68
597.822	24526.86
598.18	24766.62
598.538	25049.78
598.897	25607.73
599.255	25798.23
599.613	26540.36
599.972	26683.18
600.33	27020.8
600.688	27120.69
601.046	27747.34
601.404	28148.23
601.762	28468.67
602.12	28898.27
602.478	29315.2
602.836	29561.07
603.194	29732.59
603.552	30138.91
603.91	30438.34
604.268	30893.02
604.625	31046.91
604.983	31540.91
605.341	31726.21
605.698	32161.23
606.056	32571.39
606.413	32811.61
606.771	33214.54
607.128	33482.55
607.485	33563.68
607.843	33923.22
608.2	34294.96
608.557	34720.71
608.914	34858.33
609.272	35162.06
609.629	35457.19
609.986	35742.83
610.343	35924.75
610.7	36408.8
611.057	36600.89
611.414	36814.44
611.771	37025.28
612.127	37385.27
612.484	37642.22
612.841	37825.04
613.198	37926.73
613.554	38217.34
613.911	38665.92
614.267	38823.43
614.624	38885.35
614.98	39134.61
615.337	39524.65
615.693	39461.38
616.05	39636.97
616.406	40166.9
616.762	40037.18
617.118	40384.97
617.475	40365.08
617.831	40741.34
618.187	41035.8
618.543	41107.21
618.899	41514.43
619.255	41559.63
619.611	41680.98
619.967	41990.8
620.323	42165.26
620.678	41955.55
621.034	42019.95
621.39	42302.66
621.746	42386.72
622.101	42862.87
622.457	42593.5
622.812	42882.3
623.168	43154.16
623.523	43202.52
623.879	43351.22
624.234	43055.86
624.589	43485.68
624.945	43606.81
625.3	43634.6
625.655	43804.77
626.01	43839.57
626.365	43970.64
626.72	43912.11
627.075	44039.34
627.43	44075.27
627.785	44131.99
628.14	44221.93
628.495	44307.13
628.85	44467.57
629.205	44334.02
629.559	44663.95
629.914	44489.49
630.269	44530.85
630.623	44475.71
630.978	44590.51
631.332	44769.94
631.687	44808.81
632.041	44741.46
632.396	44782.59
632.75	44600.9
633.104	44834.57
633.459	44627.8
633.813	44855.13
634.167	44905.08
634.521	44937.62
634.875	44931.97
635.229	44881.57
635.583	44691.3
635.937	44756.61
636.291	44813.55
636.645	44713.89
636.999	44768.36
637.352	44864.85
637.706	44695.36
638.06	44990.05
638.413	44866.21
638.767	44775.81
639.121	44916.15
639.474	44579.89
639.828	44732.2
640.181	44735.82
640.534	44846.55
640.888	44647.23
641.241	44681.35
641.594	44658.3
641.947	44790.05
642.301	44638.42
642.654	44795.02
643.007	44755.7
643.36	44748.47
643.713	44636.38
644.066	44784.4
644.419	44514.35
644.771	44343.96
645.124	43699.23
645.477	43851.32
645.83	43776.52
646.182	43659.69
646.535	43366.36
646.888	43499.46
647.24	43386.92
647.593	43585.34
647.945	43442.74
648.298	43315.29
648.65	43332.01
649.002	43199.81
649.355	43437.54
649.707	43141.73
650.059	43446.81
650.411	43963.63
650.763	43804.77
651.115	44413.79
651.467	44254.92
651.819	44214.47
652.171	44164.53
652.523	44182.16
652.875	44130.63
653.227	43871.66
653.578	44241.14
653.93	44152.1
654.282	43885.67
654.633	43845.44
654.985	43975.38
655.337	43997.53
655.688	43929.73
656.039	44124.08
656.391	43784.2
656.742	43873.24
657.094	43924.31
657.445	44066.45
657.796	43926.12
658.147	43825.1
658.498	43930.86
658.849	43914.37
659.2	43924.76
659.551	43837.53
659.902	43943.75
660.253	43801.15
660.604	43963.18
660.955	43693.58
661.306	43820.81
661.656	43778.78
662.007	43768.16
662.358	43791.43
662.708	43773.13
663.059	43757.54
663.409	43532.46
663.76	43790.76
664.11	43763.19
664.461	43639.8
664.811	43669.63
665.161	43684.32
665.511	43700.36
665.862	43778.33
666.212	43791.21
666.562	43855.84
666.912	43712.79
667.262	43705.11
667.612	43649.29
667.962	43738.1
668.312	43729.29
668.662	43936.06
669.011	43682.06
669.361	43515.51
669.711	43515.06
670.06	43514.15
670.41	43480.03
670.76	43568.61
671.109	43591.44
671.459	43623.08
671.808	43379.69
672.157	43551.44
672.507	43208.62
672.856	43329.52
673.205	43377.66
673.554	43475.06
673.904	43372.46
674.253	43643.41
674.602	43403.42
674.951	42873.04
675.3	42726.83
675.649	43280.94
675.998	43241.84
676.346	43314.16
676.695	43483.42
677.044	43009.31
677.393	43278.45
677.741	43239.13
678.09	43089.08
678.438	43158.68
678.787	43029.19
679.135	43052.47
679.484	42960.95
679.832	43046.59
680.181	42668.07
680.529	42838.01
680.877	42747.39
681.225	42674.63
681.573	42935.64
681.922	42529.32
682.27	42505.59
682.618	42453.39
682.966	42386.5
683.314	42504.46
683.661	42340.4
684.009	42275.99
684.357	42163.68
684.705	42109.22
685.053	42185.37
685.4	42150.35
685.748	41915.32
686.095	41970.69
686.443	41758.04
686.79	41820.64
687.138	41745.84
687.485	41787.87
687.832	41637.82
688.18	41697.25
688.527	41434.21
688.874	41406.86
689.221	41405.73
689.568	41286.64
689.915	41189.24
690.262	41212.74
690.609	41083.03
690.956	41055.23
691.303	40824.05
691.65	40704.06
691.997	40721.46
692.344	40403.95
692.69	40350.62
693.037	40496.6
693.383	40243.28
693.73	40261.81
694.077	40069.27
694.423	40029.72
694.769	39863.4
695.116	39756.96
695.462	39631.99
695.808	39650.53
696.155	39667.25
696.501	39439.68
696.847	39346.13
697.193	39277.65
697.539	39271.78
697.885	38936.65
698.231	38898
698.577	38845.12
698.923	38795.18
699.269	38589.31
699.614	38484.91
699.96	38484.91
700.306	38451.23
700.651	38177.12
700.997	38126.5
701.342	38171.69
701.688	38147.74
702.033	37870.23
702.379	37893.74
702.724	37846.05
703.069	37939.61
703.415	37318.61
703.76	37418.27
704.105	37420.98
704.45	37450.36
704.795	37114.77
705.14	37045.4
705.485	37085.85
705.83	36968.79
706.175	37031.61
706.52	36921.78
706.865	36798.4
707.209	36762.24
707.554	36614.22
707.899	36594.79
708.243	36379.42
708.588	36372.65
708.932	36161.8
709.277	36157.96
709.621	36411.51
709.966	36002.03
710.31	36112.99
710.654	35682.27
710.998	35900.12
711.342	35862.15
711.687	35695.83
712.031	35532.22
712.375	35412.44
712.719	35446.12
713.063	35154.82
713.407	35265.78
713.75	35195.05
714.094	35269.4
714.438	35084.09
714.782	35019.46
715.125	34870.99
715.469	34976.3
715.812	34788.51
716.156	34754.83
716.499	34717.55
716.843	34623.54
717.186	34515.97
717.53	34630.54
717.873	34533.82
718.216	34362.08
718.559	34472.36
718.902	34197.34
719.246	34263.77
719.589	34077.11
719.932	33941.07
720.275	34173.16
720.617	33942.43
720.96	33995.08
721.303	33906.95
721.646	33905.14
721.989	33569.56
722.331	33734.3
722.674	33662.89
723.016	33684.13
723.359	33443.46
723.701	33499.5
724.044	33431.03
724.386	33233.29
724.729	33359.62
725.071	33302.22
725.413	33342.44
725.755	33168.89
726.097	33019.06
726.439	32829.91
726.782	32862.91
727.124	33063.13
727.465	32923.7
727.807	32811.83
728.149	32732.52
728.491	32773.42
728.833	32790.82
729.175	32666.3
729.516	32510.37
729.858	32470.83
730.199	32495.23
730.541	32445.74
730.882	32366.2
731.224	32438.06
731.565	32133.21
731.906	32222.25
732.248	32202.59
732.589	32046.88
732.93	31974.34
733.271	31963.72
733.612	32067
733.953	32031.97
734.294	31962.82
734.635	31849.15
734.976	32057.96
735.317	31861.58
735.658	31798.53
735.999	31812.54
736.339	31762.82
736.68	31844.63
737.021	31693.45
737.361	31488.25
737.702	31589.72
738.042	31650.96
738.383	31493
738.723	31525.99
739.063	31440.12
739.404	31348.82
739.744	31334.13
740.084	31233.35
740.424	31176.17
740.764	31101.15
741.104	31169.39
741.444	31069.96
741.784	30871.32
742.124	30991.09
742.464	30862.06
742.804	30885.33
743.143	30779.57
743.483	30841.94
743.823	30689.86
744.162	30617.77
744.502	30749.97
744.841	30702.51
745.181	30630.42
745.52	30583.87
745.86	30585
746.199	30499.81
746.538	30505.45
746.877	30541.84
747.216	30482.86
747.556	30455.29
747.895	30375.06
748.234	30181.4
748.573	30178.68
748.911	30068.63
749.25	30089.65
749.589	30006.94
749.928	30011.23
750.267	30130.55
750.605	29960.16
750.944	29891.23
751.283	29673.84
751.621	29985.47
751.96	29742.54
752.298	29791.12
752.636	29578.25
752.975	29581.19
753.313	29486.95
753.651	29690.79
753.989	29386.39
754.327	29468.19
754.666	29272.49
755.004	29306.62
755.342	29325.15
755.679	29268.65
756.017	29141.2
756.355	29234.75
756.693	29125.83
757.031	29079.28
757.368	28893.97
757.706	28926.74
758.044	28779.85
758.381	28834.09
758.719	28645.16
759.056	28664.37
759.394	28663.92
759.731	28366.3
760.068	28378.28
760.405	28274.33
760.743	28232.29
