Data from hue_250_FLMS001491_00011.txt Node
Date: Tue Feb 07 16:00:36 GMT 2017
User: dcchb
Spectrometer: FLMS00149
Trigger mode: 0
Integration Time (sec): 2.000000E-2
Scans to average: 10
Electric dark correction enabled: true
Nonlinearity correction enabled: false
Boxcar width: 0
XAxis mode: Wavelengths
Number of Pixels in Spectrum: 2048
>>>>>Begin Spectral Data<<<<<
341.393	-15.96
341.776	-15.96
342.16	-15.96
342.543	-59.57
342.927	-81.27
343.31	-53.25
343.693	-79.91
344.077	-66.35
344.46	-81.27
344.843	-52.8
345.226	-42.17
345.61	-2.63
345.993	-25.23
346.376	-5.79
346.759	18.16
347.142	17.26
347.525	45.51
347.908	66.3
348.291	64.94
348.674	99.29
349.057	97.94
349.44	117.14
349.823	143.36
350.206	155.33
350.588	174.32
350.971	203.47
351.354	204.37
351.737	213.41
352.119	226.75
352.502	244.37
352.884	256.12
353.267	231.27
353.65	284.82
354.032	292.28
354.414	290.92
354.797	296.12
355.179	287.31
355.562	306.74
355.944	308.78
356.326	322.34
356.709	321.43
357.091	311.71
357.473	300.87
357.855	311.49
358.238	333.18
358.62	318.95
359.002	324.14
359.384	335.67
359.766	331.38
360.148	330.92
360.53	331.83
360.912	319.62
361.294	316.91
361.676	316.23
362.057	330.92
362.439	290.92
362.821	315.33
363.203	306.29
363.584	312.17
363.966	299.06
364.348	308.55
364.729	322.34
365.111	295.67
365.493	306.52
365.874	279.85
366.256	304.03
366.637	299.29
367.019	298.16
367.4	312.17
367.781	311.49
368.163	289.79
368.544	315.33
368.925	304.26
369.306	300.87
369.688	294.09
370.069	298.38
370.45	304.48
370.831	300.64
371.212	286.86
371.593	301.09
371.974	299.96
372.355	312.17
372.736	291.83
373.117	290.7
373.498	319.17
373.879	319.17
374.26	303.58
374.641	297.93
375.021	296.8
375.402	291.6
375.783	293.18
376.163	312.62
376.544	327.76
376.925	323.47
377.305	310.36
377.686	307.87
378.066	318.49
378.447	309.46
378.827	304.94
379.208	315.56
379.588	337.7
379.968	302
380.349	316.46
380.729	319.4
381.109	336.8
381.489	336.35
381.87	329.57
382.25	316.91
382.63	316.91
383.01	336.57
383.39	319.62
383.77	335.9
384.15	323.69
384.53	337.48
384.91	329.79
385.29	322.56
385.67	318.49
386.049	330.25
386.429	340.64
386.809	336.12
387.189	340.41
387.568	345.39
387.948	365.27
388.328	343.58
388.707	343.35
389.087	359.85
389.466	353.75
389.846	334.31
390.225	325.95
390.605	337.03
390.984	349.23
391.363	346.29
391.743	359.62
392.122	340.64
392.501	363.01
392.881	361.66
393.26	348.1
393.639	358.04
394.018	351.49
394.397	376.35
394.776	376.35
395.155	383.13
395.534	382.9
395.913	369.79
396.292	382.45
396.671	375.44
397.05	377.48
397.429	403.92
397.808	380.19
398.186	371.37
398.565	384.93
398.944	385.84
399.323	378.15
399.701	387.65
400.08	374.54
400.458	403.01
400.837	393.07
401.215	394.65
401.594	391.94
401.972	408.89
402.351	391.94
402.729	409.11
403.107	414.99
403.486	417.93
403.864	412.73
404.242	414.99
404.62	423.58
404.999	429.45
405.377	413.86
405.755	436.68
406.133	459.28
406.511	439.4
406.889	443.69
407.267	448.89
407.645	439.17
408.023	441.88
408.401	451.82
408.779	457.7
409.156	459.06
409.534	487.76
409.912	477.36
410.29	474.42
410.667	459.06
411.045	511.48
411.422	508.09
411.8	506.74
412.178	511.94
412.555	507.87
412.933	528.88
413.31	523.23
413.687	539.73
414.065	542.67
414.442	546.29
414.819	551.93
415.197	555.1
415.574	562.1
415.951	582.67
416.328	578.83
416.705	577.7
417.082	600.52
417.46	594.19
417.837	600.29
418.214	607.53
418.591	616.79
418.967	632.38
419.344	629.22
419.721	633.29
420.098	621.99
420.475	666.96
420.852	658.6
421.228	658.37
421.605	679.61
421.982	705.15
422.358	700.18
422.735	703.57
423.111	679.61
423.488	741.31
423.864	723.91
424.241	730.24
424.617	741.31
424.994	732.27
425.37	767.07
425.746	777.69
426.123	808.88
426.499	790.57
426.875	789.89
427.251	800.29
427.627	807.97
428.003	818.59
428.379	869.89
428.756	840.74
429.132	867.18
429.507	907.63
429.883	861.31
430.259	889.78
430.635	880.51
431.011	916.44
431.387	915.77
431.763	933.17
432.138	939.5
432.514	949.44
432.89	968.87
433.265	989.89
433.641	1016.1
434.016	1023.33
434.392	1045.48
434.767	1045.71
435.143	1054.75
435.518	1085.03
435.894	1072.15
436.269	1118.7
436.644	1130.22
437.02	1110.56
437.395	1147.63
437.77	1167.51
438.145	1164.35
438.52	1196.21
438.895	1202.54
439.271	1221.07
439.646	1228.98
440.021	1241.63
440.395	1261.75
440.77	1282.76
441.145	1297.45
441.52	1305.36
441.895	1298.13
442.27	1328.41
442.645	1345.81
443.019	1343.78
443.394	1368.64
443.769	1379.94
444.143	1372.7
444.518	1409.31
444.892	1399.6
445.267	1413.15
445.641	1417.22
446.016	1421.52
446.39	1449.31
446.764	1444.57
447.139	1460.39
447.513	1450.89
447.887	1474.4
448.262	1455.41
448.636	1504.45
449.01	1532.93
449.384	1524.11
449.758	1544.45
450.132	1546.94
450.506	1574.73
450.88	1564.34
451.254	1570.89
451.628	1592.13
452.002	1620.38
452.376	1613.38
452.75	1641.4
453.123	1632.13
453.497	1662.87
453.871	1680.49
454.244	1693.15
454.618	1733.6
454.992	1726.59
455.365	1711
455.739	1770.89
456.112	1789.64
456.486	1805.91
456.859	1827.83
457.232	1814.27
457.606	1849.3
457.979	1854.05
458.352	1889.07
458.725	1924.78
459.099	1937.89
459.472	1952.35
459.845	1972.91
460.218	1982.63
460.591	1977.21
460.964	1987.15
461.337	2053.14
461.71	2083.19
462.083	2116.64
462.456	2105.57
462.829	2110.76
463.201	2190.54
463.574	2156.41
463.947	2207.94
464.32	2209.29
464.692	2240.7
465.065	2234.38
465.438	2280.7
465.81	2334.26
466.183	2346.01
466.555	2412.22
466.928	2410.19
467.3	2411.32
467.672	2409.74
468.045	2496.29
468.417	2507.36
468.789	2521.37
469.161	2539.23
469.534	2595.04
469.906	2633.24
470.278	2632.78
470.65	2670.07
471.022	2670.97
471.394	2740.8
471.766	2720.01
472.138	2768.6
472.51	2823.51
472.882	2876.39
473.253	2932.44
473.625	2898.77
473.997	2981.48
474.369	3020.8
474.74	3059.21
475.112	3098.53
475.484	3125.88
475.855	3148.48
476.227	3168.36
476.598	3303.95
476.97	3325.87
477.341	3354.35
477.713	3436.15
478.084	3415.59
478.455	3505.76
478.827	3514.34
479.198	3636.6
479.569	3607
479.94	3693.09
480.311	3776.48
480.682	3795.92
481.053	3819.87
481.424	3863.49
481.795	3952.52
482.166	4017.15
482.537	4097.6
482.908	4078.85
483.279	4159.75
483.65	4210.6
484.021	4289.24
484.391	4330.37
484.762	4312.51
485.133	4408.1
485.503	4427.54
485.874	4519.74
486.244	4568.55
486.615	4612.17
486.985	4680.41
487.356	4752.73
487.726	4763.58
488.097	4848.77
488.467	4860.07
488.837	4930.35
489.207	4979.39
489.578	5025.04
489.948	5095.54
490.318	5124.02
490.688	5123.79
491.058	5260.51
491.428	5280.85
491.798	5345.71
492.168	5423.67
492.538	5456.66
492.908	5453.95
493.278	5550.9
493.648	5535.08
494.017	5623.89
494.387	5615.08
494.757	5692.14
495.126	5725.13
495.496	5742.76
495.866	5747.96
496.235	5839.48
496.605	5839.93
496.974	5883.09
497.344	5910.21
497.713	5943.21
498.082	5969.19
498.452	6029.98
498.821	6036.99
499.19	6087.83
499.559	6142.97
499.928	6161.05
500.298	6158.34
500.667	6248.28
501.036	6132.8
501.405	6260.71
501.774	6260.71
502.143	6293.03
502.512	6294.83
502.88	6390.88
503.249	6357.21
503.618	6362.4
503.987	6456.41
504.356	6377.09
504.724	6470.65
505.093	6420.48
505.462	6465.9
505.83	6512.46
506.199	6604.66
506.567	6673.58
506.936	6601.04
507.304	6605.11
507.672	6714.26
508.041	6744.31
508.409	6744.09
508.777	6749.96
509.145	6788.15
509.514	6747.03
509.882	6794.93
510.25	6766.91
510.618	6847.36
510.986	6899.56
511.354	6917.19
511.722	6942.73
512.09	6937.08
512.458	6950.18
512.826	6982.95
513.193	7037.19
513.561	6987.47
513.929	7038.09
514.297	7099.11
514.664	7086.45
515.032	7093.46
515.4	7154.92
515.767	7192.89
516.135	7190.63
516.502	7098.66
516.869	7188.37
517.237	7185.21
517.604	7217.07
517.972	7192.21
518.339	7248.03
518.706	7215.49
519.073	7221.59
519.44	7343.62
519.808	7301.81
520.175	7337.07
520.542	7432.43
520.909	7370.96
521.276	7395.6
521.643	7370.74
522.009	7444.18
522.376	7440.57
522.743	7473.56
523.11	7565.08
523.477	7514.92
523.843	7584.97
524.21	7606.44
524.577	7589.49
524.943	7580.68
525.31	7698.64
525.676	7681.01
526.043	7689.37
526.409	7665.19
526.776	7707.45
527.142	7726.21
527.508	7766.66
527.874	7771.41
528.241	7787
528.607	7766.66
528.973	7863.61
529.339	7765.76
529.705	7872.42
530.071	7886.66
530.437	7851.63
530.803	7876.49
531.169	7869.26
531.535	7874.23
531.901	7899.99
532.267	7871.97
532.632	7838.75
532.998	7905.87
533.364	7852.31
533.73	7903.15
534.095	7934.34
534.461	7866.32
534.826	7907.22
535.192	7890.5
535.557	8020.66
535.923	7923.94
536.288	7967.78
536.653	7940.89
537.019	7909.26
537.384	7888.92
537.749	7932.76
538.114	7911.52
538.479	7837.39
538.845	7917.39
539.21	7891.4
539.575	7878.97
539.94	7882.59
540.305	7859.99
540.67	7844.4
541.034	7840.56
541.399	7844.4
541.764	7826.77
542.129	7856.83
542.494	7850.5
542.858	7838.75
543.223	7788.13
543.587	7886.43
543.952	7850.5
544.316	7818.41
544.681	7767.11
545.045	7777.06
545.41	7826.77
545.774	7816.6
546.138	7776.38
546.503	7787.68
546.867	7756.49
547.231	7837.62
547.595	7818.41
547.959	7736.15
548.324	7787.9
548.688	7711.97
549.052	7699.54
549.416	7723.72
549.779	7678.75
550.143	7667
550.507	7727.34
550.871	7753.55
551.235	7670.62
551.599	7756.26
551.962	7761.91
552.326	7723.95
552.689	7736.15
553.053	7645.99
553.417	7696.61
553.78	7701.13
554.143	7656.38
554.507	7699.77
554.87	7702.71
555.234	7770.73
555.597	7714.01
555.96	7645.76
556.323	7685.08
556.686	7681.69
557.05	7687.34
557.413	7700.45
557.776	7736.83
558.139	7703.16
558.502	7724.4
558.865	7745.42
559.228	7737.06
559.59	7755.59
559.953	7721.46
560.316	7802.59
560.679	7776.6
561.041	7739.09
561.404	7780.22
561.767	7794.68
562.129	7816.15
562.492	7830.61
562.854	7830.84
563.217	7859.09
563.579	7883.72
563.941	7910.61
564.304	7895.47
564.666	7922.59
565.028	7870.84
565.39	7920.1
565.753	7949.48
566.115	7974.79
566.477	8022.25
566.839	7999.65
567.201	8106.76
567.563	8083.26
567.925	8072.87
568.287	8107.67
568.648	8067.22
569.01	8141.11
569.372	8224.95
569.734	8151.06
570.095	8132.75
570.457	8205.52
570.819	8146.09
571.18	8143.37
571.542	8229.47
571.903	8236.7
572.265	8255.23
572.626	8306.53
572.987	8297.04
573.349	8299.08
573.71	8308.57
574.071	8383.37
574.432	8289.36
574.794	8448.9
575.155	8459.75
575.516	8407.77
575.877	8446.64
576.238	8462.01
576.599	8469.47
576.96	8480.99
577.32	8516.02
577.681	8544.04
578.042	8542.23
578.403	8502.23
578.763	8547.88
579.124	8603.7
579.485	8570.48
579.845	8624.04
580.206	8627.2
580.566	8592.85
580.927	8626.75
581.287	8741.32
581.648	8655.22
582.008	8681.21
582.368	8648.9
582.728	8780.87
583.089	8708.78
583.449	8766.18
583.809	8791.94
584.169	8811.83
584.529	8748.78
584.889	8891.83
585.249	8791.27
585.609	8810.47
585.969	8797.59
586.329	8843.69
586.688	8873.98
587.048	8919.85
587.408	8780.19
587.768	8850.47
588.127	8883.69
588.487	8836.46
588.846	8917.59
589.206	8829.23
589.565	8916.69
589.925	8956.69
590.284	8965.27
590.643	8966.4
591.003	8998.49
591.362	9033.97
591.721	8967.53
592.08	8921.21
592.44	8990.13
592.799	9054.08
593.158	9031.71
593.517	9068.32
593.876	9052.05
594.235	9042.33
594.593	9048.43
594.952	9067.42
595.311	9019.96
595.67	9058.6
596.029	9127.75
596.387	9120.3
596.746	9156
597.104	9095.89
597.463	9132.5
597.822	9157.81
598.18	9124.59
598.538	9036.01
598.897	9132.95
599.255	9120.07
599.613	9238.71
599.972	9141.77
600.33	9227.64
600.688	9150.13
601.046	9202.55
601.404	9168.43
601.762	9138.38
602.12	9195.78
602.478	9296.79
602.836	9261.99
603.194	9144.7
603.552	9303.79
603.91	9146.06
604.268	9268.77
604.625	9186.74
604.983	9242.78
605.341	9233.06
605.698	9210.46
606.056	9278.03
606.413	9265.38
606.771	9305.38
607.128	9331.14
607.485	9239.16
607.843	9281.2
608.2	9286.85
608.557	9350.57
608.914	9289.33
609.272	9240.75
609.629	9340.63
609.986	9371.36
610.343	9326.62
610.7	9401.87
611.057	9407.97
611.414	9371.14
611.771	9438.03
612.127	9456.56
612.484	9413.85
612.841	9391.7
613.198	9426.96
613.554	9391.93
613.911	9479.38
614.267	9470.12
614.624	9471.25
614.98	9439.84
615.337	9527.29
615.693	9487.29
616.05	9531.36
616.406	9586.73
616.762	9476.67
617.118	9504.24
617.475	9481.64
617.831	9509.44
618.187	9591.92
618.543	9567.29
618.899	9577.91
619.255	9585.82
619.611	9535.43
619.967	9560.51
620.323	9620.17
620.678	9541.98
621.034	9573.62
621.39	9534.75
621.746	9534.98
622.101	9696.55
622.457	9509.44
622.812	9555.54
623.168	9571.81
623.523	9609.32
623.879	9581.75
624.234	9575.43
624.589	9645.48
624.945	9582.43
625.3	9613.39
625.655	9667.63
626.01	9609.55
626.365	9625.59
626.72	9598.02
627.075	9555.09
627.43	9546.05
627.785	9536.11
628.14	9594.18
628.495	9541.98
628.85	9546.73
629.205	9485.26
629.559	9552.83
629.914	9521.42
630.269	9515.99
630.623	9514.41
630.978	9497.46
631.332	9446.84
631.687	9485.71
632.041	9517.35
632.396	9531.81
632.75	9478.71
633.104	9504.24
633.459	9430.57
633.813	9421.08
634.167	9403
634.521	9413.85
634.875	9405.94
635.229	9381.76
635.583	9360.06
635.937	9311.93
636.291	9328.43
636.645	9365.71
636.999	9325.72
637.352	9327.52
637.706	9271.93
638.06	9260.63
638.413	9299.05
638.767	9210.01
639.121	9219.5
639.474	9259.5
639.828	9247.07
640.181	9206.4
640.534	9261.31
640.888	9185.15
641.241	9163.91
641.594	9193.06
641.947	9249.33
642.301	9321.2
642.654	9166.4
643.007	9138.6
643.36	9189.22
643.713	9131.37
644.066	9148.09
644.419	9095.44
644.771	9069.22
645.124	8993.07
645.477	9034.42
645.83	8950.13
646.182	8911.26
646.535	8908.55
646.888	8835.78
647.24	8814.77
647.593	8875.11
647.945	8816.35
648.298	8809.12
648.65	8759.4
649.002	8727.31
649.355	8871.04
649.707	8862
650.059	8868.33
650.411	9001.2
650.763	9017.93
651.115	9093.86
651.467	9032.16
651.819	9026.97
652.171	9024.03
652.523	8964.82
652.875	8979.96
653.227	8927.99
653.578	8990.58
653.93	8990.36
654.282	8975.67
654.633	8970.47
654.985	9019.06
655.337	8974.99
655.688	8978.61
656.039	9018.6
656.391	8955.56
656.742	8994.88
657.094	8970.02
657.445	9025.61
657.796	8953.3
658.147	8998.94
658.498	8997.59
658.849	9011.15
659.2	8971.6
659.551	8958.72
659.902	8986.06
660.253	9020.19
660.604	9006.18
660.955	8941.77
661.306	8995.78
661.656	8978.61
662.007	8969.79
662.358	8982.9
662.708	9070.58
663.059	9015.89
663.409	8919.4
663.76	9014.31
664.11	8993.52
664.461	8972.73
664.811	8961.21
665.161	9073.07
665.511	9000.3
665.862	8988.1
666.212	9065.38
666.562	9064.48
666.912	8987.87
667.262	9018.83
667.612	9003.69
667.962	9024.93
668.312	8983.58
668.662	9021.09
669.011	9054.08
669.361	8961.88
669.711	8989.9
670.06	9068.77
670.41	8990.58
670.76	8991.26
671.109	8991.94
671.459	8944.03
671.808	8952.62
672.157	8960.53
672.507	8920.53
672.856	8947.87
673.205	8949.68
673.554	8981.09
673.904	8880.08
674.253	8889.57
674.602	8889.34
674.951	8819.51
675.3	8750.14
675.649	8836.24
675.998	8896.35
676.346	8858.61
676.695	8898.83
677.044	8777.48
677.393	8875.11
677.741	8852.73
678.09	8785.84
678.438	8745.39
678.787	8809.57
679.135	8839.85
679.484	8759.18
679.832	8815.67
680.181	8747.2
680.529	8709.46
680.877	8683.47
681.225	8656.35
681.573	8718.73
681.922	8614.77
682.27	8641.44
682.618	8645.96
682.966	8533.19
683.314	8592.4
683.661	8570.48
684.009	8598.5
684.357	8492.97
684.705	8516.7
685.053	8520.09
685.4	8457.94
685.748	8419.3
686.095	8413.65
686.443	8417.94
686.79	8331.17
687.138	8432.41
687.485	8392.63
687.832	8388.34
688.18	8392.86
688.527	8286.42
688.874	8244.61
689.221	8275.12
689.568	8206.65
689.915	8281.22
690.262	8244.16
690.609	8259.3
690.956	8198.29
691.303	8151.06
691.65	8170.27
691.997	8119.42
692.344	8051.17
692.69	8060.44
693.037	8062.7
693.383	8012.08
693.73	7995.81
694.077	7950.61
694.423	7855.92
694.769	7904.51
695.116	7869.93
695.462	7906.77
695.808	7849.82
696.155	7902.02
696.501	7794.91
696.847	7823.16
697.193	7756.72
697.539	7761.01
697.885	7664.97
698.231	7666.32
698.577	7680.79
698.923	7632.65
699.269	7597.4
699.614	7496.38
699.96	7543.62
700.306	7549.94
700.651	7505.88
700.997	7388.82
701.342	7430.17
701.688	7427.91
702.033	7420
702.379	7353.79
702.724	7300.23
703.069	7306.11
703.415	7258.88
703.76	7288.71
704.105	7241.93
704.45	7234.47
704.795	7167.35
705.14	7133.68
705.485	7189.73
705.83	7151.31
706.175	7104.53
706.52	7104.98
706.865	7033.12
707.209	7067.24
707.554	6998.09
707.899	7046.91
708.243	6943.86
708.588	6970.3
708.932	6896.85
709.277	6965.33
709.621	6988.15
709.966	6878.77
710.31	6907.47
710.654	6849.4
710.998	6795.61
711.342	6819.79
711.687	6835.39
712.031	6797.87
712.375	6750.19
712.719	6769.62
713.063	6767.14
713.407	6706.35
713.75	6726.24
714.094	6647.59
714.438	6721.72
714.782	6747.93
715.125	6717.2
715.469	6735.27
715.812	6709.74
716.156	6648.5
716.499	6579.12
716.843	6662.96
717.186	6625.9
717.53	6619.8
717.873	6626.13
718.216	6605.33
718.559	6583.19
718.902	6515.39
719.246	6569.18
719.589	6523.98
719.932	6530.76
720.275	6497.09
720.617	6438.56
720.96	6494.15
721.303	6504.55
721.646	6477.65
721.989	6486.02
722.331	6517.2
722.674	6474.26
723.016	6429.97
723.359	6434.27
723.701	6445.34
724.044	6358.34
724.386	6342.97
724.729	6424.55
725.071	6389.3
725.413	6383.19
725.755	6402.63
726.097	6353.14
726.439	6334.61
726.782	6334.61
727.124	6330.09
727.465	6333.7
727.807	6354.72
728.149	6308.85
728.491	6316.53
728.833	6324.44
729.175	6340.26
729.516	6274.04
729.858	6300.26
730.199	6253.48
730.541	6246.02
730.882	6249.86
731.224	6343.65
731.565	6297.77
731.906	6308.39
732.248	6326.92
732.589	6210.54
732.93	6291.67
733.271	6239.47
733.612	6269.07
733.953	6326.7
734.294	6276.53
734.635	6238.79
734.976	6246.02
735.317	6277.89
735.658	6258.68
735.999	6270.43
736.339	6281.73
736.68	6290.09
737.021	6278.56
737.361	6267.94
737.702	6314.27
738.042	6258.68
738.383	6295.06
738.723	6347.49
739.063	6272.91
739.404	6314.49
739.744	6260.94
740.084	6272.69
740.424	6286.7
740.764	6334.83
741.104	6338
741.444	6300.48
741.784	6313.37
742.124	6324.21
742.464	6324.89
742.804	6369.86
743.143	6361.27
743.483	6376.64
743.823	6392.23
744.162	6359.24
744.502	6464.32
744.841	6352.91
745.181	6509.29
745.52	6475.17
745.86	6511.78
746.199	6549.52
746.538	6515.17
746.877	6572.34
747.216	6592.45
747.556	6599.23
747.895	6695.95
748.234	6649.4
748.573	6716.74
748.911	6719.46
749.25	6742.96
749.589	6776.4
749.928	6857.53
750.267	6924.42
750.605	6949.28
750.944	6998.32
751.283	7036.28
751.621	7121.25
751.96	7141.82
752.298	7197.86
752.636	7298.2
752.975	7336.62
753.313	7361.25
753.651	7462.71
753.989	7575.03
754.327	7592.88
754.666	7678.3
755.004	7760.11
755.342	7857.96
755.679	7894.34
756.017	7953.1
756.355	8109.93
756.693	8133.88
757.031	8300.21
757.368	8359.19
757.706	8438.73
758.044	8518.28
758.381	8657.03
758.719	8766.86
759.056	8814.77
759.394	8944.48
759.731	8982
760.068	9200.75
760.405	9212.27
760.743	9261.31
761.08	9389.89
761.417	9508.54
761.754	9593.96
762.091	9726.61
762.428	9810
762.765	9897.68
763.102	10041.18
763.438	10116.65
763.775	10240.72
764.112	10364.33
764.449	10390.09
764.785	10489.75
765.122	10545.8
765.458	10633.93
765.795	10772.46
766.131	10887.26
766.467	10929.74
766.804	11018.78
767.14	11026.46
767.476	11153.46
767.812	11254.93
768.148	11336.96
768.485	11337.64
768.821	11406.34
769.157	11560.68
769.492	11529.05
