Data from hue_00_FLMS001491_60.txt Node
Date: Mon Feb 06 15:29:56 GMT 2017
User: dcchb
Spectrometer: FLMS00149
Trigger mode: 0
Integration Time (sec): 2.000000E-2
Scans to average: 10
Electric dark correction enabled: true
Nonlinearity correction enabled: false
Boxcar width: 0
XAxis mode: Wavelengths
Number of Pixels in Spectrum: 2048
>>>>>Begin Spectral Data<<<<<
341.393	-14.31
341.776	-14.31
342.16	-14.31
342.543	-59.96
342.927	-88.43
343.31	-61.99
343.693	-54.31
344.077	-58.37
344.46	-68.09
344.843	-59.5
345.226	-34.65
345.61	-39.84
345.993	-2.78
346.376	-2.56
346.759	3.09
347.142	31.12
347.525	47.61
347.908	40.61
348.291	80.15
348.674	86.03
349.057	93.49
349.44	137.1
349.823	147.95
350.206	161.06
350.588	205.57
350.971	198.79
351.354	218.91
351.737	236.76
352.119	248.74
352.502	257.78
352.884	276.76
353.267	264.56
353.65	267.27
354.032	298.9
354.414	288.96
354.797	310.88
355.179	300.03
355.562	307.72
355.944	293.26
356.326	340.26
356.709	307.94
357.091	328.51
357.473	353.82
357.855	328.96
358.238	314.05
358.62	337.77
359.002	338.23
359.384	341.84
359.766	328.06
360.148	326.25
360.53	327.38
360.912	314.05
361.294	322.41
361.676	339.36
362.057	314.95
362.439	331.67
362.821	328.06
363.203	321.05
363.584	325.12
363.966	315.63
364.348	314.05
364.729	321.73
365.111	304.78
365.493	322.63
365.874	281.96
366.256	316.08
366.637	308.17
367.019	291.67
367.4	294.84
367.781	318.79
368.163	316.08
368.544	300.71
368.925	298.23
369.306	317.66
369.688	312.01
370.069	331.9
370.45	335.74
370.831	316.98
371.212	286.02
371.593	287.61
371.974	285.8
372.355	293.03
372.736	300.26
373.117	307.04
373.498	311.79
373.879	303.65
374.26	322.18
374.641	306.36
375.021	311.79
375.402	293.93
375.783	323.08
376.163	332.8
376.544	306.36
376.925	310.88
377.305	326.02
377.686	310.66
378.066	319.47
378.447	327.83
378.827	335.74
379.208	307.72
379.588	308.85
379.968	323.76
380.349	322.63
380.729	331.45
381.109	304.55
381.489	326.25
381.87	340.03
382.25	303.42
382.63	344.55
383.01	318.11
383.39	310.88
383.77	340.94
384.15	341.62
384.53	322.41
384.91	332.8
385.29	349.75
385.67	335.29
386.049	326.02
386.429	322.63
386.809	366.02
387.189	340.03
387.568	353.37
387.948	329.41
388.328	340.49
388.707	348.39
389.087	347.49
389.466	353.14
389.846	353.37
390.225	338.45
390.605	327.83
390.984	362.18
391.363	340.49
391.743	329.64
392.122	346.13
392.501	352.01
392.881	357.66
393.26	362.41
393.639	338.45
394.018	356.3
394.397	351.56
394.776	351.11
395.155	366.93
395.534	372.35
395.913	373.7
396.292	361.5
396.671	359.24
397.05	387.26
397.429	370.09
397.808	353.82
398.186	382.29
398.565	372.8
398.944	352.91
399.323	361.28
399.701	392.91
400.08	364.21
400.458	380.26
400.837	375.74
401.215	365.57
401.594	368.73
401.972	408.51
402.351	380.94
402.729	384.1
403.107	381.39
403.486	388.85
403.864	391.78
404.242	375.51
404.62	404.44
404.999	385.91
405.377	405.79
405.755	410.31
406.133	387.26
406.511	375.06
406.889	385
407.267	385.46
407.645	402.4
408.023	412.35
408.401	416.19
408.779	399.47
409.156	409.86
409.534	403.99
409.912	416.42
410.29	413.7
410.667	413.93
411.045	435.62
411.422	434.27
411.8	433.59
412.178	430.2
412.555	435.62
412.933	418.22
413.31	435.62
413.687	451.89
414.065	442.86
414.442	443.76
414.819	446.02
415.197	424.78
415.574	469.07
415.951	448.51
416.328	448.05
416.705	477.2
417.082	462.97
417.46	456.64
417.837	491.67
418.214	470.65
418.591	485.57
418.967	482.63
419.344	475.62
419.721	487.37
420.098	481.95
420.475	479.46
420.852	493.02
421.228	532.34
421.605	489.86
421.982	502.97
422.358	515.85
422.735	500.71
423.111	499.35
423.488	500.71
423.864	523.76
424.241	539.8
424.617	528.05
424.994	510.65
425.37	542.29
425.746	508.84
426.123	537.32
426.499	534.15
426.875	541.84
427.251	544.1
427.627	522.85
428.003	528.28
428.379	556.07
428.756	579.12
429.132	559.24
429.507	566.47
429.883	590.65
430.259	563.53
430.635	561.95
431.011	599.69
431.387	585.68
431.763	573.7
432.138	609.18
432.514	599.46
432.89	613.02
433.265	609.18
433.641	628.39
434.016	620.25
434.392	632.68
434.767	652.12
435.143	640.36
435.518	626.81
435.894	621.83
436.269	638.1
436.644	641.04
437.02	648.27
437.395	642.85
437.77	660.7
438.145	685.34
438.52	677.2
438.895	694.15
439.271	695.96
439.646	694.6
440.021	673.36
440.395	705
440.77	684.43
441.145	676.52
441.52	728.05
441.895	704.09
442.27	706.35
442.645	714.49
443.019	722.85
443.394	715.16
443.769	709.06
444.143	742.06
444.518	728.95
444.892	740.02
445.267	742.28
445.641	733.24
446.016	723.75
446.39	741.6
446.764	745.22
447.139	726.24
447.513	747.71
447.887	770.76
448.262	748.38
448.636	759.68
449.01	773.02
449.384	766.46
449.758	791.32
450.132	800.59
450.506	779.12
450.88	777.76
451.254	792.9
451.628	799.23
452.002	803.52
452.376	795.16
452.75	777.54
453.123	834.94
453.497	824.09
453.871	839.91
454.244	849.62
454.618	817.76
454.992	841.72
455.365	832.68
455.739	854.82
456.112	851.66
456.486	866.8
456.859	864.77
457.232	883.97
457.606	868.16
457.979	921.04
458.352	915.16
458.725	918.32
459.099	921.04
459.472	936.4
459.845	919.91
460.218	968.04
460.591	936.4
460.964	946.8
461.337	971.43
461.71	969.4
462.083	1005.1
462.456	1017.08
462.829	1004.65
463.201	999.68
463.574	1019.79
463.947	1025.44
464.32	1063.86
464.692	1043.29
465.065	1057.98
465.438	1077.64
465.81	1095.95
466.183	1089.84
466.555	1093.69
466.928	1110.86
467.3	1145.21
467.672	1135.72
468.045	1158.54
468.417	1156.51
468.789	1149.73
469.161	1180.24
469.534	1198.32
469.906	1205.77
470.278	1231.99
470.65	1236.06
471.022	1281.7
471.394	1306.11
471.766	1269.5
472.138	1315.6
472.51	1313.34
472.882	1338.65
473.253	1362.15
473.625	1376.39
473.997	1394.92
474.369	1433.79
474.74	1434.24
475.112	1474.24
475.484	1474.01
475.855	1502.71
476.227	1507.01
476.598	1555.14
476.97	1564.63
477.341	1597.63
477.713	1613.67
478.084	1656.83
478.455	1666.1
478.827	1676.5
479.198	1722.37
479.569	1758.53
479.94	1806.89
480.311	1784.29
480.682	1855.7
481.053	1863.84
481.424	1948.35
481.795	1919.65
482.166	1933.21
482.537	1979.76
482.908	2073.55
483.279	2070.16
483.65	2102.92
484.021	2130.72
484.391	2188.12
484.762	2199.42
485.133	2191.96
485.503	2273.99
485.874	2251.4
486.244	2290.49
486.615	2366.19
486.985	2380.43
487.356	2445.51
487.726	2442.58
488.097	2499.07
488.467	2510.6
488.837	2551.27
489.207	2602.35
489.578	2638.96
489.948	2653.19
490.318	2693.42
490.688	2739.07
491.058	2736.81
491.428	2807.54
491.798	2857.48
492.168	2892.73
492.538	2938.16
492.908	2967.31
493.278	2974.54
493.648	2994.65
494.017	3042.11
494.387	3067.42
494.757	3065.16
495.126	3135.44
495.496	3158.72
495.866	3172.73
496.235	3198.72
496.605	3205.72
496.974	3263.8
497.344	3254.76
497.713	3273.97
498.082	3307.64
498.452	3382.67
498.821	3336.56
499.19	3366.62
499.559	3405.26
499.928	3464.25
500.298	3463.34
500.667	3552.83
501.036	3499.5
501.405	3557.8
501.774	3531.59
502.143	3557.12
502.512	3567.97
502.88	3617.46
503.249	3613.62
503.618	3638.25
503.987	3654.07
504.356	3680.28
504.724	3745.37
505.093	3735.65
505.462	3757.12
505.83	3788.3
506.199	3776.1
506.567	3803.67
506.936	3819.26
507.304	3855.87
507.672	3868.75
508.041	3892.03
508.409	3941.52
508.777	3926.83
509.145	3923.44
509.514	3940.16
509.882	3953.27
510.25	3956.66
510.618	4000.5
510.986	4042.76
511.354	4007.51
511.722	4080.05
512.09	4084.34
512.458	4071.91
512.826	4124.57
513.193	4152.81
513.561	4094.29
513.929	4134.51
514.297	4155.53
514.664	4234.39
515.032	4230.55
515.4	4237.33
515.767	4264.22
516.135	4260.61
516.502	4254.96
516.869	4274.39
517.237	4300.61
517.604	4299.93
517.972	4360.27
518.339	4344.9
518.706	4357.1
519.073	4398.46
519.44	4381.51
519.808	4435.97
520.175	4365.01
520.542	4469.64
520.909	4512.58
521.276	4499.02
521.643	4518.91
522.009	4518.68
522.376	4554.84
522.743	4545.35
523.11	4598.9
523.477	4614.05
523.843	4605.46
524.21	4687.04
524.577	4675.51
524.943	4671.67
525.31	4733.59
525.676	4769.75
526.043	4791.22
526.409	4826.02
526.776	4860.59
527.142	4868.28
527.508	4871.67
527.874	4885
528.241	4949.4
528.607	4945.34
528.973	4987.14
529.339	4984.88
529.705	5044.77
530.071	5074.37
530.437	5096.52
530.803	5087.48
531.169	5096.97
531.535	5141.94
531.901	5142.39
532.267	5167.7
532.632	5215.16
532.998	5200.02
533.364	5256.29
533.73	5247.48
534.095	5289.06
534.461	5290.41
534.826	5378.32
535.192	5393.91
535.557	5383.29
535.923	5430.3
536.288	5409.73
536.653	5425.32
537.019	5432.1
537.384	5488.37
537.749	5507.13
538.114	5502.61
538.479	5523.4
538.845	5548.48
539.21	5575.83
539.575	5577.41
539.94	5621.25
540.305	5654.24
540.67	5681.59
541.034	5714.36
541.399	5678.88
541.764	5713.45
542.129	5777.4
542.494	5808.36
542.858	5823.73
543.223	5830.28
543.587	5823.28
543.952	5867.35
544.316	5844.75
544.681	5860.57
545.045	5939.21
545.41	5983.5
545.774	5989.38
546.138	5971.3
546.503	6053.33
546.867	5981.92
547.231	6072.09
547.595	6066.89
547.959	6119.09
548.324	6094.91
548.688	6132.42
549.052	6150.73
549.416	6150.5
549.779	6197.51
550.143	6230.95
550.507	6233.21
550.871	6311.18
551.235	6294
551.599	6316.15
551.962	6355.69
552.326	6347.79
552.689	6360.67
553.053	6399.31
553.417	6390.72
553.78	6416.48
554.143	6415.13
554.507	6508.01
554.87	6486.76
555.234	6541.68
555.597	6483.37
555.96	6574.9
556.323	6578.51
556.686	6541.68
557.05	6646.53
557.413	6640.21
557.776	6639.3
558.139	6718.17
558.502	6708
558.865	6682.92
559.228	6746.64
559.59	6803.59
559.953	6775.57
560.316	6811.95
560.679	6823.48
561.041	6893.99
561.404	6916.81
561.767	6917.49
562.129	6869.81
562.492	6937.83
562.854	6959.97
563.217	7019.41
563.579	7006.98
563.941	7006.75
564.304	7105.51
564.666	7175.79
565.028	7135.33
565.39	7135.33
565.753	7152.74
566.115	7204.49
566.477	7225.95
566.839	7263.69
567.201	7286.97
567.563	7286.29
567.925	7349.79
568.287	7397.47
568.648	7345.27
569.01	7409.9
569.372	7449.68
569.734	7433.41
570.095	7508.21
570.457	7581.88
570.819	7527.87
571.18	7573.52
571.542	7647.19
571.903	7651.48
572.265	7641.54
572.626	7705.26
572.987	7775.32
573.349	7844.69
573.71	7865.03
574.071	7867.29
574.432	7924.92
574.794	7986.39
575.155	8045.14
575.516	8078.14
575.877	8156.33
576.238	8212.82
576.599	8255.76
576.96	8333.72
577.32	8384.57
577.681	8427.73
578.042	8552.25
578.403	8563.09
578.763	8657.78
579.124	8734.39
579.485	8861.39
579.845	9003.31
580.206	9000.14
580.566	9140.25
580.927	9175.73
581.287	9310.19
581.648	9484.2
582.008	9533.92
582.368	9653.23
582.728	9778.43
583.089	9909.5
583.449	10045.77
583.809	10210.73
584.169	10365.31
584.529	10516.72
584.889	10736.14
585.249	10853.43
585.609	10994.67
585.969	11107.21
586.329	11304.49
586.688	11591.49
587.048	11694.54
587.408	11860.41
587.768	12137.24
588.127	12336.78
588.487	12501.75
588.846	12777.67
589.206	12901.74
589.565	13195.97
589.925	13505.34
590.284	13711.66
590.643	13942.16
591.003	14198.43
591.362	14466.22
591.721	14603.61
592.08	14939.42
592.44	15208.57
592.799	15408.11
593.158	15669.57
593.517	15936.91
593.876	16210.58
594.235	16447.86
594.593	16689.43
594.952	16980.95
595.311	17244.67
595.67	17643.53
596.029	17848.05
596.387	18163.97
596.746	18598.31
597.104	18722.15
597.463	18968.47
597.822	19383.37
598.18	19510.83
598.538	19706.98
598.897	20244.59
599.255	20312.84
599.613	20749.44
599.972	20993.95
600.33	21238.02
600.688	21470.1
601.046	21803.42
601.404	22189.85
601.762	22315.95
602.12	22706.23
602.478	22985.54
602.836	23152.54
603.194	23318.64
603.552	23605.64
603.91	23796.14
604.268	24119.07
604.625	24446.97
604.983	24623.91
605.341	24716.57
605.698	25137.8
606.056	25552.7
606.413	25595.19
606.771	25931.22
607.128	26215.51
607.485	26141.84
607.843	26444.43
608.2	26980.91
608.557	27081.93
608.914	27189.27
609.272	27549.04
609.629	27635.13
609.986	28055.91
610.343	28170.26
610.7	28531.61
611.057	28679.85
611.414	28777.03
611.771	28989.45
612.127	29234.41
612.484	29433.05
612.841	29623.78
613.198	29688.64
613.554	29868.75
613.911	30261.28
614.267	30292.92
614.624	30538.11
614.98	30722.06
615.337	30962.05
615.693	30991.43
616.05	31047.93
616.406	31367.24
616.762	31627.57
617.118	31550.74
617.475	31704.41
617.831	31888.58
618.187	32036.38
618.543	32166.99
618.899	32557.94
619.255	32583.71
619.611	32502.58
619.967	32743.93
620.323	32883.81
620.678	32921.32
621.034	33038.61
621.39	33054.88
621.746	33197.47
622.101	33704.35
622.457	33415.55
622.812	33628.2
623.168	33761.98
623.523	33864.35
623.879	33944.35
624.234	33850.11
624.589	34064.8
624.945	34125.36
625.3	34223.66
625.655	34292.59
626.01	34298.91
626.365	34509.98
626.72	34509.3
627.075	34493.49
627.43	34528.96
627.785	34642.41
628.14	34794.49
628.495	34866.13
628.85	34843.76
629.205	34742.29
629.559	35083.75
629.914	34924.21
630.269	35033.58
630.623	35001.04
630.978	34919.01
631.332	35218.89
631.687	35174.37
632.041	35129.4
632.396	35310.87
632.75	35162.17
633.104	35098.44
633.459	35020.48
633.813	35064.32
634.167	35088.05
634.521	35210.53
634.875	35282.84
635.229	35204.43
635.583	35154.49
635.937	35159.23
636.291	35155.62
636.645	35286.01
636.999	35288.72
637.352	35325.78
637.706	35193.13
638.06	35202.85
638.413	35153.36
638.767	35123.75
639.121	35308.83
639.474	35027.93
639.828	35143.64
640.181	35133.24
640.534	35218.89
640.888	35197.87
641.241	35027.93
641.594	35020.25
641.947	35338.66
642.301	35224.54
642.654	35165.78
643.007	35127.37
643.36	35087.37
643.713	35148.61
644.066	35184.09
644.419	35016.41
644.771	34840.82
645.124	34524.9
645.477	34439.48
645.83	34256.66
646.182	34137.56
646.535	34061.63
646.888	34220.72
647.24	33917
647.593	34169.43
647.945	34092.37
648.298	33883.56
648.65	33922.65
649.002	33773.5
649.355	34033.61
649.707	33983.44
650.059	34058.69
650.411	34406.71
650.763	34489.19
651.115	34834.49
651.467	34662.97
651.819	34693.93
652.171	34590.66
652.523	34674.27
652.875	34716.53
653.227	34475.18
653.578	34648.28
653.93	34690.54
654.282	34572.58
654.633	34513.15
654.985	34594.27
655.337	34603.54
655.688	34493.49
656.039	34663.42
656.391	34394.96
656.742	34410.1
657.094	34527.38
657.445	34648.28
657.796	34527.84
658.147	34402.87
658.498	34420.27
658.849	34436.76
659.2	34334.85
659.551	34448.29
659.902	34398.35
660.253	34458.23
660.604	34436.09
660.955	34222.53
661.306	34461.17
661.656	34344.56
662.007	34330.1
662.358	34366.94
662.708	34353.38
663.059	34379.36
663.409	34135.75
663.76	34276.54
664.11	34367.16
664.461	34303.43
664.811	34288.75
665.161	34298.01
665.511	34199.48
665.862	34267.73
666.212	34365.81
666.562	34356.77
666.912	34321.06
667.262	34146.83
667.612	34241.74
667.962	34312.7
668.312	34193.38
668.662	34333.94
669.011	34290.78
669.361	34134.85
669.711	34215.98
670.06	34118.58
670.41	34075.64
670.76	34039.26
671.109	34133.5
671.459	34153.16
671.808	34106.6
672.157	34125.13
672.507	34033.38
672.856	34141.4
673.205	33991.35
673.554	34065.7
673.904	34069.99
674.253	34109.32
674.602	34052.82
674.951	33609.22
675.3	33502.1
675.649	33999.26
675.998	33949.32
676.346	33993.61
676.695	33981.63
677.044	33731.7
677.393	33894.18
677.741	34016.66
678.09	33759.04
678.438	33734.64
678.787	33848.53
679.135	33634.07
679.484	33442.67
679.832	33552.72
680.181	33423.68
680.529	33455.77
680.877	33479.73
681.225	33411.25
681.573	33716.56
681.922	33348.21
682.27	33259.85
682.618	33298.71
682.966	33209.68
683.314	33198.83
683.661	33102.11
684.009	33049.23
684.357	32990.7
684.705	33109.79
685.053	33058.95
685.4	32973.75
685.748	32747.32
686.095	32791.84
686.443	32682.91
686.79	32628.9
687.138	32879.97
687.485	32665.96
687.832	32622.57
688.18	32662.57
688.527	32354.11
688.874	32355.91
689.221	32408.12
689.568	32266.2
689.915	32213.32
690.262	32166.09
690.609	32105.07
690.956	31962.03
691.303	32003.61
691.65	31825.53
691.997	31856.49
692.344	31651.98
692.69	31514.81
693.037	31526.11
693.383	31279.11
693.73	31604.97
694.077	31150.07
694.423	31298.09
694.769	31226.23
695.116	31022.16
695.462	31064.42
695.808	31040.47
696.155	31022.84
696.501	30854.71
696.847	30766.58
697.193	30622.18
697.539	30628.05
697.885	30420.15
698.231	30405.68
698.577	30381.5
698.923	30316.65
699.269	30235.29
699.614	30016.09
699.96	30077.78
700.306	29897.22
700.651	29867.62
700.997	29696.32
701.342	29720.5
701.688	29659.26
702.033	29606.83
702.379	29588.76
702.724	29387.63
703.069	29529.1
703.415	29156.68
703.76	29190.35
704.105	29233.06
704.45	29030.58
704.795	28930.47
705.14	28824.26
705.485	28820.19
705.83	28725.05
706.175	28901.99
706.52	28699.29
706.865	28678.05
707.209	28627.2
707.554	28519.18
707.899	28540.65
708.243	28426.53
708.588	28365.74
708.932	28281.67
709.277	28187.66
709.621	28201.22
709.966	28069.02
710.31	28145.63
710.654	27817.05
710.998	27852.3
711.342	27936.6
711.687	27826.54
712.031	27721.23
712.375	27652.99
712.719	27688.92
713.063	27667.22
713.407	27668.13
713.75	27606.89
714.094	27395.59
714.438	27370.51
714.782	27334.35
715.125	27265.43
715.469	27219.55
715.812	27117.86
716.156	26991.08
716.499	26951.09
716.843	27067.01
717.186	26817.76
717.53	26861.82
717.873	26988.6
718.216	26823.18
718.559	26764.65
718.902	26572.11
719.246	26601.72
719.589	26483.75
719.932	26427.03
720.275	26561.26
720.617	26456.41
720.96	26404.88
721.303	26370.54
721.646	26259.58
721.989	26136.42
722.331	26301.16
722.674	26174.61
723.016	26196.3
723.359	26235.62
723.701	26264.55
724.044	26020.94
724.386	25764.45
724.729	26042.86
725.071	25924.45
725.413	25867.05
725.755	25789.08
726.097	25717.67
726.439	25619.82
726.782	25649.88
727.124	25788.4
727.465	25559.48
727.807	25618.01
728.149	25536.66
728.491	25432.48
728.833	25516.55
729.175	25376.21
729.516	25350.68
729.858	25280.39
730.199	25272.94
730.541	25222.54
730.882	25207.85
731.224	25140.51
731.565	25074.07
731.906	25045.37
732.248	25066.61
732.589	25021.42
732.93	24974.64
733.271	24939.61
733.612	24929.67
733.953	24906.85
734.294	24864.36
734.635	24832.95
734.976	24897.13
735.317	24714.53
735.658	24716.12
735.999	24603.12
736.339	24526.97
736.68	24738.71
737.021	24606.29
737.361	24514.77
737.702	24693.29
738.042	24470.92
738.383	24479.06
738.723	24476.12
739.063	24302.79
739.404	24370.14
739.744	24387.31
740.084	24416.24
740.424	24345.28
740.764	24162.01
741.104	24228.44
741.444	24088.34
741.784	24111.61
742.124	24186.86
742.464	24081.33
742.804	24118.39
743.143	23997.26
743.483	23962.01
743.823	23777.38
744.162	23856.03
744.502	23821.68
744.841	23696.93
745.181	23773.99
745.52	23715.24
745.86	23785.07
746.199	23750.04
746.538	23712.75
746.877	23677.05
747.216	23698.06
747.556	23634.11
747.895	23558.63
748.234	23429.14
748.573	23392.53
748.911	23313.44
749.25	23471.63
749.589	23352.99
749.928	23451.74
750.267	23405.42
750.605	23232.09
750.944	23358.41
751.283	23186.89
751.621	23214.01
751.96	22998.87
752.298	23182.6
752.636	23140.34
752.975	22963.17
753.313	22837.75
753.651	23046.56
753.989	22855.15
754.327	22925.88
754.666	22811.98
755.004	22682.72
755.342	22705.32
755.679	22668.71
756.017	22536.51
756.355	22629.62
756.693	22488.83
757.031	22546.91
757.368	22414.26
757.706	22384.2
758.044	22291.55
758.381	22319.12
758.719	22174.49
759.056	22228.5
759.394	22085.9
759.731	22019.01
760.068	22041.38
760.405	21918.45
760.743	21937.43
