Data from hue_80_FLMS001491_22.txt Node
Date: Mon Feb 06 15:22:43 GMT 2017
User: dcchb
Spectrometer: FLMS00149
Trigger mode: 0
Integration Time (sec): 2.000000E-2
Scans to average: 10
Electric dark correction enabled: true
Nonlinearity correction enabled: false
Boxcar width: 0
XAxis mode: Wavelengths
Number of Pixels in Spectrum: 2048
>>>>>Begin Spectral Data<<<<<
341.393	-14.73
341.776	-14.73
342.16	-14.73
342.543	-68.06
342.927	-65.58
343.31	-66.03
343.693	-70.32
344.077	-71.23
344.46	-53.83
344.843	-53.15
345.226	-39.82
345.61	-35.3
345.993	-20.83
346.376	-17.22
346.759	3.35
347.142	39.96
347.525	54.19
347.908	55.78
348.291	58.26
348.674	99.16
349.057	117.02
349.44	143.23
349.823	132.61
350.206	171.03
350.588	193.17
350.971	220.29
351.354	221.87
351.737	240.63
352.119	251.48
352.502	252.61
352.884	270.01
353.267	276.79
353.65	292.38
354.032	288.99
354.414	308.2
354.797	314.75
355.179	315.88
355.562	310.91
355.944	334.64
356.326	328.76
356.709	328.54
357.091	331.7
357.473	331.7
357.855	332.83
358.238	316.56
358.62	320.85
359.002	332.15
359.384	322.44
359.766	345.71
360.148	318.37
360.53	331.02
360.912	338.25
361.294	328.31
361.676	331.93
362.057	332.83
362.439	327.86
362.821	326.73
363.203	317.24
363.584	333.96
363.966	329.21
364.348	309.78
364.729	311.81
365.111	320.18
365.493	324.47
365.874	314.98
366.256	320.85
366.637	329.89
367.019	323.79
367.4	302.77
367.781	332.83
368.163	308.42
368.544	290.57
368.925	288.09
369.306	313.62
369.688	312.94
370.069	298.03
370.45	301.19
370.831	300.74
371.212	299.61
371.593	298.71
371.974	320.4
372.355	319.05
372.736	327.63
373.117	320.63
373.498	315.66
373.879	334.41
374.26	289.89
374.641	285.15
375.021	298.48
375.402	306.84
375.783	313.4
376.163	292.38
376.544	316.11
376.925	326.95
377.305	328.31
377.686	324.47
378.066	336.22
378.447	309.78
378.827	322.66
379.208	318.82
379.588	318.59
379.968	305.49
380.349	324.02
380.729	328.31
381.109	327.41
381.489	341.64
381.87	332.15
382.25	333.73
382.63	340.97
383.01	330.34
383.39	339.84
383.77	345.26
384.15	351.13
384.53	334.41
384.91	310.01
385.29	350.91
385.67	309.55
386.049	326.73
386.429	336.67
386.809	320.63
387.189	351.36
387.568	337.58
387.948	324.92
388.328	324.69
388.707	361.98
389.087	345.71
389.466	362.43
389.846	350
390.225	357.91
390.605	354.52
390.984	369.21
391.363	342.77
391.743	384.13
392.122	360.63
392.501	348.2
392.881	379.38
393.26	369.44
393.639	374.19
394.018	364.92
394.397	369.44
394.776	375.54
395.155	360.63
395.534	376.9
395.913	361.76
396.292	374.64
396.671	357.24
397.05	381.64
397.429	372.6
397.808	375.09
398.186	373.73
398.565	379.38
398.944	384.58
399.323	385.94
399.701	363.79
400.08	374.19
400.458	382.09
400.837	373.51
401.215	394.52
401.594	390.91
401.972	375.99
402.351	399.72
402.729	361.3
403.107	392.49
403.486	407.63
403.864	398.14
404.242	399.04
404.62	393.85
404.999	428.42
405.377	397.46
405.755	402.66
406.133	423
406.511	410.34
406.889	397.46
407.267	403.34
407.645	414.18
408.023	426.16
408.401	423.68
408.779	416.67
409.156	420.29
409.534	414.18
409.912	425.71
410.29	432.04
410.667	424.81
411.045	454.63
411.422	445.6
411.8	418.93
412.178	434.3
412.555	451.02
412.933	455.54
413.31	450.79
413.687	449.66
414.065	465.93
414.442	443.56
414.819	458.25
415.197	453.28
415.574	470.91
415.951	461.87
416.328	463.67
416.705	459.83
417.082	474.97
417.46	471.13
417.837	481.07
418.214	485.14
418.591	485.14
418.967	479.49
419.344	487.4
419.721	494.18
420.098	505.03
420.475	498.7
420.852	479.27
421.228	516.78
421.605	503.45
421.982	480.62
422.358	522.66
422.735	514.52
423.111	540.73
423.488	520.4
423.864	531.47
424.241	518.59
424.617	528.98
424.994	529.66
425.37	530.79
425.746	517.01
426.123	541.19
426.499	530.11
426.875	566.04
427.251	552.26
427.627	571.47
428.003	568.76
428.379	586.16
428.756	550.68
429.132	579.6
429.507	564.69
429.883	566.27
430.259	564.24
430.635	588.19
431.011	584.8
431.387	591.35
431.763	606.27
432.138	597
432.514	613.05
432.89	583.67
433.265	589.55
433.641	629.32
434.016	634.07
434.392	651.69
434.767	632.26
435.143	608.3
435.518	663.89
435.894	641.3
436.269	639.71
436.644	628.42
437.02	674.52
437.395	674.06
437.77	655.31
438.145	693.27
438.52	684.46
438.895	683.56
439.271	688.53
439.646	677.68
440.021	721.07
440.395	714.29
440.77	704.35
441.145	713.39
441.52	717.68
441.895	707.06
442.27	737.11
442.645	728.07
443.019	728.07
443.394	704.8
443.769	726.04
444.143	753.61
444.518	761.07
444.892	758.81
445.267	757.9
445.641	768.07
446.016	769.2
446.39	763.78
446.764	769.43
447.139	775.53
447.513	771.91
447.887	798.81
448.262	784.34
448.636	792.03
449.01	799.26
449.384	805.59
449.758	826.15
450.132	796.55
450.506	811.24
450.88	829.09
451.254	835.64
451.628	836.09
452.002	838.35
452.376	840.61
452.75	850.56
453.123	855.08
453.497	877.67
453.871	862.31
454.244	892.36
454.618	886.94
454.992	887.84
455.365	900.5
455.739	933.04
456.112	927.62
456.486	931.01
456.859	965.36
457.232	975.53
457.606	962.42
457.979	950.89
458.352	993.6
458.725	990.21
459.099	984.79
459.472	1028.63
459.845	1022.53
460.218	1057.56
460.591	1041.51
460.964	1050.1
461.337	1080.38
461.71	1066.82
462.083	1128.74
462.456	1100.04
462.829	1131.23
463.201	1124.45
463.574	1161.28
463.947	1142.3
464.32	1207.84
464.692	1197.21
465.065	1224.33
465.438	1201.96
465.81	1236.54
466.183	1246.25
466.555	1270.66
466.928	1275.4
467.3	1282.41
467.672	1303.88
468.045	1334.61
468.417	1362.86
468.789	1377.1
469.161	1394.5
469.534	1429.07
469.906	1402.18
470.278	1468.17
470.65	1487.83
471.022	1479.24
471.394	1559.69
471.766	1555.17
472.138	1617.09
472.51	1646.02
472.882	1658.67
473.253	1679.46
473.625	1727.6
473.997	1767.37
474.369	1773.47
474.74	1828.84
475.112	1901.6
475.484	1904.77
475.855	1953.8
476.227	2022.28
476.598	2073.35
476.97	2126.68
477.341	2153.57
477.713	2213.23
478.084	2259.79
478.455	2295.26
478.827	2379.78
479.198	2462.72
479.569	2523.73
479.94	2587.23
480.311	2612.09
480.682	2707.46
481.053	2853.44
481.424	2890.05
481.795	2954.46
482.166	3051.63
482.537	3102.47
482.908	3198.74
483.279	3315.35
483.65	3383.82
484.021	3495.46
484.391	3593.76
484.762	3682.8
485.133	3739.97
485.503	3876.01
485.874	3993.52
486.244	4109.68
486.615	4195.55
486.985	4251.15
487.356	4439.39
487.726	4515.55
488.097	4675.77
488.467	4815.2
488.837	4932.26
489.207	4996.66
489.578	5153.95
489.948	5291.12
490.318	5400.49
490.688	5470.77
491.058	5633.26
491.428	5767.49
491.798	5940.14
492.168	6075.73
492.538	6182.17
492.908	6328.38
493.278	6503.97
493.648	6521.82
494.017	6692.21
494.387	6809.04
494.757	6974.92
495.126	7095.14
495.496	7166.32
495.866	7328.8
496.235	7417.16
496.605	7635.46
496.974	7733.31
497.344	7894.67
497.713	7974.44
498.082	8115.68
498.452	8267.31
498.821	8336.69
499.19	8439.28
499.559	8562.22
499.928	8672.72
500.298	8890.8
500.667	9000.4
501.036	9037.69
501.405	9161.3
501.774	9189.77
502.143	9384.34
502.512	9474.74
502.88	9581.63
503.249	9611.46
503.618	9787.27
503.987	9916.31
504.356	10064.78
504.724	10050.99
505.093	10187.49
505.462	10347.26
505.83	10344.77
506.199	10514.26
506.567	10643.75
506.936	10670.86
507.304	10847.81
507.672	10876.96
508.041	10859.79
508.409	11062.49
508.777	11237.18
509.145	11286.44
509.514	11312.2
509.882	11396.95
510.25	11485.08
510.618	11543.61
510.986	11574.57
511.354	11779.53
511.722	11842.36
512.09	12020.43
512.458	12045.06
512.826	12094.1
513.193	12189.69
513.561	12170.26
513.929	12297.71
514.297	12454.55
514.664	12456.35
515.032	12516.24
515.4	12636.24
515.767	12693.18
516.135	12695.44
516.502	12755.55
516.869	12972.05
517.237	12955.78
517.604	12902.22
517.972	13061.76
518.339	13163
518.706	13202.55
519.073	13245.03
519.44	13331.58
519.808	13451.58
520.175	13373.62
520.542	13547.17
520.909	13684.8
521.276	13606.83
521.643	13818.58
522.009	13728.41
522.376	13859.25
522.743	13921.17
523.11	14013.15
523.477	14061.73
523.843	14113.71
524.21	14282.07
524.577	14288.62
524.943	14445.91
525.31	14427.83
525.676	14537.43
526.043	14567.26
526.409	14632.34
526.776	14676.18
527.142	14734.03
527.508	14778.55
527.874	14828.27
528.241	14917.98
528.607	14911.88
528.973	15064.65
529.339	14933.58
529.705	15063.97
530.071	15171.99
530.437	15207.24
530.803	15219.67
531.169	15336.28
531.535	15277.97
531.901	15318.2
532.267	15221.93
532.632	15329.95
532.998	15331.76
533.364	15440
533.73	15343.28
534.095	15534.46
534.461	15482.49
534.826	15500.79
535.192	15525.65
535.557	15623.95
535.923	15572.88
536.288	15587.12
536.653	15592.09
537.019	15551.87
537.384	15588.7
537.749	15576.5
538.114	15661.92
538.479	15633.44
538.845	15677.74
539.21	15581.02
539.575	15725.19
539.94	15603.84
540.305	15691.07
540.67	15651.75
541.034	15549.61
541.399	15717.51
541.764	15657.85
542.129	15690.39
542.494	15598.42
542.858	15661.47
543.223	15582.37
543.587	15676.61
543.952	15600
544.316	15588.47
544.681	15548.93
545.045	15645.65
545.41	15652.88
545.774	15621.24
546.138	15586.89
546.503	15600.23
546.867	15526.1
547.231	15672.99
547.595	15649.94
547.959	15644.74
548.324	15642.48
548.688	15526.78
549.052	15625.99
549.416	15577.85
549.779	15553
550.143	15633.9
550.507	15583.28
550.871	15569.04
551.235	15552.32
551.599	15608.36
551.962	15588.93
552.326	15572.43
552.689	15635.25
553.053	15576.72
553.417	15587.8
553.78	15713.22
554.143	15560.9
554.507	15671.41
554.87	15702.6
555.234	15671.86
555.597	15604.75
555.96	15653.33
556.323	15706.66
556.686	15613.56
557.05	15705.31
557.413	15675.7
557.776	15671.64
558.139	15823.27
558.502	15784.18
558.865	15731.97
559.228	15790.28
559.59	15830.5
559.953	15851.52
560.316	15972.42
560.679	15832.31
561.041	16008.8
561.404	15957.73
561.767	16038.41
562.129	15974
562.492	16109.14
562.854	16061
563.217	16058.29
563.579	16056.03
563.941	16194.11
564.304	16163.83
564.666	16168.12
565.028	16249.25
565.39	16262.13
565.753	16321.79
566.115	16324.73
566.477	16355.46
566.839	16437.04
567.201	16510.94
567.563	16512.52
567.925	16540.99
568.287	16518.17
568.648	16490.6
569.01	16583.7
569.372	16717.71
569.734	16642.01
570.095	16706.19
570.457	16776.69
570.819	16785.73
571.18	16797.26
571.542	16852.85
571.903	16801.78
572.265	16906.18
572.626	16913.19
572.987	16877.48
573.349	16923.35
573.71	17015.33
574.071	16984.6
574.432	17053.07
574.794	17053.29
575.155	17069.11
575.516	16994.31
575.877	17110.24
576.238	17103.01
576.599	17161.09
576.96	17134.87
577.32	17110.02
577.681	17239.96
578.042	17141.88
578.403	17282.67
578.763	17257.58
579.124	17284.02
579.485	17308.43
579.845	17284.93
580.206	17260.29
580.566	17193.63
580.927	17270.92
581.287	17279.73
581.648	17244.02
582.008	17354.3
582.368	17294.64
582.728	17340.74
583.089	17281.99
583.449	17305.94
583.809	17266.62
584.169	17369.22
584.529	17301.88
584.889	17449.44
585.249	17239.28
585.609	17239.28
585.969	17259.16
586.329	17238.15
586.688	17327.64
587.048	17266.4
587.408	17166.74
587.768	17206.74
588.127	17327.86
588.487	17169.45
588.846	17241.76
589.206	17075.44
589.565	17200.86
589.925	17274.98
590.284	17172.61
590.643	17241.76
591.003	17287.41
591.362	17250.8
591.721	17223.69
592.08	17170.35
592.44	17303.23
592.799	17231.59
593.158	17166.51
593.517	17165.61
593.876	17211.03
594.235	17147.98
594.593	17090.58
594.952	17196.12
595.311	17192.05
595.67	17168.77
596.029	17224.59
596.387	17152.27
596.746	17152.05
597.104	17176.46
597.463	17196.79
597.822	17272.72
598.18	17176.23
598.538	17114.99
598.897	17167.42
599.255	17053.75
599.613	17350.69
599.972	17251.71
600.33	17270.69
600.688	17119.06
601.046	17285.38
601.404	17289.45
601.762	17226.62
602.12	17333.51
602.478	17304.14
602.836	17335.32
603.194	17200.86
603.552	17285.15
603.91	17075.89
604.268	17356.11
604.625	17218.26
604.983	17284.47
605.341	17236.11
605.698	17323.12
606.056	17374.87
606.413	17279.73
606.771	17329.45
607.128	17391.36
607.485	17382.1
607.843	17334.64
608.2	17342.55
608.557	17407.86
608.914	17375.77
609.272	17501.87
609.629	17404.47
609.986	17553.85
610.343	17461.19
610.7	17584.58
611.057	17465.71
611.414	17463.23
611.771	17479.5
612.127	17527.63
612.484	17512.04
612.841	17615.77
613.198	17580.96
613.554	17573.96
613.911	17630.91
614.267	17637.91
614.624	17606.95
614.98	17640.17
615.337	17720.62
615.693	17731.92
616.05	17652.15
616.406	17772.82
616.762	17761.52
617.118	17782.54
617.475	17765.37
617.831	17844.69
618.187	17888.98
618.543	17836.32
618.899	17925.14
619.255	17898.24
619.611	17750
619.967	17906.15
620.323	17884.91
620.678	17801.07
621.034	17877.23
621.39	17828.42
621.746	17792.48
622.101	17958.13
622.457	17910.67
622.812	17883.33
623.168	17999.26
623.523	17938.47
623.879	18022.53
624.234	17947.51
624.589	17967.85
624.945	18124.68
625.3	17979.6
625.655	17900.28
626.01	18023.44
626.365	18044.91
626.72	18006.49
627.075	17929.43
627.43	18037.68
627.785	17892.59
628.14	18012.14
628.495	17948.19
628.85	17913.38
629.205	17838.36
629.559	17991.57
629.914	17916.55
630.269	17917.45
630.623	17811.24
630.978	17917
631.332	17886.04
631.687	17973.04
632.041	17782.54
632.396	17861.41
632.75	17792.26
633.104	17798.59
633.459	17681.75
633.813	17776.89
634.167	17775.76
634.521	17745.71
634.875	17721.3
635.229	17657.12
635.583	17594.3
635.937	17560.85
636.291	17665.71
636.645	17633.62
636.999	17545.26
637.352	17616.9
637.706	17451.48
638.06	17569.89
638.413	17535.54
638.767	17471.81
639.121	17418.26
639.474	17454.64
639.828	17426.84
640.181	17468.42
640.534	17472.27
640.888	17368.99
641.241	17375.77
641.594	17361.99
641.947	17399.27
642.301	17390.23
642.654	17348.88
643.007	17351.82
643.36	17404.92
643.713	17214.65
644.066	17277.02
644.419	17218.26
644.771	17141.65
645.124	17011.26
645.477	16953.41
645.83	16873.64
646.182	16788.89
646.535	16716.58
646.888	16768.33
647.24	16698.5
647.593	16794.09
647.945	16702.12
648.298	16622.57
648.65	16615.34
649.002	16642.46
649.355	16721.1
649.707	16713.87
650.059	16684.04
650.411	16939.85
650.763	16996.8
651.115	17143.01
651.467	17154.08
651.819	17069.79
652.171	17118.83
652.523	17029.57
652.875	17135.55
653.227	16965.16
653.578	17173.97
653.93	17018.04
654.282	17011.71
654.633	16990.92
654.985	17004.03
655.337	16943.24
655.688	17017.82
656.039	17081.77
656.391	16917.03
656.742	17011.26
657.094	17075.89
657.445	17074.08
657.796	17032.5
658.147	16970.58
658.498	17009.91
658.849	17062.56
659.2	16913.64
659.551	16932.39
659.902	17108.66
660.253	16947.76
660.604	17098.27
660.955	16963.81
661.306	17035.89
661.656	17029.34
662.007	17048.32
662.358	17068.66
662.708	17000.87
663.059	16972.17
663.409	16923.35
663.76	17050.13
664.11	17073.18
664.461	17153.86
664.811	17121.54
665.161	17099.62
665.511	17002.67
665.862	17046.52
666.212	17085.84
666.562	17063.01
666.912	17045.61
667.262	17091.49
667.612	17094.88
667.962	17231.14
668.312	17034.31
668.662	17189.11
669.011	17047.87
669.361	16959.51
669.711	16985.05
670.06	17098.72
670.41	16950.25
670.76	16969.45
671.109	17049.45
671.459	17042
671.808	16968.55
672.157	16939.4
672.507	16861.21
672.856	16857.82
673.205	16948.21
673.554	16927.2
673.904	16822.57
674.253	16973.97
674.602	16870.25
674.951	16708.22
675.3	16579.86
675.649	16776.47
675.998	16755.68
676.346	16784.6
676.695	16875.9
677.044	16669.35
677.393	16727.65
677.741	16764.71
678.09	16766.07
678.438	16729.91
678.787	16779.86
679.135	16753.64
679.484	16620.76
679.832	16628.22
680.181	16563.82
680.529	16587.77
680.877	16573.53
681.225	16523.14
681.573	16655.11
681.922	16563.82
682.27	16497.38
682.618	16511.84
682.966	16411.5
683.314	16426.19
683.661	16379.87
684.009	16284.95
684.357	16245.63
684.705	16259.64
685.053	16212.64
685.4	16115.01
685.748	16150.72
686.095	16112.75
686.443	16043.38
686.79	16096.71
687.138	16045.19
687.485	16024.85
687.832	15910.73
688.18	16015.58
688.527	15851.07
688.874	15848.35
689.221	15777.4
689.568	15825.98
689.915	15875.92
690.262	15627.8
690.609	15570.4
690.956	15657.85
691.303	15606.55
691.65	15477.29
691.997	15424.18
692.344	15405.43
692.69	15321.36
693.037	15455.6
693.383	15249.5
693.73	15345.77
694.077	15126.34
694.423	15176.06
694.769	15136.28
695.116	15107.13
695.462	14936.51
695.808	14964.08
696.155	14915.27
696.501	14863.52
696.847	14906.46
697.193	14713.7
697.539	14817.42
697.885	14615.39
698.231	14601.61
698.577	14525.23
698.923	14515.51
699.269	14451.78
699.614	14432.8
699.96	14355.96
700.306	14346.47
700.651	14348.05
700.997	14217.66
701.342	14236.19
701.688	14172.69
702.033	14118.91
702.379	14167.27
702.724	14016.31
703.069	14071.23
703.415	13854.73
703.76	13923.21
704.105	13848.18
704.45	13813.38
704.795	13772.02
705.14	13694.29
705.485	13701.07
705.83	13623.78
706.175	13699.03
706.52	13708.3
706.865	13509.66
707.209	13498.81
707.554	13518.92
707.899	13499.04
708.243	13366.39
708.588	13450.68
708.932	13181.31
709.277	13167.3
709.621	13243
709.966	13094.3
710.31	13135.21
710.654	13057.69
710.998	13034.19
711.342	12976.11
711.687	13039.61
712.031	12959.62
712.375	12897.7
712.719	12877.81
713.063	12888.21
713.407	12974.76
713.75	12847.98
714.094	12960.75
714.438	12773.86
714.782	12822.45
715.125	12683.69
715.469	12756.23
715.812	12669.68
716.156	12567.08
716.499	12672.84
716.843	12643.24
717.186	12531.15
717.53	12668.1
717.873	12598.27
718.216	12600.53
718.559	12498.84
718.902	12483.02
719.246	12451.83
719.589	12505.62
719.932	12466.97
720.275	12333.42
720.617	12437.37
720.96	12311.95
721.303	12418.84
721.646	12463.81
721.989	12201.22
722.331	12306.53
722.674	12335.68
723.016	12331.61
723.359	12257.49
723.701	12343.36
724.044	12231.5
724.386	12207.09
724.729	12231.5
725.071	12201.67
725.413	12201.67
725.755	12170.03
726.097	12139.75
726.439	12049.13
726.782	12116.02
727.124	12120.09
727.465	12066.53
727.807	12093.42
728.149	12026.08
728.491	11974.11
728.833	11971.85
729.175	12005.52
729.516	11965.52
729.858	12035.35
730.199	12038.06
730.541	12005.52
730.882	12016.82
731.224	12024.27
731.565	11925.52
731.906	11992.41
732.248	11955.8
732.589	11857.05
732.93	11866.54
733.271	11860.21
733.612	11961
733.953	12004.16
734.294	11861.79
734.635	11819.31
734.976	11984.28
735.317	11914.9
735.658	11886.88
735.999	11886.2
736.339	11868.8
736.68	11930.49
737.021	11899.08
737.361	11819.76
737.702	11851.17
738.042	11920.1
738.383	11928.91
738.723	11986.08
739.063	11910.38
739.404	11894.11
739.744	11890.72
740.084	11879.42
740.424	11937.27
740.764	11912.86
741.104	11988.12
741.444	11833.77
741.784	11966.2
742.124	12054.33
742.464	11968.23
742.804	11995.57
743.143	11982.02
743.483	12070.37
743.823	11956.93
744.162	12039.42
744.502	12148.34
744.841	12105.85
745.181	12145.63
745.52	12180.43
745.86	12195.34
746.199	12261.33
746.538	12293.42
746.877	12402.57
747.216	12409.35
747.556	12412.74
747.895	12363.47
748.234	12466.75
748.573	12497.26
748.911	12548.1
749.25	12578.38
749.589	12609.8
749.928	12690.7
750.267	12776.34
750.605	12798.49
750.944	12906.96
751.283	12904.93
751.621	13040.74
751.96	12984.93
752.298	13098.82
752.636	13226.05
752.975	13195.32
753.313	13243.23
753.651	13400.96
753.989	13496.78
754.327	13607.28
754.666	13558.92
755.004	13778.35
755.342	13884.34
755.679	13944.68
756.017	14038.68
756.355	14119.36
756.693	14149.87
757.031	14290.43
