Data from hue_130_FLMS001491_00004.txt Node
Date: Tue Feb 07 16:57:04 GMT 2017
User: dcchb
Spectrometer: FLMS00149
Trigger mode: 0
Integration Time (sec): 2.000000E-2
Scans to average: 10
Electric dark correction enabled: true
Nonlinearity correction enabled: false
Boxcar width: 0
XAxis mode: Wavelengths
Number of Pixels in Spectrum: 2048
>>>>>Begin Spectral Data<<<<<
341.393	-30.51
341.776	-30.51
342.16	-30.51
342.543	-53.56
342.927	-65.31
343.31	-79.55
343.693	-87.68
344.077	-52.88
344.46	-47.23
344.843	-50.39
345.226	-33.45
345.61	-19.66
345.993	-0.68
346.376	-7.91
346.759	23.28
347.142	16.04
347.525	16.04
347.908	49.72
348.291	74.12
348.674	86.78
349.057	113.44
349.44	143.95
349.823	142.14
350.206	153.22
350.588	211.07
350.971	213.78
351.354	222.14
351.737	243.61
352.119	246.55
352.502	256.94
352.884	276.38
353.267	275.02
353.65	287.45
354.032	319.99
354.414	311.86
354.797	316.6
355.179	304.17
355.562	317.28
355.944	319.09
356.326	321.12
356.709	339.65
357.091	337.39
357.473	338.07
357.855	352.76
358.238	345.53
358.62	355.7
359.002	349.14
359.384	347.34
359.766	333.78
360.148	331.29
360.53	348.24
360.912	324.96
361.294	326.55
361.676	344.85
362.057	318.86
362.439	327.9
362.821	320.22
363.203	344.17
363.584	333.1
363.966	334.91
364.348	327.45
364.729	331.97
365.111	322.48
365.493	318.41
365.874	317.96
366.256	329.48
366.637	316.83
367.019	307.79
367.4	317.28
367.781	300.56
368.163	336.49
368.544	306.21
368.925	324.06
369.306	309.82
369.688	317.96
370.069	306.66
370.45	313.44
370.831	317.73
371.212	308.01
371.593	308.24
371.974	310.27
372.355	334.68
372.736	306.43
373.117	298.52
373.498	338.75
373.879	324.51
374.26	327.22
374.641	309.82
375.021	328.35
375.402	336.94
375.783	348.01
376.163	320.9
376.544	323.83
376.925	342.36
377.305	324.96
377.686	324.51
378.066	333.55
378.447	318.41
378.827	336.26
379.208	319.31
379.588	324.96
379.968	337.39
380.349	322.93
380.729	338.07
381.109	340.33
381.489	346.66
381.87	343.49
382.25	361.12
382.63	323.83
383.01	343.49
383.39	335.58
383.77	350.05
384.15	329.26
384.53	338.3
384.91	352.08
385.29	350.95
385.67	376.94
386.049	368.13
386.429	358.18
386.809	359.99
387.189	364.28
387.568	339.2
387.948	366.32
388.328	351.4
388.707	374.68
389.087	362.02
389.466	367.67
389.846	366.32
390.225	408.12
390.605	367
390.984	374.45
391.363	363.83
391.743	375.81
392.122	350.73
392.501	369.03
392.881	375.13
393.26	395.7
393.639	365.19
394.018	376.26
394.397	391.63
394.776	395.02
395.155	401.57
395.534	402.93
395.913	394.57
396.292	373.78
396.671	393.44
397.05	389.37
397.429	392.08
397.808	405.87
398.186	394.79
398.565	387.33
398.944	437.73
399.323	409.03
399.701	399.09
400.08	409.71
400.458	400.67
400.837	425.07
401.215	421.46
401.594	396.15
401.972	414.68
402.351	413.32
402.729	396.83
403.107	421.68
403.486	436.6
403.864	444.73
404.242	417.16
404.62	425.07
404.999	434.79
405.377	442.25
405.755	446.32
406.133	446.77
406.511	445.19
406.889	431.85
407.267	458.07
407.645	449.03
408.023	426.2
408.401	465.52
408.779	465.75
409.156	478.86
409.534	482.25
409.912	460.55
410.29	458.29
410.667	467.78
411.045	469.37
411.422	474.79
411.8	489.25
412.178	466.88
412.555	510.72
412.933	476.6
413.31	485.86
413.687	496.03
414.065	511.62
414.442	483.38
414.819	481.12
415.197	507.11
415.574	508.01
415.951	503.26
416.328	519.99
416.705	534.45
417.082	531.51
417.46	525.41
417.837	539.19
418.214	524.05
418.591	546.2
418.967	554.56
419.344	521.34
419.721	561.57
420.098	562.02
420.475	554.79
420.852	545.3
421.228	577.61
421.605	542.81
421.982	572.41
422.358	553.88
422.735	569.25
423.111	566.31
423.488	589.36
423.864	583.71
424.241	613.77
424.617	612.19
424.994	595.92
425.37	626.2
425.746	622.36
426.123	612.19
426.499	623.94
426.875	597.95
427.251	633.66
427.627	638.63
428.003	653.54
428.379	645.18
428.756	640.89
429.132	642.24
429.507	685.41
429.883	674.56
430.259	684.73
430.635	675.01
431.011	670.04
431.387	694.45
431.763	722.01
432.138	705.52
432.514	722.69
432.89	687.21
433.265	710.94
433.641	719.3
434.016	745.97
434.392	737.61
434.767	738.51
435.143	716.37
435.518	754.1
435.894	759.98
436.269	771.96
436.644	788.45
437.02	795.46
437.395	802.24
437.77	785.06
438.145	799.3
438.52	770.6
438.895	841.56
439.271	821.22
439.646	804.72
440.021	838.4
440.395	823.71
440.77	854.44
441.145	840.2
441.52	859.19
441.895	841.79
442.27	874.55
442.645	874.1
443.019	876.14
443.394	871.16
443.769	880.2
444.143	895.57
444.518	909.35
444.892	919.75
445.267	921.78
445.641	910.71
446.016	909.13
446.39	917.72
446.764	922.01
447.139	937.38
447.513	944.83
447.887	944.83
448.262	943.25
448.636	957.04
449.01	980.77
449.384	964.49
449.758	980.99
450.132	968.11
450.506	969.01
450.88	988.9
451.254	993.87
451.628	1006.3
452.002	1032.06
452.376	1021.89
452.75	1071.84
453.123	1046.07
453.497	1058.05
453.871	1082.01
454.244	1086.75
454.618	1132.63
454.992	1112.74
455.365	1109.35
455.739	1143.92
456.112	1164.49
456.486	1135.34
456.859	1161.55
457.232	1191.61
457.606	1207.2
457.979	1193.64
458.352	1235.67
458.725	1256.92
459.099	1268.44
459.472	1284.03
459.845	1302.34
460.218	1321.77
460.591	1313.41
460.964	1347.76
461.337	1350.92
461.71	1346.86
462.083	1385.95
462.456	1394.77
462.829	1391.6
463.201	1421.88
463.574	1422.79
463.947	1450.81
464.32	1489.45
464.692	1504.37
465.065	1516.8
465.438	1564.7
465.81	1576.91
466.183	1606.74
466.555	1609.22
466.928	1635.66
467.3	1663.01
467.672	1665.94
468.045	1705.04
468.417	1731.03
468.789	1748.2
469.161	1776
469.534	1808.09
469.906	1859.84
470.278	1883.57
470.65	1894.19
471.022	1977.8
471.394	2005.6
471.766	2011.7
472.138	2067.29
472.51	2110
472.882	2147.51
473.253	2217.79
473.625	2241.07
473.997	2299.83
474.369	2307.28
474.74	2348.19
475.112	2399.03
475.484	2491.01
475.855	2561.51
476.227	2577.33
476.598	2652.81
476.97	2708.63
477.341	2796.76
477.713	2827.72
478.084	2881.28
478.455	2999.24
478.827	3016.19
479.198	3155.17
479.569	3221.61
479.94	3307.94
480.311	3343.19
480.682	3471.55
481.053	3573.01
481.424	3721.48
481.795	3748.15
482.166	3866.11
482.537	3925.32
482.908	4106.56
483.279	4139.33
483.65	4276.72
484.021	4425.19
484.391	4493.22
484.762	4590.61
485.133	4639.2
485.503	4807.33
485.874	4994.67
486.244	5060.21
486.615	5193.54
486.985	5373.87
487.356	5444.38
487.726	5603.92
488.097	5797.14
488.467	5871.94
488.837	6044.13
489.207	6146.05
489.578	6384.01
489.948	6453.62
490.318	6588.53
490.688	6670.11
491.058	6871.68
491.428	7016.54
491.798	7165.69
492.168	7331.33
492.538	7452.01
492.908	7605
493.278	7817.42
493.648	7851.54
494.017	8029.62
494.387	8173.57
494.757	8309.61
495.126	8471.19
495.496	8572.88
495.866	8622.6
496.235	8837.06
496.605	8970.16
496.974	9047.45
497.344	9198.4
497.713	9345.74
498.082	9457.83
498.452	9644.94
498.821	9686.07
499.19	9747.09
499.559	9953.64
499.928	10093.97
500.298	10139.85
500.667	10254.87
501.036	10389.78
501.405	10511.14
501.774	10556.56
502.143	10647.18
502.512	10754.52
502.88	10938.24
503.249	10983.21
503.618	11048.52
503.987	11113.15
504.356	11237.44
504.724	11341.17
505.093	11430.66
505.462	11510.43
505.83	11705.91
506.199	11711.78
506.567	11875.85
506.936	11900.25
507.304	12107.7
507.672	12160.13
508.041	12168.49
508.409	12327.36
508.777	12337.98
509.145	12464.53
509.514	12405.78
509.882	12521.03
510.25	12518.77
510.618	12690.06
510.986	12684.64
511.354	12772.32
511.722	12974.35
512.09	13003.5
512.458	13054.8
512.826	13166.43
513.193	13210.73
513.561	13249.37
513.929	13265.64
514.297	13358.74
514.664	13401.46
515.032	13445.52
515.4	13504.28
515.767	13583.82
516.135	13591.73
516.502	13574.78
516.869	13703.37
517.237	13787.66
517.604	13730.94
517.972	13812.97
518.339	13877.15
518.706	13920.54
519.073	13890.71
519.44	13949.46
519.808	14094.09
520.175	14110.59
520.542	14140.19
520.909	14199.4
521.276	14234.43
521.643	14265.61
522.009	14333.86
522.376	14389.9
522.743	14426.06
523.11	14499.05
523.477	14594.42
523.843	14615.89
524.21	14655.66
524.577	14703.79
524.943	14746.96
525.31	14799.84
525.676	14743.79
526.043	14845.03
526.409	14830.8
526.776	14954.41
527.142	14899.95
527.508	14979.04
527.874	15092.03
528.241	14997.8
528.607	15081.64
528.973	15090.68
529.339	15077.57
529.705	15155.99
530.071	15152.82
530.437	15210
530.803	15183.33
531.169	15162.77
531.535	15111.24
531.901	15043.22
532.267	15175.42
532.632	15192.37
532.998	15187.85
533.364	15251.58
533.73	15179.94
534.095	15185.59
534.461	15161.41
534.826	15122.77
535.192	15165.02
535.557	15163.44
535.923	15121.64
536.288	15075.08
536.653	15165.7
537.019	15030.57
537.384	15006.84
537.749	14991.47
538.114	15038.93
538.479	14955.09
538.845	15014.07
539.21	14928.87
539.575	14867.18
539.94	14796.45
540.305	14960.96
540.67	14844.13
541.034	14866.95
541.399	14831.93
541.764	14734.3
542.129	14739.95
542.494	14684.59
542.858	14687.3
543.223	14672.38
543.587	14699.95
543.952	14562.55
544.316	14492.27
544.681	14522.56
545.045	14553.06
545.41	14526.62
545.774	14496.57
546.138	14454.54
546.503	14440.52
546.867	14335.44
547.231	14342
547.595	14316.69
547.959	14305.84
548.324	14245.5
548.688	14255.44
549.052	14163.24
549.416	14157.59
549.779	14231.04
550.143	14165.5
550.507	14206.63
550.871	14062.91
551.235	14038.27
551.599	14081.44
551.962	14012.74
552.326	14047.77
552.689	14055
553.053	13970.25
553.417	13925.06
553.78	14007.54
554.143	13987.43
554.507	13928
554.87	13853.87
555.234	13976.13
555.597	13824.27
555.96	13820.43
556.323	13830.37
556.686	13794.21
557.05	13778.39
557.413	13821.78
557.776	13812.52
558.139	13817.49
558.502	13688
558.865	13746.53
559.228	13805.96
559.59	13803.48
559.953	13767.32
560.316	13871.73
560.679	13839.41
561.041	13827.43
561.404	13898.62
561.767	13863.59
562.129	13885.74
562.492	13937.49
562.854	13826.53
563.217	13909.69
563.579	13879.18
563.941	13898.84
564.304	13951.05
564.666	13917.6
565.028	13964.83
565.39	13908.79
565.753	13914.44
566.115	13963.7
566.477	14024.94
566.839	13958.05
567.201	14095.22
567.563	13975.45
567.925	14106.75
568.287	14059.97
568.648	14089.35
569.01	14087.31
569.372	14128.67
569.734	14106.07
570.095	14249.57
570.457	14226.97
570.819	14216.12
571.18	14209.34
571.542	14243.69
571.903	14226.52
572.265	14231.26
572.626	14250.02
572.987	14271.72
573.349	14247.53
573.71	14319.62
574.071	14346.97
574.432	14387.87
574.794	14394.42
575.155	14283.01
575.516	14376.8
575.877	14378.83
576.238	14358.04
576.599	14399.62
576.96	14341.32
577.32	14314.2
577.681	14377.02
578.042	14431.26
578.403	14414.31
578.763	14430.13
579.124	14358.49
579.485	14427.19
579.845	14556.45
580.206	14442.33
580.566	14400.07
580.927	14430.81
581.287	14491.37
581.648	14454.76
582.008	14500.18
582.368	14504.25
582.728	14490.24
583.089	14510.58
583.449	14489.79
583.809	14386.74
584.169	14445.72
584.529	14407.98
584.889	14340.41
585.249	14386.51
585.609	14263.13
585.969	14409.11
586.329	14255.67
586.688	14345.16
587.048	14349
587.408	14331.6
587.768	14315.78
588.127	14288.66
588.487	14346.29
588.846	14389.68
589.206	14204.6
589.565	14252.73
589.925	14389
590.284	14176.58
590.643	14306.29
591.003	14302
591.362	14311.49
591.721	14288.44
592.08	14263.35
592.44	14227.42
592.799	14303.13
593.158	14251.83
593.517	14187.88
593.876	14197.14
594.235	14170.7
594.593	14187.42
594.952	14187.65
595.311	14196.24
595.67	14187.65
596.029	14210.47
596.387	14252.96
596.746	14206.86
597.104	14140.19
597.463	14217.93
597.822	14223.13
598.18	14139.74
598.538	14100.65
598.897	14153.98
599.255	14066.75
599.613	14215.45
599.972	14162.11
600.33	14219.29
600.688	14080.31
601.046	14162.11
601.404	14274.2
601.762	14222.22
602.12	14220.42
602.478	14253.18
602.836	14259.96
603.194	14119.63
603.552	14131.38
603.91	14142.68
604.268	14179.74
604.625	14061.33
604.983	14126.41
605.341	14079.4
605.698	14139.29
606.056	14120.76
606.413	14121.89
606.771	14118.95
607.128	14252.51
607.485	14109.46
607.843	14208.44
608.2	14253.86
608.557	14226.52
608.914	14169.57
609.272	14294.99
609.629	14254.09
609.986	14264.48
610.343	14280.08
610.7	14278.72
611.057	14326.4
611.414	14335.22
611.771	14364.14
612.127	14449.79
612.484	14289.79
612.841	14399.62
613.198	14348.1
613.554	14324.37
613.911	14437.36
614.267	14381.99
614.624	14439.39
614.98	14382.22
615.337	14478.94
615.693	14559.17
616.05	14442.11
616.406	14428.55
616.762	14556
617.118	14542.44
617.475	14571.37
617.831	14573.63
618.187	14617.02
618.543	14602.33
618.899	14635.1
619.255	14608.43
619.611	14565.94
619.967	14699.27
620.323	14645.72
620.678	14601.88
621.034	14552.39
621.39	14546.28
621.746	14565.27
622.101	14732.27
622.457	14536.79
622.812	14610.24
623.168	14551.71
623.523	14606.62
623.879	14703.12
624.234	14568.43
624.589	14671.25
624.945	14704.7
625.3	14642.78
625.655	14648.65
626.01	14603.01
626.365	14653.85
626.72	14552.84
627.075	14619.73
627.43	14654.76
627.785	14642.78
628.14	14557.58
628.495	14572.95
628.85	14585.83
629.205	14583.57
629.559	14606.62
629.914	14504.48
630.269	14614.31
630.623	14483.46
630.978	14517.36
631.332	14496.12
631.687	14573.85
632.041	14525.72
632.396	14482.78
632.75	14516.45
633.104	14522.78
633.459	14436.68
633.813	14451.15
634.167	14455.44
634.521	14426.29
634.875	14437.13
635.229	14338.15
635.583	14351.26
635.937	14376.35
636.291	14358.04
636.645	14267.65
636.999	14158.95
637.352	14255.67
637.706	14210.25
638.06	14160.98
638.413	14139.06
638.767	14123.7
639.121	14186.97
639.474	14080.08
639.828	14132.74
640.181	14069.46
640.534	14163.7
640.888	14087.09
641.241	13946.3
641.594	14036.02
641.947	14030.37
642.301	14049.8
642.654	14071.04
643.007	14104.71
643.36	14047.09
643.713	13960.99
644.066	14088.67
644.419	13964.83
644.771	13923.7
645.124	13836.25
645.477	13790.82
645.83	13665.4
646.182	13583.82
646.535	13607.1
646.888	13548.8
647.24	13570.49
647.593	13607.78
647.945	13489.81
648.298	13449.59
648.65	13429.25
649.002	13383.83
649.355	13494.11
649.707	13477.84
650.059	13546.76
650.411	13677.15
650.763	13771.62
651.115	13897.04
651.467	13805.96
651.819	13851.61
652.171	13730.71
652.523	13810.94
652.875	13742.24
653.227	13753.31
653.578	13840.31
653.93	13870.6
654.282	13806.87
654.633	13819.75
654.985	13766.64
655.337	13799.64
655.688	13756.25
656.039	13850.71
656.391	13738.85
656.742	13733.2
657.094	13828.56
657.445	13745.85
657.796	13859.75
658.147	13744.72
658.498	13683.71
658.849	13762.8
659.2	13804.83
659.551	13768.68
659.902	13858.17
660.253	13799.86
660.604	13813.87
660.955	13769.58
661.306	13814.33
661.656	13825.17
662.007	13870.14
662.358	13842.57
662.708	13837.83
663.059	13766.87
663.409	13795.12
663.76	13817.94
664.11	13957.83
664.461	13906.08
664.811	13884.38
665.161	13869.69
665.511	13779.07
665.862	13864.27
666.212	13891.84
666.562	13903.14
666.912	13813.87
667.262	13762.35
667.612	13914.21
667.962	13877.6
668.312	13858.17
668.662	13892.06
669.011	13822.01
669.361	13861.78
669.711	13788.79
670.06	13789.24
670.41	13813.42
670.76	13790.6
671.109	13825.63
671.459	13835.57
671.808	13753.99
672.157	13837.15
672.507	13695.01
672.856	13722.58
673.205	13759.19
673.554	13757.6
673.904	13726.19
674.253	13739.53
674.602	13805.96
674.951	13484.17
675.3	13412.75
675.649	13654.33
675.998	13708.57
676.346	13636.25
676.695	13621.34
677.044	13590.15
677.393	13590.83
677.741	13590.83
678.09	13562.58
678.438	13536.82
678.787	13593.09
679.135	13483.94
679.484	13457.73
679.832	13475.58
680.181	13417.5
680.529	13502.7
680.877	13383.38
681.225	13407.33
681.573	13410.27
681.922	13299.31
682.27	13384.05
682.618	13246.43
682.966	13237.62
683.314	13305.64
683.661	13215.7
684.009	13235.13
684.357	13132.31
684.705	13258.86
685.053	13193.1
685.4	13243.72
685.748	13157.62
686.095	12981.58
686.443	12967.79
686.79	13005.76
687.138	13035.59
687.485	13051.86
687.832	12867.46
688.18	12944.97
688.527	12832.66
688.874	12837.4
689.221	12790.4
689.568	12895.48
689.915	12748.82
690.262	12816.16
690.609	12752.43
690.956	12652.1
691.303	12603.06
691.65	12563.96
691.997	12542.27
692.344	12502.95
692.69	12406.45
693.037	12432.89
693.383	12325.1
693.73	12321.03
694.077	12215.5
694.423	12175.5
694.769	12227.25
695.116	12055.73
695.462	12119.46
695.808	11983.64
696.155	12148.83
696.501	11951.1
696.847	11989.29
697.193	11847.37
697.539	11843.76
697.885	11775.96
698.231	11776.19
698.577	11750.2
698.923	11808.28
699.269	11666.59
699.614	11615.06
699.96	11578.68
700.306	11633.37
700.651	11436.99
700.997	11421.39
701.342	11431.11
701.688	11386.82
702.033	11361.51
702.379	11359.48
702.724	11274.96
703.069	11305.92
703.415	11123.32
703.76	11156.32
704.105	11174.62
704.45	11126.26
704.795	11079.03
705.14	11036.77
705.485	11006.26
705.83	11013.27
706.175	10970.56
706.52	10878.13
706.865	10865.93
707.209	10887.4
707.554	10862.09
707.899	10897.11
708.243	10745.93
708.588	10674.07
708.932	10662.09
709.277	10645.14
709.621	10622.32
709.966	10574.86
710.31	10616.44
710.654	10517.69
710.998	10465.94
711.342	10484.02
711.687	10421.65
712.031	10391.82
712.375	10421.42
712.719	10395.21
713.063	10407.18
713.407	10485.83
713.75	10351.59
714.094	10396.79
714.438	10361.76
714.782	10290.35
715.125	10305.49
715.469	10252.39
715.812	10164.7
716.156	10170.58
716.499	10159.73
716.843	10251.48
717.186	10126.51
717.53	10192.27
717.873	10140.98
718.216	10174.87
718.559	10074.31
718.902	10035.89
719.246	10017.59
719.589	10005.61
719.932	10049.23
720.275	9984.14
720.617	9960.87
720.96	9973.75
721.303	9964.71
721.646	9979.4
721.989	9880.19
722.331	9981.43
722.674	9922.9
723.016	9900.76
723.359	9889.01
723.701	9957.03
724.044	9826.18
724.386	9773.75
724.729	9867.54
725.071	9786.86
725.413	9794.77
725.755	9799.52
726.097	9719.07
726.439	9701.67
726.782	9767.43
727.124	9886.75
727.465	9700.76
727.807	9740.76
728.149	9747.54
728.491	9714.55
728.833	9706.86
729.175	9723.59
729.516	9639.97
729.858	9620.99
730.199	9728.56
730.541	9702.57
730.882	9702.57
731.224	9661.89
731.565	9633.19
731.906	9715.9
732.248	9651.27
732.589	9602.91
732.93	9565.17
733.271	9661.44
733.612	9651.27
733.953	9700.54
734.294	9591.61
734.635	9609.69
734.976	9605.62
735.317	9653.98
735.658	9591.61
735.999	9663.7
736.339	9624.15
736.68	9700.54
737.021	9629.13
737.361	9637.26
737.702	9644.49
738.042	9670.03
738.383	9661.89
738.723	9708.45
739.063	9628.9
739.404	9720.65
739.744	9715.68
740.084	9753.42
740.424	9728.33
740.764	9644.27
741.104	9758.84
741.444	9703.93
741.784	9726.52
742.124	9809.01
742.464	9807.2
742.804	9835.67
743.143	9774.21
743.483	9886.97
743.823	9790.03
744.162	9854.2
744.502	9938.5
744.841	10003.35
745.181	9971.26
745.52	10016.23
745.86	10084.93
746.199	10060.98
746.538	10122.67
746.877	10233.4
747.216	10193.63
747.556	10271.59
747.895	10312.95
748.234	10345.94
748.573	10387.07
748.911	10437.24
749.25	10447.63
749.589	10497.8
749.928	10605.6
750.267	10679.72
750.605	10840.84
750.944	10838.81
751.283	10914.97
751.621	11039.26
751.96	11012.14
752.298	11210.55
752.636	11347.5
752.975	11268.4
753.313	11447.61
753.651	11679.47
753.989	11635.63
754.327	11686.25
754.666	11823.64
755.004	11999.46
755.342	12133.92
755.679	12308.83
756.017	12345.21
756.355	12619.33
756.693	12693.9
757.031	12769.38
757.368	12888.93
757.706	13038.08
