Data from hue_26_FLMS001491_00085.txt Node
Date: Tue Feb 07 17:14:41 GMT 2017
User: dcchb
Spectrometer: FLMS00149
Trigger mode: 0
Integration Time (sec): 2.000000E-2
Scans to average: 10
Electric dark correction enabled: true
Nonlinearity correction enabled: false
Boxcar width: 0
XAxis mode: Wavelengths
Number of Pixels in Spectrum: 2048
>>>>>Begin Spectral Data<<<<<
341.393	-30.8
341.776	-30.8
342.16	-30.8
342.543	-79.62
342.927	-72.61
343.31	-66.06
343.693	-64.93
344.077	-58.6
344.46	-76.23
344.843	-67.41
345.226	-36
345.61	-36.23
345.993	-18.6
346.376	10.55
346.759	-5.27
347.142	42.87
347.525	46.48
347.908	70.21
348.291	55.3
348.674	100.94
349.057	102.98
349.44	125.58
349.823	148.85
350.206	157.89
350.588	188.62
350.971	205.8
351.354	233.14
351.737	236.31
352.119	250.32
352.502	270.43
352.884	290.54
353.267	291.9
353.65	310.66
354.032	298.68
354.414	316.53
354.797	275.4
355.179	331.22
355.562	314.27
355.944	326.7
356.326	316.53
356.709	327.15
357.091	331.67
357.473	354.72
357.855	331.22
358.238	347.26
358.62	361.05
359.002	351.56
359.384	361.28
359.766	361.05
360.148	328.06
360.53	336.64
360.912	329.41
361.294	340.94
361.676	330.09
362.057	337.77
362.439	342.29
362.821	331.67
363.203	321.5
363.584	332.8
363.966	322.41
364.348	325.8
364.729	316.76
365.111	304.55
365.493	308.85
365.874	326.25
366.256	340.49
366.637	326.7
367.019	308.4
367.4	308.85
367.781	317.89
368.163	316.53
368.544	307.04
368.925	330.77
369.306	317.44
369.688	304.55
370.069	322.63
370.45	321.73
370.831	328.28
371.212	335.74
371.593	318.79
371.974	326.47
372.355	299.13
372.736	313.14
373.117	298.23
373.498	322.18
373.879	314.05
374.26	316.08
374.641	302.29
375.021	321.73
375.402	328.51
375.783	335.06
376.163	334.84
376.544	330.54
376.925	336.87
377.305	319.92
377.686	314.72
378.066	315.85
378.447	334.16
378.827	332.12
379.208	319.47
379.588	331.9
379.968	304.1
380.349	314.27
380.729	334.16
381.109	347.94
381.489	354.27
381.87	350.88
382.25	338.23
382.63	342.07
383.01	324.21
383.39	350.43
383.77	351.56
384.15	345.23
384.53	323.31
384.91	361.5
385.29	340.03
385.67	334.61
386.049	356.76
386.429	351.11
386.809	366.47
387.189	378.68
387.568	367.15
387.948	378.9
388.328	361.28
388.707	361.95
389.087	363.54
389.466	375.29
389.846	355.63
390.225	360.37
390.605	373.25
390.984	358.11
391.363	381.61
391.743	365.8
392.122	349.07
392.501	385.46
392.881	372.12
393.26	375.29
393.639	362.41
394.018	386.13
394.397	371.45
394.776	356.98
395.155	378.22
395.534	386.36
395.913	373.7
396.292	372.35
396.671	373.7
397.05	402.18
397.429	390.65
397.808	379.81
398.186	361.28
398.565	386.13
398.944	391.78
399.323	389.07
399.701	394.27
400.08	375.06
400.458	385.23
400.837	383.65
401.215	396.53
401.594	406.92
401.972	407.83
402.351	396.98
402.729	402.18
403.107	411.9
403.486	410.77
403.864	407.83
404.242	407.83
404.62	382.52
404.999	416.87
405.377	409.18
405.755	415.29
406.133	432.01
406.511	409.41
406.889	422.74
407.267	414.83
407.645	450.99
408.023	431.33
408.401	427.71
408.779	453.25
409.156	450.99
409.534	450.99
409.912	440.82
410.29	446.47
410.667	434.04
411.045	472.23
411.422	441.73
411.8	429.75
412.178	455.96
412.555	467.04
412.933	464.1
413.31	458
413.687	477.88
414.065	476.3
414.442	476.3
414.819	479.46
415.197	464.55
415.574	469.3
415.951	486.02
416.328	462.52
416.705	488.96
417.082	499.13
417.46	492.57
417.837	507.49
418.214	499.8
418.591	495.51
418.967	486.24
419.344	511.55
419.721	509.29
420.098	519.69
420.475	504.1
420.852	509.07
421.228	506.36
421.605	507.49
421.982	531.67
422.358	509.52
422.735	517.88
423.111	543.64
423.488	537.54
423.864	550.88
424.241	536.41
424.617	552.68
424.994	540.03
425.37	544.77
425.746	537.77
426.123	536.19
426.499	573.02
426.875	557.2
427.251	558.33
427.627	572.8
428.003	573.47
428.379	574.15
428.756	575.73
429.132	572.57
429.507	579.8
429.883	606.02
430.259	594.49
430.635	604.89
431.011	619.35
431.387	617.77
431.763	619.8
432.138	629.74
432.514	622.51
432.89	625
433.265	623.87
433.641	643.08
434.016	641.04
434.392	665.22
434.767	642.17
435.143	659.57
435.518	663.19
435.894	652.12
436.269	675.84
436.644	683.98
437.02	687.82
437.395	691.21
437.77	686.47
438.145	673.58
438.52	704.09
438.895	695.96
439.271	707.71
439.646	700.48
440.021	723.75
440.395	720.59
440.77	717.2
441.145	730.31
441.52	731.44
441.895	723.07
442.27	736.63
442.645	747.93
443.019	766.69
443.394	758.55
443.769	737.54
444.143	735.5
444.518	744.09
444.892	766.69
445.267	779.8
445.641	744.54
446.016	783.19
446.39	783.64
446.764	780.02
447.139	773.92
447.513	805.78
447.887	796.07
448.262	787.71
448.636	820.25
449.01	804.65
449.384	803.98
449.758	820.02
450.132	815.95
450.506	814.6
450.88	836.52
451.254	821.6
451.628	839.23
452.002	844.88
452.376	852.56
452.75	847.59
453.123	841.49
453.497	862.05
453.871	874.71
454.244	888.04
454.618	908.83
454.992	901.6
455.365	909.28
455.739	927.14
456.112	967.59
456.486	928.27
456.859	966.01
457.232	967.36
457.606	976.4
457.979	953.12
458.352	983.63
458.725	998.32
459.099	989.73
459.472	999.68
459.845	1015.5
460.218	1029.51
460.591	1015.95
460.964	1056.17
461.337	1060.69
461.71	1050.52
462.083	1091.65
462.456	1087.58
462.829	1104.08
463.201	1120.8
463.574	1108.83
463.947	1113.57
464.32	1134.59
464.692	1154.02
465.065	1152.22
465.438	1154.25
465.81	1203.51
466.183	1169.62
466.555	1215.04
466.928	1257.3
467.3	1226.34
467.672	1242.83
468.045	1281.48
468.417	1300.01
468.789	1304.08
469.161	1321.25
469.534	1334.81
469.906	1355.37
470.278	1391.98
470.65	1369.84
471.022	1404.64
471.394	1463.85
471.766	1454.58
472.138	1450.51
472.51	1476.05
472.882	1499.78
473.253	1478.76
473.625	1536.61
473.997	1585.42
474.369	1583.16
474.74	1607.57
475.112	1634.01
475.484	1652.77
475.855	1715.14
476.227	1747.23
476.598	1757.4
476.97	1782.93
477.341	1809.37
477.713	1872.65
478.084	1860.67
478.455	1909.48
478.827	1940.67
479.198	2010.5
479.569	2027.22
479.94	2074.9
480.311	2093.89
480.682	2113.09
481.053	2197.61
481.424	2261.11
481.795	2251.85
482.166	2295.46
482.537	2342.69
482.908	2401
483.279	2406.19
483.65	2450.26
484.021	2569.13
484.391	2591.95
484.762	2596.47
485.133	2617.49
485.503	2666.53
485.874	2749.91
486.244	2752.63
486.615	2821.55
486.985	2860.87
487.356	2925.5
487.726	2968.89
488.097	3061.32
488.467	3072.39
488.837	3115.55
489.207	3172.73
489.578	3257.02
489.948	3300.41
490.318	3326.85
490.688	3348.99
491.058	3388.09
491.428	3484.36
491.798	3537.69
492.168	3604.13
492.538	3571.59
492.908	3662.66
493.278	3706.72
493.648	3732.49
494.017	3765.25
494.387	3899.71
494.757	3911.92
495.126	3932.93
495.496	3935.65
495.866	3987.85
496.235	4052.7
496.605	4059.26
496.974	4136.32
497.344	4158.01
497.713	4177.45
498.082	4245.47
498.452	4257.67
498.821	4309.42
499.19	4324.11
499.559	4386.71
499.928	4431.9
500.298	4391.45
500.667	4510.77
501.036	4478
501.405	4565.91
501.774	4551.45
502.143	4591.22
502.512	4616.53
502.88	4705.12
503.249	4664.89
503.618	4673.25
503.987	4767.04
504.356	4740.82
504.724	4746.02
505.093	4798
505.462	4849.29
505.83	4845
506.199	4902.4
506.567	4944.43
506.936	4944.66
507.304	5017.88
507.672	5015.39
508.041	5066.24
508.409	5078.44
508.777	5131.55
509.145	5173.8
509.514	5174.71
509.882	5211.32
510.25	5184.43
510.618	5200.02
510.986	5269.17
511.354	5268.72
511.722	5347.59
512.09	5368.6
512.458	5367.7
512.826	5391.65
513.193	5395.95
513.561	5432.78
513.929	5428.71
514.297	5546.22
514.664	5496.28
515.032	5541.03
515.4	5601.14
515.767	5628.48
516.135	5612.21
516.502	5616.73
516.869	5672.32
517.237	5699.44
517.604	5680.91
517.972	5720
518.339	5727.69
518.706	5763.62
519.073	5787.57
519.44	5802.26
519.808	5818.08
520.175	5896.05
520.542	5927.68
520.909	5925.2
521.276	5997.06
521.643	5993.22
522.009	6056.49
522.376	6067.57
522.743	6096.49
523.11	6174.23
523.477	6166.55
523.843	6239.31
524.21	6292.65
524.577	6279.09
524.943	6310.05
525.31	6365.19
525.676	6420.78
526.043	6445.86
526.409	6432.3
526.776	6481.34
527.142	6513.66
527.508	6543.26
527.874	6599.08
528.241	6610.6
528.607	6580.1
528.973	6753.42
529.339	6702.58
529.705	6754.78
530.071	6788
530.437	6795
530.803	6871.16
531.169	6933.08
531.535	6832.52
531.901	6888.11
532.267	6936.92
532.632	7040.42
532.998	7011.72
533.364	7023.93
533.73	7099.86
534.095	7126.52
534.461	7128.78
534.826	7184.6
535.192	7235.22
535.557	7256.69
535.923	7240.87
536.288	7296.91
536.653	7369.68
537.019	7312.28
537.384	7366.52
537.749	7370.58
538.114	7409
538.479	7443.8
538.845	7554.98
539.21	7471.15
539.575	7486.06
539.94	7542.78
540.305	7658.49
540.67	7627.98
541.034	7553.18
541.399	7691.03
541.764	7696.45
542.129	7750.46
542.494	7749.1
542.858	7813.51
543.223	7790.01
543.587	7857.12
543.952	7853.28
544.316	7850.12
544.681	7925.37
545.045	8016.22
545.41	8004.92
545.774	8032.49
546.138	8101.19
546.503	8132.37
546.867	8095.76
547.231	8152.48
547.595	8136.66
547.959	8286.04
548.324	8245.59
548.688	8221.86
549.052	8262.99
549.416	8365.13
549.779	8342.76
550.143	8353.16
550.507	8473.83
550.871	8477.67
551.235	8470.67
551.599	8551.34
551.962	8554.05
552.326	8576.2
552.689	8646.26
553.053	8596.31
553.417	8584.11
553.78	8677.44
554.143	8681.96
554.507	8770.55
554.87	8757.44
555.234	8804.67
555.597	8795.18
555.96	8846.02
556.323	8853.26
556.686	8883.76
557.05	8906.14
557.413	8994.95
557.776	8944.78
558.139	9000.37
558.502	9069.97
558.865	9020.26
559.228	9117.66
559.59	9170.31
559.953	9115.4
560.316	9291.44
560.679	9261.38
561.041	9288.72
561.404	9300.02
561.767	9334.15
562.129	9345.67
562.492	9368.72
562.854	9392.45
563.217	9410.3
563.579	9449.62
563.941	9443.97
564.304	9535.95
564.666	9570.98
565.028	9619.34
565.39	9665.21
565.753	9714.25
566.115	9709.5
566.477	9811.87
566.839	9757.64
567.201	9878.54
567.563	9861.14
567.925	9872.21
568.287	9977.07
568.648	9931.87
569.01	9986.11
569.372	10118.31
569.734	10027.01
570.095	10125.99
570.457	10205.54
570.819	10186.1
571.18	10239.89
571.542	10307.23
571.903	10376.38
572.265	10492.08
572.626	10454.8
572.987	10474
573.349	10528.69
573.71	10556.71
574.071	10669.93
574.432	10656.82
574.794	10792.64
575.155	10859.53
575.516	10816.59
575.877	11045.51
576.238	11051.16
576.599	11156.7
576.96	11195.79
577.32	11194.66
577.681	11379.52
578.042	11468.55
578.403	11507.2
578.763	11612.51
579.124	11671.26
579.485	11808.21
579.845	11944.7
580.206	12093.4
580.566	12170.91
580.927	12254.3
581.287	12426.04
581.648	12532.48
582.008	12636.89
582.368	12818.58
582.728	12920.04
583.089	13093.82
583.449	13259.24
583.809	13407.49
584.169	13666.24
584.529	13829.17
584.889	14017.19
585.249	14159.11
585.609	14440.91
585.969	14574.91
586.329	14743.5
586.688	15066.65
587.048	15319.3
587.408	15416.25
587.768	15695.56
588.127	15840.19
588.487	16119.28
588.846	16474.3
589.206	16582.32
589.565	16899.6
589.925	17194.96
590.284	17402.41
590.643	17674.94
591.003	17985.22
591.362	18276.28
591.721	18471.76
592.08	18805.31
592.44	19095.25
592.799	19310.38
593.158	19612.97
593.517	19882.8
593.876	20261.77
594.235	20540.18
594.593	20718.93
594.952	21196.89
595.311	21385.13
595.67	21661.28
596.029	22095.17
596.387	22412
596.746	22754.36
597.104	22905.77
597.463	23283.84
597.822	23579.87
598.18	23824.39
598.538	24107.32
598.897	24476.57
599.255	24651.48
599.613	25217.57
599.972	25456.89
600.33	25713.38
600.688	25785.01
601.046	26292.8
601.404	26706.57
601.762	26859.56
602.12	27314.92
602.478	27676.26
602.836	27872.42
603.194	27997.84
603.552	28346.53
603.91	28513.98
604.268	28892.5
604.625	28966.4
604.983	29412.94
605.341	29606.61
605.698	29905.13
606.056	30360.26
606.413	30351.45
606.771	30704.43
607.128	30866.69
607.485	31134.03
607.843	31258.54
608.2	31732.43
608.557	32017.62
608.914	32115.7
609.272	32409.92
609.629	32751.16
609.986	33079.29
610.343	32991.6
610.7	33506.62
611.057	33556.79
611.414	33865.48
611.771	34015.76
612.127	34322.19
612.484	34376.43
612.841	34676.31
613.198	34760.82
613.554	34950.65
613.911	35313.13
614.267	35430.18
614.624	35509.96
614.98	35838.99
615.337	36010.28
615.693	36104.06
616.05	36154.91
616.406	36608.46
616.762	36596.48
617.118	36612.07
617.475	36772.07
617.831	37074.89
618.187	37198.73
618.543	37413.18
618.899	37727.75
619.255	37757.13
619.611	37758.03
619.967	38042.77
620.323	38356.89
620.678	38050.45
621.034	38261.52
621.39	38264.69
621.746	38387.39
622.101	38941.05
622.457	38651.12
622.812	38930.43
623.168	38955.74
623.523	39121.16
623.879	39397.99
624.234	39079.13
624.589	39508.04
624.945	39530.19
625.3	39628.94
625.655	39728.6
626.01	39660.13
626.365	39858.77
626.72	39797.75
627.075	39811.76
627.43	39950.29
627.785	39839.11
628.14	40143.73
628.495	40182.6
628.85	40138.76
629.205	40082.27
629.559	40497.4
629.914	40241.58
630.269	40312.77
630.623	40274.12
630.978	40421.01
631.332	40527
631.687	40769.93
632.041	40432.54
632.396	40677.05
632.75	40362.26
633.104	40540.78
633.459	40624.17
633.813	40542.14
634.167	40656.04
634.521	40629.6
634.875	40628.92
635.229	40646.54
635.583	40546.21
635.937	40541.69
636.291	40584.85
636.645	40531.52
636.999	40467.79
637.352	40699.88
637.706	40446.32
638.06	40638.18
638.413	40494.46
638.767	40607.45
639.121	40552.31
639.474	40357.51
639.828	40513.67
640.181	40628.69
640.534	40621.01
640.888	40442.71
641.241	40177.63
641.594	40376.95
641.947	40484.51
642.301	40414.91
642.654	40365.2
643.007	40509.37
643.36	40437.28
643.713	40401.8
644.066	40544.85
644.419	40224.41
644.771	40155.71
645.124	39783.74
645.477	39743.97
645.83	39516.4
646.182	39353.47
646.535	39231.44
646.888	39358.67
647.24	39298.56
647.593	39376.07
647.945	39332
648.298	39146.24
648.65	39154.83
649.002	38975.85
649.355	39196.41
649.707	39080.03
650.059	39341.04
650.411	39903.74
650.763	39843.63
651.115	40153.9
651.467	40118.87
651.819	40049.95
652.171	39896.06
652.523	39971.31
652.875	40018.99
653.227	39899.67
653.578	40065.32
653.93	39930.86
654.282	39901.03
654.633	39778.54
654.985	39865.1
655.337	39880.24
655.688	39892.89
656.039	39931.76
656.391	39679.34
656.742	39788.04
657.094	39766.79
657.445	39999.78
657.796	39784.42
658.147	39786.23
658.498	39835.27
658.849	39956.39
659.2	39788.49
659.551	39718.66
659.902	39894.02
660.253	39679.79
660.604	39857.41
660.955	39648.83
661.306	39760.92
661.656	39728.83
662.007	39606.35
662.358	39715.04
662.708	39739
663.059	39836.85
663.409	39489.74
663.76	39775.15
664.11	39677.53
664.461	39788.04
664.811	39805.21
665.161	39703.97
665.511	39623.07
665.862	39673.24
666.212	39714.37
666.562	39833.46
666.912	39650.64
667.262	39632.56
667.612	39745.55
667.962	39744.87
668.312	39537.65
668.662	39732.67
669.011	39553.24
669.361	39550.98
669.711	39451.32
670.06	39438.44
670.41	39405.45
670.76	39328.84
671.109	39533.81
671.459	39446.8
671.808	39422.62
672.157	39602.73
672.507	39270.76
672.856	39245
673.205	39412.9
673.554	39421.94
673.904	39316.64
674.253	39542.39
674.602	39248.39
674.951	38887.72
675.3	38530.44
675.649	39272.12
675.998	39281.38
676.346	39260.37
676.695	39455.39
677.044	39220.59
677.393	39171.33
677.741	39198.22
678.09	39129.52
678.438	38953.71
678.787	38982.63
679.135	39129.75
679.484	38829.64
679.832	39040.26
680.181	38774.5
680.529	38894.95
680.877	38821.28
681.225	38894.27
681.573	38857.66
681.922	38692.25
682.27	38531.57
682.618	38629.65
682.966	38529.76
683.314	38599.14
683.661	38492.25
684.009	38343.1
684.357	38296.32
684.705	38350.11
685.053	38281.18
685.4	38197.57
685.748	38099.72
686.095	37929.78
686.443	37957.58
686.79	37764.36
687.138	37924.81
687.485	37776.56
687.832	37793.51
688.18	37789.67
688.527	37377.03
688.874	37659.28
689.221	37410.92
689.568	37311.49
689.915	37370.25
690.262	37262.23
690.609	37165.51
690.956	37089.58
691.303	37095.68
691.65	36973.19
691.997	36791.5
692.344	36645.29
692.69	36699.76
693.037	36699.98
693.383	36440.33
693.73	36533.66
694.077	36316.94
694.423	36341.35
694.769	36193.1
695.116	36240.33
695.462	36158.53
695.808	35929.15
696.155	36005.99
696.501	35710.85
696.847	35775.94
697.193	35583.4
697.539	35624.3
697.885	35396.29
698.231	35264.31
698.577	35300.92
698.923	35413.69
699.269	35085.56
699.614	34955.39
699.96	34896.19
700.306	34838.56
700.651	34709.53
700.997	34538.23
701.342	34583.88
701.688	34559.92
702.033	34419.59
702.379	34409.42
702.724	34372.36
703.069	34506.59
703.415	34071.58
703.76	34077.23
704.105	34182.99
704.45	34064.8
704.795	33781.87
705.14	33620.74
705.485	33666.16
705.83	33432.04
706.175	33598.59
706.52	33405.15
706.865	33270.92
707.209	33278.6
707.554	33086.74
707.899	33242.9
708.243	33013.52
708.588	32985.95
708.932	32818.05
709.277	32727.43
709.621	32777.82
709.966	32602.69
710.31	32645.17
710.654	32372.41
710.998	32441.11
711.342	32349.59
711.687	32404.73
712.031	32265.07
712.375	32189.82
712.719	32256.93
713.063	32077.05
713.407	32167.9
713.75	31993.89
714.094	31929.49
714.438	31797.96
714.782	31864.63
715.125	31618.53
715.469	31804.52
715.812	31567.01
716.156	31480.01
716.499	31485.88
716.843	31566.78
717.186	31271.42
717.53	31411.08
717.873	31480.01
718.216	31320.91
718.559	31202.27
718.902	31031.66
719.246	31140.35
719.589	31017.87
719.932	30875.95
720.275	30793.02
720.617	30773.13
720.96	30896.29
721.303	30793.47
721.646	30719.12
721.989	30449.3
722.331	30635.73
722.674	30530.88
723.016	30559.13
723.359	30453.82
723.701	30444.78
724.044	30361.84
724.386	30232.35
724.729	30246.82
725.071	30168.18
725.413	30120.95
725.755	30166.37
726.097	29992.14
726.439	29886.38
726.782	30014.51
727.124	30024.22
727.465	29759.6
727.807	29809.77
728.149	29707.62
728.491	29793.27
728.833	29836.66
729.175	29585.14
729.516	29597.12
729.858	29593.5
730.199	29591.47
730.541	29520.74
730.882	29450.45
731.224	29675.53
731.565	29412.94
731.906	29411.36
732.248	29226.51
732.589	29180.18
732.93	28996.68
733.271	29062.44
733.612	29208.2
733.953	29231.93
734.294	28988.77
734.635	28962.56
734.976	29039.17
735.317	28873.97
735.658	28958.26
735.999	28876.46
736.339	28794.2
736.68	28784.48
737.021	28789.91
737.361	28615.9
737.702	28796.23
738.042	28559.4
738.383	28503.13
738.723	28671.94
739.063	28521.21
739.404	28474.66
739.744	28444.38
740.084	28304.95
740.424	28438.05
740.764	28382.23
741.104	28387.21
741.444	28306.98
741.784	28111.51
742.124	28162.8
742.464	28197.15
742.804	28204.61
743.143	28066.99
743.483	28177.95
743.823	27804.85
744.162	27951.28
744.502	28026.31
744.841	27842.81
745.181	27955.58
745.52	27853.43
745.86	27841.91
746.199	27852.08
746.538	27828.35
746.877	27763.95
747.216	27651.18
747.556	27738.86
747.895	27617.96
748.234	27563.05
748.573	27524.86
748.911	27455.7
749.25	27420.45
749.589	27287.8
749.928	27319.66
750.267	27496.38
750.605	27294.8
750.944	27300.45
751.283	27173.9
751.621	27227.91
751.96	27051.87
752.298	27014.13
752.636	26964.64
752.975	26836.29
753.313	26784.54
753.651	26908.37
753.989	26700.7
754.327	26650.98
754.666	26599.46
755.004	26593.81
755.342	26542.73
755.679	26544.09
756.017	26349.52
756.355	26541.38
756.693	26403.75
757.031	26377.54
757.368	26125.12
757.706	26237.21
758.044	26059.81
758.381	26123.08
758.719	26079.7
759.056	26017.1
759.394	25844.9
759.731	25849.65
760.068	25770.1
760.405	25799.25
760.743	25626.15
