Data from hue_40_FLMS001491_65.txt Node
Date: Mon Feb 06 15:08:16 GMT 2017
User: dcchb
Spectrometer: FLMS00149
Trigger mode: 0
Integration Time (sec): 2.000000E-2
Scans to average: 10
Electric dark correction enabled: true
Nonlinearity correction enabled: false
Boxcar width: 0
XAxis mode: Wavelengths
Number of Pixels in Spectrum: 2048
>>>>>Begin Spectral Data<<<<<
341.393	-13.16
341.776	-13.16
342.16	-13.16
342.543	-64.46
342.927	-67.17
343.31	-64.69
343.693	-58.36
344.077	-50
344.46	-60.85
344.843	-53.39
345.226	-46.38
345.61	-43.45
345.993	-29.89
346.376	-10.9
346.759	19.15
347.142	16.44
347.525	54.18
347.908	60.73
348.291	67.51
348.674	94.86
349.057	105.03
349.44	125.82
349.823	132.14
350.206	178.47
350.588	198.58
350.971	194.97
351.354	235.64
351.737	247.39
352.119	259.6
352.502	253.95
352.884	281.74
353.267	272.93
353.65	288.75
354.032	293.95
354.414	283.33
354.797	325.58
355.179	304.34
355.562	334.17
355.944	341.63
356.326	314.51
356.709	343.44
357.091	347.5
357.473	347.5
357.855	326.26
358.238	323.32
358.62	356.32
359.002	342.08
359.384	334.4
359.766	340.95
360.148	335.75
360.53	326.71
360.912	332.82
361.294	329.88
361.676	343.66
362.057	324.91
362.439	319.94
362.821	332.14
363.203	326.49
363.584	355.19
363.966	320.16
364.348	307.51
364.729	307.05
365.111	327.39
365.493	317.68
365.874	317.68
366.256	320.39
366.637	339.6
367.019	331.01
367.4	331.23
367.781	302.53
368.163	342.99
368.544	301.86
368.925	327.17
369.306	288.3
369.688	298.24
370.069	313.83
370.45	314.74
370.831	327.17
371.212	307.96
371.593	322.42
371.974	332.59
372.355	326.04
372.736	329.43
373.117	313.38
373.498	346.6
373.879	339.14
374.26	340.95
374.641	315.19
375.021	320.61
375.402	324.23
375.783	325.81
376.163	332.14
376.544	345.02
376.925	330.78
377.305	327.84
377.686	307.73
378.066	324.45
378.447	340.5
378.827	317
379.208	324
379.588	344.34
379.968	326.71
380.349	325.81
380.729	340.73
381.109	369.43
381.489	335.08
381.87	335.98
382.25	341.86
382.63	353.38
383.01	347.73
383.39	355.19
383.77	355.19
384.15	349.54
384.53	342.31
384.91	332.59
385.29	356.54
385.67	352.25
386.049	356.77
386.429	365.58
386.809	356.54
387.189	362.19
387.568	376.88
387.948	345.92
388.328	364
388.707	371.01
389.087	370.56
389.466	378.01
389.846	363.1
390.225	369.88
390.605	366.94
390.984	380.27
391.363	369.2
391.743	386.15
392.122	366.04
392.501	371.46
392.881	385.24
393.26	388.18
393.639	391.57
394.018	393.15
394.397	387.05
394.776	383.21
395.155	386.6
395.534	392.7
395.913	388.18
396.292	379.82
396.671	384.11
397.05	405.36
397.429	400.61
397.808	406.26
398.186	406.03
398.565	409.65
398.944	406.03
399.323	390.44
399.701	402.87
400.08	409.2
400.458	424.57
400.837	409.88
401.215	414.4
401.594	421.18
401.972	409.65
402.351	419.14
402.729	409.65
403.107	408.75
403.486	418.24
403.864	429.99
404.242	418.01
404.62	431.57
404.999	438.8
405.377	434.28
405.755	453.72
406.133	429.31
406.511	448.52
406.889	426.15
407.267	448.52
407.645	453.04
408.023	474.06
408.401	455.52
408.779	439.93
409.156	463.89
409.534	472.47
409.912	472.93
410.29	465.69
410.667	485.13
411.045	483.77
411.422	479.48
411.8	484
412.178	458.24
412.555	502.3
412.933	489.2
413.31	490.55
413.687	480.83
414.065	510.21
414.442	508.86
414.819	513.15
415.197	530.1
415.574	495.98
415.951	527.39
416.328	516.54
416.705	534.84
417.082	512.92
417.46	530.78
417.837	525.81
418.214	526.03
418.591	550.89
418.967	539.59
419.344	548.18
419.721	549.76
420.098	539.36
420.475	572.81
420.852	573.71
421.228	556.09
421.605	557.44
421.982	546.14
422.358	566.93
422.735	564.67
423.111	591.34
423.488	579.36
423.864	583.21
424.241	599.48
424.617	601.06
424.994	603.32
425.37	607.84
425.746	610.32
426.123	616.88
426.499	631.79
426.875	611.68
427.251	629.31
427.627	633.6
428.003	653.71
428.379	642.41
428.756	638.34
429.132	650.32
429.507	653.49
429.883	658.01
430.259	664.78
430.635	667.04
431.011	681.06
431.387	700.04
431.763	688.51
432.138	691.9
432.514	714.95
432.89	709.08
433.265	711.56
433.641	725.57
434.016	735.07
434.392	732.13
434.767	729.42
435.143	751.56
435.518	754.5
435.894	741.62
436.269	752.47
436.644	776.87
437.02	771.22
437.395	764.44
437.77	761.28
438.145	781.62
438.52	805.35
438.895	827.04
439.271	806.7
439.646	818.91
440.021	816.87
440.395	806.7
440.77	800.37
441.145	829.07
441.52	840.83
441.895	868.85
442.27	846.7
442.645	860.71
443.019	854.38
443.394	870.66
443.769	851.22
444.143	852.8
444.518	876.76
444.892	875.17
445.267	894.16
445.641	868.85
446.016	882.86
446.39	887.15
446.764	917.21
447.139	911.33
447.513	898.22
447.887	928.28
448.262	920.82
448.636	900.26
449.01	931.9
449.384	945.91
449.758	961.5
450.132	944.78
450.506	947.26
450.88	971.22
451.254	963.99
451.628	973.48
452.002	1017.32
452.376	1012.57
452.75	995.85
453.123	1021.39
453.497	1068.16
453.871	1014.38
454.244	1037.2
454.618	1067.71
454.992	1067.49
455.365	1090.54
455.739	1099.35
456.112	1119.69
456.486	1106.81
456.859	1129.63
457.232	1114.04
457.606	1123.3
457.979	1159.91
458.352	1159.01
458.725	1175.05
459.099	1186.58
459.472	1218.67
459.845	1212.12
460.218	1231.1
460.591	1221.83
460.964	1247.59
461.337	1274.49
461.71	1318.78
462.083	1283.53
462.456	1319.23
462.829	1311.55
463.201	1339.8
463.574	1344.54
463.947	1361.26
464.32	1376.4
464.692	1396.06
465.065	1392.9
465.438	1439.23
465.81	1454.14
466.183	1500.47
466.555	1507.47
466.928	1499.79
467.3	1519
467.672	1570.98
468.045	1623.86
468.417	1582.95
468.789	1610.3
469.161	1642.16
469.534	1652.33
469.906	1699.11
470.278	1728.94
470.65	1751.76
471.022	1744.98
471.394	1823.85
471.766	1869.72
472.138	1886
472.51	1914.47
472.882	1943.4
473.253	1975.48
473.625	2021.59
473.997	2088.25
474.369	2104.75
474.74	2106.1
475.112	2157.17
475.484	2220.45
475.855	2239.21
476.227	2278.08
476.598	2357.17
476.97	2416.15
477.341	2467.9
477.713	2526.2
478.084	2565.53
478.455	2647.11
478.827	2677.84
479.198	2766.65
479.569	2807.55
479.94	2910.6
480.311	2938.17
480.682	3032.86
481.053	3081.9
481.424	3219.29
481.795	3234.21
482.166	3346.07
482.537	3437.14
482.908	3480.53
483.279	3584.71
483.65	3697.02
484.021	3787.64
484.391	3895.66
484.762	3974.75
485.133	4035.77
485.503	4136.78
485.874	4197.8
486.244	4267.18
486.615	4471.46
486.985	4516.66
487.356	4642.08
487.726	4694.51
488.097	4830.55
488.467	4952.36
488.837	5086.59
489.207	5196.64
489.578	5306.92
489.948	5446.35
490.318	5510.08
490.688	5640.02
491.058	5723.18
491.428	5848.83
491.798	6000.69
492.168	6114.81
492.538	6209.5
492.908	6335.82
493.278	6405.65
493.648	6504.86
494.017	6624.18
494.387	6739.2
494.757	6882.7
495.126	6979.87
495.496	7072.07
495.866	7119.98
496.235	7316.14
496.605	7397.94
496.974	7516.81
497.344	7601.55
497.713	7664.15
498.082	7796.8
498.452	7915.44
498.821	7972.16
499.19	8102.56
499.559	8220.52
499.928	8369.44
500.298	8422.55
500.667	8509.55
501.036	8589.32
501.405	8721.75
501.774	8686.04
502.143	8804.68
502.512	8926.71
502.88	8985.47
503.249	9134.62
503.618	9218.91
503.987	9305.91
504.356	9342.97
504.724	9439.24
505.093	9538.22
505.462	9646.02
505.83	9746.58
506.199	9777.09
506.567	9967.37
506.936	9942.51
507.304	10087.59
507.672	10115.38
508.041	10266.34
508.409	10359.45
508.777	10441.93
509.145	10555.37
509.514	10559.67
509.882	10685.54
510.25	10647.57
510.618	10883.05
510.986	10854.57
511.354	11013.44
511.722	11160.55
512.09	11239.42
512.458	11261.12
512.826	11333.2
513.193	11410.26
513.561	11397.38
513.929	11568.9
514.297	11626.98
514.664	11695.46
515.032	11835.34
515.4	11976.13
515.767	11895.45
516.135	12103.35
516.502	12003.92
516.869	12260.64
517.237	12325.72
517.604	12212.5
517.972	12411.82
518.339	12507.19
518.706	12465.38
519.073	12598.48
519.44	12780.4
519.808	12796.44
520.175	12821.08
520.542	13039.6
520.909	13074.85
521.276	13074.85
521.643	13236.88
522.009	13293.38
522.376	13361.63
522.743	13442.08
523.11	13626.48
523.477	13673.93
523.843	13708.28
524.21	13878
524.577	13935.17
524.943	14058.33
525.31	14163.19
525.676	14213.58
526.043	14404.76
526.409	14504.19
526.776	14559.79
527.142	14588.94
527.508	14718.43
527.874	14803.4
528.241	14903.73
528.607	14950.28
528.973	15065.76
529.339	15111.64
529.705	15241.35
530.071	15369.26
530.437	15399.99
530.803	15527.22
531.169	15535.35
531.535	15602.7
531.901	15609.93
532.267	15808.57
532.632	15903.25
532.998	15855.57
533.364	15988.22
533.73	15983.7
534.095	16205.85
534.461	16207.65
534.826	16250.82
535.192	16312.96
535.557	16466.86
535.923	16479.06
536.288	16596.8
536.653	16704.14
537.019	16664.14
537.384	16714.08
537.749	16836.11
538.114	16926.28
538.479	16942.77
538.845	17061.87
539.21	17116.56
539.575	17184.8
539.94	17194.52
540.305	17310
540.67	17301.18
541.034	17478.58
541.399	17461.86
541.764	17540.27
542.129	17569.65
542.494	17667.5
542.858	17779.36
543.223	17769.87
543.587	17856.88
543.952	17834.95
544.316	17924.44
544.681	17894.61
545.045	18069.75
545.41	18214.83
545.774	18173.93
546.138	18262.51
546.503	18301.84
546.867	18346.35
547.231	18514.71
547.595	18574.14
547.959	18538.44
548.324	18602.84
548.688	18747.7
549.052	18717.42
549.416	18825.21
549.779	18908.37
550.143	18929.84
550.507	19150.63
550.871	19136.62
551.235	19129.84
551.599	19185.88
551.962	19342.26
552.326	19370.73
552.689	19534.12
553.053	19384.97
553.417	19411.18
553.78	19648.69
554.143	19699.09
554.507	19745.19
554.87	19781.34
555.234	19923.04
555.597	19803.94
555.96	19957.38
556.323	20076.7
556.686	20056.37
557.05	20276.47
557.413	20259.75
557.776	20319.64
558.139	20460.87
558.502	20516.47
558.865	20605.5
559.228	20623.81
559.59	20749.23
559.953	20775.44
560.316	20936.34
560.679	20951.93
561.041	21137.69
561.404	21281.87
561.767	21410.68
562.129	21369.33
562.492	21549.66
562.854	21523.67
563.217	21455.42
563.579	21593.95
563.941	21760.05
564.304	21786.04
564.666	21919.59
565.028	21962.3
565.39	22074.39
565.753	22198.46
566.115	22279.58
566.477	22341.05
566.839	22356.64
567.201	22536.07
567.563	22528.16
567.925	22637.09
568.287	22663.53
568.648	22747.14
569.01	22935.16
569.372	23094.7
569.734	23025.78
570.095	23234.81
570.457	23266.45
570.819	23295.6
571.18	23401.14
571.542	23570.85
571.903	23587.12
572.265	23687.68
572.626	23719.77
572.987	23835.02
573.349	23998.86
573.71	24095.58
574.071	24292.64
574.432	24221.23
574.794	24466.19
575.155	24530.15
575.516	24570.6
575.877	24744.38
576.238	24674.1
576.599	24886.75
576.96	24986.18
577.32	25148.21
577.681	25233.86
578.042	25428.88
578.403	25432.5
578.763	25488.99
579.124	25581.64
579.485	25848.53
579.845	26065.7
580.206	26182.76
580.566	26281.96
580.927	26495.29
581.287	26568.06
581.648	26608.28
582.008	26892.57
582.368	27011.21
582.728	27155.84
583.089	27249.17
583.449	27411.65
583.809	27531.65
584.169	27820.91
584.529	27740.91
584.889	28128.47
585.249	28245.08
585.609	28252.76
585.969	28543.15
586.329	28580.89
586.688	28918.28
587.048	29062.23
587.408	29150.59
587.768	29284.15
588.127	29661.99
588.487	29667.41
588.846	30119.6
589.206	30086.16
589.565	30262.2
589.925	30521.17
590.284	30713.49
590.643	30817.89
591.003	31250.2
591.362	31188.28
591.721	31368.84
592.08	31650.18
592.44	31790.97
592.799	31951.87
593.158	32056.73
593.517	32317.06
593.876	32525.42
594.235	32666.2
594.593	32845.86
594.952	33095.8
595.311	33080.43
595.67	33409.01
596.029	33693.52
596.387	33818.94
596.746	34065.26
597.104	34048.99
597.463	34342.09
597.822	34394.75
598.18	34422.54
598.538	34575.98
598.897	35009.64
599.255	34815.07
599.613	35548.39
599.972	35380.71
600.33	35708.16
600.688	35694.82
601.046	35956.29
601.404	36155.83
601.762	36201.93
602.12	36388.37
602.478	36545.88
602.836	36826.09
603.194	36599.43
603.552	36888.01
603.91	36910.39
604.268	37268.12
604.625	37230.15
604.983	37375.46
605.341	37388.56
605.698	37625.62
606.056	37783.13
606.413	37848.21
606.771	38031.71
607.128	38079.17
607.485	38111.26
607.843	38227.64
608.2	38395.77
608.557	38803.44
608.914	38664.46
609.272	39040.95
609.629	39147.84
609.986	39216.54
610.343	39164.11
610.7	39504.44
611.057	39571.78
611.414	39542.41
611.771	39744.21
612.127	39833.7
612.484	39968.16
612.841	40198.21
613.198	40092.22
613.554	40199.11
613.911	40352.78
614.267	40371.31
614.624	40527.01
614.98	40564.3
615.337	40860.34
615.693	40815.37
616.05	40893.11
616.406	41059.43
616.762	41039.54
617.118	41199.09
617.475	41284.73
617.831	41424.17
618.187	41515.46
618.543	41641.79
618.899	41853.76
619.255	41837.04
619.611	41669.58
619.967	42013.98
620.323	42114.09
620.678	42070.02
621.034	41910.71
621.39	42159.29
621.746	41899.86
622.101	42512.95
622.457	42152.28
622.812	42268.21
623.168	42519.5
623.523	42464.82
623.879	42483.57
624.234	42366.06
624.589	42521.76
624.945	42585.94
625.3	42662.55
625.655	42640.18
626.01	42659.16
626.365	42721.08
626.72	42771.47
627.075	42788.65
627.43	42754.3
627.785	42716.79
628.14	42861.64
628.495	42842.66
628.85	42873.62
629.205	42749.1
629.559	43098.25
629.914	42890.34
630.269	42833.39
630.623	42746.84
630.978	42648.54
631.332	43009.21
631.687	43143.44
632.041	42921.53
632.396	43023.9
632.75	42823
633.104	43005.37
633.459	42529.9
633.813	42749.1
634.167	42757.46
634.521	42765.6
634.875	42757.92
635.229	42945.03
635.583	42778.03
635.937	42791.36
636.291	42674.3
636.645	42742.32
636.999	42582.78
637.352	42701.87
637.706	42538.94
638.06	42617.81
638.413	42621.42
638.767	42503.68
639.121	42517.24
639.474	42320.86
639.828	42495.55
640.181	42441.54
640.534	42423.23
640.888	42432.05
641.241	42265.95
641.594	42380.52
641.947	42346.17
642.301	42209.23
642.654	42345.27
643.007	42242
643.36	42153.19
643.713	42157.03
644.066	42421.88
644.419	42125.84
644.771	41814.21
645.124	41536.93
645.477	41423.49
645.83	41251.06
646.182	41170.84
646.535	41022.59
646.888	41137.62
647.24	40773.11
647.593	40988.7
647.945	41101.46
648.298	40859.66
648.65	40661.7
649.002	40711.42
649.355	40938.75
649.707	40704.41
650.059	40889.49
650.411	41396.37
650.763	41330.16
651.115	41777.83
651.467	41669.58
651.819	41605.63
652.171	41568.79
652.523	41506.42
652.875	41586.65
653.227	41364.28
653.578	41716.81
653.93	41563.14
654.282	41448.35
654.633	41230.5
654.985	41395.01
655.337	41336.26
655.688	41434.33
656.039	41636.59
656.391	41215.36
656.742	41129.71
657.094	41176.26
657.445	41402.47
657.796	41363.38
658.147	41223.94
658.498	41144.4
658.849	41261.01
659.2	41283.15
659.551	41021.46
659.902	41260.55
660.253	41198.41
660.604	41338.07
660.955	40967.23
661.306	41168.8
661.656	40990.05
662.007	41004.06
662.358	41081.35
662.708	40926.78
663.059	40864.86
663.409	40731.98
663.76	41089.26
664.11	41155.25
664.461	41104.4
664.811	40959.09
665.161	41162.7
665.511	40969.71
665.862	41107.79
666.212	41023.95
666.562	41049.49
666.912	40974.69
667.262	40972.88
667.612	40881.58
667.962	40960
668.312	40783.28
668.662	41073.21
669.011	40909.83
669.361	40922.71
669.711	40823.5
670.06	40800.45
670.41	40732.88
670.76	40785.76
671.109	40897.4
671.459	40725.88
671.808	40780.11
672.157	40964.74
672.507	40563.4
672.856	40606.56
673.205	40630.29
673.554	40739.66
673.904	40612.21
674.253	40845.2
674.602	40738.08
674.951	40131.32
675.3	39943.53
675.649	40645.43
675.998	40452.44
676.346	40488.82
676.695	40596.39
677.044	40375.15
677.393	40326.34
677.741	40570.63
678.09	40283.18
678.438	40251.77
678.787	40271.2
679.135	40360.24
679.484	40075.05
679.832	40251.54
680.181	40136.06
680.529	40160.7
680.877	40145.33
681.225	39963.64
681.573	40159.11
681.922	39949.4
682.27	39776.75
682.618	39736.3
682.966	39705.57
683.314	39782.4
683.661	39655.62
684.009	39483.43
684.357	39408.85
684.705	39278.46
685.053	39374.5
685.4	39389.64
685.748	39228.52
686.095	39122.08
686.443	38963.21
686.79	38979.48
687.138	39133.38
687.485	38981.29
687.832	39031.69
688.18	38949.65
688.527	38774.52
688.874	38765.25
689.221	38686.61
689.568	38660.85
689.915	38589.89
690.262	38513.96
690.609	38494.07
690.956	38303.34
691.303	38161.88
691.65	37975.22
691.997	38057.47
692.344	37827.88
692.69	37760.76
693.037	37859.96
693.383	37525.06
693.73	37749.69
694.077	37390.37
694.423	37456.13
694.769	37258.62
695.116	37260.43
695.462	37177.5
695.808	37149.02
696.155	37220.89
696.501	36898.18
696.847	36749.71
697.193	36556.95
697.539	36669.71
697.885	36414.35
698.231	36302.27
698.577	36333.45
698.923	36350.63
699.269	36136.39
699.614	35950.64
699.96	35876.51
700.306	35984.31
700.651	35770.3
700.997	35658.67
701.342	35630.87
701.688	35556.97
702.033	35471.33
702.379	35379.58
702.724	35386.81
703.069	35380.03
703.415	35023.43
703.76	34974.62
704.105	35069.76
704.45	34914.51
704.795	34740.27
705.14	34591.8
705.485	34578.92
705.83	34534.85
706.175	34612.82
706.52	34412.15
706.865	34366.05
707.209	34207.41
707.554	34171.7
707.899	34172.38
708.243	34030.69
708.588	34015.77
708.932	33692.16
709.277	33745.95
709.621	33773.29
709.966	33548.89
710.31	33672.05
710.654	33361.78
710.998	33373.08
711.342	33365.39
711.687	33335.79
712.031	33232.52
712.375	33113.42
712.719	33117.49
713.063	32996.36
713.407	33142.35
713.75	32926.76
714.094	32885.41
714.438	32751.85
714.782	32818.06
715.125	32619.2
715.469	32786.2
715.812	32545.08
716.156	32381.46
716.499	32368.13
716.843	32315.48
717.186	32271.86
717.53	32355.7
717.873	32249.27
718.216	32247.91
718.559	32105.31
718.902	31787.81
719.246	31980.8
719.589	31806.56
719.932	31722.73
720.275	31758.2
720.617	31711.43
720.96	31699
721.303	31637.08
721.646	31587.14
721.989	31532.22
722.331	31460.13
722.674	31398.44
723.016	31346.92
723.359	31299.46
723.701	31323.87
724.044	31016.08
724.386	30975.85
724.729	31161.38
725.071	31130.65
725.413	31013.14
725.755	30881.84
726.097	30918.45
726.439	30701.96
726.782	30711
727.124	31018.79
727.465	30665.8
727.807	30580.16
728.149	30503.77
728.491	30537.22
728.833	30493.15
729.175	30335.42
729.516	30369.31
729.858	30224.01
730.199	30382.65
730.541	30322.76
730.882	30289.09
731.224	30349.43
731.565	30131.13
731.906	30056.1
732.248	30037.35
732.589	29932.04
732.93	29778.37
733.271	29828.54
733.612	29923.45
733.953	29994.41
734.294	29727.52
734.635	29660.18
734.976	29836
735.317	29514.87
735.658	29519.39
735.999	29584.02
736.339	29537.02
736.68	29590.8
737.021	29443.46
737.361	29311.04
737.702	29533.86
738.042	29347.42
738.383	29256.58
738.723	29367.98
739.063	29275.11
739.404	29219.74
739.744	29065.62
740.084	29063.36
740.424	29165.05
740.764	29035.56
741.104	29135.9
741.444	28894.1
741.784	28805.74
742.124	28871.73
742.464	28824.72
742.804	28694.56
743.143	28676.93
743.483	28722.13
743.823	28578.18
744.162	28592.64
744.502	28592.64
744.841	28452.98
745.181	28589.93
745.52	28397.16
745.86	28383.6
746.199	28445.3
746.538	28303.38
746.877	28443.72
747.216	28259.54
747.556	28234.46
747.895	28175.02
748.234	28018.42
748.573	27887.35
748.911	28017.51
749.25	28041.01
749.589	27753.11
749.928	27885.54
750.267	27826.1
750.605	27754.24
750.944	27733.9
751.283	27642.38
751.621	27589.05
751.96	27436.28
752.298	27460.92
752.636	27469.5
752.975	27344.08
753.313	27219.34
753.651	27426.57
753.989	27235.61
754.327	27304.54
754.666	27027.03
755.004	27079.68
755.342	27031.32
755.679	27061.6
756.017	26902.29
756.355	26931.44
756.693	26806.47
757.031	26755.85
