Data from hue_320_FLMS001491_2.txt Node
Date: Mon Feb 06 15:46:36 GMT 2017
User: dcchb
Spectrometer: FLMS00149
Trigger mode: 0
Integration Time (sec): 2.000000E-2
Scans to average: 10
Electric dark correction enabled: true
Nonlinearity correction enabled: false
Boxcar width: 0
XAxis mode: Wavelengths
Number of Pixels in Spectrum: 2048
>>>>>Begin Spectral Data<<<<<
341.393	-18.8
341.776	-18.8
342.16	-18.8
342.543	-57.67
342.927	-77.33
343.31	-75.07
343.693	-73.49
344.077	-33.94
344.46	-65.35
344.843	-66.93
345.226	-26.93
345.61	-25.58
345.993	-16.54
346.376	-0.04
346.759	2.44
347.142	42.89
347.525	32.95
347.908	58.71
348.291	76.34
348.674	80.63
349.057	89.9
349.44	125.15
349.823	137.81
350.206	146.85
350.588	199.73
350.971	213.29
351.354	237.24
351.737	245.83
352.119	256.22
352.502	271.14
352.884	279.5
353.267	275.88
353.65	297.58
354.032	292.83
354.414	300.29
354.797	335.09
355.179	322.21
355.562	330.57
355.944	325.82
356.326	337.35
356.709	328.08
357.091	352.72
357.473	350.23
357.855	332.6
358.238	354.52
358.62	325.37
359.002	336.67
359.384	332.6
359.766	350.68
360.148	343.45
360.53	360.17
360.912	352.04
361.294	343.68
361.676	345.94
362.057	335.09
362.439	330.57
362.821	314.07
363.203	318.59
363.584	302.77
363.966	332.15
364.348	329.67
364.729	344.13
365.111	303.45
365.493	326.95
365.874	334.64
366.256	311.81
366.637	318.59
367.019	302.32
367.4	331.25
367.781	309.78
368.163	306.39
368.544	323.56
368.925	312.72
369.306	324.02
369.688	309.78
370.069	299.38
370.45	309.78
370.831	316.33
371.212	325.15
371.593	304.36
371.974	312.04
372.355	311.36
372.736	335.99
373.117	300.74
373.498	314.75
373.879	328.54
374.26	313.62
374.641	308.42
375.021	317.01
375.402	313.85
375.783	329.89
376.163	333.73
376.544	329.44
376.925	332.15
377.305	308.88
377.686	331.7
378.066	338.71
378.447	322.89
378.827	348.2
379.208	332.83
379.588	355.2
379.968	338.93
380.349	337.8
380.729	319.72
381.109	331.25
381.489	336.22
381.87	357.69
382.25	355.88
382.63	342.32
383.01	357.91
383.39	362.66
383.77	339.61
384.15	352.26
384.53	332.15
384.91	331.93
385.29	331.7
385.67	340.74
386.049	358.37
386.429	344.13
386.809	361.08
387.189	336.45
387.568	365.6
387.948	383.9
388.328	369.44
388.707	361.98
389.087	368.54
389.466	380.96
389.846	352.72
390.225	357.91
390.605	362.21
390.984	372.6
391.363	378.48
391.743	365.15
392.122	369.21
392.501	375.77
392.881	372.15
393.26	376.9
393.639	361.3
394.018	375.09
394.397	378.93
394.776	388.87
395.155	385.03
395.534	389.33
395.913	389.78
396.292	402.88
396.671	400.85
397.05	396.33
397.429	381.87
397.808	387.52
398.186	401.08
398.565	419.61
398.944	410.12
399.323	394.98
399.701	390.23
400.08	402.43
400.458	415.09
400.837	411.7
401.215	414.64
401.594	398.59
401.972	427.52
402.351	430
402.729	401.98
403.107	422.09
403.486	455.09
403.864	426.61
404.242	427.97
404.62	439.04
404.999	432.26
405.377	427.29
405.755	446.27
406.133	458.02
406.511	467.06
406.889	452.15
407.267	455.09
407.645	459.83
408.023	490.79
408.401	470
408.779	478.36
409.156	469.78
409.534	474.52
409.912	490.57
410.29	503
410.667	507.06
411.045	516.33
411.422	520.17
411.8	509.1
412.178	529.44
412.555	545.03
412.933	512.71
413.31	546.16
413.687	547.06
414.065	540.51
414.442	538.25
414.819	571.24
415.197	554.52
415.574	574.18
415.951	573.05
416.328	580.06
416.705	610.11
417.082	633.16
417.46	624.35
417.837	641.3
418.214	640.84
418.591	640.17
418.967	635.42
419.344	626.38
419.721	634.97
420.098	642.43
420.475	681.07
420.852	671.58
421.228	679.71
421.605	669.77
421.982	693.95
422.358	698.47
422.735	707.06
423.111	721.07
423.488	714.97
423.864	711.13
424.241	728.53
424.617	731.46
424.994	752.71
425.37	766.94
425.746	742.99
426.123	769.65
426.499	779.15
426.875	769.2
427.251	778.24
427.627	794.06
428.003	795.19
428.379	801.97
428.756	811.24
429.132	840.61
429.507	876.09
429.883	845.59
430.259	854.4
430.635	876.54
431.011	859.37
431.387	879.93
431.763	902.76
432.138	890.33
432.514	892.36
432.89	916.77
433.265	965.36
433.641	946.37
434.016	972.81
434.392	975.53
434.767	979.37
435.143	994.73
435.518	981.63
435.894	990.67
436.269	1003.1
436.644	1032.02
437.02	1020.5
437.395	1042.42
437.77	1046.71
438.145	1049.87
438.52	1058.23
438.895	1104.56
439.271	1090.32
439.646	1112.47
440.021	1115.86
440.395	1114.73
440.77	1098.46
441.145	1094.17
441.52	1134.39
441.895	1128.29
442.27	1146.14
442.645	1163.09
443.019	1146.14
443.394	1135.07
443.769	1157.67
444.143	1162.41
444.518	1171.68
444.892	1169.42
445.267	1189.98
445.641	1196.76
446.016	1183.43
446.39	1223.43
446.764	1209.87
447.139	1203.09
447.513	1205.58
447.887	1237.89
448.262	1230.66
448.636	1220.26
449.01	1223.43
449.384	1222.07
449.758	1234.95
450.132	1252.81
450.506	1276.31
450.88	1267.49
451.254	1234.05
451.628	1278.34
452.002	1257.33
452.376	1287.61
452.75	1275.4
453.123	1310.66
453.497	1328.74
453.871	1310.88
454.244	1331
454.618	1331.9
454.992	1372.12
455.365	1362.86
455.739	1372.35
456.112	1384.33
456.486	1373.48
456.859	1408.96
457.232	1410.09
457.606	1407.38
457.979	1438.34
458.352	1436.3
458.725	1453.03
459.099	1461.16
459.472	1484.44
459.845	1490.31
460.218	1539.58
460.591	1520.14
460.964	1534.15
461.337	1535.28
461.71	1564.66
462.083	1564.89
462.456	1574.15
462.829	1568.28
463.201	1601.05
463.574	1607.37
463.947	1617.32
464.32	1611.21
464.692	1657.99
465.065	1642.4
465.438	1645.56
465.81	1699.35
466.183	1710.2
466.555	1728.73
466.928	1750.42
467.3	1725.79
467.672	1736.64
468.045	1814.83
468.417	1793.13
468.789	1789.74
469.161	1813.24
469.534	1861.38
469.906	1849.63
470.278	1869.74
470.65	1890.53
471.022	1906.8
471.394	1928.95
471.766	1929.62
472.138	1956.74
472.51	1970.3
472.882	1998.55
473.253	2039.9
473.625	2062.28
473.997	2079.22
474.369	2068.15
474.74	2083.97
475.112	2138.21
475.484	2148.83
475.855	2174.59
476.227	2159.22
476.598	2255.27
476.97	2241.03
477.341	2316.05
477.713	2340.24
478.084	2310.63
478.455	2389.5
478.827	2420.91
479.198	2421.36
479.569	2410.74
479.94	2514.02
480.311	2490.51
480.682	2537.97
481.053	2589.04
481.424	2608.25
481.795	2616.16
482.166	2670.4
482.537	2680.34
482.908	2737.96
483.279	2768.02
483.65	2791.52
484.021	2814.57
484.391	2862.48
484.762	2883.27
485.133	2877.62
485.503	2897.51
485.874	2923.27
486.244	2992.87
486.615	3032.87
486.985	3035.58
487.356	3139.76
487.726	3119.88
488.097	3184.05
488.467	3154.68
488.837	3223.15
489.207	3256.37
489.578	3253.43
489.948	3306.54
490.318	3328.68
490.688	3381.34
491.058	3368.68
491.428	3398.29
491.798	3437.61
492.168	3473.99
492.538	3513.99
492.908	3569.13
493.278	3548.11
493.648	3578.85
494.017	3639.41
494.387	3627.88
494.757	3652.52
495.126	3693.65
495.496	3688.9
495.866	3746.98
496.235	3732.06
496.605	3753.08
496.974	3788.11
497.344	3849.35
497.713	3832.4
498.082	3875.34
498.452	3866.52
498.821	3917.59
499.19	3895.22
499.559	3942
499.928	3941.77
500.298	3960.98
500.667	4018.84
501.036	4030.13
501.405	4038.27
501.774	3995.56
502.143	4055.22
502.512	4107.19
502.88	4096.57
503.249	4065.39
503.618	4141.77
503.987	4147.65
504.356	4144.03
504.724	4178.38
505.093	4199.62
505.462	4214.31
505.83	4215.21
506.199	4245.72
506.567	4278.26
506.936	4268.09
507.304	4344.25
507.672	4300.41
508.041	4324.14
508.409	4343.57
508.777	4371.37
509.145	4405.04
509.514	4407.98
509.882	4388.32
510.25	4416.79
510.618	4436.68
510.986	4401.88
511.354	4446.62
511.722	4479.16
512.09	4546.73
512.458	4526.84
512.826	4526.84
513.193	4546.73
513.561	4564.58
513.929	4542.89
514.297	4558.48
514.664	4606.62
515.032	4610.91
515.4	4591.02
515.767	4650.23
516.135	4687.29
516.502	4605.26
516.869	4688.2
517.237	4718.93
517.604	4678.93
517.972	4725.03
518.339	4727.52
518.706	4715.09
519.073	4758.7
519.44	4745.14
519.808	4804.8
520.175	4774.3
520.542	4844.8
520.909	4853.84
521.276	4840.06
521.643	4867.4
522.009	4922.99
522.376	4925.93
522.743	4937.23
523.11	4954.63
523.477	5061.97
523.843	5014.29
524.21	5039.37
524.577	5055.42
524.943	5079.6
525.31	5157.34
525.676	5144.23
526.043	5169.77
526.409	5209.31
526.776	5200.27
527.142	5216.77
527.508	5283.43
527.874	5280.04
528.241	5295.41
528.607	5345.58
528.973	5404.34
529.339	5360.49
529.705	5424.45
530.071	5442.07
530.437	5457.44
530.803	5497.44
531.169	5507.16
531.535	5497.67
531.901	5557.55
532.267	5512.81
532.632	5591.9
532.998	5637.1
533.364	5659.92
533.73	5659.7
534.095	5657.89
534.461	5696.08
534.826	5757.55
535.192	5772.91
535.557	5854.27
535.923	5795.74
536.288	5859.24
536.653	5846.81
537.019	5864.21
537.384	5876.41
537.749	5925.45
538.114	5893.81
538.479	5915.06
538.845	5981.04
539.21	5962.29
539.575	5974.04
539.94	6028.27
540.305	6085.45
540.67	6041.61
541.034	6106.46
541.399	6200.7
541.764	6158.89
542.129	6178.78
542.494	6219
542.858	6242.73
543.223	6259
543.587	6322.96
543.952	6242.73
544.316	6343.75
544.681	6293.8
545.045	6390.52
545.41	6402.95
545.774	6392.11
546.138	6393.24
546.503	6441.14
546.867	6416.96
547.231	6507.58
547.595	6508.94
547.959	6580.8
548.324	6514.36
548.688	6580.35
549.052	6675.04
549.416	6680.01
549.779	6629.16
550.143	6656.96
550.507	6766.56
550.871	6733.57
551.235	6757.52
551.599	6758.2
551.962	6822.83
552.326	6837.52
552.689	6914.35
553.053	6879.32
553.417	6857.18
553.78	6977.18
554.143	6907.8
554.507	6945.99
554.87	6882.94
555.234	7023.5
555.597	6991.86
555.96	7014.69
556.323	7048.81
556.686	7080.9
557.05	7089.26
557.413	7113.22
557.776	7156.38
558.139	7135.59
558.502	7194.57
558.865	7183.05
559.228	7232.08
559.59	7237.06
559.953	7262.82
560.316	7306.43
560.679	7287.68
561.041	7359.76
561.404	7366.77
561.767	7395.47
562.129	7442.02
562.492	7519.53
562.854	7445.41
563.217	7435.69
563.579	7528.57
563.941	7525.41
564.304	7559.08
564.666	7580.32
565.028	7697.83
565.39	7710.72
565.753	7699.64
566.115	7677.27
566.477	7673.88
566.839	7701
567.201	7767.66
567.563	7821.67
567.925	7866.19
568.287	7849.47
568.648	7808.57
569.01	7907.77
569.372	7980.09
569.734	7961.56
570.095	7998.84
570.457	8039.97
570.819	8125.17
571.18	8135.79
571.542	8139.4
571.903	8185.05
572.265	8249.68
572.626	8237.26
572.987	8328.1
573.349	8369.68
573.71	8466.18
574.071	8504.37
574.432	8519.28
574.794	8651.93
575.155	8662.78
575.516	8649.22
575.877	8757.47
576.238	8788.88
576.599	8859.84
576.96	8924.92
577.32	9010.34
577.681	9083.33
578.042	9168.76
578.403	9275.42
578.763	9324.46
579.124	9398.58
579.485	9591.12
579.845	9661.4
580.206	9733.04
580.566	9828.63
580.927	9964.22
581.287	10178
581.648	10210.99
582.008	10477.87
582.368	10497.31
582.728	10725.1
583.089	10857.3
583.449	10990.63
583.809	11250.96
584.169	11389.04
584.529	11584.29
584.889	11801.46
585.249	12055.69
585.609	12067.66
585.969	12413.42
586.329	12577.93
586.688	12815.21
587.048	13095.88
587.408	13257.24
587.768	13554.18
588.127	13787.17
588.487	14063.54
588.846	14306.47
589.206	14550.31
589.565	14801.83
589.925	15187.13
590.284	15444.75
590.643	15725.87
591.003	15931.52
591.362	16345.06
591.721	16676.81
592.08	17000.41
592.44	17247.64
592.799	17579.16
593.158	17887.85
593.517	18159.25
593.876	18493.03
594.235	18769.86
594.593	19078.33
594.952	19471.54
595.311	19675.37
595.67	20182.03
596.029	20527.55
596.387	20771.84
596.746	21264.71
597.104	21431.03
597.463	21676.9
597.822	22140.17
598.18	22341.52
598.538	22574.51
598.897	23151.89
599.255	23247.71
599.613	23780.12
599.972	24067.57
600.33	24381.24
600.688	24524.28
601.046	24966.31
601.404	25330.37
601.762	25691.03
602.12	25942.55
602.478	26413.05
602.836	26677.67
603.194	26783.66
603.552	27093.03
603.91	27414.15
604.268	27772.33
604.625	27926.23
604.983	28315.6
605.341	28512.43
605.698	28867.45
606.056	29222.47
606.413	29522.8
606.771	29842.56
607.128	30091.37
607.485	30241.2
607.843	30520.74
608.2	30739.49
608.557	31119.37
608.914	31295.63
609.272	31790.31
609.629	31901.72
609.986	32294.25
610.343	32289.5
610.7	32762.03
611.057	32875.93
611.414	33024.85
611.771	33273.88
612.127	33494.9
612.484	33719.52
612.841	34023.7
613.198	34123.58
613.554	34281.77
613.911	34645.15
614.267	34703.45
614.624	34903.67
614.98	35106.61
615.337	35479.02
615.693	35456.43
616.05	35636.53
616.406	35947.04
616.762	35947.71
617.118	36208.27
617.475	36357.87
617.831	36493.24
618.187	36665.89
618.543	36870.17
618.899	37186.32
619.255	37202.14
619.611	37290.05
619.967	37476.71
620.323	37780.66
620.678	37777.5
621.034	37733.2
621.39	37900.43
621.746	37930.71
622.101	38491.15
622.457	38151.72
622.812	38464.48
623.168	38620.41
623.523	38713.06
623.879	39076.22
624.234	38852.5
624.589	38900.63
624.945	39126.61
625.3	39290.22
625.655	39180.85
626.01	39356.89
626.365	39589.2
626.72	39497
627.075	39480.73
627.43	39567.28
627.785	39656.09
628.14	39858.34
628.495	39963.88
628.85	39915.52
629.205	39804.11
629.559	40037.77
629.914	39983.99
630.269	40067.6
630.623	40072.58
630.978	40004.78
631.332	40256.07
631.687	40313.25
632.041	40180.82
632.396	40404.77
632.75	40216.98
633.104	40227.37
633.459	40063.54
633.813	40113.48
634.167	40239.13
634.521	40218.34
634.875	40321.16
635.229	40342.17
635.583	40196.41
635.937	40202.06
636.291	40279.8
636.645	40326.13
636.999	40259.69
637.352	40255.4
637.706	40189.86
638.06	40273.7
638.413	40247.03
638.767	40208.17
639.121	40332.46
639.474	40249.97
639.828	40275.73
640.181	40318.45
640.534	40296.3
640.888	40191.44
641.241	40055.85
641.594	40233.48
641.947	40244.78
642.301	40130.2
642.654	40240.03
643.007	40197.32
643.36	40099.47
643.713	40219.69
644.066	40213.14
644.419	40061.28
644.771	39752.81
645.124	39437.11
645.477	39396.66
645.83	39204.35
646.182	39087.07
646.535	39015.65
646.888	39055.2
647.24	38859.73
647.593	39173.84
647.945	39020.4
648.298	38901.31
648.65	38870.12
649.002	38820.63
649.355	38925.49
649.707	38929.56
650.059	39086.16
650.411	39524.57
650.763	39470.11
651.115	39974.95
651.467	39750.78
651.819	39724.56
652.171	39758.23
652.523	39662.19
652.875	39527.05
653.227	39542.19
653.578	39835.52
653.93	39727.05
654.282	39524.79
654.633	39476.43
654.985	39511.24
655.337	39654.96
655.688	39628.29
656.039	39746.26
656.391	39248.64
656.742	39534.74
657.094	39484.34
657.445	39552.59
657.796	39426.94
658.147	39397.57
658.498	39458.81
658.849	39367.28
659.2	39448.64
659.551	39348.53
659.902	39417
660.253	39399.15
660.604	39456.1
660.955	39350.34
661.306	39272.82
661.656	39340.17
662.007	39278.25
662.358	39210.45
662.708	39397.57
663.059	39184.92
663.409	39047.97
663.76	39302.88
664.11	39234.18
664.461	39273.05
664.811	39327.96
665.161	39253.84
665.511	39220.85
665.862	39217.91
666.212	39347.4
666.562	39372.03
666.912	39236.89
667.262	39170.91
667.612	39297
667.962	39460.84
668.312	39212.94
668.662	39323.9
669.011	39372.71
669.361	39285.93
669.711	39068.99
670.06	39107.18
670.41	39139.72
670.76	39031.02
671.109	39256.1
671.459	39121.41
671.808	39005.49
672.157	39212.03
672.507	38961.87
672.856	39010.23
673.205	38895.43
673.554	39062.21
673.904	38948.99
674.253	39120.96
674.602	38947.63
674.951	38527.98
675.3	38264.26
675.649	38871.93
675.998	38751.93
676.346	38872.38
676.695	38860.86
677.044	38510.81
677.393	38712.61
677.741	38824.02
678.09	38716.45
678.438	38635.78
678.787	38731.37
679.135	38764.36
679.484	38452.96
679.832	38595.33
680.181	38420.64
680.529	38424.48
680.877	38442.56
681.225	38253.87
681.573	38621.99
681.922	38220.87
682.27	38136.58
682.618	38192.17
682.966	38097.26
683.314	37993.76
683.661	38088.67
684.009	37784.5
684.357	37700.44
684.705	37771.85
685.053	37896.59
685.4	37835.57
685.748	37617.05
686.095	37567.78
686.443	37503.6
686.79	37440.78
687.138	37540.89
687.485	37542.93
687.832	37290.05
688.18	37452.98
688.527	37073.33
688.874	37192.2
689.221	37042.15
689.568	37047.8
689.915	36921.7
690.262	36883.51
690.609	36833.11
690.956	36644.87
691.303	36617.3
691.65	36385.89
691.997	36488.04
692.344	36290.53
692.69	36087.14
693.037	36350.19
693.383	35982.97
693.73	36240.13
694.077	36057.54
694.423	35970.99
694.769	35755.63
695.116	35659.13
695.462	35729.41
695.808	35475.41
696.155	35573.71
696.501	35304.57
696.847	35378.91
697.193	35000.39
697.539	35336.66
697.885	35096.89
698.231	34907.06
698.577	34975.54
698.923	34872.71
699.269	34764.47
699.614	34543.23
699.96	34456
700.306	34459.62
700.651	34186.63
700.997	34305.72
701.342	34246.06
701.688	34112.73
702.033	34058.05
702.379	34046.97
702.724	33861.89
703.069	33957.26
703.415	33596.36
703.76	33603.59
704.105	33577.83
704.45	33437.04
704.795	33319.99
705.14	33217.62
705.485	33204.06
705.83	32986.89
706.175	33196.82
706.52	33018.3
706.865	32822.37
707.209	32853.56
707.554	32774.69
707.899	32823.28
708.243	32649.49
708.588	32552.1
708.932	32427.35
709.277	32342.84
709.621	32428.94
709.966	32077.53
710.31	32259
710.654	32019
710.998	32042.5
711.342	32060.81
711.687	31932.45
712.031	31862.85
712.375	31812.23
712.719	31701.72
713.063	31726.81
713.407	31848.61
713.75	31701.27
714.094	31595.96
714.438	31481.16
714.782	31489.53
715.125	31271.45
715.469	31416.53
715.812	31150.55
716.156	31095.86
716.499	31080.72
716.843	31127.5
717.186	30969.76
717.53	30941.52
717.873	30990.56
718.216	30880.5
718.559	30720.28
718.902	30737
719.246	30608.64
719.589	30582.43
719.932	30483.22
720.275	30518.7
720.617	30381.53
720.96	30293.17
721.303	30319.61
721.646	30383.11
721.989	30019.06
722.331	30300.4
722.674	30214.76
723.016	30200.29
723.359	29988.77
723.701	30018.38
724.044	29859.06
724.386	29724.37
724.729	29818.38
725.071	29763.69
725.413	29720.31
725.755	29755.33
726.097	29678.95
726.439	29425.62
726.782	29475.57
727.124	29640.76
727.465	29452.97
727.807	29374.55
728.149	29400.09
728.491	29319.64
728.833	29271.73
729.175	29197.61
729.516	29131.62
729.858	29166.87
730.199	29006.88
730.541	29081.68
730.882	29073.32
731.224	28986.99
731.565	28869.26
731.906	28789.26
732.248	28784.96
732.589	28688.47
732.93	28763.5
733.271	28745.19
733.612	28662.03
733.953	28527.12
734.294	28517.17
734.635	28473.56
734.976	28594.23
735.317	28357.86
735.658	28448.25
735.999	28392.43
736.339	28296.84
736.68	28335.48
737.021	28256.39
737.361	28160.57
737.702	28368.93
738.042	28120.12
738.383	28105.43
738.723	28260.46
739.063	28036.73
739.404	28071.76
739.744	27925.55
740.084	27866.34
740.424	27926
740.764	27865.44
741.104	27877.87
741.444	27774.14
741.784	27665.44
742.124	27803.52
742.464	27650.53
742.804	27581.38
743.143	27556.75
743.483	27652.79
743.823	27365.11
744.162	27447.15
744.502	27472.23
744.841	27331.44
745.181	27437.43
745.52	27245.57
745.86	27274.72
746.199	27043.31
746.538	27167.38
746.877	27196.76
747.216	27137.78
747.556	27060.04
747.895	27086.48
748.234	26833.6
748.573	26902.08
748.911	26835.41
749.25	26927.84
749.589	26731.68
749.928	26802.64
750.267	26718.8
750.605	26616.66
750.944	26579.15
751.283	26539.6
751.621	26636.32
751.96	26424.35
752.298	26440.62
752.636	26444.23
752.975	26235.88
753.313	26053.28
753.651	26296.22
753.989	26118.14
754.327	26107.52
754.666	26006.05
755.004	25996.34
755.342	26013.28
755.679	25952.27
756.017	25811.93
756.355	25878.37
756.693	25806.51
757.031	25779.17
757.368	25656.91
757.706	25542.56
758.044	25548.89
758.381	25608.55
758.719	25348.67
759.056	25443.13
759.394	25279.52
759.731	25084.95
760.068	25092.63
