Data from hue_36_FLMS001491_00094.txt Node
Date: Tue Feb 07 17:30:32 GMT 2017
User: dcchb
Spectrometer: FLMS00149
Trigger mode: 0
Integration Time (sec): 2.000000E-2
Scans to average: 10
Electric dark correction enabled: true
Nonlinearity correction enabled: false
Boxcar width: 0
XAxis mode: Wavelengths
Number of Pixels in Spectrum: 2048
>>>>>Begin Spectral Data<<<<<
341.393	-6.91
341.776	-6.91
342.16	-6.91
342.543	-60.01
342.927	-65.89
343.31	-64.08
343.693	-65.21
344.077	-72.44
344.46	-56.62
344.843	-61.82
345.226	-29.5
345.61	-49.62
345.993	-22.05
346.376	-5.32
346.759	20.89
347.142	14.34
347.525	37.84
347.908	62.7
348.291	89.14
348.674	81.45
349.057	120.32
349.44	112.64
349.823	149.02
350.206	159.64
350.588	198.06
350.971	218.85
351.354	248.23
351.737	229.47
352.119	252.75
352.502	257.72
352.884	283.48
353.267	285.29
353.65	310.83
354.032	275.8
354.414	291.84
354.797	316.47
355.179	323.03
355.562	334.55
355.944	336.36
356.326	328.68
356.709	331.39
357.091	331.39
357.473	351.73
357.855	338.4
358.238	343.14
358.62	346.98
359.002	325.74
359.384	379.75
359.766	330.71
360.148	341.33
360.53	340.2
360.912	341.56
361.294	336.36
361.676	312.18
362.057	342.24
362.439	335.68
362.821	335.46
363.203	316.02
363.584	324.16
363.966	325.06
364.348	310.37
364.729	323.25
365.111	314.44
365.493	298.17
365.874	327.55
366.256	328.23
366.637	328.9
367.019	340.43
367.4	311.28
367.781	320.77
368.163	313.99
368.544	318.28
368.925	302.01
369.306	337.49
369.688	317.15
370.069	310.83
370.45	305.18
370.831	313.76
371.212	326.42
371.593	309.02
371.974	318.28
372.355	345.63
372.736	312.41
373.117	328.9
373.498	301.11
373.879	332.07
374.26	316.02
374.641	341.78
375.021	318.96
375.402	330.03
375.783	338.17
376.163	325.29
376.544	337.72
376.925	338.62
377.305	336.81
377.686	304.95
378.066	320.54
378.447	332.75
378.827	336.36
379.208	324.61
379.588	310.15
379.968	331.39
380.349	326.64
380.729	348.56
381.109	309.7
381.489	339.52
381.87	337.27
382.25	335.01
382.63	316.47
383.01	358.28
383.39	341.56
383.77	324.84
384.15	339.75
384.53	359.64
384.91	349.69
385.29	347.89
385.67	343.59
386.049	352.63
386.429	332.52
386.809	360.54
387.189	348.11
387.568	363.25
387.948	336.14
388.328	351.5
388.707	346.3
389.087	344.72
389.466	359.64
389.846	367.55
390.225	370.48
390.605	354.21
390.984	373.65
391.363	371.16
391.743	368
392.122	377.94
392.501	353.76
392.881	381.78
393.26	375.91
393.639	374.55
394.018	385.17
394.397	375.23
394.776	379.98
395.155	378.39
395.534	383.59
395.913	394.44
396.292	386.76
396.671	362.12
397.05	386.08
397.429	383.59
397.808	379.98
398.186	381.78
398.565	386.3
398.944	382.24
399.323	393.76
399.701	401.44
400.08	394.21
400.458	379.75
400.837	405.06
401.215	395.12
401.594	407.32
401.972	404.83
402.351	391.95
402.729	392.4
403.107	384.95
403.486	403.03
403.864	395.57
404.242	433.31
404.62	440.77
404.999	410.48
405.377	402.35
405.755	429.69
406.133	422.69
406.511	405.06
406.889	431.95
407.267	420.2
407.645	447.54
408.023	421.78
408.401	452.06
408.779	456.81
409.156	431.95
409.534	428.79
409.912	449.58
410.29	453.42
410.667	437.83
411.045	453.65
411.422	445.06
411.8	466.53
412.178	454.55
412.555	466.75
412.933	462.46
413.31	444.15
413.687	448
414.065	492.29
414.442	454.1
414.819	476.24
415.197	473.53
415.574	477.37
415.951	487.54
416.328	475.57
416.705	490.03
417.082	477.83
417.46	485.06
417.837	499.52
418.214	488.45
418.591	508.56
418.967	506.98
419.344	508.79
419.721	531.16
420.098	497.26
420.475	520.09
420.852	497.03
421.228	525.51
421.605	508.33
421.982	525.28
422.358	506.53
422.735	527.77
423.111	546.53
423.488	545.17
423.864	536.58
424.241	538.16
424.617	536.13
424.994	541.33
425.37	547.88
425.746	542.68
426.123	563.93
426.499	564.6
426.875	578.39
427.251	560.08
427.627	567.99
428.003	596.92
428.379	564.15
428.756	576.58
429.132	570.48
429.507	608.44
429.883	584.72
430.259	604.38
430.635	592.4
431.011	610.93
431.387	603.7
431.763	634.21
432.138	607.54
432.514	635.56
432.89	631.27
433.265	662.23
433.641	648.67
434.016	667.2
434.392	647.09
434.767	658.39
435.143	680.53
435.518	667.65
435.894	665.84
436.269	680.08
436.644	670.59
437.02	695.45
437.395	704.71
437.77	690.93
438.145	664.26
438.52	714.43
438.895	717.82
439.271	715.79
439.646	733.64
440.021	721.89
440.395	746.29
440.77	734.99
441.145	722.34
441.52	750.59
441.895	770.02
442.27	768.44
442.645	745.84
443.019	759.4
443.394	749.91
443.769	781.55
444.143	771.15
444.518	785.39
444.892	785.16
445.267	793.75
445.641	783.81
446.016	769.57
446.39	774.99
446.764	756.24
447.139	784.26
447.513	801.66
447.887	799.63
448.262	829.23
448.636	805.05
449.01	826.97
449.384	836.46
449.758	819.06
450.132	841.21
450.506	844.14
450.88	833.52
451.254	835.33
451.628	862.22
452.002	854.09
452.376	877.14
452.75	904.03
453.123	879.4
453.497	885.27
453.871	882.79
454.244	915.33
454.618	894.54
454.992	923.24
455.365	909
455.739	967.53
456.112	953.52
456.486	950.58
456.859	969.56
457.232	996.23
457.606	981.54
457.979	975.21
458.352	1007.98
458.725	1025.38
459.099	1010.02
459.472	1027.19
459.845	1043.01
460.218	1056.34
460.591	1072.61
460.964	1083.01
461.337	1124.36
461.71	1119.84
462.083	1127.07
462.456	1114.19
462.829	1140.41
463.201	1165.27
463.574	1148.77
463.947	1181.99
464.32	1176.79
464.692	1187.19
465.065	1198.26
465.438	1199.16
465.81	1253.4
466.183	1261.08
466.555	1319.61
466.928	1300.63
467.3	1305.15
467.672	1345.15
468.045	1354.87
468.417	1385.37
468.789	1367.29
469.161	1393.96
469.534	1418.37
469.906	1478.03
470.278	1477.12
470.65	1459.5
471.022	1507.86
471.394	1536.78
471.766	1554.41
472.138	1588.98
472.51	1617.68
472.882	1643.67
473.253	1674.86
473.625	1695.42
473.997	1725.7
474.369	1773.39
474.74	1790.33
475.112	1812.48
475.484	1878.92
475.855	1894.74
476.227	1934.74
476.598	1982.42
476.97	2003.89
477.341	2078.69
477.713	2079.82
478.084	2119.59
478.455	2255.18
478.827	2252.92
479.198	2354.61
479.569	2344.67
479.94	2446.81
480.311	2508.96
480.682	2533.59
481.053	2663.98
481.424	2723.87
481.795	2745.11
482.166	2827.14
482.537	2893.81
482.908	2959.8
483.279	3002.28
483.65	3145.33
484.021	3191.2
484.391	3223.52
484.762	3285.66
485.133	3418.31
485.503	3474.81
485.874	3585.54
486.244	3635.03
486.615	3778.53
486.985	3883.16
487.356	3959.99
487.726	3974.46
488.097	4095.13
488.467	4228.24
488.837	4290.83
489.207	4390.49
489.578	4469.59
489.948	4560.66
490.318	4697.6
490.688	4789.35
491.058	4869.35
491.428	4971.27
491.798	5042.68
492.168	5184.37
492.538	5220.3
492.908	5336.91
493.278	5446.74
493.648	5475.44
494.017	5629.78
494.387	5760.4
494.757	5771.47
495.126	5885.14
495.496	5963.56
495.866	6038.36
496.235	6130.79
496.605	6222.76
496.974	6331.91
497.344	6411.68
497.713	6538.46
498.082	6652.81
498.452	6716.76
498.821	6752.01
499.19	6801.05
499.559	6893.48
499.928	6949.52
500.298	7064.09
500.667	7134.15
501.036	7202.85
501.405	7296.63
501.774	7378.89
502.143	7460.92
502.512	7444.65
502.88	7548.15
503.249	7628.15
503.618	7727.35
503.987	7762.15
504.356	7793.79
504.724	7952.43
505.093	7969.15
505.462	8016.61
505.83	8048.7
506.199	8190.84
506.567	8290.73
506.936	8291.41
507.304	8429.48
507.672	8470.16
508.041	8556.48
508.409	8557.39
508.777	8688.23
509.145	8746.99
509.514	8779.53
509.882	8840.54
510.25	8856.14
510.618	8976.13
510.986	9047.09
511.354	9102.91
511.722	9202.57
512.09	9238.27
512.458	9188.56
512.826	9359.63
513.193	9453.18
513.561	9415.67
513.929	9525.05
514.297	9617.47
514.664	9663.57
515.032	9713.52
515.4	9779.5
515.767	9883
516.135	9918.93
516.502	9821.08
516.869	10028.76
517.237	10032.83
517.604	10078.48
517.972	10153.73
518.339	10253.84
518.706	10262.2
519.073	10282.99
519.44	10392.37
519.808	10438.02
520.175	10440.28
520.542	10522.76
520.909	10614.96
521.276	10669.2
521.643	10756.43
522.009	10865.58
522.376	10864.45
522.743	10918.68
523.11	11112.8
523.477	11141.05
523.843	11239.58
524.21	11267.15
524.577	11294.94
524.943	11372.91
525.31	11388.95
525.676	11569.96
526.043	11625.1
526.409	11615.84
526.776	11762.05
527.142	11788.49
527.508	11894.93
527.874	11922.27
528.241	12042.95
528.607	12036.84
528.973	12271.87
529.339	12174.69
529.705	12331.75
530.071	12414.24
530.437	12380.11
530.803	12533.33
531.169	12546.44
531.535	12592.99
531.901	12672.08
532.267	12714.34
532.632	12744.17
532.998	12848.8
533.364	12924.5
533.73	12959.76
534.095	13081.11
534.461	13040.43
534.826	13148.45
535.192	13164.95
535.557	13354.32
535.923	13301.9
536.288	13281.33
536.653	13449.91
537.019	13421.21
537.384	13495.79
537.749	13584.83
538.114	13584.15
538.479	13585.28
538.845	13679.97
539.21	13682.9
539.575	13763.58
539.94	13811.94
540.305	13791.37
540.67	13850.58
541.034	13959.28
541.399	13953.86
541.764	13996.79
542.129	14141.87
542.494	14240.63
542.858	14263.23
543.223	14292.6
543.587	14326.5
543.952	14411.47
544.316	14390.68
544.681	14436.33
545.045	14555.87
545.41	14655.53
545.774	14688.07
546.138	14691.24
546.503	14747.51
546.867	14686.72
547.231	14840.39
547.595	14866.6
547.959	14912.48
548.324	15034.51
548.688	15074.96
549.052	15115.41
549.416	15136.42
549.779	15191.56
550.143	15253.71
550.507	15341.62
550.871	15416.19
551.235	15352.01
551.599	15493.25
551.962	15569.63
552.326	15522.18
552.689	15691.66
553.053	15570.31
553.417	15596.75
553.78	15819.12
554.143	15736.18
554.507	15913.8
554.87	15890.98
555.234	16083.97
555.597	16039.45
555.96	16088.72
556.323	16197.19
556.686	16187.47
557.05	16245.32
557.413	16342.27
557.776	16382.27
558.139	16374.58
558.502	16544.07
558.865	16541.36
559.228	16566.44
559.59	16646.44
559.953	16637.85
560.316	16914
560.679	16802.14
561.041	16982.25
561.404	16957.17
561.767	17133.43
562.129	17096.82
562.492	17410.71
562.854	17257.72
563.217	17215.92
563.579	17342.69
563.941	17488.45
564.304	17594.21
564.666	17644.83
565.028	17574.78
565.39	17688
565.753	17862
566.115	17860.65
566.477	17881.21
566.839	17890.48
567.201	18032.17
567.563	18058.83
567.925	18152.39
568.287	18178.38
568.648	18251.82
569.01	18384.47
569.372	18508.99
569.734	18429.22
570.095	18588.54
570.457	18588.99
570.819	18598.25
571.18	18731.81
571.542	18900.84
571.903	18942.88
572.265	19078.69
572.626	19165.7
572.987	19231.01
573.349	19257.9
573.71	19270.55
574.071	19525.01
574.432	19459.93
574.794	19701.05
575.155	19614.5
575.516	19688.85
575.877	19948.5
576.238	20007.26
576.599	20138.55
576.96	20232.79
577.32	20260.36
577.681	20502.61
578.042	20513.46
578.403	20673.23
578.763	20775.37
579.124	20929.94
579.485	21145.08
579.845	21284.51
580.206	21340.55
580.566	21378.75
580.927	21644.28
581.287	21805.18
581.648	21890.82
582.008	22160.42
582.368	22237.93
582.728	22376.46
583.089	22528.55
583.449	22738.94
583.809	22925.6
584.169	23124.24
584.529	23182.09
584.889	23594.73
585.249	23540.5
585.609	23805.57
585.969	24058.45
586.329	24234.49
586.688	24511.09
587.048	24629.06
587.408	24970.97
587.768	25051.64
588.127	25319.21
588.487	25579.31
588.846	25756.94
589.206	25836.03
589.565	26125.74
589.925	26405.05
590.284	26563.02
590.643	26850.92
591.003	27139.72
591.362	27479.15
591.721	27530
592.08	27800.27
592.44	28153.48
592.799	28250.2
593.158	28483.64
593.517	28739.23
593.876	28987.13
594.235	29251.31
594.593	29397.97
594.952	29632.77
595.311	29836.15
595.67	30026.2
596.029	30395.91
596.387	30647.2
596.746	30877.03
597.104	30855.78
597.463	31147.53
597.822	31473.85
598.18	31606.5
598.538	31760.62
598.897	32022.31
599.255	31970.56
599.613	32635.17
599.972	32681.73
600.33	32849.18
600.688	32894.6
601.046	33260.92
601.404	33541.59
601.762	33640.8
602.12	34013.67
602.478	34189.03
602.836	34343.15
603.194	34316.71
603.552	34574.78
603.91	34679.41
604.268	34877.37
604.625	34960.99
604.983	35119.63
605.341	35259.96
605.698	35498.83
606.056	35730.46
606.413	35987.4
606.771	36044.8
607.128	36246.83
607.485	36222.2
607.843	36388.07
608.2	36692.24
608.557	36948.96
608.914	36937.88
609.272	37251.32
609.629	37351.66
609.986	37556.17
610.343	37499.68
610.7	37894.02
611.057	37886.56
611.414	38052.88
611.771	38178.3
612.127	38391.41
612.484	38402.25
612.841	38806.99
613.198	38828.46
613.554	38819.64
613.911	39115
614.267	39217.6
614.624	39184.38
614.98	39235.68
615.337	39538.49
615.693	39630.7
616.05	39586.85
616.406	40023.23
616.762	39769.45
617.118	39875.43
617.475	39998.37
617.831	40155.2
618.187	40252.6
618.543	40364.46
618.899	40561.97
619.255	40662.76
619.611	40568.3
619.967	40678.58
620.323	40866.59
620.678	40811.46
621.034	40807.84
621.39	41053.03
621.746	40880.38
622.101	41425.68
622.457	41262.52
622.812	41252.57
623.168	41462.74
623.523	41519.01
623.879	41640.36
624.234	41534.37
624.589	41742.5
624.945	41780.7
625.3	41789.06
625.655	41781.15
626.01	41944.76
626.365	41935.49
626.72	41926
627.075	42009.84
627.43	41954.48
627.785	41958.09
628.14	42189.5
628.495	42085.09
628.85	42177.75
629.205	41971.42
629.559	42310.85
629.914	42034.47
630.269	42170.74
630.623	42062.27
630.978	42157.41
631.332	42314.92
631.687	42290.74
632.041	42072.21
632.396	42257.07
632.75	42039.22
633.104	42250.29
633.459	42108.37
633.813	42055.26
634.167	42140.23
634.521	42087.13
634.875	42208.03
635.229	42097.75
635.583	42067.02
635.937	42017.98
636.291	42076.05
636.645	42211.19
636.999	42057.3
637.352	42189.27
637.706	42066.56
638.06	42275.37
638.413	42075.15
638.767	41995.15
639.121	42051.65
639.474	41754.93
639.828	41936.17
640.181	41978.43
640.534	41878.32
640.888	41836.96
641.241	41707.25
641.594	41919.9
641.947	41859.34
642.301	41835.61
642.654	41835.61
643.007	41883.07
643.36	41844.42
643.713	41788.83
644.066	41942.27
644.419	41667.93
644.771	41436.07
645.124	41023.2
645.477	41073.6
645.83	40734.4
646.182	40710.44
646.535	40585.92
646.888	40716.99
647.24	40580.27
647.593	40738.01
647.945	40560.61
648.298	40448.07
648.65	40400.84
649.002	40333.73
649.355	40408.3
649.707	40485.36
650.059	40645.13
650.411	41106.36
650.763	41161.5
651.115	41450.31
651.467	41321.95
651.819	41290.09
652.171	41326.02
652.523	41211.22
652.875	41223.42
653.227	41058.68
653.578	41316.98
653.93	41207.83
654.282	41025.69
654.633	40884
654.985	40958.8
655.337	41001.51
655.688	41122.41
656.039	41162.41
656.391	40952.02
656.742	40936.2
657.094	41057.78
657.445	41143.2
657.796	40996.76
658.147	41059.36
658.498	40960.6
658.849	41102.29
659.2	41036.53
659.551	40883.09
659.902	41018.91
660.253	40937.55
660.604	40899.36
660.955	40824.79
661.306	41077.66
661.656	40838.35
662.007	40987.72
662.358	40844
662.708	40920.83
663.059	40945.46
663.409	40625.92
663.76	40940.04
664.11	40924.22
664.461	40848.97
664.811	40969.87
665.161	40922.19
665.511	40595.87
665.862	40890.32
666.212	40854.39
666.562	40874.05
666.912	40772.81
667.262	40786.82
667.612	40689.65
667.962	40884.22
668.312	40750.44
668.662	40945.91
669.011	40819.59
669.361	40651.01
669.711	40749.76
670.06	40609.43
670.41	40558.58
670.76	40523.78
671.109	40672.48
671.459	40637.67
671.808	40461.63
672.157	40573.5
672.507	40376.66
672.856	40562.65
673.205	40420.5
673.554	40469.77
673.904	40431.8
674.253	40699.14
674.602	40535.76
674.951	40000.4
675.3	39652.16
675.649	40361.98
675.998	40325.37
676.346	40426.38
676.695	40478.81
677.044	40251.92
677.393	40282.66
677.741	40371.69
678.09	40195.65
678.438	40128.54
678.787	40227.29
679.135	40293.95
679.484	39933.06
679.832	40174.64
680.181	39917.24
680.529	39960.18
680.877	39934.42
681.225	39831.59
681.573	40098.93
681.922	39835.89
682.27	39616.91
682.618	39706.17
682.966	39742.78
683.314	39599.06
683.661	39583.01
684.009	39434.77
684.357	39308.9
684.705	39203.14
685.053	39407.2
685.4	39241.33
685.748	39011.5
686.095	39127.43
686.443	38997.94
686.79	39043.59
687.138	39010.15
687.485	39068
687.832	38949.58
688.18	38930.37
688.527	38756.14
688.874	38722.7
689.221	38486.54
689.568	38532.65
689.915	38562.02
690.262	38519.54
690.609	38304.4
690.956	38289.71
691.303	38137.85
691.65	37886.56
691.997	38169.72
692.344	37862.61
692.69	37706
693.037	37696.73
693.383	37496.29
693.73	37508.04
694.077	37347.82
694.423	37307.37
694.769	37229.85
695.116	37164.09
695.462	37160.48
695.808	37015.62
696.155	37143.3
696.501	36793.93
696.847	36817.89
697.193	36677.1
697.539	36695.18
697.885	36492.92
698.231	36307.62
698.577	36472.81
698.923	36327.28
699.269	36023.56
699.614	35922.32
699.96	36007.97
700.306	35943.56
700.651	35805.71
700.997	35690.01
701.342	35675.32
701.688	35726.39
702.033	35518.04
702.379	35507.87
702.724	35398.04
703.069	35418.15
703.415	34911.5
703.76	35081.89
704.105	35018.61
704.45	35035.56
704.795	34711.5
705.14	34784.27
705.485	34679.19
705.83	34511.28
706.175	34686.42
706.52	34535.69
706.865	34358.07
707.209	34249.82
707.554	34183.15
707.899	34228.13
708.243	33987.23
708.588	33978.41
708.932	33821.13
709.277	33906.55
709.621	33803.05
709.966	33628.14
710.31	33734.81
710.654	33425.43
710.998	33481.7
711.342	33522.38
711.687	33349.5
712.031	33315.38
712.375	33161.71
712.719	33319.45
713.063	33137.31
713.407	33154.26
713.75	33010.76
714.094	33011.66
714.438	32982.06
714.782	32796.75
715.125	32794.04
715.469	32703.87
715.812	32563.08
716.156	32412.58
716.499	32478.34
716.843	32552.92
717.186	32329.87
717.53	32405.8
717.873	32514.72
718.216	32296.65
718.559	32036.09
718.902	31900.05
719.246	32176.2
719.589	31906.38
719.932	31801.52
720.275	31818.92
720.617	31763.11
720.96	31786.38
721.303	31737.34
721.646	31713.39
721.989	31640.17
722.331	31691.92
722.674	31461.87
723.016	31502.1
723.359	31372.16
723.701	31485.15
724.044	31245.6
724.386	31178.94
724.729	31225.27
725.071	31239.5
725.413	31192.05
725.755	31184.82
726.097	30882.22
726.439	30760.19
726.782	31032.05
727.124	30922.45
727.465	30794.09
727.807	30829.57
728.149	30740.31
728.491	30692.17
728.833	30648.78
729.175	30594.77
729.516	30503.7
729.858	30465.74
730.199	30472.07
730.541	30419.19
730.882	30334.22
731.224	30443.59
731.565	30104.62
731.906	30177.38
732.248	30308.68
732.589	30063.04
732.93	29974.68
733.271	30072.08
733.612	29999.31
733.953	30066.2
734.294	29855.81
734.635	29865.3
734.976	29983.27
735.317	29765.87
735.658	29691.75
735.999	29676.15
736.339	29658.3
736.68	29644.74
737.021	29618.08
737.361	29442.26
737.702	29619.66
738.042	29544.86
738.383	29360.46
738.723	29534.01
739.063	29349.16
739.404	29435.94
739.744	29338.08
740.084	29189.61
740.424	29310.06
740.764	29244.08
741.104	29284.98
741.444	29094.48
741.784	29040.69
742.124	29055.15
742.464	28984.2
742.804	28924.31
743.143	28866.46
743.483	28919.56
743.823	28754.82
744.162	28565
744.502	28741.49
744.841	28585.79
745.181	28596.41
745.52	28585.79
745.86	28663.98
746.199	28463.08
746.538	28524.77
746.877	28611.1
747.216	28396.19
747.556	28337.21
747.895	28396.64
748.234	28252.24
748.573	28189.41
748.911	28195.29
749.25	28075.07
749.589	28115.07
749.928	28056.99
750.267	27998.01
750.605	28012.92
750.944	27827.39
751.283	27753.27
751.621	27901.51
751.96	27649.77
752.298	27754.17
752.636	27741.29
752.975	27481.86
753.313	27437.8
753.651	27656.55
753.989	27325.71
754.327	27407.06
754.666	27331.13
755.004	27323.45
755.342	27303.34
755.679	27297.91
756.017	27127.75
756.355	27215.2
756.693	27009.33
757.031	27034.87
757.368	26876.45
757.706	26841.88
