Data from hue_24_FLMS001491_00013.txt Node
Date: Tue Feb 07 17:11:51 GMT 2017
User: dcchb
Spectrometer: FLMS00149
Trigger mode: 0
Integration Time (sec): 2.000000E-2
Scans to average: 10
Electric dark correction enabled: true
Nonlinearity correction enabled: false
Boxcar width: 0
XAxis mode: Wavelengths
Number of Pixels in Spectrum: 2048
>>>>>Begin Spectral Data<<<<<
341.393	-18.28
341.776	-18.28
342.16	-18.28
342.543	-66.64
342.927	-61.44
343.31	-49.69
343.693	-72.29
344.077	-67.54
344.46	-74.77
344.843	-49.46
345.226	-46.52
345.61	-13.76
345.993	-42.91
346.376	-8.33
346.759	2.06
347.142	33.47
347.525	40.25
347.908	80.48
348.291	59.46
348.674	97.65
349.057	111.89
349.44	103.53
349.823	129.29
350.206	158.44
350.588	210.87
350.971	231.43
351.354	247.25
351.737	249.06
352.119	275.05
352.502	262.85
352.884	271.89
353.267	274.6
353.65	294.48
354.032	313.69
354.414	309.4
354.797	321.6
355.179	345.33
355.562	347.14
355.944	347.82
356.326	338.78
356.709	342.39
357.091	335.84
357.473	360.02
357.855	357.31
358.238	334.48
358.62	353.01
359.002	349.62
359.384	347.59
359.766	351.43
360.148	366.35
360.53	340.58
360.912	339.23
361.294	355.95
361.676	329.51
362.057	342.17
362.439	349.62
362.821	334.03
363.203	337.19
363.584	338.55
363.966	331.54
364.348	345.33
364.729	330.64
365.111	336.52
365.493	333.35
365.874	337.19
366.256	323.64
366.637	330.42
367.019	318.89
367.4	323.64
367.781	323.18
368.163	341.04
368.544	345.78
368.925	321.6
369.306	311.88
369.688	338.1
370.069	320.7
370.45	339.68
370.831	322.73
371.212	348.49
371.593	340.36
371.974	313.92
372.355	339.23
372.736	337.65
373.117	328.83
373.498	326.8
373.879	322.05
374.26	315.73
374.641	317.08
375.021	303.52
375.402	327.93
375.783	345.33
376.163	321.38
376.544	343.52
376.925	333.13
377.305	338.78
377.686	342.84
378.066	328.61
378.447	328.61
378.827	324.77
379.208	334.48
379.588	354.6
379.968	341.94
380.349	361.37
380.729	351.88
381.109	337.65
381.489	352.56
381.87	354.14
382.25	352.34
382.63	346.69
383.01	364.09
383.39	348.49
383.77	351.21
384.15	369.51
384.53	360.92
384.91	352.79
385.29	380.13
385.67	342.84
386.049	377.19
386.429	366.12
386.809	355.5
387.189	383.75
387.568	337.19
387.948	365.89
388.328	350.75
388.707	355.5
389.087	357.08
389.466	372.67
389.846	389.85
390.225	373.35
390.605	379.45
390.984	375.16
391.363	386.91
391.743	389.4
392.122	382.84
392.501	400.02
392.881	420.58
393.26	392.11
393.639	392.11
394.018	394.14
394.397	410.86
394.776	378.78
395.155	377.87
395.534	383.07
395.913	398.66
396.292	421.26
396.671	414.03
397.05	406.57
397.429	429.62
397.808	421.03
398.186	412.22
398.565	423.07
398.944	391.43
399.323	407.93
399.701	449.28
400.08	425.33
400.458	425.33
400.837	418.1
401.215	414.48
401.594	428.27
401.972	440.92
402.351	419.68
402.729	442.73
403.107	435.05
403.486	434.82
403.864	418.77
404.242	439.34
404.62	450.19
404.999	426.01
405.377	416.06
405.755	442.28
406.133	440.02
406.511	479.79
406.889	450.41
407.267	458.55
407.645	435.05
408.023	478.66
408.401	468.26
408.779	471.65
409.156	480.92
409.534	499.9
409.912	458.1
410.29	466.68
410.667	476.63
411.045	473.24
411.422	484.99
411.8	497.42
412.178	492.22
412.555	494.25
412.933	490.41
413.31	500.81
413.687	488.83
414.065	518.66
414.442	527.92
414.819	508.94
415.197	536.06
415.574	505.33
415.951	536.06
416.328	540.35
416.705	509.17
417.082	516.17
417.46	521.6
417.837	545.1
418.214	545.1
418.591	546.23
418.967	559.34
419.344	560.24
419.721	582.39
420.098	566.79
420.475	563.18
420.852	584.19
421.228	577.87
421.605	567.7
421.982	555.49
422.358	595.49
422.735	575.38
423.111	578.32
423.488	594.59
423.864	602.95
424.241	612.89
424.617	596.4
424.994	612.22
425.37	601.14
425.746	603.18
426.123	614.48
426.499	631.88
426.875	620.8
427.251	617.19
427.627	638.43
428.003	630.52
428.379	654.7
428.756	653.34
429.132	659.9
429.507	648.37
429.883	677.52
430.259	659.67
430.635	672.1
431.011	664.42
431.387	701.7
431.763	699.22
432.138	672.1
432.514	708.48
432.89	695.6
433.265	713.46
433.641	746.68
434.016	706.9
434.392	738.09
434.767	753
435.143	756.62
435.518	750.29
435.894	788.03
436.269	767.69
436.644	767.47
437.02	774.7
437.395	803.17
437.77	777.86
438.145	786.22
438.52	802.49
438.895	813.34
439.271	803.62
439.646	833.45
440.021	826.67
440.395	830.74
440.77	838.88
441.145	854.7
441.52	824.19
441.895	859.44
442.27	853.79
442.645	856.73
443.019	866.45
443.394	888.14
443.769	861.47
444.143	866.22
444.518	900.12
444.892	893.11
445.267	877.07
445.641	889.27
446.016	918.87
446.39	906.9
446.764	932.66
447.139	928.59
447.513	952.09
447.887	921.36
448.262	910.96
448.636	928.82
449.01	961.36
449.384	955.94
449.758	939.44
450.132	974.69
450.506	948.7
450.88	986.67
451.254	981.47
451.628	978.99
452.002	991.87
452.376	1016.72
452.75	1021.24
453.123	1030.06
453.497	1032.32
453.871	1040
454.244	1069.83
454.618	1056.72
454.992	1086.55
455.365	1068.25
455.739	1091.52
456.112	1110.51
456.486	1154.35
456.859	1139.21
457.232	1139.21
457.606	1147.34
457.979	1171.3
458.352	1161.35
458.725	1195.03
459.099	1174.01
459.472	1218.98
459.845	1247
460.218	1231.41
460.591	1260.11
460.964	1246.32
461.337	1278.41
461.71	1291.52
462.083	1315.93
462.456	1318.86
462.829	1332.42
463.201	1344.63
463.574	1353.89
463.947	1352.31
464.32	1406.09
464.692	1375.59
465.065	1409.93
465.438	1445.64
465.81	1455.58
466.183	1477.5
466.555	1498.29
466.928	1520.21
467.3	1515.02
467.672	1554.11
468.045	1541.68
468.417	1605.86
468.789	1565.64
469.161	1597.5
469.534	1620.32
469.906	1667.1
470.278	1666.43
470.65	1675.24
471.022	1725.86
471.394	1745.75
471.766	1749.81
472.138	1801.11
472.51	1825.97
472.882	1843.14
473.253	1888.57
473.625	1896.7
473.997	1936.25
474.369	1971.73
474.74	1988
475.112	2047.88
475.484	2069.13
475.855	2127.66
476.227	2130.82
476.598	2195.22
476.97	2213.98
477.341	2230.7
477.713	2292.85
478.084	2318.84
478.455	2387.08
478.827	2393.86
479.198	2472.28
479.569	2479.74
479.94	2561.77
480.311	2582.33
480.682	2661.88
481.053	2706.17
481.424	2763.12
481.795	2774.42
482.166	2845.6
482.537	2860.97
482.908	2934.19
483.279	3036.33
483.65	3032.94
484.021	3096.44
484.391	3136.44
484.762	3197.68
485.133	3217.12
485.503	3253.28
485.874	3347.74
486.244	3396.55
486.615	3454.85
486.985	3532.82
487.356	3578.47
487.726	3604.91
488.097	3729.42
488.467	3710.44
488.837	3788.4
489.207	3834.73
489.578	3886.03
489.948	3952.47
490.318	4017.78
490.688	4075.18
491.058	4088.73
491.428	4143.65
491.798	4243.31
492.168	4336.64
492.538	4347.26
492.908	4427.71
493.278	4504.32
493.648	4477.88
494.017	4522.85
494.387	4601.94
494.757	4625.9
495.126	4677.19
495.496	4728.72
495.866	4751.99
496.235	4799.45
496.605	4879.45
496.974	4895.27
497.344	4984.3
497.713	4990.41
498.082	5017.3
498.452	5062.04
498.821	5106.11
499.19	5127.35
499.559	5172.1
499.928	5280.34
500.298	5235.37
500.667	5319.44
501.036	5310.17
501.405	5316.95
501.774	5365.76
502.143	5436.04
502.512	5442.6
502.88	5468.13
503.249	5483.95
503.618	5574.8
503.987	5588.13
504.356	5596.04
504.724	5664.29
505.093	5653.66
505.462	5733.66
505.83	5714
506.199	5791.97
506.567	5817.28
506.936	5840.33
507.304	5928.69
507.672	5946.31
508.041	5994.22
508.409	5995.35
508.777	6011.62
509.145	6042.36
509.514	6029.47
509.882	6080.09
510.25	6100.88
510.618	6165.29
510.986	6235.57
511.354	6204.61
511.722	6274.44
512.09	6286.19
512.458	6362.35
512.826	6320.31
513.193	6367.32
513.561	6412.29
513.929	6449.58
514.297	6528.67
514.664	6520.08
515.032	6535.22
515.4	6619.29
515.767	6668.1
516.135	6694.77
516.502	6621.55
516.869	6761.66
517.237	6690.7
517.604	6721.43
517.972	6759.4
518.339	6790.58
518.706	6805.5
519.073	6814.31
519.44	6872.39
519.808	6983.12
520.175	6925.95
520.542	7023.12
520.909	7046.4
521.276	7029.22
521.643	7062.22
522.009	7117.13
522.376	7171.82
522.743	7234.41
523.11	7285.03
523.477	7294.98
523.843	7312.6
524.21	7407.74
524.577	7447.97
524.943	7503.56
525.31	7583.56
525.676	7659.49
526.043	7674.85
526.409	7629.21
526.776	7731.8
527.142	7746.49
527.508	7850.22
527.874	7801.86
528.241	7837.11
528.607	7891.57
528.973	7961.85
529.339	7936.77
529.705	8062.42
530.071	8078.69
530.437	8166.37
530.803	8174.28
531.169	8216.99
531.535	8226.93
531.901	8221.73
532.267	8297.89
532.632	8336.31
532.998	8343.99
533.364	8385.8
533.73	8425.57
534.095	8501.95
534.461	8522.29
534.826	8588.28
535.192	8579.46
535.557	8673.25
535.923	8675.96
536.288	8708.73
536.653	8710.99
537.019	8692.23
537.384	8799.12
537.749	8830.53
538.114	8845.22
538.479	8875.28
538.845	8927.03
539.21	8870.76
539.575	8965.22
539.94	9063.29
540.305	9081.37
540.67	9043.86
541.034	9106.46
541.399	9185.1
541.764	9162.05
542.129	9242.5
542.494	9273
542.858	9294.7
543.223	9319.78
543.587	9362.95
543.952	9365.21
544.316	9373.79
544.681	9416.5
545.045	9455.6
545.41	9554.13
545.774	9586.44
546.138	9579.21
546.503	9619.89
546.867	9586.89
547.231	9708.47
547.595	9715.93
547.959	9761.81
548.324	9789.15
548.688	9754.8
549.052	9914.12
549.416	9840.45
549.779	9913.67
550.143	9920.22
550.507	10089.48
550.871	10021.23
551.235	10041.35
551.599	10186.43
551.962	10109.59
552.326	10116.6
552.689	10181.68
553.053	10190.95
553.417	10272.3
553.78	10400.66
554.143	10300.1
554.507	10366.99
554.87	10453.09
555.234	10516.81
555.597	10479.53
555.96	10442.24
556.323	10603.82
556.686	10562.01
557.05	10534.44
557.413	10572.18
557.776	10660.76
558.139	10734.44
558.502	10677.26
558.865	10758.62
559.228	10896.92
559.59	10842.46
559.953	10851.04
560.316	10907.99
560.679	10961.32
561.041	11019.4
561.404	11044.48
561.767	11090.13
562.129	10994.32
562.492	11243.35
562.854	11201.54
563.217	11183.24
563.579	11217.36
563.941	11293.29
564.304	11334.65
564.666	11396.11
565.028	11395.89
565.39	11434.76
565.753	11516.79
566.115	11637.01
566.477	11643.79
566.839	11640.63
567.201	11750.91
567.563	11755.43
567.925	11837.68
568.287	11796.55
568.648	11912.94
569.01	11956.55
569.372	12018.24
569.734	11980.73
570.095	12080.84
570.457	12025.02
570.819	12181.63
571.18	12122.2
571.542	12266.15
571.903	12262.76
572.265	12369.42
572.626	12329.42
572.987	12440.38
573.349	12496.65
573.71	12585.91
574.071	12674.72
574.432	12701.84
574.794	12797.88
575.155	12795.17
575.516	12752.69
575.877	12919.01
576.238	12975.96
576.599	13071.1
576.96	13082.17
577.32	13202.17
577.681	13381.37
578.042	13407.59
578.403	13514.25
578.763	13530.75
579.124	13631.53
579.485	13826.78
579.845	13935.26
580.206	14117.17
580.566	14052.54
580.927	14248.24
581.287	14389.48
581.648	14552.19
582.008	14703.6
582.368	14877.83
582.728	14979.52
583.089	15090.93
583.449	15278.04
583.809	15384.93
584.169	15586.51
584.529	15741.31
584.889	15989.66
585.249	16216.78
585.609	16297.23
585.969	16656.77
586.329	16688.63
586.688	16986.93
587.048	17292
587.408	17481.83
587.768	17679.56
588.127	17796.85
588.487	18145.31
588.846	18474.34
589.206	18560.67
589.565	18868.91
589.925	19153.65
590.284	19470.93
590.643	19699.62
591.003	20042.44
591.362	20391.58
591.721	20625.93
592.08	20889.2
592.44	21189.53
592.799	21434.94
593.158	21715.84
593.517	22069.96
593.876	22405.77
594.235	22610.51
594.593	23004.62
594.952	23353.31
595.311	23528.45
595.67	23888.89
596.029	24340.63
596.387	24485.26
596.746	24952.82
597.104	25098.13
597.463	25431.68
597.822	25815.39
598.18	25916.18
598.538	26386.68
598.897	26781.02
599.255	26807.46
599.613	27507.78
599.972	27608.12
600.33	27991.83
600.688	28217.59
601.046	28592.27
601.404	28891.92
601.762	29191.58
602.12	29627.5
602.478	29843.31
602.836	30235.39
603.194	30217.99
603.552	30783.63
603.91	30833.79
604.268	31240.79
604.625	31478.07
604.983	31826.99
605.341	32051.16
605.698	32305.39
606.056	32624.71
606.413	32833.97
606.771	33222.88
607.128	33459.49
607.485	33438.02
607.843	33859.02
608.2	34121.39
608.557	34571.1
608.914	34634.37
609.272	35000.92
609.629	35286.33
609.986	35640
610.343	35609.94
610.7	36058.52
611.057	36251.96
611.414	36294.89
611.771	36744.37
612.127	36976.68
612.484	37122.44
612.841	37267.97
613.198	37340.52
613.554	37489.89
613.911	37951.57
614.267	38097.11
614.624	38203.77
614.98	38217.33
615.337	38758.11
615.693	38775.73
616.05	38943.41
616.406	39353.57
616.762	39342.95
617.118	39476.96
617.475	39687.8
617.831	39850.28
618.187	40191.74
618.543	40287.1
618.899	40560.32
619.255	40614.78
619.611	40690.71
619.967	40946.97
620.323	41183.58
620.678	40994.88
621.034	40967.09
621.39	41258.6
621.746	41412.95
622.101	41697.91
622.457	41567.07
622.812	41648.65
623.168	41986.04
623.523	41924.12
623.879	42333.15
624.234	42042.09
624.589	42220.39
624.945	42311.46
625.3	42497.67
625.655	42606.59
626.01	42580.83
626.365	42892.01
626.72	42855.4
627.075	42782.63
627.43	42733.37
627.785	42827.6
628.14	42996.64
628.495	43050.65
628.85	43070.76
629.205	42966.58
629.559	43339.91
629.914	43234.15
630.269	43361.37
630.623	43170.64
630.978	43181.04
631.332	43458.32
631.687	43582.84
632.041	43400.92
632.396	43368.61
632.75	43304.2
633.104	43609.28
633.459	43364.99
633.813	43381.03
634.167	43539.9
634.521	43524.99
634.875	43604.08
635.229	43449.28
635.583	43401.15
635.937	43411.09
636.291	43467.81
636.645	43385.1
636.999	43393.46
637.352	43591.65
637.706	43337.87
638.06	43636.17
638.413	43478.89
638.767	43399.79
639.121	43670.07
639.474	43355.27
639.828	43274.6
640.181	43550.75
640.534	43453.57
640.888	43287.03
641.241	43324.09
641.594	43284.31
641.947	43529.05
642.301	43431.2
642.654	43476.17
643.007	43502.84
643.36	43483.18
643.713	43396.4
644.066	43569.5
644.419	43205.45
644.771	43117.99
645.124	42661.51
645.477	42638.68
645.83	42449.53
646.182	42370.21
646.535	42158.47
646.888	42311.23
647.24	42141.07
647.593	42332.93
647.945	42254.28
648.298	42160.05
648.65	41916.44
649.002	42006.38
649.355	42142.87
649.707	42115.31
650.059	42370.44
650.411	42814.5
650.763	42897.88
651.115	43144.66
651.467	42970.88
651.819	42958.22
652.171	42833.48
652.523	42841.39
652.875	42836.87
653.227	42738.79
653.578	43052.91
653.93	42941.95
654.282	42751.22
654.633	42757.77
654.985	42899.69
655.337	43004.1
655.688	42867.6
656.039	42967.03
656.391	42602.52
656.742	42733.59
657.094	42679.13
657.445	42900.6
657.796	42911.22
658.147	42733.37
658.498	42655.4
658.849	42749.64
659.2	42685.46
659.551	42542.41
659.902	42694.72
660.253	42753.03
660.604	42753.03
660.955	42560.04
661.306	42649.75
661.656	42617.89
662.007	42581.73
662.358	42727.49
662.708	42630.55
663.059	42653.6
663.409	42297.22
663.76	42559.36
664.11	42707.83
664.461	42715.97
664.811	42638
665.161	42515.29
665.511	42606.37
665.862	42697.66
666.212	42506.71
666.562	42661.73
666.912	42463.09
667.262	42485.24
667.612	42602.98
667.962	42733.59
668.312	42544.45
668.662	42785.8
669.011	42573.6
669.361	42432.81
669.711	42422.42
670.06	42484.79
670.41	42392.13
670.76	42233.95
671.109	42464
671.459	42268.97
671.808	42386.71
672.157	42438.01
672.507	42187.85
672.856	42154.85
673.205	42212.48
673.554	42338.8
673.904	42233.49
674.253	42324.57
674.602	42236.66
674.951	41738.37
675.3	41600.74
675.649	42081.41
675.998	42152.14
676.346	42166.38
676.695	42272.36
677.044	41951.47
677.393	42191.91
677.741	42116.66
678.09	42069.88
678.438	41960.05
678.787	42021.07
679.135	42104.46
679.484	41927.06
679.832	42018.58
680.181	41704.92
680.529	41887.29
680.877	41642.32
681.225	41656.79
681.573	41900.4
681.922	41660.85
682.27	41485.94
682.618	41409.33
682.966	41317.59
683.314	41546.28
683.661	41287.3
684.009	41276.91
684.357	41157.59
684.705	41113.98
685.053	41071.72
685.4	40988.1
685.748	40728.9
686.095	40894.32
686.443	40812.29
686.79	40737.26
687.138	40771.84
687.485	40674.89
687.832	40583.37
688.18	40603.25
688.527	40307.44
688.874	40394.22
689.221	40422.02
689.568	40268.8
689.915	40140.89
690.262	40162.81
690.609	39996.04
690.956	39913.78
691.303	39834.91
691.65	39690.28
691.997	39615.26
692.344	39380.01
692.69	39416.39
693.037	39372.55
693.383	39114.93
693.73	39248.49
694.077	39058.89
694.423	38945.22
694.769	38955.84
695.116	38788.61
695.462	38791.1
695.808	38731.21
696.155	38648.05
696.501	38313.82
696.847	38588.39
697.193	38194.96
697.539	38448.51
697.885	38010.55
698.231	38126.26
698.577	38136.65
698.923	37905.7
699.269	37725.82
699.614	37686.49
699.96	37651.24
700.306	37633.84
700.651	37431.36
700.997	37430.23
701.342	37447.86
701.688	37286.73
702.033	37255.32
702.379	37053.29
702.724	36979.85
703.069	37136.23
703.415	36726.29
703.76	36759.74
704.105	36690.14
704.45	36722.23
704.795	36369.47
705.14	36418.05
705.485	36337.38
705.83	36183.94
706.175	36127.44
706.52	36108.01
706.865	35966.99
707.209	35952.98
707.554	35791.63
707.899	35773.32
708.243	35501.69
708.588	35604.52
708.932	35271.19
709.277	35278.2
709.621	35261.93
709.966	35040.91
710.31	35267.8
710.654	34997.3
710.998	34956.17
711.342	34978.09
711.687	34779.23
712.031	34685.67
712.375	34477.99
712.719	34755.72
713.063	34742.39
713.407	34621.26
713.75	34521.61
714.094	34525.45
714.438	34464.66
714.782	34349.41
715.125	34157.77
715.469	34235.29
715.812	34065.8
716.156	33896.09
716.499	33896.54
716.843	33938.34
717.186	33763.66
717.53	33967.72
717.873	33917.78
718.216	33810.44
718.559	33632.82
718.902	33465.36
719.246	33539.71
719.589	33421.75
719.932	33290.68
720.275	33135.43
720.617	33213.39
720.96	33227.63
721.303	33225.37
721.646	33115.54
721.989	32944.02
722.331	33023.79
722.674	32874.87
723.016	32976.56
723.359	32819.73
723.701	32841.2
724.044	32752.39
724.386	32574.54
724.729	32690.24
725.071	32505.61
725.413	32514.2
725.755	32486.18
726.097	32342.68
726.439	32263.59
726.782	32217.03
727.124	32320.08
727.465	32183.81
727.807	32160.31
728.149	32025.85
728.491	32063.14
728.833	32105.85
729.175	32040.09
729.516	31869.25
729.858	31756.48
730.199	31889.13
730.541	31712.64
730.882	31865.18
731.224	31851.17
731.565	31717.16
731.906	31566.43
732.248	31694.56
732.589	31363.72
732.93	31395.13
733.271	31284.4
733.612	31457.51
733.953	31421.8
734.294	31134.8
734.635	31113.33
734.976	31230.62
735.317	30963.96
735.658	31026.56
735.999	31061.36
736.339	30963.96
736.68	31035.37
737.021	30984.98
737.361	30829.05
737.702	30951.53
738.042	30791.31
738.383	30701.82
738.723	30838.54
739.063	30791.99
739.404	30790.63
739.744	30618.66
740.084	30512.22
740.424	30559.68
740.764	30452.33
741.104	30578.43
741.444	30368.5
741.784	30303.86
742.124	30440.58
742.464	30362.62
742.804	30265.45
743.143	30328.27
743.483	30248.05
743.823	30076.07
744.162	29998.56
744.502	30164.66
744.841	30020.26
745.181	30229.52
745.52	30003.99
745.86	29919.02
746.199	29803.09
746.538	29751.79
746.877	29926.7
747.216	29899.13
747.556	29794.05
747.895	29703.2
748.234	29662.98
748.573	29650.1
748.911	29545.01
749.25	29527.16
749.589	29467.28
749.928	29604.67
750.267	29595.63
750.605	29516.77
750.944	29296.21
751.283	29228.19
751.621	29489.2
751.96	29046.27
752.298	29112.71
752.636	29179.83
752.975	28946.84
753.313	29003.11
753.651	29086.5
753.989	28907.29
754.327	28896.44
754.666	28663.91
755.004	28782.32
755.342	28792.27
755.679	28749.78
756.017	28445.16
756.355	28522.67
756.693	28447.87
757.031	28531.48
757.368	28393.41
757.706	28380.07
758.044	28198.38
758.381	28148.67
758.719	28067.54
759.056	28172.39
