Data from hue_130_FLMS001491_00014.txt Node
Date: Tue Feb 07 16:57:14 GMT 2017
User: dcchb
Spectrometer: FLMS00149
Trigger mode: 0
Integration Time (sec): 2.000000E-2
Scans to average: 10
Electric dark correction enabled: true
Nonlinearity correction enabled: false
Boxcar width: 0
XAxis mode: Wavelengths
Number of Pixels in Spectrum: 2048
>>>>>Begin Spectral Data<<<<<
341.393	-15.04
341.776	-15.04
342.16	-15.04
342.543	-47.36
342.927	-73.12
343.31	-97.75
343.693	-65.66
344.077	-50.52
344.46	-58.2
344.843	-45.78
345.226	-55.27
345.61	-35.15
345.993	-1.93
346.376	-4.19
346.759	0.32
347.142	27.89
347.525	31.96
347.908	67.89
348.291	73.09
348.674	94.11
349.057	119.19
349.44	131.62
349.823	158.06
350.206	170.04
350.588	194.67
350.971	212.97
351.354	188.12
351.737	211.84
352.119	253.2
352.502	262.92
352.884	266.76
353.267	270.15
353.65	287.55
354.032	295.46
354.414	281.9
354.797	316.7
355.179	324.16
355.562	323.48
355.944	338.4
356.326	334.1
356.709	350.15
357.091	346.3
357.473	332.75
357.855	334.1
358.238	333.65
358.62	351.28
359.002	343.14
359.384	349.47
359.766	338.4
360.148	326.64
360.53	354.67
360.912	332.75
361.294	346.76
361.676	330.03
362.057	317.83
362.439	327.32
362.821	337.04
363.203	317.38
363.584	318.73
363.966	339.3
364.348	320.77
364.729	332.52
365.111	331.16
365.493	308.34
365.874	317.6
366.256	314.21
366.637	338.85
367.019	322.58
367.4	296.36
367.781	307.21
368.163	312.41
368.544	306.53
368.925	302.46
369.306	316.93
369.688	316.47
370.069	293.42
370.45	297.72
370.831	306.76
371.212	310.15
371.593	308.57
371.974	302.24
372.355	315.34
372.736	313.76
373.117	315.57
373.498	323.03
373.879	325.97
374.26	323.48
374.641	340.43
375.021	302.46
375.402	302.24
375.783	321.45
376.163	323.93
376.544	327.32
376.925	314.21
377.305	339.07
377.686	321.67
378.066	338.4
378.447	315.8
378.827	313.76
379.208	329.13
379.588	319.86
379.968	328.9
380.349	331.16
380.729	325.51
381.109	334.55
381.489	349.02
381.87	325.74
382.25	345.63
382.63	344.5
383.01	349.47
383.39	330.71
383.77	337.94
384.15	357.83
384.53	343.14
384.91	354.44
385.29	350.15
385.67	358.96
386.049	346.76
386.429	351.73
386.809	355.34
387.189	345.4
387.568	351.28
387.948	352.86
388.328	360.77
388.707	360.32
389.087	359.86
389.466	369.35
389.846	360.32
390.225	354.89
390.605	352.18
390.984	369.58
391.363	369.35
391.743	387.21
392.122	373.42
392.501	367.09
392.881	406.87
393.26	376.59
393.639	370.94
394.018	360.09
394.397	383.14
394.776	388.34
395.155	388.56
395.534	385.4
395.913	384.04
396.292	377.49
396.671	388.56
397.05	394.89
397.429	391.05
397.808	383.14
398.186	393.53
398.565	393.99
398.944	389.02
399.323	385.63
399.701	378.17
400.08	408.22
400.458	397.83
400.837	413.87
401.215	394.66
401.594	407.55
401.972	396.92
402.351	390.15
402.729	393.31
403.107	406.42
403.486	409.35
403.864	409.81
404.242	419.97
404.62	420.88
404.999	415.68
405.377	426.53
405.755	418.84
406.133	427.43
406.511	426.98
406.889	428.11
407.267	436.47
407.645	431.73
408.023	428.34
408.401	438.51
408.779	449.58
409.156	464.04
409.534	453.19
409.912	464.72
410.29	481.44
410.667	451.84
411.045	465.17
411.422	448.67
411.8	462.46
412.178	481.89
412.555	456.36
412.933	477.37
413.31	483.02
413.687	469.24
414.065	484.61
414.442	468.56
414.819	497.49
415.197	495.91
415.574	481.22
415.951	493.19
416.328	508.11
416.705	512.18
417.082	516.24
417.46	503.81
417.837	501.33
418.214	509.92
418.591	493.65
418.967	521.89
419.344	538.16
419.721	538.39
420.098	547.88
420.475	532.74
420.852	524.15
421.228	519.63
421.605	523.93
421.982	518.96
422.358	540.42
422.735	539.52
423.111	543.81
423.488	567.09
423.864	552.63
424.241	584.94
424.617	584.26
424.994	597.6
425.37	580.2
425.746	580.87
426.123	583.36
426.499	583.36
426.875	607.99
427.251	591.72
427.627	593.98
428.003	611.38
428.379	595.79
428.756	612.74
429.132	603.92
429.507	624.72
429.883	613.87
430.259	619.74
430.635	627.2
431.011	627.88
431.387	645.73
431.763	663.36
432.138	650.7
432.514	656.13
432.89	651.16
433.265	680.76
433.641	673.53
434.016	714.66
434.392	683.92
434.767	714.43
435.143	700.42
435.518	688.89
435.894	722.34
436.269	703.36
436.644	689.12
437.02	717.82
437.395	745.39
437.77	726.18
438.145	742.68
438.52	764.15
438.895	770.7
439.271	756.01
439.646	747.2
440.021	772.28
440.395	755.33
440.77	763.69
441.145	779.97
441.52	797.82
441.895	793.75
442.27	798.27
442.645	786.29
443.019	788.78
443.394	789.23
443.769	824.26
444.143	829.91
444.518	816.8
444.892	827.65
445.267	826.97
445.641	830.13
446.016	856.35
446.39	848.66
446.764	878.72
447.139	858.38
447.513	875.1
447.887	867.87
448.262	887.76
448.636	862
449.01	877.82
449.384	872.17
449.758	895.22
450.132	908.55
450.506	931.6
450.88	912.17
451.254	918.27
451.628	919.62
452.002	916.01
452.376	958.94
452.75	977.02
453.123	979.96
453.497	993.52
453.871	985.38
454.244	988.1
454.618	991.94
454.992	1008.89
455.365	1038.72
455.739	1056.34
456.112	1065.16
456.486	1058.38
456.859	1079.17
457.232	1066.06
457.606	1074.42
457.979	1081.2
458.352	1095.89
458.725	1134.08
459.099	1139.05
459.472	1158.94
459.845	1173.4
460.218	1183.8
460.591	1166.4
460.964	1195.32
461.337	1233.06
461.71	1223.12
462.083	1246.17
462.456	1257.24
462.829	1251.14
463.201	1303.34
463.574	1309.67
463.947	1293.17
464.32	1329.33
464.692	1379.05
465.065	1346.05
465.438	1372.94
465.81	1414.3
466.183	1438.25
466.555	1458.82
466.928	1488.65
467.3	1495.88
467.672	1528.19
468.045	1516.22
468.417	1563.67
468.789	1556.22
469.161	1582.43
469.534	1599.38
469.906	1667.4
470.278	1646.61
470.65	1713.95
471.022	1769.77
471.394	1801.63
471.766	1799.15
472.138	1835.76
472.51	1880.28
472.882	1898.81
473.253	1940.61
473.625	1996.43
473.997	2072.13
474.369	2081.63
474.74	2141.74
475.112	2163.66
475.484	2218.8
475.855	2290.21
476.227	2293.15
476.598	2409.3
476.97	2430.54
477.341	2485.46
477.713	2556.64
478.084	2636.19
478.455	2690.42
478.827	2761.61
479.198	2888.61
479.569	2910.53
479.94	3016.52
480.311	3004.99
480.682	3135.16
481.053	3229.84
481.424	3320.01
481.795	3396.39
482.166	3502.38
482.537	3566.78
482.908	3693.11
483.279	3772.66
483.65	3882.03
484.021	4026.21
484.391	4082.7
484.762	4122.93
485.133	4271.62
485.503	4400.89
485.874	4507.78
486.244	4610.83
486.615	4687.43
486.985	4831.16
487.356	5017.82
487.726	5109.8
488.097	5273.41
488.467	5357.7
488.837	5512.04
489.207	5621.42
489.578	5828.87
489.948	5861.41
490.318	6005.14
490.688	6146.15
491.058	6253.04
491.428	6394.28
491.798	6547.27
492.168	6748.62
492.538	6840.82
492.908	6982.74
493.278	7167.59
493.648	7197.42
494.017	7338.21
494.387	7437.64
494.757	7616.85
495.126	7742.72
495.496	7875.15
495.866	7958.76
496.235	8157.62
496.605	8313.33
496.974	8330.05
497.344	8496.82
497.713	8608.23
498.082	8716.48
498.452	8848.91
498.821	8912.63
499.19	8999.64
499.559	9141.78
499.928	9226.07
500.298	9422.22
500.667	9561.66
501.036	9514.42
501.405	9700.41
501.774	9706.28
502.143	9834.42
502.512	9862.44
502.88	10048.42
503.249	10065.6
503.618	10223.78
503.987	10244.8
504.356	10340.39
504.724	10402.99
505.093	10509.2
505.462	10544.91
505.83	10757.78
506.199	10735.41
506.567	10849.31
506.936	10995.97
507.304	11046.59
507.672	11148.51
508.041	11171.78
508.409	11215.85
508.777	11356.86
509.145	11462.17
509.514	11466.92
509.882	11535.84
510.25	11543.07
510.618	11619.68
510.986	11617.19
511.354	11757.53
511.722	11841.14
512.09	11933.8
512.458	11919.11
512.826	11976.73
513.193	12040.23
513.561	12099.67
513.929	12161.36
514.297	12329.27
514.664	12300.34
515.032	12305.54
515.4	12405.2
515.767	12429.83
516.135	12478.19
516.502	12377.17
516.869	12593.89
517.237	12638.86
517.604	12544.4
517.972	12724.51
518.339	12715.47
518.706	12713.66
519.073	12775.58
519.44	12774
519.808	12888.57
520.175	12786.2
520.542	13038.85
520.909	12984.39
521.276	13000.89
521.643	13084.95
522.009	13104.84
522.376	13152.75
522.743	13161.11
523.11	13255.12
523.477	13302.12
523.843	13329.47
524.21	13460.31
524.577	13350.93
524.943	13417.83
525.31	13484.04
525.676	13553.87
526.043	13541.66
526.409	13597.93
526.776	13713.64
527.142	13633.41
527.508	13638.61
527.874	13726.07
528.241	13714.09
528.607	13732.85
528.973	13740.08
529.339	13719.29
529.705	13832.73
530.071	13817.59
530.437	13869.34
530.803	13815.78
531.169	13895.78
531.535	13813.52
531.901	13785.05
532.267	13809.23
532.632	13940.3
532.998	13878.6
533.364	13820.3
533.73	13811.04
534.095	13890.13
534.461	13784.82
534.826	13869.56
535.192	13803.35
535.557	13863.92
535.923	13726.29
536.288	13806.29
536.653	13702.79
537.019	13669.57
537.384	13764.71
537.749	13751.38
538.114	13684.26
538.479	13655.56
538.845	13679.29
539.21	13606.75
539.575	13602.45
539.94	13560.65
540.305	13557.26
540.67	13554.09
541.034	13483.81
541.399	13522.46
541.764	13453.53
542.129	13452.4
542.494	13406.75
542.858	13366.08
543.223	13367.66
543.587	13393.87
543.952	13269.58
544.316	13258.96
544.681	13079.98
545.045	13204.72
545.41	13203.14
545.774	13155.91
546.138	13085.4
546.503	13054.67
546.867	13041.11
547.231	13074.56
547.595	13009.93
547.959	13049.7
548.324	12960.21
548.688	12932.87
549.052	12881.34
549.416	12913.88
549.779	12852.19
550.143	12823.72
550.507	12905.3
550.871	12827.78
551.235	12791.63
551.599	12814.68
551.962	12664.62
552.326	12715.24
552.689	12742.36
553.053	12602.25
553.417	12586.43
553.78	12701.91
554.143	12556.83
554.507	12585.98
554.87	12633.66
555.234	12719.54
555.597	12503.95
555.96	12548.24
556.323	12507.11
556.686	12491.07
557.05	12469.83
557.413	12522.71
557.776	12495.59
558.139	12488.81
558.502	12437.96
558.865	12499.43
559.228	12542.82
559.59	12432.31
559.953	12465.99
560.316	12512.54
560.679	12423.05
561.041	12474.12
561.404	12490.84
561.767	12500.11
562.129	12510.5
562.492	12643.16
562.854	12470.96
563.217	12476.83
563.579	12510.5
563.941	12511.63
564.304	12531.52
564.666	12564.74
565.028	12562.03
565.39	12666.43
565.753	12669.82
566.115	12719.54
566.477	12676.38
566.839	12712.53
567.201	12677.73
567.563	12658.75
567.925	12676.6
568.287	12669.37
568.648	12637.51
569.01	12756.15
569.372	12818.07
569.734	12736.94
570.095	12750.05
570.457	12860.55
570.819	12815.58
571.18	12766.77
571.542	12756.37
571.903	12871.4
572.265	12842.47
572.626	12908.01
572.987	12835.02
573.349	12948.01
573.71	12974.22
574.071	12891.51
574.432	12957.72
574.794	12995.46
575.155	12907.33
575.516	12945.07
575.877	12977.38
576.238	12947.1
576.599	13014.67
576.96	12988.91
577.32	12941.45
577.681	12967.22
578.042	13003.15
578.403	12974.45
578.763	12994.79
579.124	13013.77
579.485	12981.9
579.845	13004.5
580.206	12881.12
580.566	12992.75
580.927	13005.41
581.287	13022.13
581.648	12994.11
582.008	13016.93
582.368	12977.38
582.728	13035.46
583.089	12922.47
583.449	12999.76
583.809	12912.98
584.169	13016.93
584.529	12934.67
584.889	13041.56
585.249	12935.35
585.609	12870.04
585.969	12962.92
586.329	12846.09
586.688	12915.69
587.048	12929.48
587.408	12874.79
587.768	12876.6
588.127	12915.92
588.487	12816.71
588.846	12987.1
589.206	12758.41
589.565	12755.24
589.925	12800.67
590.284	12783.72
590.643	12821.46
591.003	12840.67
591.362	12960.66
591.721	12818.52
592.08	12782.81
592.44	12812.19
592.799	12789.37
593.158	12820.55
593.517	12821.68
593.876	12847.44
594.235	12763.61
594.593	12757.96
594.952	12687.45
595.311	12666.88
595.67	12724.28
596.029	12763.38
596.387	12801.57
596.746	12865.75
597.104	12679.99
597.463	12722.7
597.822	12761.8
598.18	12674.79
598.538	12693.55
598.897	12759.54
599.255	12600.9
599.613	12793.43
599.972	12719.54
600.33	12742.36
600.688	12689.03
601.046	12759.09
601.404	12743.49
601.762	12678.18
602.12	12713.66
602.478	12854.22
602.836	12738.07
603.194	12721.8
603.552	12747.33
603.91	12649.94
604.268	12798.18
604.625	12689.26
604.983	12745.07
605.341	12637.51
605.698	12757.5
606.056	12819.65
606.413	12746.88
606.771	12786.43
607.128	12777.62
607.485	12738.07
607.843	12745.53
608.2	12815.36
608.557	12805.41
608.914	12777.16
609.272	12839.08
609.629	12805.41
609.986	12851.74
610.343	12756.15
610.7	12842.7
611.057	12928.8
611.414	12805.64
611.771	12909.36
612.127	12876.37
612.484	12958.85
612.841	13026.2
613.198	12935.8
613.554	12881.34
613.911	12964.05
614.267	12913.43
614.624	12972.64
614.98	12955.92
615.337	13040.21
615.693	12971.06
616.05	12946.2
616.406	13077.95
616.762	13008.34
617.118	13006.31
617.475	13016.48
617.831	13069.36
618.187	13046.54
618.543	13162.24
618.899	13099.87
619.255	13130.15
619.611	13116.59
619.967	13126.76
620.323	13145.74
620.678	13033.88
621.034	13091.28
621.39	13137.83
621.746	13121.11
622.101	13084.95
622.457	13091.51
622.812	13094.67
623.168	13165.85
623.523	13119.3
623.879	13142.8
624.234	13079.08
624.589	13162.69
624.945	13148.45
625.3	13137.15
625.655	13128.57
626.01	13188.68
626.365	13165.4
626.72	13158.17
627.075	13107.32
627.43	13148.45
627.785	13112.97
628.14	13076.37
628.495	13065.74
628.85	13085.4
629.205	13015.35
629.559	13154.78
629.914	13079.3
630.269	13114.78
630.623	13081.34
630.978	13028.68
631.332	13098.96
631.687	13090.38
632.041	13005.63
632.396	13001.11
632.75	12962.47
633.104	13003.6
633.459	12996.37
633.813	12952.3
634.167	12985.07
634.521	12908.69
634.875	12949.59
635.229	12898.29
635.583	12872.3
635.937	12744.62
636.291	12828.01
636.645	12751.18
636.999	12823.94
637.352	12840.67
637.706	12702.59
638.06	12812.19
638.413	12724.74
638.767	12639.09
639.121	12722.7
639.474	12615.13
639.828	12582.59
640.181	12672.76
640.534	12728.58
640.888	12646.09
641.241	12656.04
641.594	12599.54
641.947	12574.01
642.301	12557.28
642.654	12632.31
643.007	12630.05
643.36	12586.43
643.713	12580.11
644.066	12552.54
644.419	12492.65
644.771	12431.41
645.124	12441.58
645.477	12371.3
645.83	12231.87
646.182	12275.48
646.535	12136.28
646.888	12160.46
647.24	12140.8
647.593	12203.39
647.945	12244.3
648.298	12052.44
648.65	12145.32
649.002	11998.65
649.355	12134.47
649.707	12101.93
650.059	12268.7
650.411	12340.57
650.763	12342.6
651.115	12437.74
651.467	12362.26
651.819	12377.17
652.171	12439.55
652.523	12383.28
652.875	12337.85
653.227	12392.09
653.578	12453.1
653.93	12386.21
654.282	12329.04
654.633	12420.79
654.985	12423.5
655.337	12336.05
655.688	12337.85
656.039	12451.75
656.391	12308.93
656.742	12328.36
657.094	12389.38
657.445	12465.53
657.796	12425.99
658.147	12383.73
658.498	12419.21
658.849	12470.96
659.2	12415.82
659.551	12405.2
659.902	12437.06
660.253	12497.4
660.604	12438.42
660.955	12420.79
661.306	12444.52
661.656	12367.91
662.007	12449.04
662.358	12468.02
662.708	12405.65
663.059	12437.29
663.409	12379.43
663.76	12399.77
664.11	12472.31
664.461	12529.26
664.811	12425.31
665.161	12459.88
665.511	12463.73
665.862	12527.23
666.212	12549.83
666.562	12392.09
666.912	12425.31
667.262	12433.44
667.612	12363.84
667.962	12435.03
668.312	12512.76
668.662	12583.04
669.011	12449.72
669.361	12372.88
669.711	12496.95
670.06	12373.33
670.41	12366.33
670.76	12432.09
671.109	12460.56
671.459	12459.66
671.808	12436.38
672.157	12427.34
672.507	12346.89
672.856	12277.29
673.205	12293.33
673.554	12369.49
673.904	12298.76
674.253	12406.55
674.602	12347.34
674.951	12134.02
675.3	12108.26
675.649	12268.25
675.998	12263.73
676.346	12190.74
676.695	12336.95
677.044	12227.12
677.393	12186.45
677.741	12249.49
678.09	12256.95
678.438	12266.89
678.787	12230.96
679.135	12157.97
679.484	12057.18
679.832	12173.79
680.181	12018.77
680.529	12151.42
680.877	12030.97
681.225	12048.82
681.573	12114.58
681.922	11940.12
682.27	11995.94
682.618	12012.44
682.966	11906.45
683.314	11908.26
683.661	11895.61
684.009	11824.42
684.357	11798.43
684.705	11847.7
685.053	11784.65
685.4	11832.56
685.748	11745.55
686.095	11766.8
686.443	11736.97
686.79	11648.83
687.138	11677.76
687.485	11652.67
687.832	11590.53
688.18	11669.85
688.527	11543.07
688.874	11490.42
689.221	11534.26
689.568	11425.56
689.915	11421.95
690.262	11451.32
690.609	11414.94
690.956	11391.21
691.303	11329.52
691.65	11340.82
691.997	11256.53
692.344	11212.23
692.69	11156.64
693.037	11155.51
693.383	11047.27
693.73	11137.89
694.077	10978.79
694.423	10950.09
694.769	10974.95
695.116	10916.42
695.462	10940.15
695.808	10854.95
696.155	10887.5
696.501	10816.09
696.847	10788.74
697.193	10674.39
697.539	10759.14
697.885	10635.3
698.231	10548.07
698.577	10682.53
698.923	10592.36
699.269	10500.39
699.614	10452.93
699.96	10412.48
700.306	10451.8
700.651	10375.87
700.997	10320.51
701.342	10308.53
701.688	10278.92
702.033	10276.66
702.379	10219.04
702.724	10240.96
703.069	10248.19
703.415	10053.17
703.76	10038.03
704.105	10019.27
704.45	9999.38
704.795	9962.77
705.14	9927.75
705.485	10009.78
705.83	9823.12
706.175	9895.88
706.52	9800.29
706.865	9777.02
707.209	9772.27
707.554	9734.76
707.899	9703.35
708.243	9739.05
708.588	9677.13
708.932	9553.52
709.277	9580.86
709.621	9605.95
709.966	9574.76
710.31	9557.59
710.654	9470.36
710.998	9455.9
711.342	9422.45
711.687	9457.93
712.031	9344.71
712.375	9358.04
712.719	9374.32
713.063	9349.23
713.407	9316.24
713.75	9306.52
714.094	9266.3
714.438	9239.86
714.782	9277.14
715.125	9278.72
715.469	9204.6
715.812	9202.57
716.156	9120.31
716.499	9181.33
716.843	9182.91
717.186	9082.8
717.53	9115.57
717.873	9090.03
718.216	9111.5
718.559	9040.99
718.902	8986.76
719.246	9088.67
719.589	8984.5
719.932	9003.7
720.275	8993.53
720.617	8973.2
720.96	9006.42
721.303	8946.08
721.646	8971.16
721.989	8910.37
722.331	8944.72
722.674	8890.26
723.016	8921.22
723.359	8882.8
723.701	8868.57
724.044	8802.58
724.386	8842.8
724.729	8830.83
725.071	8813.43
725.413	8864.05
725.755	8815.23
726.097	8742.24
726.439	8761
726.782	8711.28
727.124	8755.8
727.465	8761
727.807	8766.42
728.149	8726.88
728.491	8715.58
728.833	8779.76
729.175	8760.55
729.516	8708.57
729.858	8706.54
730.199	8735.01
730.541	8740.89
730.882	8740.43
731.224	8805.07
731.565	8679.64
731.906	8788.57
732.248	8765.97
732.589	8610.72
732.93	8675.35
733.271	8712.64
733.612	8706.76
733.953	8710.15
734.294	8688.46
734.635	8636.93
734.976	8747.67
735.317	8659.53
735.658	8654.56
735.999	8672.41
736.339	8623.15
736.68	8711.73
737.021	8680.1
737.361	8619.31
737.702	8686.88
738.042	8701.79
738.383	8660.44
738.723	8668.57
739.063	8707.21
739.404	8779.98
739.744	8757.83
740.084	8637.16
740.424	8740.66
740.764	8811.84
741.104	8779.98
741.444	8753.54
741.784	8790.83
742.124	8794.44
742.464	8788.79
742.804	8790.6
743.143	8767.55
743.483	8892.52
743.823	8887.1
744.162	8907.89
744.502	8992.18
744.841	8919.64
745.181	9017.94
745.52	8968.68
745.86	9045.51
746.199	9119.41
746.538	9072.63
746.877	9151.95
747.216	9201.21
747.556	9269.23
747.895	9321.66
748.234	9385.16
748.573	9320.76
748.911	9404.15
749.25	9546.97
749.589	9506.06
749.928	9607.3
750.267	9699.73
750.605	9820.86
750.944	9867.41
751.283	9899.5
751.621	9955.09
751.96	10051.36
752.298	10135.2
752.636	10237.12
752.975	10318.25
753.313	10364.12
753.651	10495.19
753.989	10597.11
754.327	10671.46
754.666	10751.23
755.004	10927.5
755.342	11145.12
755.679	11148.05
756.017	11273.7
756.355	11393.7
756.693	11481.6
757.031	11666.01
757.368	11690.64
757.706	11940.35
758.044	12039.56
758.381	12204.98
758.719	12363.39
759.056	12587.11
