Data from hue_270_FLMS001491_00070.txt Node
Date: Tue Feb 07 15:57:33 GMT 2017
User: dcchb
Spectrometer: FLMS00149
Trigger mode: 0
Integration Time (sec): 2.000000E-2
Scans to average: 10
Electric dark correction enabled: true
Nonlinearity correction enabled: false
Boxcar width: 0
XAxis mode: Wavelengths
Number of Pixels in Spectrum: 2048
>>>>>Begin Spectral Data<<<<<
341.393	-0.71
341.776	-0.71
342.16	-0.71
342.543	-41.38
342.927	-64.66
343.31	-84.09
343.693	-66.92
344.077	-73.02
344.46	-50.65
344.843	-46.13
345.226	-47.94
345.61	-12.23
345.993	-17.65
346.376	-9.29
346.759	11.04
347.142	36.35
347.525	43.81
347.908	63.47
348.291	68.22
348.674	95.34
349.057	89.69
349.44	131.04
349.823	151.83
350.206	166.07
350.588	185.5
350.971	223.02
351.354	226.18
351.737	230.7
352.119	252.17
352.502	274.31
352.884	262.34
353.267	250.13
353.65	292.85
354.032	297.59
354.414	307.53
354.797	301.43
355.179	324.93
355.562	330.81
355.944	334.43
356.326	336.01
356.709	337.59
357.091	359.06
357.473	327.42
357.855	317.48
358.238	352.73
358.62	333.75
359.002	340.3
359.384	332.62
359.766	336.91
360.148	339.62
360.53	345.73
360.912	332.17
361.294	331.94
361.676	346.63
362.057	333.3
362.439	331.04
362.821	339.62
363.203	331.49
363.584	317.7
363.966	318.61
364.348	316.12
364.729	294.65
365.111	312.51
365.493	298.72
365.874	315.22
366.256	318.16
366.637	310.7
367.019	311.15
367.4	316.8
367.781	312.28
368.163	337.82
368.544	317.25
368.925	307.08
369.306	324.48
369.688	310.7
370.069	303.47
370.45	306.4
370.831	312.96
371.212	291.94
371.593	316.57
371.974	297.82
372.355	301.88
372.736	314.77
373.117	322
373.498	324.03
373.879	324.93
374.26	308.21
374.641	305.05
375.021	302.79
375.402	307.08
375.783	322
376.163	339.85
376.544	319.74
376.925	313.86
377.305	312.28
377.686	329
378.066	311.83
378.447	313.41
378.827	328.78
379.208	320.64
379.588	329.91
379.968	327.65
380.349	330.36
380.729	331.49
381.109	333.75
381.489	348.89
381.87	335.56
382.25	341.21
382.63	332.17
383.01	342.79
383.39	367.65
383.77	361.09
384.15	340.3
384.53	339.17
384.91	368.55
385.29	341.43
385.67	332.39
386.049	346.63
386.429	352.96
386.809	340.75
387.189	357.48
387.568	347.08
387.948	355.22
388.328	380.53
388.707	348.44
389.087	363.8
389.466	353.41
389.846	365.39
390.225	369.45
390.605	364.71
390.984	375.33
391.363	376.69
391.743	387.31
392.122	366.29
392.501	344.37
392.881	365.84
393.26	375.56
393.639	368.32
394.018	401.09
394.397	383.69
394.776	385.95
395.155	397.25
395.534	371.26
395.913	370.81
396.292	383.46
396.671	388.89
397.05	378.04
397.429	393.86
397.808	406.06
398.186	407.64
398.565	393.18
398.944	397.93
399.323	414.2
399.701	402.9
400.08	422.79
400.458	433.63
400.837	424.82
401.215	411.71
401.594	425.72
401.972	427.31
402.351	438.15
402.729	426.4
403.107	446.74
403.486	448.32
403.864	447.87
404.242	455.55
404.62	439.73
404.999	439.96
405.377	434.54
405.755	447.64
406.133	456.68
406.511	447.87
406.889	449.23
407.267	468.43
407.645	492.16
408.023	477.25
408.401	485.61
408.779	491.48
409.156	508.43
409.534	494.42
409.912	506.17
410.29	494.87
410.667	512.05
411.045	514.31
411.422	536.23
411.8	539.17
412.178	547.3
412.555	550.92
412.933	556.12
413.31	559.05
413.687	577.13
414.065	597.02
414.442	579.62
414.819	591.14
415.197	578.04
415.574	586.85
415.951	605.38
416.328	601.76
416.705	618.94
417.082	592.5
417.46	621.65
417.837	615.1
418.214	642.21
418.591	631.14
418.967	658.26
419.344	661.42
419.721	642.21
420.098	662.33
420.475	686.73
420.852	702.33
421.228	711.82
421.605	701.65
421.982	735.09
422.358	717.24
422.735	724.02
423.111	737.35
423.488	750.46
423.864	764.92
424.241	770.57
424.617	777.35
424.994	797.92
425.37	816.22
425.746	806.5
426.123	810.35
426.499	829.1
426.875	839.05
427.251	840.18
427.627	861.42
428.003	875.88
428.379	874.3
428.756	898.71
429.132	896.45
429.507	895.32
429.883	899.16
430.259	929.21
430.635	944.35
431.011	933.73
431.387	963.34
431.763	972.6
432.138	971.7
432.514	989.32
432.89	1007.85
433.265	1057.8
433.641	1041.07
434.016	1041.3
434.392	1069.32
434.767	1100.96
435.143	1079.04
435.518	1103.9
435.894	1136.21
436.269	1148.87
436.644	1141.18
437.02	1174.63
437.395	1170.56
437.77	1210.34
438.145	1205.14
438.52	1233.84
438.895	1279.49
439.271	1280.39
439.646	1280.39
440.021	1267.74
440.395	1307.28
440.77	1331.46
441.145	1316.32
441.52	1320.16
441.895	1371.69
442.27	1399.48
442.645	1360.39
443.019	1405.58
443.394	1405.13
443.769	1411.46
444.143	1414.85
444.518	1451.23
444.892	1417.34
445.267	1478.58
445.641	1469.54
446.016	1477.22
446.39	1487.84
446.764	1495.75
447.139	1511.12
447.513	1502.31
447.887	1534.62
448.262	1520.61
448.636	1529.42
449.01	1534.62
449.384	1559.7
449.758	1577.33
450.132	1598.35
450.506	1584.34
450.88	1574.85
451.254	1576.65
451.628	1612.58
452.002	1642.19
452.376	1623.88
452.75	1666.14
453.123	1658.91
453.497	1681.06
453.871	1689.42
454.244	1733.26
454.618	1710.66
454.992	1742.98
455.365	1745.69
455.739	1780.94
456.112	1810.77
456.486	1786.82
456.859	1843.31
457.232	1853.71
457.606	1843.09
457.979	1866.36
458.352	1883.54
458.725	1938
459.099	1927.15
459.472	1962.63
459.845	1993.59
460.218	1976.19
460.591	1992.24
460.964	2018
461.337	2033.14
461.71	2092.57
462.083	2119.69
462.456	2119.24
462.829	2068.62
463.201	2135.51
463.574	2136.41
463.947	2143.64
464.32	2189.07
464.692	2223.42
465.065	2239.69
465.438	2267.26
465.81	2274.26
466.183	2301.15
466.555	2308.39
466.928	2347.71
467.3	2326.24
467.672	2368.05
468.045	2427.25
468.417	2437.42
468.789	2461.38
469.161	2473.81
469.534	2490.98
469.906	2529.4
470.278	2560.13
470.65	2569.85
471.022	2608.94
471.394	2633.35
471.766	2697.53
472.138	2667.7
472.51	2750.63
472.882	2782.27
473.253	2816.62
473.625	2827.24
473.997	2887.58
474.369	2860.69
474.74	2883.74
475.112	2940.46
475.484	2995.15
475.855	3051.42
476.227	3040.57
476.598	3125.54
476.97	3098.2
477.341	3182.94
477.713	3212.54
478.084	3286.21
478.455	3299.55
478.827	3325.99
479.198	3396.72
479.569	3410.28
479.94	3526.21
480.311	3516.94
480.682	3564.17
481.053	3638.75
481.424	3683.04
481.795	3706.54
482.166	3762.81
482.537	3786.54
482.908	3841
483.279	3837.38
483.65	3884.62
484.021	3934.56
484.391	3977.72
484.762	4015.69
485.133	4066.31
485.503	4109.92
485.874	4185.17
486.244	4214.32
486.615	4196.7
486.985	4298.84
487.356	4340.2
487.726	4380.2
488.097	4481.89
488.467	4466.52
488.837	4565.28
489.207	4619.29
489.578	4634.43
489.948	4648.21
490.318	4750.58
490.688	4707.42
491.058	4769.56
491.428	4863.8
491.798	4842.56
492.168	4949.22
492.538	4952.61
492.908	4972.27
493.278	5043.91
493.648	5062.89
494.017	5110.57
494.387	5113.06
494.757	5194.64
495.126	5230.12
495.496	5199.84
495.866	5204.13
496.235	5310.79
496.605	5286.61
496.974	5344.01
497.344	5386.72
497.713	5363.45
498.082	5423.11
498.452	5435.31
498.821	5452.48
499.19	5453.39
499.559	5551.01
499.928	5531.35
500.298	5503.56
500.667	5592.14
501.036	5626.72
501.405	5636.89
501.774	5671.91
502.143	5662.42
502.512	5628.07
502.88	5742.19
503.249	5728.63
503.618	5727.05
503.987	5748.3
504.356	5796.88
504.724	5766.37
505.093	5844.34
505.462	5835.52
505.83	5851.34
506.199	5832.36
506.567	5914.39
506.936	5957.56
507.304	5934.5
507.672	5944
508.041	6024.67
508.409	6042.52
508.777	6033.49
509.145	6156.87
509.514	6057.89
509.882	6061.28
510.25	6127.04
510.618	6090.21
510.986	6135.86
511.354	6156.65
511.722	6193.48
512.09	6182.41
512.458	6248.17
512.826	6255.85
513.193	6284.55
513.561	6260.15
513.929	6379.24
514.297	6308.96
514.664	6323.42
515.032	6385.11
515.4	6367.49
515.767	6360.48
516.135	6381.72
516.502	6387.83
516.869	6485.9
517.237	6435.06
517.604	6361.16
517.972	6454.04
518.339	6484.55
518.706	6490.65
519.073	6482.74
519.44	6531.33
519.808	6541.72
520.175	6519.35
520.542	6619.46
520.909	6664.43
521.276	6602.06
521.643	6621.27
522.009	6689.74
522.376	6695.16
522.743	6645.45
523.11	6690.64
523.477	6699.91
523.843	6738.1
524.21	6865.33
524.577	6849.74
524.943	6817.42
525.31	6867.81
525.676	6883.18
526.043	6861.71
526.409	6897.87
526.776	6959.34
527.142	6979.22
527.508	6982.84
527.874	7016.06
528.241	7036.4
528.607	6992.1
528.973	7096.73
529.339	7013.35
529.705	7178.31
530.071	7198.2
530.437	7149.84
530.803	7172.21
531.169	7157.52
531.535	7181.7
531.901	7184.19
532.267	7164.98
532.632	7263.06
532.998	7298.31
533.364	7244.08
533.73	7273.68
534.095	7262.83
534.461	7329.04
534.826	7371.08
535.192	7329.27
535.557	7431.87
535.923	7376.05
536.288	7400
536.653	7336.73
537.019	7362.04
537.384	7406.56
537.749	7483.39
538.114	7380.12
538.479	7462.15
538.845	7507.57
539.21	7402.04
539.575	7438.42
539.94	7498.08
540.305	7470.96
540.67	7421.92
541.034	7518.87
541.399	7505.99
541.764	7499.44
542.129	7506.67
542.494	7455.82
542.858	7595.25
543.223	7504.18
543.587	7574.91
543.952	7558.87
544.316	7600.68
544.681	7574.91
545.045	7575.14
545.41	7607.91
545.774	7611.97
546.138	7589.6
546.503	7662.37
546.867	7563.16
547.231	7584.41
547.595	7620.56
547.959	7665.53
548.324	7686.1
548.688	7686.55
549.052	7634.8
549.416	7684.74
549.779	7622.82
550.143	7655.14
550.507	7717.06
550.871	7775.36
551.235	7714.57
551.599	7718.64
551.962	7767.45
552.326	7754.34
552.689	7746.89
553.053	7820.56
553.417	7782.59
553.78	7817.39
554.143	7831.86
554.507	7833.89
554.87	7787.11
555.234	7918.86
555.597	7865.08
555.96	7850.61
556.323	7934
556.686	7869.37
557.05	8002.7
557.413	7943.49
557.776	7953.89
558.139	8043.83
558.502	8004.73
558.865	7977.62
559.228	8040.89
559.59	8060.32
559.953	8095.13
560.316	8189.36
560.679	8163.82
561.041	8180.55
561.404	8185.07
561.767	8243.6
562.129	8225.52
562.492	8313.43
562.854	8349.81
563.217	8252.86
563.579	8365.18
563.941	8317.95
564.304	8439.98
564.666	8458.05
565.028	8365.4
565.39	8472.29
565.753	8439.75
566.115	8503.48
566.477	8529.92
566.839	8580.54
567.201	8678.16
567.563	8573.53
567.925	8659.41
568.287	8681.33
568.648	8727.2
569.01	8694.66
569.372	8804.71
569.734	8731.49
570.095	8833.19
570.457	8819.4
570.819	8874.54
571.18	8849.46
571.542	8940.3
571.903	8913.18
572.265	9010.13
572.626	9011.26
572.987	9053.52
573.349	9070.47
573.71	9126.51
574.071	9150.92
574.432	9105.72
574.794	9216.45
575.155	9225.04
575.516	9158.6
575.877	9237.69
576.238	9378.03
576.599	9346.39
576.96	9392.49
577.32	9317.92
577.681	9401.76
578.042	9426.16
578.403	9468.65
578.763	9540.06
579.124	9534.86
579.485	9554.97
579.845	9622.77
580.206	9580.74
580.566	9663.22
580.927	9650.79
581.287	9721.75
581.648	9639.72
582.008	9709.55
582.368	9760.39
582.728	9798.81
583.089	9843.55
583.449	9865.25
583.809	9850.33
584.169	9891.24
584.529	9804.91
584.889	9976.21
585.249	9942.08
585.609	9944.57
585.969	10038.13
586.329	9982.99
586.688	10118.35
587.048	10000.16
587.408	10108.41
587.768	10102.98
588.127	10153.83
588.487	10142.53
588.846	10276.09
589.206	10153.15
589.565	10182.98
589.925	10319.02
590.284	10294.84
590.643	10363.32
591.003	10370.77
591.362	10406.7
591.721	10378.23
592.08	10383.43
592.44	10419.58
592.799	10434.05
593.158	10423.65
593.517	10518.34
593.876	10514.27
594.235	10532.58
594.593	10574.61
594.952	10565.34
595.311	10574.61
595.67	10608.73
596.029	10654.38
596.387	10712.91
596.746	10708.62
597.104	10650.54
597.463	10708.84
597.822	10745.68
598.18	10675.85
598.538	10733.47
598.897	10820.48
599.255	10748.16
599.613	10885.79
599.972	10857.31
600.33	10909.97
600.688	10782.06
601.046	10863.19
601.404	10921.27
601.762	10836.3
602.12	11024.99
602.478	10940.7
602.836	10982.06
603.194	10937.31
603.552	10937.54
603.91	10946.35
604.268	10965.33
604.625	10935.05
604.983	10951.1
605.341	10907.03
605.698	11047.14
606.056	11031.77
606.413	11025.22
606.771	11022.05
607.128	11084.65
607.485	11040.81
607.843	10997.2
608.2	11128.94
608.557	11090.3
608.914	11091.88
609.272	11170.07
609.629	11133.92
609.986	11276.29
610.343	11184.54
610.7	11284.19
611.057	11304.76
611.414	11219.79
611.771	11207.13
612.127	11292.56
612.484	11283.74
612.841	11344.76
613.198	11284.87
613.554	11226.12
613.911	11405.77
614.267	11341.14
614.624	11348.37
614.98	11340.46
615.337	11471.31
615.693	11314.7
616.05	11423.63
616.406	11420.69
616.762	11436.96
617.118	11403.29
617.475	11439.22
617.831	11463.4
618.187	11466.56
618.543	11460.01
618.899	11475.15
619.255	11512.21
619.611	11439.67
619.967	11585.43
620.323	11493.45
620.678	11504.3
621.034	11530.74
621.39	11486.22
621.746	11435.38
622.101	11724.86
622.457	11509.73
622.812	11516.96
623.168	11543.85
623.523	11552.66
623.879	11621.14
624.234	11487.81
624.589	11482.61
624.945	11587.24
625.3	11552.89
625.655	11638.08
626.01	11556.96
626.365	11577.29
626.72	11575.49
627.075	11557.41
627.43	11494.13
627.785	11514.92
628.14	11579.33
628.495	11488.26
628.85	11538.88
629.205	11520.35
629.559	11540.91
629.914	11455.94
630.269	11452.1
630.623	11445.09
630.978	11460.91
631.332	11491.42
631.687	11467.69
632.041	11397.41
632.396	11384.31
632.75	11365.77
633.104	11377.07
633.459	11338.66
633.813	11359.9
634.167	11333.69
634.521	11366.45
634.875	11293.91
635.229	11321.03
635.583	11300.24
635.937	11312.67
636.291	11217.98
636.645	11331.88
636.999	11172.56
637.352	11227.7
637.706	11176.63
638.06	11221.6
638.413	11208.94
638.767	11186.34
639.121	11234.25
639.474	11095.05
639.828	11223.18
640.181	11103.63
640.534	11167.14
640.888	11110.87
641.241	11092.79
641.594	11086.46
641.947	11186.8
642.301	11121.94
642.654	11097.31
643.007	11057.08
643.36	11041.94
643.713	11011.66
644.066	11064.31
644.419	11017.31
644.771	10963.98
645.124	10848.95
645.477	10875.62
645.83	10815.96
646.182	10734.6
646.535	10668.62
646.888	10684.66
647.24	10618.22
647.593	10754.04
647.945	10750.2
648.298	10694.83
648.65	10599.47
649.002	10661.61
649.355	10622.97
649.707	10705
650.059	10700.26
650.411	10787.71
650.763	10884.88
651.115	10973.47
651.467	10927.14
651.819	10857.31
652.171	10932.11
652.523	10840.82
652.875	10812.79
653.227	10829.07
653.578	10945.67
653.93	10854.6
654.282	10823.87
654.633	10810.99
654.985	10839.46
655.337	10822.51
655.688	10830.2
656.039	10892.34
656.391	10752.01
656.742	10923.3
657.094	10846.92
657.445	10828.16
657.796	10829.52
658.147	10828.16
658.498	10832
658.849	10816.41
659.2	10861.16
659.551	10827.94
659.902	10924.88
660.253	10797.65
660.604	10855.73
660.955	10780.48
661.306	10836.52
661.656	10855.28
662.007	10814.15
662.358	10876.3
662.708	10883.75
663.059	10860.93
663.409	10865.67
663.76	10847.82
664.11	10820.7
664.461	10841.49
664.811	10817.31
665.161	10829.52
665.511	10839.46
665.862	10841.72
666.212	10885.56
666.562	10840.14
666.912	10846.01
667.262	10827.94
667.612	10770.99
667.962	10818.67
668.312	10864.32
668.662	10883.3
669.011	10817.54
669.361	10847.82
669.711	10871.1
670.06	10770.54
670.41	10729.86
670.76	10789.29
671.109	10795.17
671.459	10779.35
671.808	10674.27
672.157	10786.13
672.507	10746.36
672.856	10687.6
673.205	10724.66
673.554	10719.92
673.904	10702.74
674.253	10738.22
674.602	10770.31
674.951	10545.23
675.3	10567.6
675.649	10730.54
675.998	10732.8
676.346	10711.1
676.695	10725.57
677.044	10657.77
677.393	10705.9
677.741	10688.73
678.09	10619.13
678.438	10596.98
678.787	10625.68
679.135	10592.69
679.484	10563.76
679.832	10578.9
680.181	10531.45
680.529	10570.09
680.877	10455.52
681.225	10469.75
681.573	10474.27
681.922	10473.59
682.27	10401.51
682.618	10403.77
682.966	10347.27
683.314	10360.15
683.661	10364.22
684.009	10347.27
684.357	10301.85
684.705	10301.4
685.053	10294.84
685.4	10302.98
685.748	10230.66
686.095	10211
686.443	10173.26
686.79	10157.44
687.138	10095.07
687.485	10175.52
687.832	10170.55
688.18	10167.61
688.527	10066.37
688.874	10079.71
689.221	10030.22
689.568	9985.47
689.915	9981.86
690.262	9926.72
690.609	9924.23
690.956	9917.9
691.303	9794.06
691.65	9798.81
691.997	9772.6
692.344	9783.9
692.69	9709.77
693.037	9790.9
693.383	9632.71
693.73	9668.42
694.077	9680.85
694.423	9629.78
694.769	9546.39
695.116	9511.36
695.462	9546.61
695.808	9483.11
696.155	9471.36
696.501	9444.92
696.847	9371.7
697.193	9309.33
697.539	9399.5
697.885	9307.98
698.231	9279.73
698.577	9245.38
698.923	9210.58
699.269	9198.37
699.614	9148.21
699.96	9092.16
700.306	9081.54
700.651	9021.2
700.997	9073.18
701.342	9043.8
701.688	8980.07
702.033	8888.33
702.379	8944.6
702.724	8911.6
703.069	8889.91
703.415	8805.84
703.76	8847.2
704.105	8805.84
704.45	8755.9
704.795	8701.21
705.14	8686.3
705.485	8689.69
705.83	8615.34
706.175	8643.59
706.52	8627.54
706.865	8567.2
707.209	8538.73
707.554	8532.85
707.899	8534.44
708.243	8484.95
708.588	8469.13
708.932	8428.68
709.277	8400.43
709.621	8383.71
709.966	8363.14
710.31	8350.49
710.654	8255.12
710.998	8266.65
711.342	8260.09
711.687	8320.88
712.031	8250.15
712.375	8168.12
712.719	8225.29
713.063	8237.04
713.407	8196.59
713.75	8181.45
714.094	8125.41
714.438	8108.69
714.782	8149.14
715.125	8109.14
715.469	8075.24
715.812	8065.97
716.156	8029.82
716.499	8008.57
716.843	8086.31
717.186	7987.33
717.53	8061.91
717.873	8044.96
718.216	8032.3
718.559	7975.36
718.902	7941.23
719.246	7942.81
719.589	7940.55
719.932	7896.26
720.275	7884.06
720.617	7914.11
720.96	7901.91
721.303	7841.8
721.646	7849.48
721.989	7838.86
722.331	7804.51
722.674	7821.91
723.016	7861.23
723.359	7816.49
723.701	7821.24
724.044	7765.19
724.386	7774.91
724.729	7836.83
725.071	7787.11
725.413	7780.11
725.755	7769.71
726.097	7689.71
726.439	7745.3
726.782	7690.39
727.124	7731.07
727.465	7627.34
727.807	7732.88
728.149	7674.35
728.491	7696.49
728.833	7715.93
729.175	7680.9
729.516	7676.61
729.858	7654.91
730.199	7632.09
730.541	7666.21
730.882	7703.27
731.224	7692.42
731.565	7668.47
731.906	7613.1
732.248	7662.14
732.589	7601.58
732.93	7691.97
733.271	7608.81
733.612	7579.89
733.953	7605.87
734.294	7569.49
734.635	7622.82
734.976	7648.36
735.317	7605.87
735.658	7642.71
735.999	7617.62
736.339	7608.81
736.68	7627.79
737.021	7598.19
737.361	7524.52
737.702	7585.99
738.042	7582.82
738.383	7604.52
738.723	7624.18
739.063	7618.98
739.404	7649.04
739.744	7676.38
740.084	7661.92
740.424	7742.14
740.764	7658.3
741.104	7743.72
741.444	7680.22
741.784	7718.86
742.124	7742.37
742.464	7704.4
742.804	7720.45
743.143	7738.75
743.483	7762.71
743.823	7722.71
744.162	7777.62
744.502	7769.03
744.841	7805.42
745.181	7855.13
745.52	7776.72
745.86	7854
746.199	7953.21
746.538	7923.15
746.877	7939.2
747.216	8052.19
747.556	7992.76
747.895	8065.97
748.234	8038.86
748.573	8120.21
748.911	8096.71
749.25	8180.77
749.589	8249.02
749.928	8308.45
750.267	8335.12
750.605	8460.54
750.944	8475.46
751.283	8512.06
751.621	8644.04
751.96	8642.68
752.298	8752.96
752.636	8874.31
752.975	8866.86
753.313	8907.76
753.651	9060.3
753.989	9189.11
754.327	9237.69
754.666	9221.65
755.004	9465.26
755.342	9527.4
755.679	9630.45
756.017	9708.87
756.355	9899.6
756.693	9943.44
757.031	10136.88
757.368	10152.47
757.706	10339.59
758.044	10433.37
758.381	10622.97
758.719	10715.62
759.056	10851.44
759.394	11045.78
759.731	11116.74
760.068	11288.26
760.405	11373.46
760.743	11514.25
761.08	11775.03
761.417	11807.34
761.754	11932.99
762.091	12107
762.428	12231.29
762.765	12363.26
763.102	12621.11
763.438	12734.33
763.775	12884.15
