Data from hue_160_FLMS001491_00010.txt Node
Date: Tue Feb 07 16:50:41 GMT 2017
User: dcchb
Spectrometer: FLMS00149
Trigger mode: 0
Integration Time (sec): 2.000000E-2
Scans to average: 10
Electric dark correction enabled: true
Nonlinearity correction enabled: false
Boxcar width: 0
XAxis mode: Wavelengths
Number of Pixels in Spectrum: 2048
>>>>>Begin Spectral Data<<<<<
341.393	1.13
341.776	1.13
342.16	1.13
342.543	-52.2
342.927	-86.55
343.31	-79.77
343.693	-78.19
344.077	-55.82
344.46	-63.5
344.843	-51.3
345.226	-55.14
345.61	-18.3
345.993	-34.35
346.376	-9.49
346.759	4.97
347.142	30.51
347.525	47
347.908	70.51
348.291	85.2
348.674	96.04
349.057	111.64
349.44	120.22
349.823	130.62
350.206	161.13
350.588	204.51
350.971	226.89
351.354	216.04
351.737	243.61
352.119	243.84
352.502	247.68
352.884	285.19
353.267	273.67
353.65	294.46
354.032	295.59
354.414	306.66
354.797	301.46
355.179	321.12
355.562	303.04
355.944	308.24
356.326	315.47
356.709	331.74
357.091	341.01
357.473	340.33
357.855	340.56
358.238	323.83
358.62	326.09
359.002	327.45
359.384	336.26
359.766	323.38
360.148	327.9
360.53	326.09
360.912	339.88
361.294	321.35
361.676	330.39
362.057	351.86
362.439	336.71
362.821	303.72
363.203	319.77
363.584	326.09
363.966	324.51
364.348	324.06
364.729	301.69
365.111	319.77
365.493	322.48
365.874	310.95
366.256	302.59
366.637	306.43
367.019	293.55
367.4	315.47
367.781	316.15
368.163	314.57
368.544	307.34
368.925	303.49
369.306	327
369.688	313.89
370.069	308.92
370.45	305.3
370.831	303.72
371.212	314.12
371.593	306.88
371.974	326.09
372.355	312.31
372.736	301.69
373.117	326.32
373.498	325.64
373.879	294.46
374.26	331.06
374.641	322.7
375.021	305.3
375.402	308.92
375.783	305.3
376.163	316.6
376.544	327.9
376.925	329.48
377.305	322.25
377.686	336.04
378.066	313.89
378.447	308.24
378.827	319.99
379.208	327
379.588	327.9
379.968	324.74
380.349	326.55
380.729	321.8
381.109	328.35
381.489	326.09
381.87	345.98
382.25	328.13
382.63	349.6
383.01	356.83
383.39	334.91
383.77	352.53
384.15	344.17
384.53	338.97
384.91	347.56
385.29	331.97
385.67	356.83
386.049	348.92
386.429	359.09
386.809	332.65
387.189	378.07
387.568	344.4
387.948	344.62
388.328	353.66
388.707	334.91
389.087	349.14
389.466	365.64
389.846	327.22
390.225	348.69
390.605	363.15
390.984	358.86
391.363	365.64
391.743	332.65
392.122	375.36
392.501	368.8
392.881	360.67
393.26	394.11
393.639	375.13
394.018	359.54
394.397	365.64
394.776	368.35
395.155	372.65
395.534	396.15
395.913	398.41
396.292	380.78
396.671	387.33
397.05	375.58
397.429	371.97
397.808	374
398.186	371.06
398.565	379.65
398.944	378.52
399.323	387.79
399.701	383.94
400.08	393.89
400.458	387.11
400.837	388.69
401.215	401.35
401.594	413.32
401.972	385.98
402.351	408.8
402.729	399.99
403.107	420.33
403.486	408.58
403.864	398.41
404.242	403.83
404.62	407.22
404.999	420.1
405.377	413.32
405.755	432.31
406.133	414.23
406.511	432.98
406.889	431.18
407.267	446.99
407.645	416.71
408.023	444.06
408.401	450.61
408.779	444.51
409.156	448.12
409.534	435.02
409.912	444.28
410.29	458.74
410.667	467.56
411.045	471.63
411.422	464.62
411.8	453.55
412.178	477.5
412.555	478.86
412.933	474.56
413.31	493.09
413.687	472.76
414.065	476.6
414.442	481.8
414.819	496.03
415.197	499.2
415.574	512.3
415.951	495.81
416.328	502.36
416.705	494.9
417.082	517.27
417.46	515.69
417.837	485.18
418.214	521.34
418.591	528.12
418.967	516.6
419.344	556.6
419.721	543.26
420.098	541.45
420.475	569.02
420.852	530.38
421.228	546.65
421.605	551.62
421.982	559.31
422.358	554.79
422.735	564.5
423.111	546.65
423.488	581.68
423.864	586.88
424.241	553.88
424.617	582.13
424.994	585.52
425.37	585.52
425.746	588.23
426.123	589.14
426.499	575.8
426.875	600.44
427.251	617.16
427.627	632.75
428.003	642.47
428.379	626.88
428.756	639.31
429.132	651.96
429.507	647.89
429.883	626.2
430.259	644.95
430.635	649.93
431.011	663.71
431.387	671.62
431.763	682.69
432.138	649.7
432.514	687.89
432.89	692.41
433.265	697.83
433.641	703.26
434.016	726.08
434.392	719.98
434.767	732.86
435.143	723.6
435.518	728.57
435.894	745.29
436.269	760.21
436.644	762.24
437.02	776.25
437.395	754.33
437.77	776.25
438.145	788.68
438.52	787.1
438.895	803.37
439.271	773.76
439.646	804.05
440.021	808.79
440.395	818.06
440.77	817.15
441.145	850.37
441.52	853.54
441.895	820.32
442.27	827.32
442.645	858.73
443.019	849.47
443.394	882.46
443.769	874.1
444.143	860.32
444.518	898.51
444.892	862.58
445.267	919.52
445.641	900.32
446.016	912.52
446.39	927.66
446.764	942.57
447.139	946.42
447.513	954.1
447.887	966.53
448.262	938.73
448.636	971.27
449.01	964.95
449.384	966.75
449.758	956.13
450.132	997.49
450.506	964.04
450.88	998.17
451.254	1013.98
451.628	1011.05
452.002	1007.43
452.376	1025.51
452.75	1030.26
453.123	1040.65
453.497	1044.04
453.871	1069.8
454.244	1068.67
454.618	1096.47
454.992	1107.54
455.365	1103.7
455.739	1136.02
456.112	1152.96
456.486	1162.46
456.859	1163.36
457.232	1206.52
457.606	1159.29
457.979	1214.21
458.352	1254.66
458.725	1225.28
459.099	1265.96
459.472	1287.42
459.845	1296.24
460.218	1307.31
460.591	1294.2
460.964	1297.37
461.337	1362
461.71	1333.75
462.083	1388.66
462.456	1378.04
462.829	1397.93
463.201	1416.23
463.574	1415.78
463.947	1450.58
464.32	1498.94
464.692	1499.62
465.065	1549.56
465.438	1547.76
465.81	1525.84
466.183	1595.21
466.555	1604.25
466.928	1621.65
467.3	1632.27
467.672	1676.57
468.045	1723.8
468.417	1712.72
468.789	1726.06
469.161	1789.56
469.534	1803.79
469.906	1837.47
470.278	1869.78
470.65	1902.1
471.022	1967.41
471.394	1981.87
471.766	2000.63
472.138	2056.67
472.51	2126.05
472.882	2139.83
473.253	2173.5
473.625	2249.88
473.997	2292.37
474.369	2310
474.74	2349.32
475.112	2410.78
475.484	2486.26
475.855	2523.32
476.227	2554.96
476.598	2660.72
476.97	2697.1
477.341	2791.57
477.713	2828.17
478.084	2877.89
478.455	2990.88
478.827	3031.11
479.198	3149.97
479.569	3185.45
479.94	3281.72
480.311	3339.35
480.682	3445.33
481.053	3591.32
481.424	3665.21
481.795	3720.58
482.166	3788.6
482.537	3886.9
482.908	4007.58
483.279	4111.08
483.65	4163.05
484.021	4355.59
484.391	4374.12
484.762	4495.25
485.133	4597.17
485.503	4697.05
485.874	4850.27
486.244	4939.98
486.615	5047.1
486.985	5198.51
487.356	5327.32
487.726	5393.98
488.097	5592.85
488.467	5656.8
488.837	5844.82
489.207	5920.75
489.578	6101.53
489.948	6189.22
490.318	6355.77
490.688	6408.19
491.058	6572.93
491.428	6730.9
491.798	6765.02
492.168	7050.21
492.538	7085.46
492.908	7218.79
493.278	7400.71
493.648	7454.49
494.017	7567.48
494.387	7743.3
494.757	7801.15
495.126	7964.76
495.496	8028.26
495.866	8195.26
496.235	8318.65
496.605	8440.46
496.974	8475.94
497.344	8694.69
497.713	8757.28
498.082	8884.29
498.452	8959.09
498.821	9072.08
499.19	9141.91
499.559	9255.8
499.928	9387.55
500.298	9444.27
500.667	9592.74
501.036	9603.82
501.405	9684.04
501.774	9763.59
502.143	9921.77
502.512	9926.97
502.88	10044.03
503.249	10101.88
503.618	10205.61
503.987	10341.87
504.356	10353.63
504.724	10448.09
505.093	10563.79
505.462	10507.29
505.83	10649.66
506.199	10782.77
506.567	10870.67
506.936	10844.23
507.304	11005.36
507.672	11078.35
508.041	11077.22
508.409	11122.42
508.777	11227.5
509.145	11297.1
509.514	11347.72
509.882	11444.67
510.25	11478.34
510.618	11524.89
510.986	11542.07
511.354	11627.94
511.722	11712.01
512.09	11820.71
512.458	11818.45
512.826	11873.81
513.193	11875.85
513.561	11955.39
513.929	12016.41
514.297	12081.72
514.664	12160.13
515.032	12113.81
515.4	12215.05
515.767	12192
516.135	12243.07
516.502	12163.75
516.869	12362.16
517.237	12368.71
517.604	12338.88
517.972	12425.21
518.339	12426.34
518.706	12448.49
519.073	12531.42
519.44	12551.08
519.808	12574.58
520.175	12609.16
520.542	12665.66
520.909	12757.63
521.276	12689.38
521.643	12804.18
522.009	12778.2
522.376	12840.11
522.743	12847.12
523.11	12884.86
523.477	13003.95
523.843	12954.46
524.21	13045.08
524.577	13184.51
524.943	13098.19
525.31	13117.85
525.676	13252.31
526.043	13215.25
526.409	13102.71
526.776	13258.18
527.142	13224.51
527.508	13261.12
527.874	13328.46
528.241	13247.56
528.607	13227.45
528.973	13274.68
529.339	13235.58
529.705	13325.53
530.071	13340.44
530.437	13343.6
530.803	13339.31
531.169	13416.14
531.535	13283.49
531.901	13316.49
532.267	13265.41
532.632	13292.08
532.998	13324.85
533.364	13280.1
533.73	13311.29
534.095	13302.7
534.461	13306.54
534.826	13329.37
535.192	13186.77
535.557	13344.06
535.923	13148.81
536.288	13205.98
536.653	13302.48
537.019	13140.9
537.384	13105.87
537.749	13141.35
538.114	13067.45
538.479	12970.96
538.845	13003.27
539.21	12960.34
539.575	12927.12
539.94	12861.36
540.305	12982.94
540.67	12792.43
541.034	12856.84
541.399	12780.45
541.764	12723.51
542.129	12683.51
542.494	12697.75
542.858	12707.91
543.223	12587.92
543.587	12655.03
543.952	12587.47
544.316	12588.82
544.681	12496.39
545.045	12510.18
545.41	12452.78
545.774	12471.76
546.138	12438.32
546.503	12400.35
546.867	12365.1
547.231	12418.2
547.595	12403.29
547.959	12241.03
548.324	12180.47
548.688	12242.84
549.052	12207.59
549.416	12164.2
549.779	12152.22
550.143	12002.62
550.507	12047.59
550.871	12012.11
551.235	12028.84
551.599	12012.11
551.962	11929.4
552.326	11925.11
552.689	11940.93
553.053	11845.56
553.417	11772.35
553.78	11909.52
554.143	11831.1
554.507	11823.87
554.87	11778.67
555.234	11812.34
555.597	11662.74
555.96	11705.23
556.323	11706.36
556.686	11632.69
557.05	11747.04
557.413	11752.01
557.776	11691.22
558.139	11723.31
558.502	11667.04
558.865	11703.65
559.228	11664.78
559.59	11721.95
559.953	11610.99
560.316	11781.16
560.679	11681.73
561.041	11686.25
561.404	11729.41
561.767	11737.32
562.129	11647.15
562.492	11727.15
562.854	11678.11
563.217	11639.24
563.579	11675.4
563.941	11666.36
564.304	11683.08
564.666	11708.84
565.028	11694.83
565.39	11690.09
565.753	11696.19
566.115	11640.6
566.477	11767.83
566.839	11768.5
567.201	11781.61
567.563	11741.39
567.925	11878.56
568.287	11797.43
568.648	11768.73
569.01	11805.11
569.372	11861.16
569.734	11789.97
570.095	11854.83
570.457	11867.71
570.819	11806.7
571.18	11823.19
571.542	11863.87
571.903	11902.06
572.265	11883.53
572.626	11921.04
572.987	11936.86
573.349	11928.95
573.71	11883.08
574.071	11982.06
574.432	11995.62
574.794	11992.45
575.155	12056.63
575.516	11942.96
575.877	12050.53
576.238	12027.71
576.599	12007.14
576.96	11970.08
577.32	11958.56
577.681	12049.4
578.042	12039.91
578.403	11976.41
578.763	11982.06
579.124	12079.23
579.485	12068.61
579.845	12064.32
580.206	12036.52
580.566	12050.08
580.927	12070.19
581.287	12091.21
581.648	12109.06
582.008	12052.11
582.368	12067.71
582.728	12024.99
583.089	11983.41
583.449	12010.76
583.809	12026.12
584.169	11995.16
584.529	11883.53
584.889	12019.57
585.249	11932.34
585.609	11914.04
585.969	11999.46
586.329	11858.9
586.688	11968.5
587.048	11929.63
587.408	11888.95
587.768	11847.37
588.127	11902.74
588.487	11838.78
588.846	11872.23
589.206	11894.38
589.565	11867.03
589.925	11882.17
590.284	11891.21
590.643	11807.6
591.003	11877.65
591.362	11840.59
591.721	11796.98
592.08	11872.68
592.44	11913.13
592.799	11806.92
593.158	11754.27
593.517	11783.42
593.876	11739.13
594.235	11735.96
594.593	11702.97
594.952	11759.92
595.311	11740.03
595.67	11774.15
596.029	11830.88
596.387	11785.45
596.746	11782.74
597.104	11730.99
597.463	11744.55
597.822	11727.15
598.18	11678.34
598.538	11666.36
598.897	11723.08
599.255	11586.59
599.613	11822.29
599.972	11738.45
600.33	11762.18
600.688	11711.33
601.046	11729.86
601.404	11740.26
601.762	11689.18
602.12	11768.5
602.478	11801.27
602.836	11816.64
603.194	11728.05
603.552	11767.6
603.91	11684.66
604.268	11741.39
604.625	11722.63
604.983	11701.84
605.341	11638.34
605.698	11716.3
606.056	11707.49
606.413	11694.61
606.771	11724.89
607.128	11751.1
607.485	11686.02
607.843	11729.41
608.2	11763.53
608.557	11758.11
608.914	11736.19
609.272	11875.62
609.629	11798.56
609.986	11756.3
610.343	11790.88
610.7	11860.03
611.057	11810.99
611.414	11759.01
611.771	11808.96
612.127	11898.22
612.484	11767.15
612.841	11922.85
613.198	11853.25
613.554	11863.19
613.911	11905.9
614.267	11940.7
614.624	11860.48
614.98	11938.44
615.337	12035.39
615.693	12007.37
616.05	11885.56
616.406	12005.79
616.762	11908.84
617.118	11849.63
617.475	11950.65
617.831	11984.54
618.187	11979.57
618.543	11981.61
618.899	12071.55
619.255	12034.71
619.611	12031.32
619.967	12107.25
620.323	12102.28
620.678	11971.66
621.034	11994.03
621.39	12042.85
621.746	11980.48
622.101	12072.22
622.457	12042.62
622.812	12003.75
623.168	12098.44
623.523	12042.62
623.879	12067.03
624.234	12003.07
624.589	12031.77
624.945	12022.96
625.3	12027.25
625.655	12031.55
626.01	12022.51
626.365	12030.19
626.72	12020.7
627.075	12061.15
627.43	12043.98
627.785	11949.52
628.14	11991.32
628.495	11991.55
628.85	12035.16
629.205	11967.37
629.559	12004.43
629.914	11976.63
630.269	11985.45
630.623	11964.21
630.978	11944.09
631.332	11914.26
631.687	11953.58
632.041	11914.71
632.396	11931.44
632.75	11902.29
633.104	11916.3
633.459	11884.66
633.813	11902.06
634.167	11836.75
634.521	11865.9
634.875	11894.6
635.229	11885.11
635.583	11806.92
635.937	11848.95
636.291	11815.28
636.645	11739.13
636.999	11675.63
637.352	11766.24
637.706	11605.8
638.06	11759.69
638.413	11663.87
638.767	11699.58
639.121	11687.6
639.474	11546.14
639.828	11658.9
640.181	11688.73
640.534	11637.43
640.888	11503.65
641.241	11492.81
641.594	11581.39
641.947	11620.03
642.301	11459.81
642.654	11572.8
643.007	11588.85
643.36	11591.33
643.713	11502.07
644.066	11505.01
644.419	11451.45
644.771	11435.41
645.124	11264.11
645.477	11246.26
645.83	11238.57
646.182	11205.36
646.535	11208.52
646.888	11180.5
647.24	11101.4
647.593	11163.55
647.945	11156.54
648.298	11106.6
648.65	11086.94
649.002	11061.18
649.355	11139.59
649.707	11198.12
650.059	11140.05
650.411	11368.29
650.763	11266.14
651.115	11342.53
651.467	11335.07
651.819	11366.25
652.171	11408.29
652.523	11286.26
652.875	11356.54
653.227	11353.83
653.578	11362.64
653.93	11421.17
654.282	11366.71
654.633	11307.5
654.985	11295.07
655.337	11347.27
655.688	11319.48
656.039	11391.11
656.391	11390.66
656.742	11375.52
657.094	11298.23
657.445	11390.89
657.796	11399.25
658.147	11310.89
658.498	11373.94
658.849	11334.84
659.2	11359.02
659.551	11311.57
659.902	11331.91
660.253	11385.46
660.604	11387.5
660.955	11406.03
661.306	11442.86
661.656	11432.02
662.007	11365.35
662.358	11430.66
662.708	11388.18
663.059	11411.68
663.409	11344.11
663.76	11403.32
664.11	11385.01
664.461	11391.79
664.811	11445.8
665.161	11396.54
665.511	11439.93
665.862	11416.65
666.212	11404.67
666.562	11434.95
666.912	11385.24
667.262	11393.6
667.612	11415.07
667.962	11360.38
668.312	11409.42
668.662	11495.29
669.011	11423.88
669.361	11419.13
669.711	11413.94
670.06	11376.42
670.41	11404.9
670.76	11320.61
671.109	11439.47
671.459	11354.96
671.808	11358.35
672.157	11334.17
672.507	11289.65
672.856	11249.65
673.205	11334.17
673.554	11301.62
673.904	11314.05
674.253	11345.24
674.602	11319.25
674.951	11168.29
675.3	11076.32
675.649	11333.04
675.998	11233.6
676.346	11213.04
676.695	11288.52
677.044	11174.62
677.393	11220.5
677.741	11263.88
678.09	11171.46
678.438	11126.26
678.787	11165.13
679.135	11094.62
679.484	11041.74
679.832	11104.34
680.181	11044.46
680.529	11086.94
680.877	11124.68
681.225	11036.32
681.573	11092.82
681.922	10963.55
682.27	10939.37
682.618	10992.93
682.966	10950.67
683.314	10912.93
683.661	10939.6
684.009	10921.52
684.357	10795.87
684.705	10867.28
685.053	10858.25
685.4	10792.71
685.748	10726.5
686.095	10790
686.443	10706.84
686.79	10772.6
687.138	10682.66
687.485	10728.08
687.832	10578.7
688.18	10666.84
688.527	10538.48
688.874	10511.36
689.221	10454.87
689.568	10497.58
689.915	10498.03
690.262	10429.1
690.609	10430.23
690.956	10398.14
691.303	10336.9
691.65	10372.38
691.997	10379.84
692.344	10223.91
692.69	10189.56
693.037	10278.6
693.383	10127.87
693.73	10176.91
694.077	10117.7
694.423	10164.7
694.769	10075.44
695.116	10030.47
695.462	10046.29
695.808	10009.68
696.155	10012.62
696.501	9897.59
696.847	9873.19
697.193	9807.88
697.539	9783.47
697.885	9758.39
698.231	9781.44
698.577	9711.38
698.923	9661.67
699.269	9583.48
699.614	9505.51
699.96	9501.22
700.306	9557.94
700.651	9495.8
700.997	9492.86
701.342	9441.56
701.688	9366.53
702.033	9299.87
702.379	9326.08
702.724	9288.34
703.069	9357.04
703.415	9181.45
703.76	9245.63
704.105	9158.18
704.45	9167.22
704.795	9085.86
705.14	9060.33
705.485	9025.75
705.83	9025.53
706.175	8966.77
706.52	8969.26
706.865	8978.75
707.209	8893.55
707.554	8884.29
707.899	8963.15
708.243	8813.1
708.588	8859.2
708.932	8811.75
709.277	8790.28
709.621	8774.01
709.966	8720
710.31	8760
710.654	8634.58
710.998	8638.42
711.342	8658.08
711.687	8635.25
712.031	8579.89
712.375	8593.45
712.719	8599.32
713.063	8576.5
713.407	8578.98
713.75	8534.46
714.094	8505.54
714.438	8503.96
714.782	8472.55
715.125	8442.72
715.469	8534.24
715.812	8397.97
716.156	8371.08
716.499	8316.17
716.843	8385.99
717.186	8355.26
717.53	8396.16
717.873	8381.7
718.216	8353
718.559	8343.51
718.902	8263.96
719.246	8206.11
719.589	8194.81
719.932	8232.55
720.275	8169.5
720.617	8163.63
720.96	8182.84
721.303	8158.66
721.646	8143.97
721.989	8134.93
722.331	8137.64
722.674	8119.11
723.016	8185.1
723.359	8156.62
723.701	8212.89
724.044	8121.59
724.386	8021.26
724.729	8150.29
725.071	8130.41
725.413	8103.06
725.755	8152.1
726.097	8113.01
726.439	8009.51
726.782	8101.03
727.124	8176.96
727.465	8029.85
727.807	8023.29
728.149	8095.15
728.491	8026
728.833	8033.69
729.175	7986
729.516	8058.09
729.858	7995.95
730.199	7989.85
730.541	8026
730.882	8018.77
731.224	8036.17
731.565	7968.83
731.906	7959.79
732.248	8004.08
732.589	7893.35
732.93	8023.74
733.271	7955.5
733.612	8052.44
733.953	7933.35
734.294	7977.19
734.635	7961.15
734.976	7964.99
735.317	7938.32
735.658	7943.75
735.999	7963.41
736.339	7995.27
736.68	8000.47
737.021	7985.33
737.361	7908.72
737.702	8020.81
738.042	7991.65
738.383	7935.38
738.723	8037.08
739.063	8032.56
739.404	7990.52
739.744	8003.86
740.084	7974.48
740.424	8000.92
740.764	8020.81
741.104	8094.25
741.444	8035.49
741.784	8004.31
742.124	8067.13
742.464	8128.6
742.804	8115.04
743.143	8109.84
743.483	8166.79
743.823	8142.61
744.162	8129.28
744.502	8238.65
744.841	8212.89
745.181	8367.24
745.52	8308.48
745.86	8401.14
746.199	8361.81
746.538	8467.8
746.877	8482.04
747.216	8534.24
747.556	8533.33
747.895	8646.1
748.234	8647.68
748.573	8662.37
748.911	8794.57
749.25	8787.79
749.589	8808.36
749.928	8940.78
750.267	8996.83
750.605	9058.07
750.944	9131.29
751.283	9183.94
751.621	9281.56
751.96	9369.7
752.298	9373.09
752.636	9539.86
752.975	9623.02
753.313	9661.44
753.651	9809.91
753.989	9894.66
754.327	9989.79
754.666	10102.11
755.004	10247.41
755.342	10361.76
755.679	10553.39
756.017	10542.77
756.355	10728.98
756.693	10938.92
757.031	10983.21
757.368	11123.55
757.706	11280.83
758.044	11358.12
758.381	11550.2
758.719	11706.36
759.056	11918.56
759.394	12043.75
759.731	12178.44
760.068	12313.57
