Data from hue_130_FLMS001491_00024.txt Node
Date: Tue Feb 07 16:57:23 GMT 2017
User: dcchb
Spectrometer: FLMS00149
Trigger mode: 0
Integration Time (sec): 2.000000E-2
Scans to average: 10
Electric dark correction enabled: true
Nonlinearity correction enabled: false
Boxcar width: 0
XAxis mode: Wavelengths
Number of Pixels in Spectrum: 2048
>>>>>Begin Spectral Data<<<<<
341.393	-0.1
341.776	-0.1
342.16	-0.1
342.543	-66.09
342.927	-70.83
343.31	-41.45
343.693	-45.97
344.077	-54.79
344.46	-65.86
344.843	-62.24
345.226	-49.36
345.61	-20.66
345.993	-38.97
346.376	-9.14
346.759	-4.84
347.142	11.88
347.525	60.01
347.908	57.98
348.291	78.54
348.674	86
349.057	98.88
349.44	116.73
349.823	130.97
350.206	151.08
350.588	172.1
350.971	203.06
351.354	227.69
351.737	216.17
352.119	248.93
352.502	260.69
352.884	262.72
353.267	277.63
353.65	277.18
354.032	307.01
354.414	298.65
354.797	292.55
355.179	310.18
355.562	309.5
355.944	314.24
356.326	333.23
356.709	327.12
357.091	342.04
357.473	353.34
357.855	335.71
358.238	347.46
358.62	348.37
359.002	342.49
359.384	367.8
359.766	327.58
360.148	351.53
360.53	345.65
360.912	348.14
361.294	320.57
361.676	342.94
362.057	346.56
362.439	329.16
362.821	324.86
363.203	323.28
363.584	334.58
363.966	322.83
364.348	299.33
364.729	328.71
365.111	324.64
365.493	313.11
365.874	328.03
366.256	311.08
366.637	324.64
367.019	309.27
367.4	334.58
367.781	312.44
368.163	308.82
368.544	301.14
368.925	303.4
369.306	316.73
369.688	328.03
370.069	316.95
370.45	306.79
370.831	335.03
371.212	328.71
371.593	294.58
371.974	328.25
372.355	315.83
372.736	309.72
373.117	321.93
373.498	329.16
373.879	313.11
374.26	323.51
374.641	331.87
375.021	316.28
375.402	312.21
375.783	311.98
376.163	335.49
376.544	307.46
376.925	318.31
377.305	320.57
377.686	322.6
378.066	310.85
378.447	326.9
378.827	312.44
379.208	330.29
379.588	354.02
379.968	349.5
380.349	352.21
380.729	337.07
381.109	330.74
381.489	341.81
381.87	348.82
382.25	328.48
382.63	359.21
383.01	339.55
383.39	354.47
383.77	342.72
384.15	336.84
384.53	359.67
384.91	370.96
385.29	349.04
385.67	363.96
386.049	350.63
386.429	347.91
386.809	336.39
387.189	359.21
387.568	355.82
387.948	368.03
388.328	360.34
388.707	378.2
389.087	347.46
389.466	365.99
389.846	372.09
390.225	368.03
390.605	373.45
390.984	375.94
391.363	375.03
391.743	381.36
392.122	391.3
392.501	396.5
392.881	395.37
393.26	379.55
393.639	397.4
394.018	387.24
394.397	387.91
394.776	407.12
395.155	410.06
395.534	391.53
395.913	398.53
396.292	377.97
396.671	395.37
397.05	400.34
397.429	396.73
397.808	391.76
398.186	398.08
398.565	393.11
398.944	406.67
399.323	407.12
399.701	398.08
400.08	419.78
400.458	416.84
400.837	413.45
401.215	417.29
401.594	411.42
401.972	429.49
402.351	403.73
402.729	411.64
403.107	431.08
403.486	432.88
403.864	420.46
404.242	425.88
404.62	421.36
404.999	441.92
405.377	440.34
405.755	435.14
406.133	423.17
406.511	434.01
406.889	443.05
407.267	449.38
407.645	458.42
408.023	471.98
408.401	469.72
408.779	436.5
409.156	481.92
409.534	466.78
409.912	461.13
410.29	475.37
410.667	480.11
411.045	471.75
411.422	469.95
411.8	480.34
412.178	486.22
412.555	483.05
412.933	512.43
413.31	499.32
413.687	500
414.065	507.01
414.442	505.2
414.819	521.24
415.197	516.5
415.574	514.01
415.951	538.42
416.328	550.17
416.705	538.42
417.082	531.86
417.46	540.68
417.837	535.03
418.214	540.9
418.591	548.14
418.967	561.69
419.344	538.19
419.721	566.89
420.098	581.13
420.475	555.59
420.852	553.78
421.228	566.44
421.605	577.29
421.982	573.45
422.358	588.59
422.735	585.87
423.111	576.84
423.488	607.12
423.864	610.96
424.241	598.98
424.617	612.77
424.994	603.05
425.37	607.34
425.746	600.79
426.123	629.49
426.499	624.74
426.875	597.85
427.251	617.06
427.627	625.65
428.003	625.87
428.379	676.27
428.756	646.21
429.132	668.13
429.507	659.77
429.883	657.28
430.259	654.8
430.635	689.37
431.011	698.87
431.387	685.08
431.763	698.41
432.138	695.48
432.514	715.14
432.89	715.36
433.265	693.22
433.641	720.79
434.016	726.21
434.392	728.47
434.767	751.07
435.143	741.12
435.518	755.14
435.894	728.24
436.269	773.44
436.644	771.63
437.02	807.56
437.395	797.62
437.77	798.07
438.145	816.6
438.52	828.35
438.895	817.51
439.271	828.58
439.646	834.91
440.021	841.23
440.395	856.38
440.77	837.39
441.145	860.9
441.52	879.65
441.895	884.4
442.27	878.75
442.645	871.52
443.019	884.17
443.394	901.8
443.769	887.34
444.143	895.7
444.518	898.86
444.892	899.31
445.267	926.88
445.641	936.83
446.016	911.06
446.39	931.63
446.764	930.27
447.139	931.63
447.513	942.7
447.887	949.48
448.262	949.93
448.636	957.16
449.01	955.81
449.384	981.57
449.758	1014.56
450.132	1031.06
450.506	996.03
450.88	1011.17
451.254	1002.36
451.628	1031.51
452.002	1048.69
452.376	1056.6
452.75	1044.85
453.123	1083.71
453.497	1083.49
453.871	1083.49
454.244	1129.59
454.618	1118.06
454.992	1118.52
455.365	1118.97
455.739	1151.96
456.112	1168.23
456.486	1166.88
456.859	1204.62
457.232	1183.37
457.606	1198.74
457.979	1247.55
458.352	1247.78
458.725	1264.73
459.099	1288
459.472	1281.22
459.845	1291.62
460.218	1321.67
460.591	1346.98
460.964	1324.16
461.337	1381.56
461.71	1372.52
462.083	1407.32
462.456	1410.94
462.829	1405.97
463.201	1452.97
463.574	1483.7
463.947	1464.04
464.32	1498.39
464.692	1507.43
465.065	1551.5
465.438	1560.99
465.81	1574.1
466.183	1600.99
466.555	1645.96
466.928	1667.43
467.3	1676.24
467.672	1709.91
468.045	1706.52
468.417	1763.92
468.789	1786.52
469.161	1789.91
469.534	1821.77
469.906	1880.98
470.278	1929.57
470.65	1922.34
471.022	1996.01
471.394	2024.93
471.766	2030.81
472.138	2091.15
472.51	2134.99
472.882	2148.55
473.253	2173.4
473.625	2258.37
473.997	2302.21
474.369	2335.21
474.74	2386.96
475.112	2418.37
475.484	2475.77
475.855	2557.57
476.227	2588.76
476.598	2676.67
476.97	2741.07
477.341	2789.43
477.713	2859.71
478.084	2939.71
478.455	3020.61
478.827	3104.45
479.198	3159.59
479.569	3212.25
479.94	3336.54
480.311	3432.58
480.682	3559.13
481.053	3606.59
481.424	3698.11
481.795	3790.31
482.166	3879.35
482.537	3979.68
482.908	4142.17
483.279	4203.41
483.65	4359.33
484.021	4467.58
484.391	4566.33
484.762	4665.99
485.133	4787.35
485.503	4864.18
485.874	5084.74
486.244	5145.98
486.615	5340.33
486.985	5433.43
487.356	5612.41
487.726	5655.12
488.097	5826.19
488.467	5944.38
488.837	6110.93
489.207	6303.01
489.578	6411.03
489.948	6492.39
490.318	6746.84
490.688	6774.19
491.058	6918.59
491.428	7131.69
491.798	7249.65
492.168	7448.07
492.538	7575.97
492.908	7686.03
493.278	7927.83
493.648	7980.93
494.017	8102.74
494.387	8288.95
494.757	8434.93
495.126	8567.36
495.496	8633.57
495.866	8727.36
496.235	8928.25
496.605	9039.66
496.974	9204.18
497.344	9313.78
497.713	9481.69
498.082	9568.69
498.452	9719.65
498.821	9828.34
499.19	9861.56
499.559	10082.35
499.928	10222.68
500.298	10249.58
500.667	10394.88
501.036	10476.01
501.405	10590.81
501.774	10658.83
502.143	10831.93
502.512	10871.71
502.88	11056.79
503.249	11085.94
503.618	11199.15
503.987	11337.68
504.356	11318.47
504.724	11370.9
505.093	11503.55
505.462	11569.09
505.83	11703.77
506.199	11838.23
506.567	11917.55
506.936	12005.24
507.304	12145.8
507.672	12193.93
508.041	12258.56
508.409	12365.23
508.777	12469.18
509.145	12493.13
509.514	12534.03
509.882	12674.14
510.25	12694.71
510.618	12873.23
510.986	12742.16
511.354	12943.06
511.722	13029.16
512.09	13113.68
512.458	13082.49
512.826	13232.32
513.193	13260.34
513.561	13314.81
513.929	13416.5
514.297	13493.33
514.664	13459.21
515.032	13576.72
515.4	13663.27
515.767	13673.21
516.135	13773.1
516.502	13608.58
516.869	13820.33
517.237	13872.3
517.604	13810.16
517.972	13943.04
518.339	13951.85
518.706	14031.17
519.073	14026.2
519.44	14148.68
519.808	14202.69
520.175	14172.86
520.542	14354.33
520.909	14329.92
521.276	14296.02
521.643	14459.86
522.009	14418.51
522.376	14484.04
522.743	14600.2
523.11	14711.83
523.477	14748.21
523.843	14735.78
524.21	14931.49
524.577	14905.5
524.943	14893.52
525.31	15043.12
525.676	15078.15
526.043	15037.25
526.409	15103.46
526.776	15258.93
527.142	15159.95
527.508	15168.32
527.874	15268.65
528.241	15353.62
528.607	15291.02
528.973	15401.98
529.339	15262.32
529.705	15337.8
530.071	15489.89
530.437	15448.31
530.803	15488.31
531.169	15463.22
531.535	15422.77
531.901	15451.02
532.267	15470.91
532.632	15536.44
532.998	15475.43
533.364	15426.16
533.73	15468.19
534.095	15529.66
534.461	15403.79
534.826	15491.25
535.192	15458.93
535.557	15550.68
535.923	15477.46
536.288	15484.69
536.653	15477.91
537.019	15358.82
537.384	15413.51
537.749	15422.77
538.114	15369.44
538.479	15300.29
538.845	15312.27
539.21	15285.6
539.575	15287.18
539.94	15292.61
540.305	15245.83
540.67	15181.42
541.034	15203.8
541.399	15216.9
541.764	15236.79
542.129	15149.11
542.494	15069.79
542.858	15117.02
543.223	15091.03
543.587	15090.35
543.952	14964.48
544.316	14999.05
544.681	14933.97
545.045	15020.98
545.41	14966.74
545.774	14967.87
546.138	14880.41
546.503	14824.37
546.867	14813.97
547.231	14923.8
547.595	14796.12
547.959	14783.69
548.324	14810.13
548.688	14686.29
549.052	14730.36
549.416	14760.87
549.779	14585.73
550.143	14572.4
550.507	14557.26
550.871	14593.19
551.235	14566.75
551.599	14607.43
551.962	14570.37
552.326	14461.44
552.689	14491.95
553.053	14433.19
553.417	14400.43
553.78	14539.86
554.143	14361.33
554.507	14378.96
554.87	14388.68
555.234	14479.29
555.597	14359.3
555.96	14390.71
556.323	14353.87
556.686	14313.88
557.05	14370.37
557.413	14334.67
557.776	14304.16
558.139	14417.6
558.502	14296.93
558.865	14323.59
559.228	14339.41
559.59	14267.32
559.953	14273.88
560.316	14378.51
560.679	14328.56
561.041	14411.73
561.404	14340.09
561.767	14419.63
562.129	14416.92
562.492	14430.26
562.854	14336.25
563.217	14391.61
563.579	14354.78
563.941	14474.55
564.304	14430.26
564.666	14489.01
565.028	14503.7
565.39	14470.48
565.753	14534.21
566.115	14552.74
566.477	14542.34
566.839	14572.4
567.201	14630.25
567.563	14598.39
567.925	14672.28
568.287	14605.17
568.648	14706.86
569.01	14792.05
569.372	14656.01
569.734	14672.96
570.095	14754.77
570.457	14722.68
570.819	14734.43
571.18	14627.99
571.542	14815.1
571.903	14764.03
572.265	14832.96
572.626	14806.07
572.987	14876.35
573.349	14915.89
573.71	14903.24
574.071	14917.02
574.432	14994.54
574.794	15015.55
575.155	14989.79
575.516	14907.76
575.877	14976.91
576.238	14983.91
576.599	15084.02
576.96	14924.93
577.32	15005.61
577.681	14996.34
578.042	15021.43
578.403	15025.49
578.763	15018.49
579.124	15043.12
579.485	15155.21
579.845	15044.48
580.206	14990.69
580.566	15023.91
580.927	14987.53
581.287	15005.61
581.648	14965.16
582.008	15027.08
582.368	14994.54
582.728	14993.86
583.089	15006.29
583.449	14960.64
583.809	14980.3
584.169	15103.46
584.529	14999.05
584.889	15084.48
585.249	14969.68
585.609	14904.59
585.969	14948.66
586.329	15070.01
586.688	15083.12
587.048	14976.91
587.408	14878.38
587.768	14918.38
588.127	14941.2
588.487	14843.35
588.846	15060.07
589.206	14742.34
589.565	14840.41
589.925	14839.74
590.284	14827.99
590.643	14890.81
591.003	14844.48
591.362	14841.77
591.721	14734.65
592.08	14819.62
592.44	14882.9
592.799	14854.2
593.158	14873.41
593.517	14810.13
593.876	14796.8
594.235	14816.91
594.593	14765.39
594.952	14800.87
595.311	14781.66
595.67	14771.04
596.029	14862.56
596.387	14769.23
596.746	14768.33
597.104	14783.47
597.463	14749.34
597.822	14851.04
598.18	14757.93
598.538	14739.4
598.897	14764.26
599.255	14637.26
599.613	14866.85
599.972	14787.99
600.33	14836.35
600.688	14760.64
601.046	14790.7
601.404	14834.99
601.762	14766.29
602.12	14783.02
602.478	14713.41
602.836	14772.17
603.194	14737.82
603.552	14830.7
603.91	14701.89
604.268	14759.29
604.625	14735.11
604.983	14828.66
605.341	14710.25
605.698	14761.77
606.056	14756.58
606.413	14722.9
606.771	14698.05
607.128	14708.44
607.485	14764.94
607.843	14702.34
608.2	14807.2
608.557	14852.62
608.914	14764.94
609.272	14867.98
609.629	14884.48
609.986	14811.94
610.343	14799.29
610.7	14848.55
611.057	14926.29
611.414	14870.92
611.771	14872.73
612.127	14995.21
612.484	14981.2
612.841	14994.76
613.198	14940.07
613.554	14952.5
613.911	15100.07
614.267	14972.84
614.624	14988.21
614.98	15014.2
615.337	15117.92
615.693	15006.51
616.05	15016.46
616.406	15125.15
616.762	14996.57
617.118	15061.65
617.475	15022.33
617.831	15127.41
618.187	15050.58
618.543	15103.68
618.899	15188.43
619.255	15116.79
619.611	15168.32
619.967	15265.94
620.323	15235.43
620.678	15247.18
621.034	15077.24
621.39	15157.47
621.746	15089.9
622.101	15315.66
622.457	15164.93
622.812	15239.05
623.168	15223.68
623.523	15109.56
623.879	15316.79
624.234	15094.42
624.589	15221.87
624.945	15242.21
625.3	15373.51
625.655	15220.74
626.01	15282.21
626.365	15174.42
626.72	15139.16
627.075	15183.23
627.43	15244.92
627.785	15132.16
628.14	15288.09
628.495	15270.91
628.85	15125.83
629.205	15144.81
629.559	15194.3
629.914	15190.46
630.269	15165.6
630.623	15165.38
630.978	15016.46
631.332	15086.51
631.687	15119.73
632.041	15073.63
632.396	15025.49
632.75	14996.34
633.104	15062.1
633.459	15016.46
633.813	14988.43
634.167	15000.64
634.521	14920.19
634.875	15046.51
635.229	15022.56
635.583	14877.25
635.937	14868.44
636.291	14822.11
636.645	14948.43
636.999	14811.49
637.352	14890.81
637.706	14711.6
638.06	14841.77
638.413	14783.02
638.767	14755.45
639.121	14802.9
639.474	14752.28
639.828	14722.68
640.181	14704.37
640.534	14731.94
640.888	14686.52
641.241	14543.02
641.594	14675.22
641.947	14640.19
642.301	14578.73
642.654	14693.3
643.007	14625.96
643.36	14679.52
643.713	14673.19
644.066	14658.05
644.419	14659.85
644.771	14554.77
645.124	14396.58
645.477	14363.59
645.83	14255.57
646.182	14136.48
646.535	14180.09
646.888	14178.29
647.24	14075.24
647.593	14215.57
647.945	14105.97
648.298	14028.23
648.65	13991.62
649.002	13864.17
649.355	14070.49
649.707	14087.67
650.059	14102.36
650.411	14252.41
650.763	14200.21
651.115	14435.91
651.467	14295.12
651.819	14307.55
652.171	14392.74
652.523	14356.36
652.875	14366.98
653.227	14282.92
653.578	14378.96
653.93	14340.32
654.282	14271.84
654.633	14349.13
654.985	14365.63
655.337	14365.17
655.688	14414.21
656.039	14482.01
656.391	14311.84
656.742	14411.05
657.094	14343.03
657.445	14427.54
657.796	14422.8
658.147	14351.16
658.498	14411.05
658.849	14402.91
659.2	14494.89
659.551	14366.98
659.902	14411.27
660.253	14406.3
660.604	14484.49
660.955	14415.57
661.306	14444.95
661.656	14410.14
662.007	14448.79
662.358	14419.18
662.708	14423.25
663.059	14541.89
663.409	14399.3
663.76	14477.71
664.11	14412.86
664.461	14501.89
664.811	14474.1
665.161	14529.91
665.511	14355.91
665.862	14428.67
666.212	14463.25
666.562	14553.87
666.912	14409.24
667.262	14411.73
667.612	14446.53
667.962	14359.52
668.312	14393.42
668.662	14478.62
669.011	14454.66
669.361	14425.28
669.711	14366.08
670.06	14426.87
670.41	14409.24
670.76	14396.13
671.109	14370.37
671.459	14399.07
671.808	14267.55
672.157	14372.18
672.507	14258.74
672.856	14314.78
673.205	14337.83
673.554	14371.95
673.904	14256.7
674.253	14365.85
674.602	14292.18
674.951	14119.98
675.3	13960.66
675.649	14315.23
675.998	14360.2
676.346	14219.41
676.695	14262.58
677.044	14202.01
677.393	14226.65
677.741	14212.41
678.09	14160.88
678.438	14173.54
678.787	14130.38
679.135	14140.55
679.484	14086.76
679.832	14072.53
680.181	13969.7
680.529	14060.55
680.877	13991.62
681.225	13971.06
681.573	14029.36
681.922	13912.98
682.27	13848.12
682.618	13963.83
682.966	13805.19
683.314	13880.89
683.661	13838.18
684.009	13717.96
684.357	13804.28
684.705	13696.04
685.053	13717.73
685.4	13650.39
685.748	13662.14
686.095	13624.4
686.443	13575.59
686.79	13484.07
687.138	13646.32
687.485	13562.71
687.832	13523.84
688.18	13435.71
688.527	13365.65
688.874	13423.95
689.221	13342.6
689.568	13275.71
689.915	13312.77
690.262	13216.95
690.609	13248.37
690.956	13130.4
691.303	13139.67
691.65	13138.76
691.997	13030.97
692.344	12903.52
692.69	12918.43
693.037	12881.37
693.383	12791.2
693.73	12852.44
694.077	12712.79
694.423	12754.14
694.769	12731.32
695.116	12675.73
695.462	12608.16
695.808	12548.5
696.155	12515.05
696.501	12600.47
696.847	12480.7
697.193	12317.09
697.539	12446.35
697.885	12355.51
698.231	12272.12
698.577	12255.4
698.923	12174.72
699.269	12216.53
699.614	12094.27
699.96	12072.35
700.306	12061.05
700.651	11966.37
700.997	11867.61
701.342	11910.32
701.688	11854.28
702.033	11834.39
702.379	11805.01
702.724	11731.34
703.069	11813.6
703.415	11767.73
703.76	11636.21
704.105	11608.41
704.45	11493.16
704.795	11548.3
705.14	11512.59
705.485	11469.2
705.83	11402.99
706.175	11424.69
706.52	11458.36
706.865	11283.45
707.209	11330.68
707.554	11286.84
707.899	11308.3
708.243	11317.8
708.588	11212.04
708.932	11099.27
709.277	11099.04
709.621	11023.79
709.966	11093.62
710.31	11060.63
710.654	10941.31
710.998	10950.12
711.342	10975.43
711.687	10932.72
712.031	10846.17
712.375	10828.99
712.719	10889.78
713.063	10732.95
713.407	10815.89
713.75	10785.61
714.094	10773.63
714.438	10697.92
714.782	10700.86
715.125	10697.92
715.469	10741.99
715.812	10669
716.156	10578.15
716.499	10630.13
716.843	10621.32
717.186	10546.06
717.53	10534.31
717.873	10531.83
718.216	10511.72
718.559	10428.1
718.902	10442.56
719.246	10506.52
719.589	10366.86
719.932	10400.76
720.275	10316.69
720.617	10373.87
720.96	10364.15
721.303	10399.18
721.646	10386.75
721.989	10312.62
722.331	10338.16
722.674	10292.51
723.016	10282.57
723.359	10303.81
723.701	10252.51
724.044	10255.45
724.386	10232.4
724.729	10260.2
725.071	10198.28
725.413	10265.62
725.755	10269.24
726.097	10191.5
726.439	10131.16
726.782	10140.65
727.124	10226.98
727.465	10128
727.807	10153.98
728.149	10149.69
728.491	10172.06
728.833	10061.56
729.175	10066.53
729.516	10131.84
729.858	10059.98
730.199	10079.64
730.541	10050.71
730.882	10030.6
731.224	10076.47
731.565	9980.43
731.906	10063.14
732.248	9984.5
732.589	10019.52
732.93	10050.26
733.271	9991.73
733.612	9978.17
733.953	10064.72
734.294	10029.47
734.635	9985.18
734.976	10011.62
735.317	9954.44
735.658	10018.85
735.999	9996.93
736.339	10060.2
736.68	10021.11
737.021	10000.32
737.361	10020.43
737.702	10094.78
738.042	10043.48
738.383	10000.77
738.723	10083.03
739.063	10056.59
739.404	10130.48
739.744	10058.39
740.084	10020.43
740.424	10089.58
740.764	10114.66
741.104	10141.56
741.444	10049.58
741.784	10044.83
742.124	10135.23
742.464	10184.49
742.804	10226.75
743.143	10187.66
743.483	10172.29
743.823	10223.59
744.162	10284.6
744.502	10319.18
744.841	10259.29
745.181	10441.43
745.52	10292.06
745.86	10472.39
746.199	10410.7
746.538	10480.3
746.877	10553.52
747.216	10638.27
747.556	10620.86
747.895	10580.87
748.234	10677.59
748.573	10741.54
748.911	10783.8
749.25	10899.95
749.589	10896.56
749.928	10899.95
750.267	11048.65
750.605	11067.86
750.944	11162.77
751.283	11231.47
751.621	11248.87
751.96	11358.02
752.298	11535.19
752.636	11604.34
752.975	11602.53
753.313	11721.63
753.651	11987.61
753.989	11982.41
754.327	12072.35
754.666	12125.23
755.004	12351.89
755.342	12441.61
755.679	12661.49
756.017	12692.67
