Data from hue_230_FLMS001491_00002.txt Node
Date: Tue Feb 07 16:36:43 GMT 2017
User: dcchb
Spectrometer: FLMS00149
Trigger mode: 0
Integration Time (sec): 2.000000E-2
Scans to average: 10
Electric dark correction enabled: true
Nonlinearity correction enabled: false
Boxcar width: 0
XAxis mode: Wavelengths
Number of Pixels in Spectrum: 2048
>>>>>Begin Spectral Data<<<<<
341.393	16.99
341.776	16.99
342.16	16.99
342.543	-53.29
342.927	-55.55
343.31	-82.22
343.693	-77.47
344.077	-69.11
344.46	-54.19
344.843	-41.76
345.226	-45.38
345.61	-41.31
345.993	-8.77
346.376	5.24
346.759	4.56
347.142	9.31
347.525	48.4
347.908	69.65
348.291	91.11
348.674	92.92
349.057	99.02
349.44	117.78
349.823	141.06
350.206	144.22
350.588	192.35
350.971	203.2
351.354	226.7
351.737	232.35
352.119	258.79
352.502	254.5
352.884	256.76
353.267	290.66
353.65	293.14
354.032	307.6
354.414	297.89
354.797	311.45
355.179	327.04
355.562	316.87
355.944	333.82
356.326	337.66
356.709	341.28
357.091	327.04
357.473	346.25
357.855	344.44
358.238	336.53
358.62	317.77
359.002	368.85
359.384	343.31
359.766	321.16
360.148	319.81
360.53	346.7
360.912	315.74
361.294	329.07
361.676	330.66
362.057	321.62
362.439	318.9
362.821	307.83
363.203	308.96
363.584	315.51
363.966	320.94
364.348	319.36
364.729	300.83
365.111	316.87
365.493	310.99
365.874	309.19
366.256	302.86
366.637	321.84
367.019	320.49
367.4	310.09
367.781	312.35
368.163	304.44
368.544	312.12
368.925	318
369.306	313.71
369.688	310.77
370.069	301.73
370.45	316.42
370.831	313.48
371.212	294.5
371.593	315.06
371.974	293.14
372.355	292.01
372.736	306.02
373.117	303.54
373.498	315.06
373.879	323.42
374.26	315.29
374.641	313.25
375.021	297.89
375.402	324.55
375.783	329.07
376.163	314.16
376.544	313.48
376.925	337.89
377.305	326.14
377.686	348.73
378.066	333.59
378.447	323.2
378.827	297.44
379.208	311.9
379.588	323.65
379.968	337.66
380.349	345.8
380.729	322.97
381.109	324.1
381.489	337.21
381.87	336.76
382.25	334.27
382.63	316.42
383.01	322.29
383.39	328.85
383.77	320.26
384.15	355.29
384.53	375.63
384.91	348.28
385.29	371.33
385.67	339.24
386.049	355.74
386.429	343.31
386.809	367.26
387.189	357.77
387.568	351.22
387.948	359.81
388.328	345.8
388.707	358.9
389.087	360.48
389.466	348.51
389.846	355.74
390.225	370.43
390.605	364.1
390.984	357.55
391.363	358.9
391.743	346.25
392.122	379.47
392.501	371.11
392.881	363.2
393.26	365.23
393.639	395.29
394.018	352.35
394.397	385.79
394.776	390.09
395.155	380.6
395.534	380.37
395.913	389.86
396.292	402.52
396.671	397.09
397.05	396.42
397.429	392.57
397.808	399.13
398.186	397.32
398.565	402.29
398.944	416.98
399.323	394.16
399.701	392.12
400.08	411.11
400.458	410.65
400.837	401.39
401.215	403.42
401.594	420.6
401.972	426.02
402.351	425.79
402.729	437.77
403.107	434.16
403.486	424.66
403.864	438.9
404.242	441.84
404.62	452.23
404.999	434.83
405.377	442.29
405.755	460.6
406.133	477.09
406.511	440.26
406.889	465.34
407.267	454.04
407.645	491.78
408.023	473.02
408.401	493.59
408.779	495.17
409.156	507.83
409.534	499.46
409.912	511.22
410.29	517.77
410.667	514.61
411.045	519.8
411.422	523.42
411.8	549.41
412.178	541.72
412.555	543.76
412.933	552.8
413.31	570.87
413.687	601.61
414.065	548.95
414.442	590.54
414.819	572.91
415.197	609.07
415.574	581.72
415.951	621.95
416.328	620.14
416.705	633.92
417.082	604.55
417.46	622.85
417.837	625.11
418.214	648.84
418.591	675.28
418.967	653.81
419.344	678.89
419.721	687.26
420.098	681.15
420.475	704.88
420.852	693.36
421.228	718.89
421.605	727.93
421.982	737.2
422.358	753.69
422.735	726.12
423.111	769.97
423.488	774.71
423.864	770.87
424.241	774.03
424.617	792.56
424.994	813.35
425.37	833.24
425.746	823.07
426.123	846.35
426.499	861.49
426.875	873.24
427.251	878.89
427.627	885.67
428.003	890.64
428.379	898.32
428.756	907.36
429.132	908.27
429.507	938.1
429.883	947.36
430.259	974.48
430.635	998.89
431.011	976.29
431.387	1009.06
431.763	1015.83
432.138	1021.48
432.514	1039.56
432.89	1061.94
433.265	1095.15
433.641	1110.97
434.016	1107.13
434.392	1102.84
434.767	1169.5
435.143	1148.94
435.518	1179.22
435.894	1188.94
436.269	1197.98
436.644	1221.25
437.02	1234.36
437.395	1249.28
437.77	1280.91
438.145	1289.73
438.52	1304.19
438.895	1320.46
439.271	1321.59
439.646	1362.49
440.021	1407.69
440.395	1397.52
440.77	1390.06
441.145	1406.56
441.52	1423.73
441.895	1435.94
442.27	1463.05
442.645	1499.21
443.019	1480.46
443.394	1514.8
443.769	1527.23
444.143	1510.06
444.518	1532.88
444.892	1524.97
445.267	1560
445.641	1587.12
446.016	1589.61
446.39	1591.64
446.764	1603.84
447.139	1602.94
447.513	1638.19
447.887	1625.76
448.262	1635.25
448.636	1649.72
449.01	1654.69
449.384	1684.74
449.758	1708.47
450.132	1722.71
450.506	1744.18
450.88	1737.4
451.254	1729.94
451.628	1762.03
452.002	1783.05
452.376	1814.91
452.75	1788.92
453.123	1802.48
453.497	1843.38
453.871	1857.17
454.244	1897.39
454.618	1925.42
454.992	1902.37
455.365	1929.26
455.739	1968.8
456.112	1982.59
456.486	2004.28
456.859	2045.41
457.232	2067.33
457.606	2062.59
457.979	2071.85
458.352	2124.05
458.725	2139.42
459.099	2170.83
459.472	2160.44
459.845	2240.21
460.218	2248.12
460.591	2241.79
460.964	2234.79
461.337	2303.71
461.71	2321.79
462.083	2365.63
462.456	2361.56
462.829	2357.72
463.201	2420.77
463.574	2414.67
463.947	2415.8
464.32	2526.3
464.692	2516.13
465.065	2510.48
465.438	2563.82
465.81	2596.58
466.183	2650.59
466.555	2643.36
466.928	2678.39
467.3	2658.5
467.672	2727.43
468.045	2819.4
468.417	2813.98
468.789	2819.86
469.161	2854.2
469.534	2890.36
469.906	2936.01
470.278	2915.9
470.65	2997.48
471.022	3033.41
471.394	3095.55
471.766	3092.62
472.138	3169
472.51	3191.6
472.882	3257.58
473.253	3298.26
473.625	3316.11
473.997	3375.77
474.369	3411.93
474.74	3392.5
475.112	3465.26
475.484	3490.8
475.855	3590.46
476.227	3578.71
476.598	3693.05
476.97	3692.83
477.341	3781.64
477.713	3830
478.084	3844.46
478.455	3922.88
478.827	3953.38
479.198	4089.65
479.569	4091.46
479.94	4178.24
480.311	4200.16
480.682	4311.57
481.053	4355.63
481.424	4445.58
481.795	4430.43
482.166	4497.33
482.537	4554.72
482.908	4629.07
483.279	4698.68
483.65	4763.98
484.021	4802.63
484.391	4868.16
484.762	4928.05
485.133	4951.1
485.503	5011.44
485.874	5128.5
486.244	5134.6
486.615	5235.84
486.985	5263.18
487.356	5366.91
487.726	5356.29
488.097	5486.23
488.467	5451.88
488.837	5606.67
489.207	5657.07
489.578	5730.51
489.948	5719.21
490.318	5776.84
490.688	5852.77
491.058	5907.91
491.428	5947.68
491.798	6034.69
492.168	6063.16
492.538	6105.19
492.908	6196.04
493.278	6232.87
493.648	6224.96
494.017	6330.05
494.387	6409.82
494.757	6397.84
495.126	6493.88
495.496	6466.76
495.866	6505.86
496.235	6567.78
496.605	6617.72
496.974	6652.52
497.344	6674.22
497.713	6718.28
498.082	6804.84
498.452	6822.91
498.821	6843.93
499.19	6857.49
499.559	6887.54
499.928	6895.45
500.298	6974.55
500.667	7021.55
501.036	7043.02
501.405	7014.77
501.774	7081.44
502.143	7080.31
502.512	7127.31
502.88	7189.68
503.249	7206.86
503.618	7235.56
503.987	7243.69
504.356	7262
504.724	7302.45
505.093	7332.96
505.462	7352.39
505.83	7320.75
506.199	7414.08
506.567	7480.07
506.936	7476
507.304	7503.35
507.672	7532.95
508.041	7528.88
508.409	7617.47
508.777	7607.3
509.145	7657.47
509.514	7625.6
509.882	7719.84
510.25	7685.49
510.618	7680.74
510.986	7721.65
511.354	7803.23
511.722	7810.23
512.09	7822.89
512.458	7828.99
512.826	7873.73
513.193	7900.17
513.561	7888.65
513.929	7929.1
514.297	7930
514.664	7957.57
515.032	8036.67
515.4	8005.93
515.767	8045.93
516.135	8046.38
516.502	8004.13
516.869	8129.77
517.237	8112.15
517.604	8073.5
517.972	8138.13
518.339	8161.64
518.706	8143.56
519.073	8143.11
519.44	8186.27
519.808	8192.14
520.175	8155.31
520.542	8286.38
520.909	8265.81
521.276	8296.32
521.643	8261.07
522.009	8328.18
522.376	8328.86
522.743	8406.83
523.11	8397.11
523.477	8418.8
523.843	8411.8
524.21	8498.12
524.577	8589.2
524.943	8584.9
525.31	8575.41
525.676	8570.44
526.043	8590.32
526.409	8569.99
526.776	8706.25
527.142	8671
527.508	8712.81
527.874	8724.56
528.241	8751.45
528.607	8695.63
528.973	8801.62
529.339	8736.99
529.705	8760.04
530.071	8772.24
530.437	8818.79
530.803	8904.44
531.169	8838.45
531.535	8756.87
531.901	8811.56
532.267	8823.09
532.632	8787.16
532.998	8802.97
533.364	8808.4
533.73	8857.44
534.095	8838.68
534.461	8867.15
534.826	8819.47
535.192	8904.44
535.557	8866.7
535.923	8818.12
536.288	8857.21
536.653	8894.72
537.019	8840.26
537.384	8881.62
537.749	8845.69
538.114	8873.48
538.479	8842.3
538.845	8856.08
539.21	8774.27
539.575	8824.22
539.94	8861.96
540.305	8802.07
540.67	8804.33
541.034	8774.5
541.399	8856.53
541.764	8790.55
542.129	8745.58
542.494	8725.24
542.858	8831.45
543.223	8745.8
543.587	8755.52
543.952	8747.38
544.316	8805.91
544.681	8653.83
545.045	8772.69
545.41	8784.9
545.774	8772.47
546.138	8635.07
546.503	8696.76
546.867	8656.54
547.231	8719.59
547.595	8710.77
547.959	8689.53
548.324	8689.31
548.688	8652.92
549.052	8696.99
549.416	8642.75
549.779	8680.27
550.143	8615.86
550.507	8738.57
550.871	8678.01
551.235	8650.89
551.599	8677.33
551.962	8688.63
552.326	8623.09
552.689	8681.4
553.053	8624
553.417	8575.86
553.78	8682.53
554.143	8636.88
554.507	8536.32
554.87	8568.63
555.234	8643.43
555.597	8594.62
555.96	8652.92
556.323	8668.74
556.686	8603.21
557.05	8636.43
557.413	8609.53
557.776	8577.22
558.139	8653.15
558.502	8640.27
558.865	8651.11
559.228	8635.97
559.59	8689.31
559.953	8630.55
560.316	8795.52
560.679	8732.02
561.041	8748.74
561.404	8769.76
561.767	8784.67
562.129	8802.75
562.492	8837.55
562.854	8759.13
563.217	8730.89
563.579	8830.09
563.941	8866.02
564.304	8859.47
564.666	8839.13
565.028	8958.22
565.39	8899.7
565.753	8919.36
566.115	8928.17
566.477	9002.74
566.839	9058.56
567.201	9047.94
567.563	9007.94
567.925	9052.69
568.287	9089.97
568.648	9073.93
569.01	9122.74
569.372	9112.57
569.734	9067.6
570.095	9176.07
570.457	9120.25
570.819	9262.4
571.18	9260.36
571.542	9158.9
571.903	9262.4
572.265	9296.75
572.626	9356.18
572.987	9345.79
573.349	9346.24
573.71	9328.38
574.071	9410.64
574.432	9409.51
574.794	9510.75
575.155	9419
575.516	9480.7
575.877	9550.07
576.238	9528.83
576.599	9528.83
576.96	9553.69
577.32	9532
577.681	9566.8
578.042	9585.78
578.403	9605.21
578.763	9585.78
579.124	9606.8
579.485	9721.59
579.845	9730.86
580.206	9717.98
580.566	9714.36
580.927	9720.24
581.287	9786.23
581.648	9692.22
582.008	9793.46
582.368	9769.73
582.728	9830.52
583.089	9848.15
583.449	9868.48
583.809	9882.72
584.169	9898.54
584.529	9887.47
584.889	9882.72
585.249	9834.81
585.609	9862.38
585.969	9925.66
586.329	9854.7
586.688	9925.21
587.048	9931.31
587.408	9868.03
587.768	9866.9
588.127	10003.85
588.487	9989.84
588.846	9976.5
589.206	10027.8
589.565	9982.15
589.925	10058.99
590.284	10063.28
590.643	10030.97
591.003	10028.25
591.362	10037.52
591.721	10075.03
592.08	10033
592.44	10045.88
592.799	10121.36
593.158	10105.09
593.517	10062.83
593.876	10122.26
594.235	10056.73
594.593	10134.47
594.952	10150.06
595.311	10149.61
595.67	10115.93
596.029	10141.47
596.387	10129.72
596.746	10192.09
597.104	10207.23
597.463	10188.25
597.822	10177.18
598.18	10207.01
598.538	10180.11
598.897	10218.98
599.255	10119.55
599.613	10285.2
599.972	10257.63
600.33	10262.6
600.688	10191.19
601.046	10230.06
601.404	10277.96
601.762	10293.11
602.12	10303.5
602.478	10345.31
602.836	10313.22
603.194	10208.81
603.552	10271.41
603.91	10278.19
604.268	10326.1
604.625	10302.37
604.983	10375.59
605.341	10237.74
605.698	10375.36
606.056	10362.03
606.413	10392.99
606.771	10334.01
607.128	10381.46
607.485	10305.08
607.843	10343.95
608.2	10290.62
608.557	10416.49
608.914	10420.56
609.272	10380.79
609.629	10450.62
609.986	10492.2
610.343	10401.12
610.7	10548.24
611.057	10475.47
611.414	10419.88
611.771	10481.8
612.127	10511.63
612.484	10507.11
612.841	10510.73
613.198	10517.05
613.554	10524.74
613.911	10565.64
614.267	10556.83
614.624	10539.65
614.98	10618.52
615.337	10620.1
615.693	10566.54
616.05	10609.48
616.406	10672.53
616.762	10608.35
617.118	10602.48
617.475	10628.24
617.831	10668.01
618.187	10690.38
618.543	10626.2
618.899	10680.89
619.255	10663.49
619.611	10622.59
619.967	10647.45
620.323	10703.49
620.678	10685.86
621.034	10624.85
621.39	10773.09
621.746	10657.62
622.101	10775.35
622.457	10715.24
622.812	10703.04
623.168	10739.65
623.523	10716.82
623.879	10684.51
624.234	10645.64
624.589	10734.9
624.945	10682.47
625.3	10693.09
625.655	10690.38
626.01	10739.42
626.365	10757.95
626.72	10613.77
627.075	10713.21
627.43	10735.13
627.785	10642.47
628.14	10650.38
628.495	10705.75
628.85	10680.89
629.205	10567.45
629.559	10676.15
629.914	10633.89
630.269	10637.95
630.623	10614.68
630.978	10631.63
631.332	10667.56
631.687	10718.4
632.041	10601.35
632.396	10594.11
632.75	10546.88
633.104	10548.92
633.459	10560.44
633.813	10497.39
634.167	10531.52
634.521	10523.83
634.875	10492.87
635.229	10398.64
635.583	10385.98
635.937	10454.91
636.291	10444.51
636.645	10418.3
636.999	10374.68
637.352	10461.46
637.706	10364.97
638.06	10402.03
638.413	10355.02
638.767	10297.17
639.121	10339.88
639.474	10316.83
639.828	10261.92
640.181	10284.29
640.534	10255.82
640.888	10264.63
641.241	10225.08
641.594	10220.11
641.947	10289.72
642.301	10272.77
642.654	10246.55
643.007	10206.33
643.36	10216.27
643.713	10179.21
644.066	10303.27
644.419	10191.19
644.771	10123.84
645.124	9999.1
645.477	10035.94
645.83	9945.77
646.182	9890.63
646.535	9903.06
646.888	9882.49
647.24	9829.61
647.593	9855.15
647.945	9807.69
648.298	9715.49
648.65	9793.23
649.002	9737.64
649.355	9810.41
649.707	9830.07
650.059	9856.28
650.411	9958.88
650.763	10012.21
651.115	10040
651.467	10080.23
651.819	10027.58
652.171	10021.7
652.523	9989.16
652.875	9988.03
653.227	9948.48
653.578	10053.11
653.93	10000.68
654.282	10016.95
654.633	10000.68
654.985	9948.71
655.337	10064.41
655.688	9933.57
656.039	10065.99
656.391	9961.36
656.742	9992.55
657.094	10007.46
657.445	10062.38
657.796	10038.42
658.147	10028.93
658.498	9960.91
658.849	9996.39
659.2	9976.05
659.551	9983.06
659.902	9968.37
660.253	9976.96
660.604	9990.06
660.955	10016.95
661.306	9972.44
661.656	9957.29
662.007	10005.88
662.358	9974.47
662.708	10036.84
663.059	10049.04
663.409	9929.95
663.76	9979.22
664.11	9943.28
664.461	9979.67
664.811	9974.24
665.161	10028.93
665.511	9962.94
665.862	10025.32
666.212	10003.62
666.562	10001.14
666.912	9987.12
667.262	9976.28
667.612	9999.33
667.962	10020.57
668.312	9956.62
668.662	10063.28
669.011	9987.58
669.361	9958.88
669.711	9986.45
670.06	9981.93
670.41	9939.22
670.76	9948.93
671.109	9988.25
671.459	9994.13
671.808	9983.06
672.157	9970.4
672.507	9871.42
672.856	9943.96
673.205	9881.36
673.554	9941.48
673.904	9889.95
674.253	9952.1
674.602	9855.38
674.951	9807.92
675.3	9745.77
675.649	9832.1
675.998	9781.71
676.346	9844.53
676.695	9900.8
677.044	9815.83
677.393	9795.04
677.741	9802.04
678.09	9813.8
678.438	9823.96
678.787	9734.93
679.135	9752.33
679.484	9727.47
679.832	9746
680.181	9691.31
680.529	9731.09
680.877	9651.31
681.225	9634.14
681.573	9721.14
681.922	9575.16
682.27	9619
682.618	9556.18
682.966	9569.28
683.314	9596.4
683.661	9562.73
684.009	9492
684.357	9489.06
684.705	9482.5
685.053	9483.41
685.4	9427.82
685.748	9428.72
686.095	9351.21
686.443	9315.28
686.79	9382.85
687.138	9314.83
687.485	9390.3
687.832	9290.65
688.18	9274.83
688.527	9234.83
688.874	9202.74
689.221	9179.01
689.568	9268.73
689.915	9142.17
690.262	9095.85
690.609	9116.19
690.956	9073.7
691.303	9048.62
691.65	8983.31
691.997	9026.92
692.344	9066.24
692.69	8918.23
693.037	8969.07
693.383	8850.43
693.73	8981.73
694.077	8892.01
694.423	8833.03
694.769	8781.05
695.116	8832.35
695.462	8763.65
695.808	8766.14
696.155	8764.56
696.501	8687.05
696.847	8669.64
697.193	8591.91
697.539	8563.88
697.885	8603.66
698.231	8539.7
698.577	8515.3
698.923	8490.89
699.269	8388.52
699.614	8428.52
699.96	8404.79
700.306	8361.86
700.651	8309.43
700.997	8289.32
701.342	8301.07
701.688	8279.37
702.033	8210.22
702.379	8207.28
702.724	8186.95
703.069	8169.09
703.415	8095.2
703.76	8130.9
704.105	8099.49
704.45	8042.99
704.795	8012.04
705.14	7998.7
705.485	7908.53
705.83	7939.95
706.175	7909.66
706.52	7875.77
706.865	7945.37
707.209	7861.53
707.554	7858.59
707.899	7772.04
708.243	7780.85
708.588	7762.32
708.932	7745.15
709.277	7736.56
709.621	7664.02
709.966	7671.03
710.31	7763.68
710.654	7553.74
710.998	7685.72
711.342	7626.96
711.687	7635.1
712.031	7522.78
712.375	7520.3
712.719	7594.87
713.063	7556.23
713.407	7657.02
713.75	7469.68
714.094	7477.13
714.438	7450.69
714.782	7520.07
715.125	7424.93
715.469	7490.24
715.812	7376.8
716.156	7399.17
716.499	7380.87
716.843	7390.58
717.186	7316.23
717.53	7329.12
717.873	7343.13
718.216	7327.76
718.559	7340.64
718.902	7199.63
719.246	7283.01
719.589	7275.56
719.932	7207.08
720.275	7211.15
720.617	7233.3
720.96	7201.43
721.303	7189.46
721.646	7226.52
721.989	7143.58
722.331	7195.56
722.674	7141.32
723.016	7153.53
723.359	7230.13
723.701	7166.41
724.044	7162.79
724.386	7103.81
724.729	7192.4
725.071	7148.1
725.413	7086.86
725.755	7109.23
726.097	7083.47
726.439	7005.28
726.782	7067.88
727.124	7073.3
727.465	7098.39
727.807	7089.57
728.149	7014.77
728.491	7051.38
728.833	7024.49
729.175	7035.79
729.516	7038.5
729.858	7047.31
730.199	7043.25
730.541	7013.19
730.882	6945.62
731.224	7066.3
731.565	7015.68
731.906	6999.86
732.248	7000.31
732.589	6960.54
732.93	6981.33
733.271	6941.33
733.612	6961.22
733.953	6982.23
734.294	6950.14
734.635	6972.74
734.976	7001.44
735.317	6913.31
735.658	6962.35
735.999	6971.16
736.339	6976.13
736.68	7069.91
737.021	6974.1
737.361	6986.3
737.702	7022
738.042	6975.68
738.383	6935.91
738.723	6959.86
739.063	6999.86
739.404	7029.01
739.744	7018.16
740.084	6981.55
740.424	7031.27
740.764	7048.67
741.104	7031.04
741.444	6997.37
741.784	7027.88
742.124	7021.55
742.464	7091.16
742.804	7074.43
743.143	7134.77
743.483	7101.32
743.823	7127.09
744.162	7147.43
744.502	7173.41
744.841	7120.08
745.181	7238.27
745.52	7210.93
745.86	7235.78
746.199	7227.2
746.538	7243.92
746.877	7322.79
747.216	7337.7
747.556	7385.38
747.895	7421.77
748.234	7350.58
748.573	7454.54
748.911	7447.08
749.25	7551.03
749.589	7574.98
749.928	7658.82
750.267	7718.71
750.605	7717.58
750.944	7806.16
751.283	7845.94
751.621	7893.17
751.96	7930.91
752.298	8063.33
752.636	8052.71
752.975	8158.02
753.313	8201.41
753.651	8267.17
753.989	8307.17
754.327	8424.91
754.666	8443.44
755.004	8657.44
755.342	8718.01
755.679	8805.46
756.017	8859.47
756.355	8926.36
756.693	9031.9
757.031	9155.28
757.368	9206.81
757.706	9379.68
758.044	9397.54
758.381	9569.51
758.719	9677.75
759.056	9827.35
759.394	9909.84
759.731	9925.66
760.068	10045.88
760.405	10107.57
760.743	10296.49
761.08	10442.03
761.417	10571.52
761.754	10707.33
762.091	10838.63
762.428	10948.91
762.765	11073.42
763.102	11185.28
763.438	11290.59
763.775	11397.26
764.112	11491.72
764.449	11701.66
764.785	11754.08
765.122	11808.32
765.458	11846.96
765.795	12039.27
766.131	12100.74
