Data from hue_330_FLMS001491_21.txt Node
Date: Mon Feb 06 15:45:09 GMT 2017
User: dcchb
Spectrometer: FLMS00149
Trigger mode: 0
Integration Time (sec): 2.000000E-2
Scans to average: 10
Electric dark correction enabled: true
Nonlinearity correction enabled: false
Boxcar width: 0
XAxis mode: Wavelengths
Number of Pixels in Spectrum: 2048
>>>>>Begin Spectral Data<<<<<
341.393	-2.2
341.776	-2.2
342.16	-2.2
342.543	-53.28
342.927	-63.67
343.31	-86.49
343.693	-55.99
344.077	-63.9
344.46	-52.6
344.843	-61.18
345.226	-51.69
345.61	-46.5
345.993	-20.96
346.376	-13.73
346.759	11.81
347.142	39.38
347.525	47.29
347.908	56.1
348.291	78.92
348.674	115.08
349.057	104.46
349.44	136.32
349.823	149.43
350.206	145.14
350.588	189.2
350.971	211.58
351.354	208.19
351.737	240.73
352.119	224.23
352.502	260.61
352.884	270.33
353.267	269.2
353.65	300.16
354.032	300.84
354.414	321.4
354.797	301.52
355.179	329.09
355.562	337.9
355.944	328.64
356.326	321.4
356.709	327.51
357.091	331.35
357.473	337.22
357.855	321.86
358.238	344.45
358.62	358.92
359.002	344.91
359.384	326.6
359.766	328.41
360.148	341.29
360.53	324.12
360.912	326.38
361.294	331.12
361.676	328.86
362.057	332.93
362.439	323.89
362.821	327.51
363.203	329.54
363.584	349.65
363.966	323.89
364.348	346.26
364.729	322.31
365.111	314.17
365.493	329.09
365.874	315.98
366.256	324.79
366.637	307.85
367.019	303.33
367.4	306.04
367.781	318.92
368.163	309.88
368.544	307.39
368.925	309.43
369.306	324.34
369.688	324.34
370.069	280.95
370.45	308.52
370.831	303.33
371.212	324.57
371.593	298.58
371.974	310.1
372.355	332.25
372.736	307.39
373.117	314.4
373.498	314.4
373.879	305.59
374.26	315.98
374.641	309.88
375.021	302.87
375.402	318.24
375.783	313.49
376.163	328.86
376.544	333.83
376.925	336.32
377.305	330.44
377.686	311.46
378.066	335.19
378.447	343.1
378.827	331.35
379.208	327.05
379.588	341.97
379.968	329.54
380.349	334.96
380.729	329.09
381.109	322.99
381.489	346.04
381.87	340.61
382.25	331.8
382.63	338.35
383.01	351.69
383.39	331.35
383.77	358.01
384.15	342.65
384.53	335.64
384.91	324.34
385.29	338.35
385.67	333.83
386.049	346.04
386.429	347.39
386.809	348.52
387.189	372.02
387.568	372.48
387.948	332.48
388.328	368.41
388.707	368.18
389.087	360.5
389.466	349.2
389.846	354.62
390.225	378.58
390.605	364.11
390.984	365.24
391.363	360.5
391.743	352.59
392.122	360.05
392.501	366.15
392.881	382.19
393.26	378.58
393.639	359.14
394.018	377
394.397	373.83
394.776	360.27
395.155	377.67
395.534	370.44
395.913	375.87
396.292	383.1
396.671	386.04
397.05	385.36
397.429	387.39
397.808	391.68
398.186	373.38
398.565	360.72
398.944	389.65
399.323	399.37
399.701	376.09
400.08	396.66
400.458	395.75
400.837	386.71
401.215	402.98
401.594	391.01
401.972	380.84
402.351	376.77
402.729	409.31
403.107	415.19
403.486	416.54
403.864	402.08
404.242	410.22
404.62	423.1
404.999	426.49
405.377	426.26
405.755	421.97
406.133	437.79
406.511	440.95
406.889	433.94
407.267	444.11
407.645	451.8
408.023	447.5
408.401	447.73
408.779	459.25
409.156	465.35
409.534	442.53
409.912	464.9
410.29	479.14
410.667	463.77
411.045	500.61
411.422	479.59
411.8	476.43
412.178	505.81
412.555	500.83
412.933	498.35
413.31	519.82
413.687	520.04
414.065	526.82
414.442	532.47
414.819	536.31
415.197	529.53
415.574	536.09
415.951	546.93
416.328	555.97
416.705	557.78
417.082	558.46
417.46	556.2
417.837	579.25
418.214	555.75
418.591	590.55
418.967	579.48
419.344	617.44
419.721	621.96
420.098	610.21
420.475	607.72
420.852	591.68
421.228	642.53
421.605	638.68
421.982	628.97
422.358	620.15
422.735	654.95
423.111	639.14
423.488	640.04
423.864	659.02
424.241	659.25
424.617	635.29
424.994	668.97
425.37	686.82
425.746	675.07
426.123	682.3
426.499	689.3
426.875	668.97
427.251	703.99
427.627	725.24
428.003	730.66
428.379	733.6
428.756	718
429.132	755.74
429.507	752.35
429.883	751
430.259	765.46
430.635	793.93
431.011	764.78
431.387	798
431.763	794.61
432.138	802.75
432.514	846.81
432.89	821.96
433.265	817.21
433.641	854.72
434.016	854.72
434.392	875.74
434.767	880.26
435.143	889.75
435.518	901.73
435.894	888.85
436.269	904.21
436.644	907.38
437.02	933.82
437.395	930.43
437.77	941.73
438.145	934.72
438.52	966.58
438.895	960.03
439.271	950.31
439.646	974.95
440.021	963.42
440.395	1004.32
440.77	981.27
441.145	993.25
441.52	999.35
441.895	1013.59
442.27	1015.4
442.645	1031.67
443.019	1034.38
443.394	1023.98
443.769	1027.6
444.143	1035.06
444.518	1045
444.892	1023.98
445.267	1052.91
445.641	1068.5
446.016	1058.11
446.39	1047.71
446.764	1089.29
447.139	1066.92
447.513	1047.03
447.887	1066.47
448.262	1101.27
448.636	1089.52
449.01	1094.27
449.384	1096.52
449.758	1085.68
450.132	1119.8
450.506	1121.38
450.88	1129.74
451.254	1102.85
451.628	1118.22
452.002	1139.46
452.376	1152.34
452.75	1125.22
453.123	1131.33
453.497	1162.74
453.871	1186.47
454.244	1187.14
454.618	1185.34
454.992	1218.56
455.365	1220.14
455.739	1235.5
456.112	1206.58
456.486	1220.36
456.859	1233.02
457.232	1249.52
457.606	1269.4
457.979	1264.88
458.352	1270.76
458.725	1311.21
459.099	1306.46
459.472	1314.15
459.845	1331.09
460.218	1355.28
460.591	1346.24
460.964	1359.79
461.337	1385.33
461.71	1396.18
462.083	1409.51
462.456	1394.6
462.829	1402.96
463.201	1411.54
463.574	1432.34
463.947	1438.21
464.32	1455.61
464.692	1488.15
465.065	1482.73
465.438	1501.49
465.81	1521.6
466.183	1555.5
466.555	1553.46
466.928	1550.52
467.3	1536.29
467.672	1554.37
468.045	1619.45
468.417	1576.51
468.789	1590.98
469.161	1625.55
469.534	1628.71
469.906	1682.95
470.278	1691.31
470.65	1703.74
471.022	1736.06
471.394	1740.8
471.766	1743.97
472.138	1757.75
472.51	1822.16
472.882	1826.68
473.253	1831.19
473.625	1883.62
473.997	1870.74
474.369	1887.46
474.74	1917.75
475.112	1938.54
475.484	1936.05
475.855	1981.93
476.227	1993.45
476.598	2041.58
476.97	2058.76
477.341	2115.48
477.713	2076.16
478.084	2130.4
478.455	2166.55
478.827	2191.19
479.198	2217.63
479.569	2246.1
479.94	2296.04
480.311	2285.65
480.682	2319.09
481.053	2378.3
481.424	2408.35
481.795	2419.43
482.166	2468.47
482.537	2482.48
482.908	2527.67
483.279	2536.49
483.65	2592.3
484.021	2636.82
484.391	2643.83
484.762	2681.79
485.133	2688.8
485.503	2717.73
485.874	2745.97
486.244	2775.8
486.615	2800.43
486.985	2873.43
487.356	2860.55
487.726	2941
488.097	2985.29
488.467	2975.57
488.837	3005.4
489.207	3059.86
489.578	3099.86
489.948	3122.69
490.318	3114.32
490.688	3160.65
491.058	3195.68
491.428	3220.99
491.798	3246.52
492.168	3343.92
492.538	3283.81
492.908	3351.83
493.278	3411.94
493.648	3376.92
494.017	3434.09
494.387	3436.58
494.757	3509.12
495.126	3513.64
495.496	3495.33
495.866	3537.14
496.235	3541.43
496.605	3559.51
496.974	3620.07
497.344	3618.04
497.713	3621.2
498.082	3661.2
498.452	3692.39
498.821	3747.53
499.19	3743.91
499.559	3783.46
499.928	3786.62
500.298	3826.85
500.667	3816
501.036	3800.18
501.405	3828.43
501.774	3862.55
502.143	3839.5
502.512	3884.93
502.88	3923.34
503.249	3957.01
503.618	3952.95
503.987	3966.96
504.356	3994.3
504.724	3976
505.093	4017.8
505.462	4040.4
505.83	4011.48
506.199	4051.93
506.567	4111.36
506.936	4047.18
507.304	4154.98
507.672	4104.58
508.041	4144.81
508.409	4175.99
508.777	4173.96
509.145	4232.26
509.514	4184.13
509.882	4231.81
510.25	4254.86
510.618	4201.98
510.986	4242.43
511.354	4318.59
511.722	4340.96
512.09	4331.92
512.458	4321.07
512.826	4366.5
513.193	4368.08
513.561	4383.67
513.929	4395.2
514.297	4406.04
514.664	4428.41
515.032	4426.15
515.4	4457.79
515.767	4464.57
516.135	4498.02
516.502	4425.02
516.869	4531.69
517.237	4531.24
517.604	4467.28
517.972	4511.12
518.339	4532.82
518.706	4555.64
519.073	4562.42
519.44	4540.95
519.808	4598.58
520.175	4618.69
520.542	4642.87
520.909	4694.85
521.276	4677.45
521.643	4725.58
522.009	4697.11
522.376	4695.07
522.743	4763.32
523.11	4747.73
523.477	4802.87
523.843	4833.38
524.21	4870.89
524.577	4860.72
524.943	4873.37
525.31	4890.1
525.676	5006.25
526.043	4955.63
526.409	4993.6
526.776	5052.35
527.142	5046.03
527.508	5095.97
527.874	5055.29
528.241	5085.35
528.607	5173.48
528.973	5112.24
529.339	5128.96
529.705	5220.26
530.071	5242.4
530.437	5250.09
530.803	5235.4
531.169	5266.36
531.535	5292.8
531.901	5302.97
532.267	5333.93
532.632	5378.9
532.998	5402.17
533.364	5422.06
533.73	5443.53
534.095	5481.95
534.461	5493.7
534.826	5526.24
535.192	5541.61
535.557	5569.4
535.923	5554.49
536.288	5616.63
536.653	5620.93
537.019	5632.45
537.384	5642.62
537.749	5676.97
538.114	5682.62
538.479	5692.11
538.845	5679.23
539.21	5713.35
539.575	5770.53
539.94	5862.73
540.305	5817.98
540.67	5819.79
541.034	5809.4
541.399	5808.27
541.764	5871.99
542.129	5951.31
542.494	5926.45
542.858	5968.26
543.223	5999.45
543.587	6048.03
543.952	6046.23
544.316	6116.96
544.681	6074.93
545.045	6114.47
545.41	6127.13
545.774	6158.99
546.138	6183.85
546.503	6265.88
546.867	6215.49
547.231	6320.34
547.595	6282.6
547.959	6300.91
548.324	6285.77
548.688	6327.57
549.052	6367.8
549.416	6318.31
549.779	6403.73
550.143	6365.54
550.507	6434.46
550.871	6457.74
551.235	6476.95
551.599	6533.67
551.962	6485.08
552.326	6585.19
552.689	6625.19
553.053	6588.36
553.417	6585.87
553.78	6654.34
554.143	6652.31
554.507	6665.19
554.87	6667.45
555.234	6729.37
555.597	6717.17
555.96	6757.39
556.323	6790.61
556.686	6731.86
557.05	6785.41
557.413	6779.54
557.776	6868.8
558.139	6905.19
558.502	6855.02
558.865	6855.7
559.228	6917.61
559.59	6938.41
559.953	6961
560.316	6992.64
560.679	7049.59
561.041	7043.71
561.404	7008.46
561.767	7092.98
562.129	7055.46
562.492	7144.5
562.854	7135.69
563.217	7146.76
563.579	7151.51
563.941	7163.26
564.304	7260.2
564.666	7292.29
565.028	7311.05
565.39	7309.47
565.753	7353.54
566.115	7353.08
566.477	7380.2
566.839	7389.69
567.201	7461.78
567.563	7415.23
567.925	7514.89
568.287	7513.08
568.648	7520.76
569.01	7575
569.372	7644.15
569.734	7598.5
570.095	7674.88
570.457	7740.42
570.819	7749.68
571.18	7695.67
571.542	7780.87
571.903	7848.44
572.265	7883.69
572.626	7876.23
572.987	7983.58
573.349	7998.04
573.71	8021.31
574.071	8087.98
574.432	8178.15
574.794	8252.04
575.155	8278.03
575.516	8230.57
575.877	8337.92
576.238	8424.47
576.599	8480.51
576.96	8578.36
577.32	8585.59
577.681	8744.69
578.042	8764.57
578.403	8844.57
578.763	8924.79
579.124	9049.76
579.485	9107.39
579.845	9291.79
580.206	9306.93
580.566	9483.2
580.927	9485.46
581.287	9705.56
581.648	9753.02
582.008	10036.4
582.368	9989.17
582.728	10237.3
583.089	10344.87
583.449	10546.67
583.809	10700.79
584.169	10933.55
584.529	11066.43
584.889	11315.01
585.249	11297.16
585.609	11489.25
585.969	11757.94
586.329	12036.35
586.688	12184.82
587.048	12426.4
587.408	12632.27
587.768	12799.27
588.127	13089.88
588.487	13208.52
588.846	13641.96
589.206	13719.02
589.565	13961.27
589.925	14236.97
590.284	14480.35
590.643	14746.11
591.003	14997.4
591.362	15311.07
591.721	15617.5
592.08	15753.99
592.44	16137.03
592.799	16503.58
593.158	16643.46
593.517	16903.34
593.876	17196.44
594.235	17527.51
594.593	17770.89
594.952	18144.21
595.311	18279.58
595.67	18620.36
596.029	19052.21
596.387	19286.78
596.746	19598.41
597.104	19842.7
597.463	20181.45
597.822	20354.1
598.18	20547.99
598.538	20812.39
598.897	21245.83
599.255	21406.95
599.613	21942.53
599.972	22136.42
600.33	22442.18
600.688	22589.52
601.046	22868.16
601.404	23382.72
601.762	23534.8
602.12	23868.81
602.478	24124.39
602.836	24455.01
603.194	24533.65
603.552	24976.8
603.91	25033.07
604.268	25366.4
604.625	25488.65
604.983	25918.47
605.341	26088.64
605.698	26416.54
606.056	26705.57
606.413	26788.05
606.771	27146.91
607.128	27477.53
607.485	27593.68
607.843	27755.94
608.2	28067.34
608.557	28368.35
608.914	28447.67
609.272	28737.83
609.629	28992.51
609.986	29243.58
610.343	29378.72
610.7	29745.72
611.057	29861.87
611.414	30111.81
611.771	30117.68
612.127	30567.61
612.484	30625.92
612.841	30768.96
613.198	30871.56
613.554	31149.97
613.911	31457.53
614.267	31586.34
614.624	31715.83
614.98	31829.28
615.337	32140.91
615.693	32187.01
616.05	32363.95
616.406	32664.06
616.762	32650.27
617.118	32729.82
617.475	32904.05
617.831	33100.66
618.187	33304.94
618.543	33361.21
618.899	33756.91
619.255	33847.75
619.611	33809.34
619.967	33884.59
620.323	34190.57
620.678	34149.67
621.034	34181.98
621.39	34284.58
621.746	34395.76
622.101	34972.47
622.457	34729.99
622.812	34848.63
623.168	35026.03
623.523	35103.99
623.879	35323.42
624.234	35122.07
624.589	35405.23
624.945	35470.08
625.3	35576.07
625.655	35622.4
626.01	35806.8
626.365	35867.81
626.72	35684.99
627.075	35942.61
627.43	35922.5
627.785	35857.87
628.14	36133.12
628.495	36106.23
628.85	36138.32
629.205	36021.26
629.559	36348.71
629.914	36128.82
630.269	36280.46
630.623	36239.56
630.978	36260.57
631.332	36463.5
631.687	36608.59
632.041	36430.51
632.396	36608.13
632.75	36512.77
633.104	36565.2
633.459	36399.78
633.813	36378.76
634.167	36601.81
634.521	36473
634.875	36632.09
635.229	36551.41
635.583	36557.51
635.937	36607.23
636.291	36489.27
636.645	36611.3
636.999	36605.87
637.352	36533.56
637.706	36543.28
638.06	36708.92
638.413	36620.34
638.767	36524.52
639.121	36704.18
639.474	36430.06
639.828	36475.03
640.181	36583.5
640.534	36490.85
640.888	36491.75
641.241	36400.91
641.594	36495.14
641.947	36551.86
642.301	36394.58
642.654	36507.8
643.007	36544.86
643.36	36440.23
643.713	36456.05
644.066	36583.73
644.419	36296.96
644.771	36143.74
645.124	35903.29
645.477	35636.41
645.83	35590.08
646.182	35449.07
646.535	35327.26
646.888	35419.01
647.24	35167.49
647.593	35514.38
647.945	35330.2
648.298	35230.99
648.65	35138.12
649.002	35194.61
649.355	35208.85
649.707	35330.2
650.059	35356.41
650.411	35849.96
650.763	35908.94
651.115	36190.74
651.467	36172.89
651.819	36130.63
652.171	36125.21
652.523	35968.83
652.875	36014.7
653.227	36064.42
653.578	36185.77
653.93	36065.1
654.282	35939.45
654.633	35955.95
654.985	35929.06
655.337	35992.78
655.688	36059.9
656.039	35991.65
656.391	35770.64
656.742	35877.98
657.094	35820.58
657.445	36026.23
657.796	35897.87
658.147	35845.67
658.498	35737.65
658.849	35941.26
659.2	35814.93
659.551	35553.7
659.902	35844.54
660.253	35720.02
660.604	35720.93
660.955	35547.82
661.306	35831.88
661.656	35664.88
662.007	35719.57
662.358	35700.59
662.708	35648.38
663.059	35699.91
663.409	35536.75
663.76	35757.99
664.11	35662.62
664.461	35807.7
664.811	35591.21
665.161	35715.95
665.511	35669.63
665.862	35693.36
666.212	35904.42
666.562	35741.04
666.912	35628.05
667.262	35654.26
667.612	35600.93
667.962	35656.52
668.312	35633.02
668.662	35730.42
669.011	35618.78
669.361	35592.34
669.711	35466.69
670.06	35536.98
670.41	35578.1
670.76	35494.04
671.109	35531.55
671.459	35512.12
671.808	35400.48
672.157	35523.87
672.507	35460.82
672.856	35338.34
673.205	35412.68
673.554	35475.73
673.904	35374.95
674.253	35457.2
674.602	35375.17
674.951	34979.25
675.3	34791.46
675.649	35262.86
675.998	35277.77
676.346	35329.97
676.695	35369.3
677.044	35117.33
677.393	35328.17
677.741	35212.24
678.09	35163.65
678.438	35015.86
678.787	35239.81
679.135	35312.12
679.484	34943.32
679.832	35175.63
680.181	34839.59
680.529	35036.2
680.877	34905.81
681.225	34957.33
681.573	35162.52
681.922	34799.82
682.27	34718.47
682.618	34686.38
682.966	34612.48
683.314	34686.83
683.661	34652.93
684.009	34520.05
684.357	34422.43
684.705	34362.54
685.053	34465.59
685.4	34406.61
685.748	34205.03
686.095	34311.92
686.443	34185.37
686.79	34075.77
687.138	34246.16
687.485	34014.98
687.832	33902.67
688.18	33835.33
688.527	33827.87
688.874	33848.88
689.221	33809.11
689.568	33643.69
689.915	33555.56
690.262	33597.59
690.609	33399.18
690.956	33394.88
691.303	33329.35
691.65	33155.12
691.997	33128.68
692.344	33029.92
692.69	33005.52
693.037	33064.05
693.383	32765.97
693.73	32827.67
694.077	32565.3
694.423	32735.47
694.769	32614.57
695.116	32576.83
695.462	32465.19
695.808	32361.24
696.155	32387
696.501	32155.14
696.847	32246.44
697.193	31872.44
697.539	32082.38
697.885	31820.69
698.231	31772.78
698.577	31749.05
698.923	31674.93
699.269	31414.37
699.614	31372.79
699.96	31350.87
700.306	31487.14
700.651	31220.93
700.997	31176.19
701.342	31051.22
701.688	31106.81
702.033	30863.65
702.379	30946.81
702.724	30894.39
703.069	30970.54
703.415	30614.62
703.76	30583.21
704.105	30566.94
704.45	30543.43
704.795	30378.24
705.14	30197.23
705.485	30296.66
705.83	30049.66
706.175	30144.12
706.52	30056.44
706.865	29790.91
707.209	29947.52
707.554	29864.13
707.899	29898.93
708.243	29666.17
708.588	29584.14
708.932	29457.59
709.277	29436.34
709.621	29609
709.966	29290.59
710.31	29387.31
710.654	29105.51
710.998	29218.72
711.342	29140.31
711.687	29075
712.031	29031.84
712.375	28904.38
712.719	28883.36
713.063	28871.16
713.407	28869.81
713.75	28796.81
714.094	28821.22
714.438	28621.45
714.782	28525.86
715.125	28405.86
715.469	28525.86
715.812	28312.31
716.156	28216.94
716.499	28235.02
716.843	28352.53
717.186	28207.68
717.53	28282.48
717.873	28266.66
718.216	28062.6
718.559	27895.82
718.902	27837.74
719.246	27879.32
719.589	27717.97
719.932	27634.58
720.275	27721.81
720.617	27745.99
720.96	27569.28
721.303	27619.44
721.646	27623.51
721.989	27469.39
722.331	27447.7
722.674	27465.55
723.016	27557.52
723.359	27461.71
723.701	27357.53
724.044	27263.75
724.386	27144.2
724.729	27131.77
725.071	27143.3
725.413	27052.45
725.755	27030.31
726.097	27010.19
726.439	26816.98
726.782	26895.85
727.124	27057.65
727.465	26814.49
727.807	26966.35
728.149	26766.81
728.491	26731.33
728.833	26708.28
729.175	26661.95
729.516	26638.9
729.858	26515.97
730.199	26537.44
730.541	26437.78
730.882	26484.78
731.224	26499.25
731.565	26282.76
731.906	26318.23
732.248	26220.16
732.589	26275.75
732.93	26151.23
733.271	26085.47
733.612	26092.25
733.953	26089.77
734.294	26016.32
734.635	26011.12
734.976	26031.24
735.317	25730.91
735.658	25821.07
735.999	25865.59
736.339	25800.06
736.68	25839.38
737.021	25750.11
737.361	25624.02
737.702	25918.25
738.042	25641.42
738.383	25571.81
738.723	25738.81
739.063	25572.72
739.404	25562.55
739.744	25463.57
740.084	25462.66
740.424	25401.2
740.764	25387.41
741.104	25391.03
741.444	25298.83
741.784	25243.23
742.124	25139.96
742.464	25310.35
742.804	25194.65
743.143	25090.24
743.483	25028.32
743.823	24996.46
744.162	24960.08
744.502	25120.07
744.841	24901.32
745.181	24916.69
745.52	24862.91
745.86	24849.8
746.199	24819.29
746.538	24744.26
746.877	24719.63
747.216	24813.42
747.556	24642.8
747.895	24644.83
748.234	24587.66
748.573	24490.03
748.911	24392.86
749.25	24380.88
749.589	24351.73
749.928	24348.12
750.267	24335.46
750.605	24313.99
750.944	24260.66
751.283	24172.75
751.621	24258.4
751.96	24045.07
752.298	24067.9
752.636	24094.34
752.975	24006.2
753.313	23837.62
753.651	24019.54
753.989	23916.49
754.327	23753.56
754.666	23777.06
755.004	23697.29
755.342	23724.86
755.679	23641.69
756.017	23523.96
756.355	23598.76
756.693	23373.68
757.031	23463.39
757.368	23313.34
757.706	23404.41
758.044	23178.88
758.381	23230.41
758.719	23159.67
759.056	23086.46
759.394	23089.62
759.731	22854.14
760.068	22949.96
760.405	22777.76
