Data from hue_290_FLMS001491_00022.txt Node
Date: Tue Feb 07 15:52:31 GMT 2017
User: dcchb
Spectrometer: FLMS00149
Trigger mode: 0
Integration Time (sec): 2.000000E-2
Scans to average: 10
Electric dark correction enabled: true
Nonlinearity correction enabled: false
Boxcar width: 0
XAxis mode: Wavelengths
Number of Pixels in Spectrum: 2048
>>>>>Begin Spectral Data<<<<<
341.393	-21.86
341.776	-21.86
342.16	-21.86
342.543	-59.38
342.927	-68.19
343.31	-74.97
343.693	-48.53
344.077	-51.02
344.46	-59.15
344.843	-62.31
345.226	-28.64
345.61	-27.29
345.993	-14.41
346.376	-2.66
346.759	6.38
347.142	15.42
347.525	33.28
347.908	39.83
348.291	75.08
348.674	94.97
349.057	104.01
349.44	116.21
349.823	123.22
350.206	163.89
350.588	210.67
350.971	225.36
351.354	231.91
351.737	250.9
352.119	254.29
352.502	254.29
352.884	262.87
353.267	269.88
353.65	264.91
354.032	284.34
354.414	306.26
354.797	297.45
355.179	325.47
355.562	323.44
355.944	308.75
356.326	315.75
356.709	329.77
357.091	333.16
357.473	331.12
357.855	339.26
358.238	340.84
358.62	318.24
359.002	344.68
359.384	327.05
359.766	328.18
360.148	322.08
360.53	326.15
360.912	338.13
361.294	347.62
361.676	317.79
362.057	305.59
362.439	334.06
362.821	318.69
363.203	325.25
363.584	354.62
363.966	308.97
364.348	328.86
364.729	305.13
365.111	305.36
365.493	329.77
365.874	304.46
366.256	318.47
366.637	304.46
367.019	298.35
367.4	312.59
367.781	300.16
368.163	289.99
368.544	286.83
368.925	304
369.306	327.05
369.688	312.36
370.069	323.21
370.45	313.04
370.831	307.17
371.212	325.7
371.593	322.31
371.974	319.14
372.355	319.14
372.736	292.7
373.117	293.83
373.498	294.06
373.879	295.42
374.26	299.71
374.641	302.65
375.021	296.77
375.402	315.53
375.783	316.21
376.163	321.4
376.544	316.88
376.925	351.01
377.305	331.8
377.686	314.4
378.066	326.83
378.447	348.97
378.827	310.78
379.208	333.61
379.588	344.91
379.968	321.4
380.349	332.25
380.729	323.66
381.109	344.45
381.489	346.04
381.87	314.17
382.25	331.57
382.63	337.45
383.01	348.75
383.39	331.57
383.77	326.15
384.15	339.71
384.53	319.14
384.91	347.39
385.29	369.99
385.67	354.62
386.049	339.48
386.429	359.82
386.809	364.11
387.189	338.35
387.568	344.68
387.948	367.28
388.328	357.56
388.707	364.57
389.087	346.04
389.466	344.68
389.846	343.55
390.225	364.57
390.605	364.79
390.984	367.73
391.363	357.11
391.743	355.98
392.122	360.5
392.501	356.43
392.881	372.02
393.26	369.99
393.639	390.33
394.018	392.36
394.397	367.96
394.776	365.7
395.155	367.73
395.534	391.01
395.913	382.87
396.292	387.16
396.671	388.29
397.05	396.2
397.429	406.15
397.808	385.58
398.186	391.01
398.565	390.78
398.944	387.84
399.323	390.1
399.701	422.19
400.08	401.85
400.458	396.66
400.837	431.68
401.215	394.17
401.594	429.65
401.972	404.34
402.351	443.21
402.729	425.81
403.107	431.68
403.486	426.26
403.864	436.43
404.242	442.3
404.62	432.81
404.999	416.99
405.377	437.56
405.755	448.18
406.133	461.29
406.511	461.97
406.889	453.6
407.267	483.89
407.645	464.9
408.023	489.54
408.401	496.54
408.779	488.63
409.156	504.68
409.534	525.92
409.912	499.7
410.29	517.56
410.667	494.05
411.045	533.83
411.422	514.85
411.8	516.65
412.178	551.45
412.555	547.39
412.933	564.56
413.31	576.99
413.687	597.55
414.065	576.09
414.442	606.82
414.819	590.1
415.197	637.55
415.574	617.22
415.951	610.66
416.328	636.88
416.705	608.18
417.082	622.86
417.46	648.18
417.837	662.86
418.214	654.95
418.591	670.77
418.967	661.28
419.344	676.2
419.721	673.26
420.098	705.8
420.475	697.67
420.852	709.42
421.228	723.43
421.605	754.39
421.982	738.79
422.358	743.99
422.735	759.13
423.111	766.59
423.488	764.1
423.864	761.39
424.241	795.97
424.617	811.79
424.994	802.97
425.37	835.97
425.746	853.14
426.123	837.32
426.499	817.89
426.875	853.14
427.251	862.86
427.627	889.75
428.003	875.97
428.379	903.99
428.756	921.61
429.132	922.29
429.507	906.02
429.883	940.14
430.259	929.07
430.635	965.91
431.011	942.86
431.387	977.66
431.763	997.54
432.138	1021.72
432.514	1013.59
432.89	1035.51
433.265	1074.15
433.641	1059.46
434.016	1089.29
434.392	1078.22
434.767	1121.16
435.143	1102.63
435.518	1101.04
435.894	1126.58
436.269	1126.81
436.644	1145.11
437.02	1181.04
437.395	1177.88
437.77	1176.97
438.145	1188.5
438.52	1216.52
438.895	1203.64
439.271	1211.55
439.646	1266.46
440.021	1253.58
440.395	1275.05
440.77	1267.82
441.145	1263.07
441.52	1306.91
441.895	1292.68
442.27	1312.79
442.645	1330.87
443.019	1344.2
443.394	1328.84
443.769	1343.3
444.143	1363.86
444.518	1362.28
444.892	1375.39
445.267	1360.92
445.641	1394.6
446.016	1368.16
446.39	1371.32
446.764	1401.6
447.139	1398.21
447.513	1407.7
447.887	1419.23
448.262	1422.39
448.636	1433.69
449.01	1433.01
449.384	1448.83
449.758	1412
450.132	1483.18
450.506	1462.39
450.88	1495.38
451.254	1516.17
451.628	1515.95
452.002	1509.62
452.376	1506.91
452.75	1522.05
453.123	1541.94
453.497	1510.07
453.871	1543.07
454.244	1579.45
454.618	1562.28
454.992	1608.15
455.365	1594.14
455.739	1622.61
456.112	1640.47
456.486	1660.58
456.859	1658.32
457.232	1689.5
457.606	1666.45
457.979	1703.74
458.352	1699.67
458.725	1741.25
459.099	1747.36
459.472	1765.21
459.845	1743.74
460.218	1820.12
460.591	1766.34
460.964	1811.53
461.337	1849.05
461.71	1853.79
462.083	1882.04
462.456	1874.58
462.829	1860.35
463.201	1874.13
463.574	1905.54
463.947	1916.84
464.32	1942.15
464.692	1966.33
465.065	1995.26
465.438	1971.53
465.81	1997.07
466.183	2034.81
466.555	2050.62
466.928	2039.78
467.3	2083.17
467.672	2079.32
468.045	2117.06
468.417	2138.08
468.789	2155.93
469.161	2149.83
469.534	2186.89
469.906	2236.38
470.278	2206.78
470.65	2235.48
471.022	2274.8
471.394	2288.36
471.766	2310.96
472.138	2359.99
472.51	2396.38
472.882	2382.37
473.253	2426.66
473.625	2448.58
473.997	2444.51
474.369	2507.56
474.74	2533.1
475.112	2512.08
475.484	2549.82
475.855	2606.99
476.227	2627.56
476.598	2692.42
476.97	2700.1
477.341	2757.95
477.713	2733.77
478.084	2741.91
478.455	2844.05
478.827	2863.71
479.198	2898.74
479.569	2886.76
479.94	2981.45
480.311	2976.25
480.682	3057.83
481.053	3055.12
481.424	3077.04
481.795	3127.21
482.166	3148
482.537	3227.77
482.908	3273.87
483.279	3259.63
483.65	3292.63
484.021	3343.25
484.391	3401.55
484.762	3377.14
485.133	3399.97
485.503	3441.32
485.874	3547.08
486.244	3552.51
486.615	3594.54
486.985	3617.59
487.356	3692.39
487.726	3673.63
488.097	3740.98
488.467	3717.47
488.837	3822.33
489.207	3860.52
489.578	3897.13
489.948	3922.21
490.318	3916.79
490.688	3960.18
491.058	4015.77
491.428	4059.38
491.798	4058.25
492.168	4120.63
492.538	4157.46
492.908	4133.06
493.278	4179.38
493.648	4142.55
494.017	4253.28
494.387	4238.59
494.757	4289.89
495.126	4342.77
495.496	4341.19
495.866	4338.25
496.235	4388.87
496.605	4435.19
496.974	4426.38
497.344	4484.01
497.713	4469.54
498.082	4528.52
498.452	4540.95
498.821	4578.02
499.19	4576.89
499.559	4614.17
499.928	4570.56
500.298	4653.27
500.667	4669.09
501.036	4613.27
501.405	4705.24
501.774	4708.86
502.143	4771.23
502.512	4761.29
502.88	4780.27
503.249	4765.81
503.618	4843.09
503.987	4837.22
504.356	4859.36
504.724	4857.1
505.093	4875.18
505.462	4886.26
505.83	4918.57
506.199	4918.57
506.567	4957.44
506.936	4996.76
507.304	4977.33
507.672	5029.3
508.041	5020.94
508.409	5059.58
508.777	5097.78
509.145	5144.78
509.514	5151.79
509.882	5108.85
510.25	5104.1
510.618	5178.45
510.986	5154.05
511.354	5210.99
511.722	5272.46
512.09	5242.18
512.458	5302.29
512.826	5302.74
513.193	5298.67
513.561	5315.17
513.929	5366.47
514.297	5361.05
514.664	5432.68
515.032	5346.13
515.4	5407.15
515.767	5489.86
516.135	5457.09
516.502	5392.68
516.869	5530.31
517.237	5497.99
517.604	5464.55
517.972	5478.33
518.339	5560.81
518.706	5540.48
519.073	5572.57
519.44	5542.96
519.808	5576.63
520.175	5617.31
520.542	5625.9
520.909	5697.76
521.276	5628.16
521.643	5710.64
522.009	5765.55
522.376	5739.79
522.743	5753.8
523.11	5760.13
523.477	5799.45
523.843	5855.27
524.21	5892.78
524.577	5917.87
524.943	5934.36
525.31	5944.76
525.676	6032.21
526.043	5993.35
526.409	6024.53
526.776	6087.35
527.142	6100.69
527.508	6140.01
527.874	6147.92
528.241	6135.26
528.607	6212.32
528.973	6161.02
529.339	6207.12
529.705	6304.98
530.071	6248.71
530.437	6346.33
530.803	6330.29
531.169	6410.51
531.535	6325.99
531.901	6399.89
532.267	6405.76
532.632	6405.09
532.998	6481.02
533.364	6523.5
533.73	6480.11
534.095	6618.64
534.461	6516.95
534.826	6603.95
535.192	6609.6
535.557	6634.01
535.923	6586.32
536.288	6665.19
536.653	6658.64
537.019	6622.03
537.384	6683.04
537.749	6662.25
538.114	6766.66
538.479	6787.45
538.845	6788.35
539.21	6753.55
539.575	6752.65
539.94	6798.75
540.305	6864.51
540.67	6843.04
541.034	6868.12
541.399	6894.79
541.764	6930.27
542.129	6949.03
542.494	6978.4
542.858	6933.89
543.223	7026.99
543.587	7042.81
543.952	7022.02
544.316	7012.08
544.681	7078.74
545.045	7059.08
545.41	7122.58
545.774	7145.41
546.138	7122.81
546.503	7206.42
546.867	7207.32
547.231	7203.71
547.595	7194.67
547.959	7270.6
548.324	7253.2
548.688	7266.08
549.052	7255.91
549.416	7296.81
549.779	7337.94
550.143	7363.25
550.507	7423.82
550.871	7394.44
551.235	7371.16
551.599	7417.26
551.962	7434.66
552.326	7487.54
552.689	7484.61
553.053	7436.92
553.417	7540.2
553.78	7549.24
554.143	7514.66
554.507	7573.64
554.87	7586.98
555.234	7652.51
555.597	7655.22
555.96	7613.19
556.323	7659.52
556.686	7653.41
557.05	7719.18
557.413	7692.06
557.776	7721.66
558.139	7715.56
558.502	7765.05
558.865	7782.22
559.228	7832.62
559.59	7846.18
559.953	7789.46
560.316	7944.71
560.679	7889.34
561.041	7951.26
561.404	7981.77
561.767	8046.62
562.129	7961.2
562.492	8024.03
562.854	8024.25
563.217	8040.3
563.579	8046.85
563.941	8141.99
564.304	8170.24
564.666	8155.1
565.028	8230.8
565.39	8158.71
565.753	8261.76
566.115	8287.07
566.477	8279.16
566.839	8351.7
567.201	8370.23
567.563	8477.57
567.925	8433.06
568.287	8481.87
568.648	8449.1
569.01	8496.33
569.372	8512.6
569.734	8551.02
570.095	8563.22
570.457	8646.16
570.819	8651.58
571.18	8689.32
571.542	8684.57
571.903	8709.43
572.265	8793.05
572.626	8795.76
572.987	8750.56
573.349	8876.21
573.71	8905.81
574.071	8973.83
574.432	8967.96
574.794	9129.99
575.155	9106.48
575.516	9023.77
575.877	9169.31
576.238	9138.12
576.599	9225.35
576.96	9291.34
577.32	9312.13
577.681	9424.89
578.042	9411.56
578.403	9562.29
578.763	9591.67
579.124	9605.91
579.485	9667.82
579.845	9736.52
580.206	9730.42
580.566	9890.64
580.927	9953.47
581.287	10056.97
581.648	10053.58
582.008	10187.13
582.368	10290.63
582.728	10361.14
583.089	10413.79
583.449	10397.52
583.809	10584.41
584.169	10705.54
584.529	10809.04
584.889	10968.13
585.249	10938.3
585.609	11061.91
585.969	11209.93
586.329	11346.65
586.688	11423.26
587.048	11509.58
587.408	11605.63
587.768	11709.13
588.127	11821.21
588.487	11957.48
588.846	12110.25
589.206	12168.78
589.565	12351.37
589.925	12594.75
590.284	12597.47
590.643	12731.93
591.003	12900.51
591.362	13123.78
591.721	13182.76
592.08	13290.55
592.44	13477.22
592.799	13542.07
593.158	13698.45
593.517	13831.11
593.876	13962.4
594.235	14001.5
594.593	14232.45
594.952	14416.63
595.311	14495.27
595.67	14678.09
596.029	14829.95
596.387	14994.92
596.746	15223.61
597.104	15104.07
597.463	15270.16
597.822	15457.5
598.18	15486.2
598.538	15627.89
598.897	15918.28
599.255	15935.91
599.613	16297.03
599.972	16232.62
600.33	16401.66
600.688	16478.49
601.046	16643.23
601.404	16773.17
601.762	16890.69
602.12	17045.94
602.478	17135.65
602.836	17226.95
603.194	17240.28
603.552	17443.89
603.91	17346.49
604.268	17673.72
604.625	17649.08
604.983	17675.52
605.341	17776.09
605.698	17880.72
606.056	18054.72
606.413	18197.09
606.771	18211.1
607.128	18428.72
607.485	18374.71
607.843	18510.3
608.2	18640.47
608.557	18800.47
608.914	18792.78
609.272	19022.61
609.629	18951.2
609.986	19031.19
610.343	19092.66
610.7	19298.76
611.057	19249.49
611.414	19376.04
611.771	19461.69
612.127	19497.62
612.484	19558.64
612.841	19766.99
613.198	19724.28
613.554	19763.15
613.911	19952.3
614.267	19964.73
614.624	19910.27
614.98	20174.44
615.337	20152.52
615.693	20249.24
616.05	20215.12
616.406	20334.66
616.762	20387.99
617.118	20391.84
617.475	20430.25
617.831	20549.12
618.187	20542.57
618.543	20578.72
618.899	20779.85
619.255	20792.5
619.611	20749.79
619.967	20966.06
620.323	20818.72
620.678	20905.27
621.034	20854.65
621.39	20856.46
621.746	20996.79
622.101	21142.78
622.457	21049.9
622.812	21167.86
623.168	21280.85
623.523	21245.83
623.879	21396.78
624.234	21155.43
624.589	21306.39
624.945	21281.53
625.3	21436.33
625.655	21427.74
626.01	21400.17
626.365	21503.67
626.72	21454.41
627.075	21415.31
627.43	21467.06
627.785	21383.22
628.14	21427.97
628.495	21405.82
628.85	21439.04
629.205	21425.93
629.559	21500.06
629.914	21503.67
630.269	21399.49
630.623	21458.93
630.978	21462.99
631.332	21514.97
631.687	21529.43
632.041	21447.63
632.396	21481.75
632.75	21385.03
633.104	21442.66
633.459	21425.93
633.813	21433.17
634.167	21346.61
634.521	21405.82
634.875	21434.52
635.229	21480.85
635.583	21325.15
635.937	21456.44
636.291	21338.25
636.645	21389.78
636.999	21242.89
637.352	21430.91
637.706	21305.48
638.06	21325.15
638.413	21413.05
638.767	21244.92
639.121	21263.68
639.474	21238.14
639.828	21294.64
640.181	21350.46
640.534	21218.93
640.888	21203.79
641.241	20986.17
641.594	21279.95
641.947	21249.22
642.301	21080.18
642.654	21157.69
643.007	21125.6
643.36	21134.42
643.713	21164.7
644.066	21260.51
644.419	21027.53
644.771	21005.15
645.124	20705.73
645.477	20879.06
645.83	20639.74
646.182	20443.81
646.535	20418.73
646.888	20551.61
647.24	20420.99
647.593	20541.21
647.945	20594.09
648.298	20512.06
648.65	20491.95
649.002	20458.95
649.355	20546.18
649.707	20513.42
650.059	20586.86
650.411	20889
650.763	20926.06
651.115	20966.06
651.467	20931.48
651.819	21068.88
652.171	20911.6
652.523	20987.75
652.875	21009.22
653.227	20882.67
653.578	20997.47
653.93	20999.28
654.282	20915.66
654.633	20829.57
654.985	20935.1
655.337	20894.65
655.688	20987.3
656.039	21041.31
656.391	20896.91
656.742	20902.33
657.094	20856.46
657.445	21004.25
657.796	21020.29
658.147	20871.37
658.498	20922.22
658.849	20944.82
659.2	20948.88
659.551	20927.64
659.902	20970.8
660.253	20948.66
660.604	21040.63
660.955	20767.19
661.306	20957.7
661.656	20923.12
662.007	21049.22
662.358	21037.7
662.708	20998.6
663.059	21016.91
663.409	20914.08
663.76	21036.57
664.11	20965.61
664.461	21098.03
664.811	21003.12
665.161	20977.58
665.511	21067.3
665.862	20925.38
666.212	21126.73
666.562	21062.78
666.912	21020.07
667.262	20997.24
667.612	20963.57
667.962	20981.2
668.312	20970.13
668.662	21021.88
669.011	20997.7
669.361	20980.52
669.711	20943.91
670.06	20947.53
670.41	20986.85
670.76	20934.2
671.109	21001.09
671.459	20971.93
671.808	20851.49
672.157	20963.35
672.507	20802
672.856	20891.71
673.205	20905.5
673.554	20929.45
673.904	20896.91
674.253	20926.29
674.602	20809
674.951	20492.17
675.3	20416.69
675.649	20810.13
675.998	20672.73
676.346	20788.44
676.695	20787.31
677.044	20689.46
677.393	20730.36
677.741	20806.52
678.09	20664.15
678.438	20702.34
678.787	20636.8
679.135	20663.24
679.484	20430.48
679.832	20554.09
680.181	20466.64
680.529	20506.41
680.877	20460.76
681.225	20471.61
681.573	20510.25
681.922	20448.56
682.27	20229.58
682.618	20371.5
682.966	20269.81
683.314	20326.3
683.661	20283.82
684.009	20276.13
684.357	20038.4
684.705	20115.46
685.053	20098.96
685.4	19979.64
685.748	19952.3
686.095	19921.57
686.443	19881.57
686.79	19798.63
687.138	19774
687.485	19752.53
687.832	19720.89
688.18	19773.77
688.527	19701.69
688.874	19589.37
689.221	19629.82
689.568	19508.47
689.915	19398.42
690.262	19491.75
690.609	19439.09
690.956	19355.71
691.303	19307.8
691.65	19178.54
691.997	19174.02
692.344	19116.39
692.69	19037.52
693.037	19016.28
693.383	18886.11
693.73	18909.84
694.077	18821.48
694.423	18802.95
694.769	18729.06
695.116	18587.59
695.462	18626.69
695.808	18626.91
696.155	18551.43
696.501	18435.96
696.847	18454.71
697.193	18196.64
697.539	18306.02
697.885	18196.19
698.231	18077.32
698.577	18115.29
698.923	18082.52
699.269	17933.14
699.614	17845.24
699.96	17843.66
700.306	17873.71
700.651	17738.57
700.997	17658.8
701.342	17638.91
701.688	17556.88
702.033	17444.8
702.379	17552.82
702.724	17497
703.069	17522.53
703.415	17287.06
703.76	17311.47
704.105	17238.25
704.45	17226.5
704.795	17079.16
705.14	17033.73
705.485	16970.23
705.83	16852.72
706.175	16963
706.52	16839.84
706.865	16817.92
707.209	16774.76
707.554	16645.95
707.899	16737.24
708.243	16744.25
708.588	16648.43
708.932	16511.26
709.277	16428.78
709.621	16483.69
709.966	16382.9
710.31	16331.38
710.654	16219.07
710.998	16249.8
711.342	16260.87
711.687	16204.15
712.031	16133.64
712.375	16103.81
712.719	16087.77
713.063	16083.93
713.407	16093.87
713.75	16027.21
714.094	15974.33
714.438	15932.97
714.782	15902.01
715.125	15806.42
715.469	15928.68
715.812	15859.98
716.156	15765.97
716.499	15707.44
716.843	15741.34
717.186	15629.93
717.53	15726.42
717.873	15641.68
718.216	15652.07
718.559	15577.95
718.902	15514.9
719.246	15579.53
719.589	15546.54
719.932	15480.33
720.275	15498.41
720.617	15470.16
720.96	15456.6
721.303	15435.81
721.646	15389.03
721.989	15420.44
722.331	15366.66
722.674	15347.45
723.016	15318.07
723.359	15261.8
723.701	15320.78
724.044	15325.76
724.386	15018.42
724.729	15291.63
725.071	15174.12
725.413	15107
725.755	15109.49
726.097	15092.99
726.439	15051.86
726.782	15095.25
727.124	15126.89
727.465	15096.16
727.807	15022.94
728.149	14935.03
728.491	14970.06
728.833	15058.19
729.175	14971.41
729.516	14899.33
729.858	14930.51
730.199	15022.26
730.541	14933
730.882	14856.84
731.224	14932.32
731.565	14822.94
731.906	14906.33
732.248	14892.32
732.589	14947.01
732.93	14744.75
733.271	14894.35
733.612	14926.22
733.953	14858.2
734.294	14918.53
734.635	14791.76
734.976	14861.36
735.317	14744.75
735.658	14845.32
735.999	14827.01
736.339	14825.66
736.68	14961.02
737.021	14778.88
737.361	14752.21
737.702	14890.96
738.042	14815.03
738.383	14789.05
738.723	14781.36
739.063	14844.41
739.404	14897.29
739.744	14809.61
740.084	14786.56
740.424	14872.43
740.764	14843.06
741.104	14868.14
741.444	14901.13
741.784	14894.58
742.124	14892.77
742.464	14933.22
742.804	14934.35
743.143	14865.2
743.483	14897.07
743.823	14817.52
744.162	14905.2
744.502	14959.66
744.841	14962.37
745.181	15065.2
745.52	15065.65
745.86	15085.31
746.199	15111.52
746.538	15222.93
746.877	15230.39
747.216	15188.81
747.556	15247.79
747.895	15389.26
748.234	15215.7
748.573	15314.46
748.911	15492.98
749.25	15496.37
749.589	15541.79
749.928	15713.32
750.267	15758.06
750.605	15701.11
750.944	15897.72
751.283	15867.66
751.621	16007.32
751.96	16029.01
752.298	16112.18
752.636	16170.7
752.975	16223.36
753.313	16280.53
753.651	16412.28
753.989	16524.14
754.327	16478.04
754.666	16687.75
755.004	16745.15
755.342	16932.04
755.679	16992.15
756.017	16985.82
756.355	17247.96
756.693	17249.55
757.031	17428.07
757.368	17355.08
757.706	17456.55
758.044	17642.98
758.381	17711
758.719	17926.82
759.056	18010.88
759.394	17989.64
