Data from hue_28_FLMS001491_00037.txt Node
Date: Tue Feb 07 17:17:12 GMT 2017
User: dcchb
Spectrometer: FLMS00149
Trigger mode: 0
Integration Time (sec): 2.000000E-2
Scans to average: 10
Electric dark correction enabled: true
Nonlinearity correction enabled: false
Boxcar width: 0
XAxis mode: Wavelengths
Number of Pixels in Spectrum: 2048
>>>>>Begin Spectral Data<<<<<
341.393	-20.34
341.776	-20.34
342.16	-20.34
342.543	-80.45
342.927	-59.43
343.31	-77.74
343.693	-60.34
344.077	-76.61
344.46	-67.57
344.843	-48.81
345.226	-35.25
345.61	-42.94
345.993	-21.92
346.376	9.49
346.759	8.59
347.142	21.24
347.525	44.07
347.908	47.46
348.291	81.58
348.674	119.32
349.057	99.43
349.44	125.65
349.823	155.48
350.206	182.59
350.588	190.73
350.971	218.3
351.354	230.73
351.737	241.8
352.119	266.43
352.502	251.74
352.884	279.09
353.267	289.03
353.65	289.94
354.032	309.82
354.414	327
354.797	301.91
355.179	331.29
355.562	331.97
355.944	334.23
356.326	329.48
356.709	350.05
357.091	349.14
357.473	361.12
357.855	337.84
358.238	356.6
358.62	343.04
359.002	334.91
359.384	352.99
359.766	349.6
360.148	360.67
360.53	359.99
360.912	341.91
361.294	331.52
361.676	314.57
362.057	322.48
362.439	324.06
362.821	326.32
363.203	327.9
363.584	334.68
363.966	328.58
364.348	330.16
364.729	332.65
365.111	328.58
365.493	329.93
365.874	318.64
366.256	308.24
366.637	305.3
367.019	312.31
367.4	326.09
367.781	303.72
368.163	305.75
368.544	314.57
368.925	310.73
369.306	334.91
369.688	309.82
370.069	310.73
370.45	324.51
370.831	312.08
371.212	308.69
371.593	305.53
371.974	326.55
372.355	318.64
372.736	311.4
373.117	305.3
373.498	328.13
373.879	318.86
374.26	328.58
374.641	323.16
375.021	319.31
375.402	328.58
375.783	315.7
376.163	331.06
376.544	331.52
376.925	344.62
377.305	323.38
377.686	349.6
378.066	322.93
378.447	354.79
378.827	328.13
379.208	342.14
379.588	350.5
379.968	334
380.349	324.51
380.729	330.84
381.109	323.16
381.489	344.85
381.87	332.19
382.25	332.87
382.63	322.03
383.01	336.26
383.39	340.78
383.77	349.37
384.15	351.86
384.53	354.79
384.91	345.53
385.29	357.5
385.67	337.17
386.049	359.76
386.429	350.27
386.809	357.73
387.189	367.22
387.568	362.25
387.948	364.06
388.328	352.53
388.707	366.09
389.087	357.28
389.466	374.68
389.846	378.3
390.225	349.37
390.605	378.97
390.984	360.89
391.363	353.44
391.743	370.39
392.122	368.58
392.501	350.95
392.881	364.74
393.26	369.48
393.639	375.36
394.018	381.91
394.397	358.63
394.776	383.72
395.155	376.26
395.534	353.21
395.913	393.44
396.292	383.72
396.671	383.04
397.05	392.98
397.429	377.84
397.808	372.87
398.186	374.23
398.565	391.63
398.944	384.85
399.323	394.34
399.701	391.4
400.08	390.5
400.458	395.02
400.837	411.51
401.215	391.63
401.594	398.18
401.972	408.12
402.351	385.07
402.729	409.48
403.107	410.61
403.486	409.71
403.864	400.89
404.242	420.1
404.62	410.61
404.999	414.45
405.377	412.64
405.755	418.07
406.133	429.14
406.511	415.13
406.889	419.65
407.267	422.36
407.645	425.98
408.023	441.8
408.401	435.47
408.779	424.62
409.156	435.02
409.534	432.31
409.912	440.67
410.29	444.06
410.667	441.8
411.045	442.47
411.422	450.84
411.8	444.96
412.178	462.36
412.555	456.49
412.933	467.33
413.31	458.29
413.687	472.08
414.065	458.07
414.442	472.98
414.819	479.31
415.197	477.95
415.574	481.34
415.951	490.38
416.328	470.5
416.705	494.9
417.082	506.2
417.46	496.71
417.837	504.85
418.214	498.29
418.591	494
418.967	512.08
419.344	503.04
419.721	494.9
420.098	523.38
420.475	509.82
420.852	526.77
421.228	497.39
421.605	532.87
421.982	547.1
422.358	523.6
422.735	529.93
423.111	533.77
423.488	556.82
423.864	524.51
424.241	556.14
424.617	554.34
424.994	552.75
425.37	541
425.746	572.19
426.123	548.69
426.499	571.96
426.875	566.31
427.251	564.5
427.627	566.54
428.003	579.42
428.379	598.85
428.756	578.52
429.132	569.7
429.507	598.18
429.883	614.67
430.259	608.8
430.635	607.89
431.011	613.54
431.387	619.87
431.763	609.48
432.138	625.52
432.514	635.69
432.89	648.34
433.265	639.31
433.641	649.25
434.016	655.58
434.392	649.02
434.767	684.95
435.143	658.51
435.518	672.98
435.894	688.34
436.269	681.11
436.644	686.99
437.02	692.19
437.395	695.8
437.77	687.67
438.145	695.12
438.52	721.56
438.895	730.6
439.271	725.63
439.646	720.66
440.021	732.86
440.395	734.67
440.77	719.98
441.145	721.34
441.52	755.46
441.895	737.61
442.27	755.69
442.645	757.72
443.019	764.27
443.394	757.72
443.769	757.49
444.143	744.61
444.518	778.28
444.892	770.15
445.267	793.43
445.641	783.03
446.016	770.38
446.39	793.88
446.764	805.85
447.139	792.3
447.513	802.46
447.887	810.83
448.262	780.54
448.636	806.31
449.01	826.87
449.384	825.97
449.758	843.37
450.132	815.8
450.506	822.58
450.88	824.84
451.254	842.01
451.628	843.59
452.002	858.51
452.376	844.05
452.75	892.41
453.123	875.01
453.497	918.85
453.871	876.14
454.244	882.46
454.618	910.26
454.992	909.58
455.365	912.74
455.739	937.83
456.112	959.07
456.486	978.51
456.859	948
457.232	952.97
457.606	968.34
457.979	969.92
458.352	996.36
458.725	1005.4
459.099	997.04
459.472	1014.66
459.845	1044.72
460.218	1029.8
460.591	1023.48
460.964	1059.86
461.337	1072.29
461.71	1099.41
462.083	1120.42
462.456	1108.9
462.829	1105.96
463.201	1118.16
463.574	1111.84
463.947	1141.21
464.32	1170.36
464.692	1146.86
465.065	1167.65
465.438	1179.86
465.81	1217.37
466.183	1215.56
466.555	1226.63
466.928	1232.96
467.3	1265.96
467.672	1264.37
468.045	1303.02
468.417	1286.07
468.789	1311.38
469.161	1339.4
469.534	1354.54
469.906	1388.89
470.278	1392.05
470.65	1403.35
471.022	1438.83
471.394	1429.11
471.766	1460.53
472.138	1478.38
472.51	1494.88
472.882	1550.92
473.253	1554.54
473.625	1574.2
473.997	1580.98
474.369	1615.78
474.74	1644.93
475.112	1658.49
475.484	1703.68
475.855	1758.82
476.227	1745.94
476.598	1801.31
476.97	1804.7
477.341	1825.71
477.713	1883.11
478.084	1922.89
478.455	1976.22
478.827	1971.02
479.198	2027.29
479.569	2050.57
479.94	2097.8
480.311	2172.82
480.682	2181.86
481.053	2231.81
481.424	2271.8
481.795	2331.92
482.166	2349.09
482.537	2351.8
482.908	2427.28
483.279	2481.06
483.65	2491.01
484.021	2617.78
484.391	2636.09
484.762	2667.05
485.133	2722.87
485.503	2706.14
485.874	2839.7
486.244	2878.34
486.615	2949.08
486.985	2938
487.356	3029.52
487.726	3089.86
488.097	3126.92
488.467	3128.05
488.837	3246.69
489.207	3261.61
489.578	3314.26
489.948	3357.65
490.318	3425.22
490.688	3448.04
491.058	3549.29
491.428	3608.49
491.798	3626.57
492.168	3727.59
492.538	3820.46
492.908	3801.26
493.278	3820.69
493.648	3841.25
494.017	3939.78
494.387	4017.07
494.757	3993.34
495.126	4050.74
495.496	4092.77
495.866	4116.28
496.235	4181.58
496.605	4283.73
496.974	4268.36
497.344	4321.69
497.713	4366.89
498.082	4434.46
498.452	4455.48
498.821	4478.53
499.19	4525.08
499.559	4545.19
499.928	4554.91
500.298	4621.57
500.667	4665.19
501.036	4669.93
501.405	4786.77
501.774	4736.15
502.143	4766.65
502.512	4762.59
502.88	4851.17
503.249	4902.24
503.618	4892.75
503.987	4954.45
504.356	4920.77
504.724	4969.13
505.093	4974.56
505.462	5064.73
505.83	5084.61
506.199	5102.92
506.567	5151.5
506.936	5104.95
507.304	5171.16
507.672	5257.49
508.041	5304.72
508.409	5251.16
508.777	5353.76
509.145	5403.02
509.514	5355.57
509.882	5424.04
510.25	5444.83
510.618	5462.23
510.986	5469.91
511.354	5520.31
511.722	5568.22
512.09	5643.02
512.458	5576.35
512.826	5602.56
513.193	5675.11
513.561	5653.86
513.929	5705.39
514.297	5745.39
514.664	5796.91
515.032	5793.29
515.4	5846.63
515.767	5879.39
516.135	5923.01
516.502	5869.22
516.869	5968.2
517.237	5951.26
517.604	5971.37
517.972	5985.61
518.339	6039.84
518.706	6040.97
519.073	6026.28
519.44	6106.51
519.808	6145.6
520.175	6090.24
520.542	6263.79
520.909	6199.61
521.276	6185.15
521.643	6227.41
522.009	6314.18
522.376	6324.58
522.743	6347.18
523.11	6449.77
523.477	6458.59
523.843	6455.2
524.21	6527.74
524.577	6578.81
524.943	6589.88
525.31	6601.18
525.676	6616.32
526.043	6716.43
526.409	6667.85
526.776	6714.4
527.142	6776.77
527.508	6832.14
527.874	6864.23
528.241	6923.89
528.607	6963.88
528.973	7024.22
529.339	6975.64
529.705	7086.59
530.071	7099.7
530.437	7126.82
530.803	7203.43
531.169	7223.76
531.535	7219.02
531.901	7180.38
532.267	7303.99
532.632	7312.35
532.998	7411.78
533.364	7360.94
533.73	7419.47
534.095	7513.47
534.461	7457.66
534.826	7547.82
535.192	7579.24
535.557	7595.05
535.923	7561.61
536.288	7626.24
536.653	7682.74
537.019	7644.54
537.384	7681.83
537.749	7745.11
538.114	7808.16
538.479	7774.94
538.845	7897.42
539.21	7883.41
539.575	7865.56
539.94	7899.91
540.305	7962.95
540.67	7996.85
541.034	7964.54
541.399	8041.37
541.764	8059.9
542.129	8113.23
542.494	8037.75
542.858	8181.93
543.223	8169.95
543.587	8164.31
543.952	8244.08
544.316	8284.08
544.681	8315.71
545.045	8296.96
545.41	8444.98
545.774	8418.76
546.138	8449.04
546.503	8426.9
546.867	8449.95
547.231	8532.88
547.595	8647.23
547.959	8629.6
548.324	8676.83
548.688	8663.05
549.052	8677.29
549.416	8740.79
549.779	8720.9
550.143	8779.43
550.507	8778.53
550.871	8809.26
551.235	8861.91
551.599	8885.64
551.962	8871.86
552.326	8978.07
552.689	9038.41
553.053	8963.83
553.417	9023.94
553.78	9052.87
554.143	9035.02
554.507	9115.24
554.87	9161.34
555.234	9253.77
555.597	9182.81
555.96	9209.93
556.323	9234.79
556.686	9343.03
557.05	9342.81
557.413	9345.52
557.776	9411.73
558.139	9423.48
558.502	9423.71
558.865	9436.36
559.228	9548
559.59	9597.49
559.953	9548
560.316	9711.38
560.679	9704.15
561.041	9695.34
561.404	9745.96
561.767	9842.45
562.129	9757.71
562.492	9951.38
562.854	9893.98
563.217	9848.78
563.579	9898.27
563.941	9948.89
564.304	10053.07
564.666	10065.95
565.028	9997.48
565.39	10161.09
565.753	10112.73
566.115	10197.92
566.477	10238.83
566.839	10244.48
567.201	10251.71
567.563	10364.25
567.925	10411.93
568.287	10355.66
568.648	10415.09
569.01	10482.89
569.372	10617.8
569.734	10556.11
570.095	10628.42
570.457	10620.51
570.819	10766.72
571.18	10688.76
571.542	10818.02
571.903	10817.12
572.265	10865.7
572.626	10881.07
572.987	10980.28
573.349	11011.24
573.71	11092.82
574.071	11113.15
574.432	11231.34
574.794	11318.8
575.155	11332.58
575.516	11368.97
575.877	11514.95
576.238	11573.48
576.599	11651.9
576.96	11618.68
577.32	11752.01
577.681	11830.65
578.042	11876.3
578.403	12015.96
578.763	12134.82
579.124	12224.54
579.485	12367.58
579.845	12465.43
580.206	12538.2
580.566	12706.78
580.927	12888.25
581.287	12874.24
581.648	13033.56
582.008	13339.76
582.368	13370.5
582.728	13500.66
583.089	13700.2
583.449	13817.72
583.809	14012.29
584.169	14193.07
584.529	14322.34
584.889	14595.55
585.249	14641.87
585.609	14830.57
585.969	15123.67
586.329	15333.38
586.688	15596.88
587.048	15742.18
587.408	15991.9
587.768	16250.65
588.127	16437.53
588.487	16626.68
588.846	17074.58
589.206	17216.04
589.565	17406.1
589.925	17802.92
590.284	18010.83
590.643	18216.7
591.003	18609.91
591.362	18869.33
591.721	19053.96
592.08	19316.33
592.44	19698.24
592.799	19940.49
593.158	20198.34
593.517	20472.46
593.876	20737.76
594.235	21025.44
594.593	21433.33
594.952	21733.44
595.311	22044.17
595.67	22283.03
596.029	22792.4
596.387	23045.5
596.746	23327.75
597.104	23574.3
597.463	23693.61
597.822	24133.83
598.18	24429.87
598.538	24660.37
598.897	25101.49
599.255	25219
599.613	25824.18
599.972	25831.19
600.33	26320.21
600.688	26439.3
601.046	26771.05
601.404	27177.14
601.762	27428.43
602.12	27731.7
602.478	28085.59
602.836	28324.68
603.194	28462.98
603.552	28737.78
603.91	28976.87
604.268	29298.89
604.625	29470.19
604.983	29852.32
605.341	29968.03
605.698	30399.43
606.056	30706.54
606.413	30876.48
606.771	31238.95
607.128	31468.55
607.485	31482.11
607.843	31692.05
608.2	32167.97
608.557	32362.99
608.914	32471.24
609.272	32861.06
609.629	33103.99
609.986	33381.95
610.343	33521.38
610.7	33862.16
611.057	34017.18
611.414	34314.58
611.771	34343.05
612.127	34683.61
612.484	34800.21
612.841	35151.62
613.198	35241.33
613.554	35353.19
613.911	35839.96
614.267	35813.75
614.624	35953.63
614.98	36175.77
615.337	36530.11
615.693	36509.55
616.05	36643.33
616.406	37032.7
616.762	36893.04
617.118	37185.69
617.475	37320.37
617.831	37574.61
618.187	37688.95
618.543	37858.67
618.899	38247.81
619.255	38282.84
619.611	38245.32
619.967	38401.02
620.323	38613.9
620.678	38540
621.034	38591.08
621.39	38666.33
621.746	38700.9
622.101	39264.73
622.457	39002.59
622.812	39189.93
623.168	39500.43
623.523	39519.86
623.879	39699.97
624.234	39577.26
624.589	39661.1
624.945	39787.88
625.3	39925.05
625.655	39955.56
626.01	39973.41
626.365	40149.9
626.72	40150.58
627.075	40180.19
627.43	40279.84
627.785	40308.09
628.14	40345.83
628.495	40526.84
628.85	40518.03
629.205	40436
629.559	40613.17
629.914	40576.33
630.269	40632.15
630.623	40599.16
630.978	40654.98
631.332	40923.44
631.687	40970
632.041	40761.41
632.396	40885.93
632.75	40896.33
633.104	41046.83
633.459	40910.34
633.813	40901.75
634.167	40867.4
634.521	40936.1
634.875	41088.41
635.229	40916.66
635.583	40809.1
635.937	40905.82
636.291	40895.42
636.645	40992.14
636.999	40899.49
637.352	41049.32
637.706	40620.85
638.06	40991.01
638.413	41033.5
638.767	40906.5
639.121	40956.89
639.474	40668.08
639.828	40725.93
640.181	40870.34
640.534	40811.13
640.888	40710.12
641.241	40594.19
641.594	40893.84
641.947	40862.2
642.301	40657.91
642.654	40903.78
643.007	40689.1
643.36	40732.04
643.713	40733.39
644.066	40864.01
644.419	40578.37
644.771	40349.22
645.124	40049.34
645.477	40085.5
645.83	39753.31
646.182	39607.55
646.535	39641.9
646.888	39708.56
647.24	39459.98
647.593	39848.22
647.945	39662.91
648.298	39539.98
648.65	39422.69
649.002	39290.72
649.355	39544.27
649.707	39555.8
650.059	39612.07
650.411	39978.61
650.763	40125.05
651.115	40539.5
651.467	40295.44
651.819	40308.09
652.171	40318.94
652.523	40287.3
652.875	40245.5
653.227	40084.6
653.578	40391.48
653.93	40306.51
654.282	40168.66
654.633	40091.15
654.985	40248.21
655.337	40148.32
655.688	40265.61
656.039	40188.32
656.391	39966.18
656.742	40084.6
657.094	40052.51
657.445	40304.7
657.796	40112.84
658.147	40104.71
658.498	40026.29
658.849	40090.7
659.2	40112.84
659.551	39960.08
659.902	40131.37
660.253	40114.65
660.604	40119.85
660.955	39889.35
661.306	40020.87
661.656	39950.14
662.007	40014.32
662.358	40024.03
662.708	39983.58
663.059	39971.83
663.409	39848.9
663.76	40055.22
664.11	39877.82
664.461	39927.31
664.811	40072.39
665.161	39874.66
665.511	39880.76
665.862	40035.33
666.212	40032.39
666.562	40031.49
666.912	39954.2
667.262	39799.86
667.612	39847.99
667.962	40047.31
668.312	39959.4
668.662	40061.09
669.011	40034.43
669.361	39774.1
669.711	39890.25
670.06	39850.25
670.41	39673.08
670.76	39849.8
671.109	39924.6
671.459	39717.15
671.808	39731.84
672.157	39812.06
672.507	39602.57
672.856	39606.64
673.205	39719.63
673.554	39825.39
673.904	39647.77
674.253	39791.72
674.602	39690.93
674.951	39186.99
675.3	38914.23
675.649	39538.4
675.998	39540.2
676.346	39492.52
676.695	39553.54
677.044	39443.48
677.393	39391.96
677.741	39583.37
678.09	39377.72
678.438	39311.28
678.787	39365.07
679.135	39478.51
679.484	39154.68
679.832	39179.99
680.181	39028.35
680.529	39143.83
680.877	39017.51
681.225	39046.66
681.573	39271.74
681.922	39001.23
682.27	38910.84
682.618	38904.97
682.966	38842.59
683.314	38785.19
683.661	38768.92
684.009	38585.43
684.357	38538.42
684.705	38582.49
685.053	38511.76
685.4	38483.51
685.748	38297.07
686.095	38355.38
686.443	38215.04
686.79	38196.06
687.138	38097.76
687.485	38243.29
687.832	38063.63
688.18	38075.83
688.527	37717.65
688.874	37787.26
689.221	37831.77
689.568	37644.66
689.915	37594.72
690.262	37622.29
690.609	37583.19
690.956	37354.95
691.303	37431.33
691.65	37180.94
691.997	37213.03
692.344	36936.66
692.69	36968.97
693.037	37058.23
693.383	36682.2
693.73	36828.41
694.077	36669.32
694.423	36567.4
694.769	36563.56
695.116	36640.17
695.462	36414.41
695.808	36182.33
696.155	36425.71
696.501	36080.63
696.847	36031.14
697.193	35706.86
697.539	36018.04
697.885	35617.82
698.231	35632.51
698.577	35562.68
698.923	35538.73
699.269	35309.81
699.614	35202.24
699.96	35085.41
700.306	35228
700.651	35211.05
700.997	34884.96
701.342	35022.36
701.688	34714.79
702.033	34671.18
702.379	34743.49
702.724	34590.95
703.069	34725.19
703.415	34256.05
703.76	34338.31
704.105	34304.86
704.45	34254.24
704.795	34151.19
705.14	33910.29
705.485	33928.37
705.83	33690.64
706.175	33791.88
706.52	33740.58
706.865	33608.16
707.209	33560.47
707.554	33453.13
707.899	33491.55
708.243	33254.49
708.588	33292.46
708.932	33098.34
709.277	33016.08
709.621	33110.99
709.966	32772.92
710.31	32917.55
710.654	32638.46
710.998	32725.69
711.342	32682.98
711.687	32635.53
712.031	32550.1
712.375	32484.12
712.719	32494.96
713.063	32369.32
713.407	32395.08
713.75	32237.8
714.094	32299.94
714.438	32033.28
714.782	32169.1
715.125	32037.12
715.469	32031.25
715.812	31827.41
716.156	31651.82
716.499	31744.7
716.843	31678.04
717.186	31501.32
717.53	31671.94
717.873	31672.39
718.216	31557.36
718.559	31330.48
718.902	31248.9
719.246	31262.23
719.589	31225.62
719.932	31067.21
720.275	31140.88
720.617	30977.72
720.96	31054.55
721.303	30962.35
721.646	31071.5
721.989	30780.89
722.331	30931.16
722.674	30819.75
723.016	30915.57
723.359	30808.23
723.701	30784.95
724.044	30636.03
724.386	30421.12
724.729	30567.78
725.071	30514.45
725.413	30488.92
725.755	30339.09
726.097	30319.43
726.439	30142.03
726.782	30278.07
727.124	30283.5
727.465	30095.93
727.807	30130.96
728.149	29998.53
728.491	30004.63
728.833	29938.65
729.175	29902.72
729.516	29836.28
729.858	29770.52
730.199	29947.69
730.541	29848.71
730.882	29628.15
731.224	29810.74
731.565	29457.98
731.906	29670.86
732.248	29532.1
732.589	29375.95
732.93	29350.19
733.271	29367.36
733.612	29388.38
733.953	29413.69
734.294	29363.3
734.635	29156.07
734.976	29387.7
735.317	29064.77
735.658	29001.95
735.999	29085.34
736.339	29038.11
736.68	29110.65
737.021	28953.14
737.361	28780.71
737.702	28992.46
738.042	28887.6
738.383	28837.66
738.723	28886.02
739.063	28615.97
739.404	28780.03
739.744	28664.33
740.084	28491.68
740.424	28672.92
740.764	28487.61
741.104	28595.18
741.444	28467.73
741.784	28358.58
742.124	28457.56
742.464	28341.63
742.804	28335.75
743.143	28290.33
743.483	28275.41
743.823	28092.37
744.162	28164.01
744.502	28231.35
744.841	28060.05
745.181	28111.13
745.52	28014.18
745.86	28072.93
746.199	27872.04
746.538	28045.82
746.877	27931.24
747.216	27990.45
747.556	27874.52
747.895	27908.42
748.234	27702.32
748.573	27723.11
748.911	27790.46
749.25	27688.99
749.589	27587.3
749.928	27665.71
750.267	27673.62
750.605	27546.85
750.944	27432.27
751.283	27352.73
751.621	27391.6
751.96	27232.05
752.298	27289
752.636	27334.42
752.975	27166.52
753.313	27003.81
753.651	27108.89
753.989	27010.36
754.327	27036.8
754.666	26940.31
755.004	26922.23
755.342	26889.46
755.679	26810.82
756.017	26703.48
756.355	26806.53
756.693	26653.99
757.031	26588.45
757.368	26524.95
757.706	26480.66
758.044	26425.75
758.381	26348.91
758.719	26432.3
759.056	26427.55
759.394	26213.1
759.731	26035.02
760.068	26018.07
760.405	25915.25
