Data from hue_80_FLMS001491_96.txt Node
Date: Mon Feb 06 15:24:05 GMT 2017
User: dcchb
Spectrometer: FLMS00149
Trigger mode: 0
Integration Time (sec): 2.000000E-2
Scans to average: 10
Electric dark correction enabled: true
Nonlinearity correction enabled: false
Boxcar width: 0
XAxis mode: Wavelengths
Number of Pixels in Spectrum: 2048
>>>>>Begin Spectral Data<<<<<
341.393	-8.36
341.776	-8.36
342.16	-8.36
342.543	-63.73
342.927	-57.85
343.31	-64.41
343.693	-80.68
344.077	-59.89
344.46	-77.96
344.843	-75.03
345.226	-30.06
345.61	-37.97
345.993	-21.69
346.376	-2.49
346.759	28.7
347.142	23.05
347.525	21.24
347.908	60.56
348.291	77.06
348.674	107.57
349.057	131.97
349.44	126.78
349.823	149.37
350.206	149.6
350.588	187.79
350.971	200.22
351.354	214.01
351.737	236.6
352.119	234.12
352.502	260.33
352.884	265.08
353.267	271.18
353.65	292.65
354.032	279.77
354.414	288.58
354.797	303.04
355.179	333.1
355.562	307.11
355.944	314.57
356.326	315.02
356.709	337.62
357.091	325.19
357.473	355.92
357.855	344.17
358.238	324.96
358.62	336.04
359.002	368.13
359.384	349.82
359.766	338.97
360.148	310.73
360.53	322.03
360.912	321.35
361.294	344.62
361.676	341.91
362.057	332.19
362.439	342.14
362.821	339.43
363.203	318.86
363.584	332.87
363.966	312.53
364.348	316.83
364.729	295.81
365.111	300.11
365.493	312.76
365.874	329.03
366.256	329.48
366.637	335.36
367.019	335.13
367.4	326.55
367.781	312.99
368.163	319.09
368.544	312.08
368.925	313.21
369.306	331.52
369.688	314.34
370.069	312.53
370.45	330.61
370.831	300.56
371.212	294.68
371.593	309.14
371.974	330.39
372.355	316.83
372.736	322.7
373.117	328.35
373.498	323.61
373.879	316.15
374.26	321.8
374.641	337.39
375.021	320.67
375.402	319.09
375.783	315.92
376.163	318.18
376.544	327.67
376.925	328.8
377.305	324.51
377.686	334
378.066	350.05
378.447	334.45
378.827	337.39
379.208	335.81
379.588	347.11
379.968	324.06
380.349	337.84
380.729	318.41
381.109	341.01
381.489	338.07
381.87	352.31
382.25	339.43
382.63	339.88
383.01	326.77
383.39	354.11
383.77	357.28
384.15	346.21
384.53	347.11
384.91	349.14
385.29	352.99
385.67	341.46
386.049	352.31
386.429	361.8
386.809	354.11
387.189	378.3
387.568	309.14
387.948	358.63
388.328	366.54
388.707	369.71
389.087	363.83
389.466	380.1
389.846	377.39
390.225	361.35
390.605	373.78
390.984	355.47
391.363	386.88
391.743	370.16
392.122	369.71
392.501	381.23
392.881	373.32
393.26	377.17
393.639	368.58
394.018	393.66
394.397	385.75
394.776	378.75
395.155	385.3
395.534	372.87
395.913	373.32
396.292	388.01
396.671	385.75
397.05	391.63
397.429	392.31
397.808	385.75
398.186	372.65
398.565	414
398.944	401.57
399.323	407.67
399.701	397.28
400.08	421.01
400.458	396.37
400.837	408.12
401.215	419.2
401.594	408.12
401.972	404.74
402.351	402.48
402.729	415.13
403.107	406.32
403.486	423.04
403.864	412.19
404.242	426.43
404.62	415.58
404.999	427.56
405.377	441.57
405.755	424.85
406.133	437.73
406.511	414.68
406.889	434.56
407.267	439.99
407.645	422.14
408.023	442.7
408.401	432.31
408.779	441.34
409.156	445.41
409.534	456.26
409.912	463.94
410.29	465.98
410.667	465.3
411.045	476.37
411.422	462.36
411.8	475.47
412.178	485.86
412.555	472.76
412.933	486.31
413.31	496.48
413.687	489.03
414.065	497.16
414.442	476.37
414.819	503.49
415.197	471.4
415.574	480.21
415.951	521.57
416.328	508.24
416.705	517.73
417.082	504.85
417.46	529.03
417.837	539.87
418.214	514.11
418.591	520.21
418.967	563.83
419.344	533.32
419.721	545.75
420.098	498.97
420.475	544.84
420.852	529.93
421.228	557.95
421.605	567.67
421.982	552.98
422.358	554.79
422.735	559.99
423.111	574.22
423.488	562.02
423.864	569.93
424.241	586.88
424.617	610.15
424.994	592.75
425.37	618.51
425.746	584.62
426.123	604.5
426.499	602.47
426.875	616.48
427.251	613.09
427.627	625.97
428.003	636.82
428.379	624.62
428.756	613.77
429.132	622.58
429.507	638.18
429.883	637.27
430.259	668.68
430.635	644.28
431.011	667.78
431.387	660.1
431.763	672.3
432.138	681.79
432.514	684.5
432.89	701.9
433.265	701
433.641	708.91
434.016	697.38
434.392	721.56
434.767	746.2
435.143	738.06
435.518	740.09
435.894	738.29
436.269	767.21
436.644	747.55
437.02	764.05
437.395	759.75
437.77	772.18
438.145	778.96
438.52	803.82
438.895	809.02
439.271	790.49
439.646	811.05
440.021	799.75
440.395	814.67
440.77	825.52
441.145	825.74
441.52	832.52
441.895	829.58
442.27	820.09
442.645	815.8
443.019	867.32
443.394	845.85
443.769	859.86
444.143	846.08
444.518	856.02
444.892	869.58
445.267	877.94
445.641	861.9
446.016	874.55
446.39	891.5
446.764	885.4
447.139	917.04
447.513	903.48
447.887	934.89
448.262	908
448.636	917.49
449.01	943.48
449.384	959.07
449.758	933.31
450.132	948.9
450.506	951.39
450.88	985.96
451.254	953.65
451.628	954.33
452.002	961.33
452.376	1008.56
452.75	1006.53
453.123	1023.7
453.497	1016.02
453.871	1049.24
454.244	1029.35
454.618	1028.45
454.992	1048.33
455.365	1072.74
455.739	1061.67
456.112	1079.29
456.486	1095.34
456.859	1133.3
457.232	1137.37
457.606	1134.66
457.979	1157.26
458.352	1156.35
458.725	1167.65
459.099	1179.63
459.472	1170.14
459.845	1223.92
460.218	1223.47
460.591	1247.42
460.964	1272.73
461.337	1252.17
461.71	1291.72
462.083	1330.13
462.456	1272.73
462.829	1327.87
463.201	1345.28
463.574	1344.37
463.947	1369
464.32	1416.91
464.692	1402.67
465.065	1434.54
465.438	1466.63
465.81	1488.55
466.183	1499.85
466.555	1509.79
466.928	1506.18
467.3	1547.98
467.672	1575.55
468.045	1585.04
468.417	1620.52
468.789	1649.9
469.161	1683.35
469.534	1709.33
469.906	1735.77
470.278	1745.26
470.65	1758.6
471.022	1825.26
471.394	1856.67
471.766	1893.28
472.138	1890.35
472.51	1961.53
472.882	1991.13
473.253	2031.36
473.625	2056.22
473.997	2118.14
474.369	2146.84
474.74	2184.8
475.112	2241.52
475.484	2255.31
475.855	2338.02
476.227	2414.85
476.598	2441.97
476.97	2489.43
477.341	2568.52
477.713	2627.28
478.084	2673.15
478.455	2786.59
478.827	2828.63
479.198	2935.29
479.569	2996.08
479.94	3033.82
480.311	3148.17
480.682	3257.99
481.053	3306.58
481.424	3386.8
481.795	3523.52
482.166	3565.78
482.537	3651.88
482.908	3736.85
483.279	3846.9
483.65	4015.94
484.021	4108.59
484.391	4182.94
484.762	4276.27
485.133	4380.68
485.503	4459.32
485.874	4644.17
486.244	4733.43
486.615	4882.13
486.985	4963.94
487.356	5104.27
487.726	5216.13
488.097	5424.26
488.467	5422.46
488.837	5628.33
489.207	5768.44
489.578	5870.81
489.948	6008.43
490.318	6154.41
490.688	6276.45
491.058	6426.72
491.428	6540.17
491.798	6690.9
492.168	6942.19
492.538	7012.24
492.908	7186.03
493.278	7322.52
493.648	7386.02
494.017	7594.15
494.387	7700.14
494.757	7878.21
495.126	7971.77
495.496	8117.3
495.866	8225.55
496.235	8386.22
496.605	8537.4
496.974	8654.46
497.344	8872.54
497.713	8915.25
498.082	9064.39
498.452	9257.38
498.821	9310.49
499.19	9454.21
499.559	9632.29
499.928	9680.42
500.298	9772.85
500.667	9979.85
501.036	10012.84
501.405	10148.43
501.774	10262.56
502.143	10344.36
502.512	10535.77
502.88	10608.76
503.249	10676.33
503.618	10745.71
503.987	10909.54
504.356	11079.71
504.724	11151.35
505.093	11222.98
505.462	11404.67
505.83	11415.52
506.199	11595.85
506.567	11750.2
506.936	11750.2
507.304	11972.57
507.672	12023.19
508.041	12142.51
508.409	12198.32
508.777	12296.85
509.145	12491.87
509.514	12523.74
509.882	12712.89
510.25	12691.64
510.618	12758.31
510.986	12871.3
511.354	13022.48
511.722	13134.57
512.09	13238.07
512.458	13230.39
512.826	13354.68
513.193	13398.52
513.561	13450.72
513.929	13562.13
514.297	13694.78
514.664	13808
515.032	13830.6
515.4	13935
515.767	14026.98
516.135	14122.34
516.502	14008.67
516.869	14257.7
517.237	14296.8
517.604	14251.6
517.972	14457.02
518.339	14563.91
518.706	14539.5
519.073	14612.95
519.44	14728.88
519.808	14833.96
520.175	14816.33
520.542	14974.3
520.909	14999.15
521.276	15108.08
521.643	15162.54
522.009	15217.45
522.376	15349.65
522.743	15343.33
523.11	15549.65
523.477	15684.11
523.843	15762.3
524.21	15765.46
524.577	15902.63
524.943	15949.41
525.31	15981.73
525.676	16152.34
526.043	16143.98
526.409	16159.35
526.776	16261.95
527.142	16392.56
527.508	16390.3
527.874	16522.05
528.241	16478.44
528.607	16556.63
528.973	16684.31
529.339	16655.83
529.705	16741.71
530.071	16835.04
530.437	16849.73
530.803	16944.87
531.169	16969.72
531.535	16944.41
531.901	16929.95
532.267	17029.16
532.632	17143.96
532.998	17071.42
533.364	17150.28
533.73	17176.5
534.095	17289.04
534.461	17241.81
534.826	17256.04
535.192	17365.19
535.557	17444.74
535.923	17393.44
536.288	17483.16
536.653	17422.59
537.019	17315.93
537.384	17441.8
537.749	17407
538.114	17441.8
538.479	17421.69
538.845	17408.81
539.21	17418.07
539.575	17435.02
539.94	17394.12
540.305	17483.38
540.67	17540.78
541.034	17472.76
541.399	17610.16
541.764	17535.13
542.129	17513.66
542.494	17595.47
542.858	17569.48
543.223	17401.12
543.587	17578.52
543.952	17398.64
544.316	17466.43
544.681	17452.87
545.045	17431.86
545.41	17502.36
545.774	17489.71
546.138	17553.89
546.503	17536.26
546.867	17476.38
547.231	17543.49
547.595	17505.08
547.959	17534.91
548.324	17530.39
548.688	17511.18
549.052	17462.37
549.416	17500.56
549.779	17400.67
550.143	17556.6
550.507	17555.7
550.871	17518.41
551.235	17492.65
551.599	17585.98
551.962	17480.44
552.326	17510.5
552.689	17641.34
553.053	17565.19
553.417	17501.46
553.78	17681.79
554.143	17687.44
554.507	17624.62
554.87	17544.85
555.234	17719.08
555.597	17517.51
555.96	17649.25
556.323	17662.13
556.686	17662.36
557.05	17670.04
557.413	17665.3
557.776	17668.69
558.139	17677.73
558.502	17697.39
558.865	17770.83
559.228	17830.94
559.59	17816.71
559.953	17879.53
560.316	17962.47
560.679	17900.55
561.041	18031.62
561.404	18107.77
561.767	18055.57
562.129	17990.49
562.492	18242.68
562.854	18150.71
563.217	18081.56
563.579	18220.76
563.941	18283.59
564.304	18333.76
564.666	18401.32
565.028	18375.79
565.39	18376.69
565.753	18446.75
566.115	18507.31
566.477	18554.77
566.839	18562
567.201	18720.19
567.563	18547.53
567.925	18745.72
568.287	18675.44
568.648	18715.44
569.01	18834.76
569.372	18869.56
569.734	18747.76
570.095	18845.38
570.457	18922.89
570.819	18937.36
571.18	18836.57
571.542	19009.22
571.903	19001.31
572.265	19015.32
572.626	19033.17
572.987	19083.57
573.349	19206.05
573.71	19200.85
574.071	19178.93
574.432	19272.04
574.794	19338.93
575.155	19248.99
575.516	19219.61
575.877	19265.48
576.238	19357.91
576.599	19456.66
576.96	19397.68
577.32	19312.94
577.681	19477
578.042	19546.6
578.403	19560.39
578.763	19572.37
579.124	19356.33
579.485	19554.97
579.845	19575.98
580.206	19515.42
580.566	19512.93
580.927	19482.65
581.287	19646.72
581.648	19484.01
582.008	19562.65
582.368	19491.69
582.728	19565.59
583.089	19509.32
583.449	19518.36
583.809	19512.26
584.169	19454.18
584.529	19446.72
584.889	19557.45
585.249	19473.39
585.609	19502.09
585.969	19532.14
586.329	19434.97
586.688	19470
587.048	19412.6
587.408	19360.17
587.768	19472.71
588.127	19438.36
588.487	19370.56
588.846	19645.59
589.206	19362.65
589.565	19455.08
589.925	19453.73
590.284	19333.95
590.643	19362.2
591.003	19382.32
591.362	19404.91
591.721	19399.49
592.08	19365.14
592.44	19420.51
592.799	19445.14
593.158	19462.99
593.517	19430.45
593.876	19399.94
594.235	19334.86
594.593	19369.21
594.952	19449.43
595.311	19289.44
595.67	19307.29
596.029	19505.25
596.387	19456.44
596.746	19407.85
597.104	19376.67
597.463	19252.15
597.822	19372.15
598.18	19344.12
598.538	19327.85
598.897	19460.51
599.255	19306.84
599.613	19651.91
599.972	19464.12
600.33	19487.4
600.688	19289.21
601.046	19368.98
601.404	19494.85
601.762	19436.55
602.12	19565.59
602.478	19481.97
602.836	19538.47
603.194	19489.21
603.552	19482.2
603.91	19362.65
604.268	19374.41
604.625	19406.04
604.983	19460.73
605.341	19427.96
605.698	19447.4
606.056	19589.77
606.413	19488.75
606.771	19492.82
607.128	19557.45
607.485	19380.51
607.843	19471.35
608.2	19584.57
608.557	19715.64
608.914	19671.8
609.272	19653.72
609.629	19684.23
609.986	19808.07
610.343	19700.27
610.7	19807.84
611.057	19765.13
611.414	19759.03
611.771	19830.67
612.127	19903.88
612.484	19844.9
612.841	19913.83
613.198	19843.55
613.554	19732.36
613.911	19920.83
614.267	19944.79
614.624	19901.4
614.98	19945.69
615.337	19944.33
615.693	19974.16
616.05	19877.22
616.406	20062.3
616.762	19951.57
617.118	20001.06
617.475	19967.38
617.831	20065.91
618.187	20111.34
618.543	20179.36
618.899	20270.43
619.255	20211.67
619.611	20161.73
619.967	20261.84
620.323	20274.04
620.678	20160.15
621.034	20104.33
621.39	20265.46
621.746	20191.56
622.101	20327.38
622.457	20196.76
622.812	20284.44
623.168	20252.8
623.523	20253.7
623.879	20371.44
624.234	20165.57
624.589	20261.39
624.945	20269.98
625.3	20287.6
625.655	20316.53
626.01	20330.54
626.365	20317.43
626.72	20237.66
627.075	20187.72
627.43	20196.76
627.785	20175.06
628.14	20257.77
628.495	20232.24
628.85	20126.48
629.205	20114.05
629.559	20333.02
629.914	20208.73
630.269	20281.73
630.623	20130.54
630.978	20065.24
631.332	20211.67
631.687	20131.9
632.041	20136.65
632.396	20217.55
632.75	20029.3
633.104	20145.68
633.459	19929.65
633.813	19945.92
634.167	19909.76
634.521	19957.89
634.875	20072.92
635.229	19973.49
635.583	19860.27
635.937	19945.92
636.291	19895.97
636.645	19873.83
636.999	19868.63
637.352	19902.98
637.706	19744.79
638.06	19828.41
638.413	19778.69
638.767	19710.67
639.121	19864.11
639.474	19724
639.828	19612.82
640.181	19639.94
640.534	19716.32
640.888	19594.74
641.241	19590.67
641.594	19667.73
641.947	19580.28
642.301	19505.48
642.654	19452.82
643.007	19627.73
643.36	19518.81
643.713	19587.96
644.066	19638.35
644.419	19467.28
644.771	19348.42
645.124	19209.44
645.477	19185.48
645.83	19014.42
646.182	18932.16
646.535	18892.61
646.888	18874.31
647.24	18799.73
647.593	18985.26
647.945	18797.47
648.298	18790.24
648.65	18754.99
649.002	18673.18
649.355	18743.91
649.707	18698.04
650.059	18868.2
650.411	19016.45
650.763	19099.38
651.115	19276.78
651.467	19166.73
651.819	19222.09
652.171	19298.7
652.523	19163.11
652.875	19196.56
653.227	19209.44
653.578	19194.3
653.93	19218.93
654.282	19157.24
654.633	19167.63
654.985	19079.5
655.337	19234.97
655.688	19179.38
656.039	19300.51
656.391	19113.17
656.742	19157.69
657.094	19167.86
657.445	19198.37
657.796	19215.31
658.147	19108.88
658.498	19102.55
658.849	19161.76
659.2	19236.1
659.551	19159.72
659.902	19201.75
660.253	19206.95
660.604	19269.1
660.955	19182.32
661.306	19303.67
661.656	19238.82
662.007	19220.29
662.358	19174.41
662.708	19184.58
663.059	19160.4
663.409	19092.61
663.76	19237.69
664.11	19242.43
664.461	19221.87
664.811	19208.99
665.161	19205.82
665.511	19167.86
665.862	19267.29
666.212	19315.88
666.562	19326.05
666.912	19208.08
667.262	19140.29
667.612	19207.63
667.962	19213.05
668.312	19117.01
668.662	19270.23
669.011	19178.93
669.361	19205.14
669.711	19207.86
670.06	19146.39
670.41	19133.73
670.76	19103.23
671.109	19189.33
671.459	19101.87
671.808	19196.78
672.157	19113.85
672.507	19088.76
672.856	19053.28
673.205	19059.84
673.554	19082.66
673.904	19018.71
674.253	19246.73
674.602	19068.65
674.951	18803.57
675.3	18695.78
675.649	18898.71
675.998	18924.7
676.346	18917.02
676.695	18995.66
677.044	18837.24
677.393	18865.72
677.741	18881.09
678.09	18826.85
678.438	18724.93
678.787	18811.93
679.135	18844.7
679.484	18723.8
679.832	18670.92
680.181	18637.93
680.529	18693.29
680.877	18612.39
681.225	18590.7
681.573	18753.41
681.922	18549.12
682.27	18497.37
682.618	18553.41
682.966	18520.87
683.314	18475.22
683.661	18351.38
684.009	18268.9
684.357	18330.37
684.705	18326.75
685.053	18394.09
685.4	18159.97
685.748	18089.24
686.095	18071.39
686.443	18035.91
686.79	18077.72
687.138	17999.07
687.485	18080.2
687.832	17932.64
688.18	17935.8
688.527	17904.61
688.874	17791.62
689.221	17786.88
689.568	17793.2
689.915	17646.54
690.262	17697.16
690.609	17639.76
690.956	17652.19
691.303	17511.18
691.65	17459.88
691.997	17460.33
692.344	17357.28
692.69	17395.47
693.037	17312.31
693.383	17224.86
693.73	17281.13
694.077	17123.17
694.423	17010.17
694.769	16961.14
695.116	16921.36
695.462	16934.47
695.808	16807.02
696.155	16844.3
696.501	16786.23
696.847	16640.92
697.193	16514.37
697.539	16507.81
697.885	16395.05
698.231	16404.54
698.577	16464.65
698.923	16379.68
699.269	16310.76
699.614	16182.63
699.96	16171.33
700.306	16139.24
700.651	16089.07
700.997	16058.11
701.342	15981.73
701.688	15947.6
702.033	15781.96
702.379	15860.15
702.724	15834.16
703.069	15750.55
703.415	15621.06
703.76	15623.09
704.105	15642.3
704.45	15572.92
704.795	15487.28
705.14	15432.59
705.485	15418.13
705.83	15364.79
706.175	15329.77
706.52	15281.63
706.865	15227.62
707.209	15183.56
707.554	15135.65
707.899	15114.18
708.243	14941.75
708.588	14998.02
708.932	14946.5
709.277	14907.4
709.621	14970.23
709.966	14864.47
710.31	14799.38
710.654	14688.88
710.998	14780.85
711.342	14762.78
711.687	14720.97
712.031	14639.16
712.375	14517.58
712.719	14548.54
713.063	14521.2
713.407	14609.11
713.75	14469.22
714.094	14475.33
714.438	14361.2
714.782	14433.07
715.125	14344.71
715.469	14293.64
715.812	14226.74
716.156	14214.77
716.499	14248.44
716.843	14178.84
717.186	14111.72
717.53	14102.68
717.873	14182.45
718.216	14054.32
718.559	14015.68
718.902	14003.02
719.246	13994.43
719.589	14049.8
719.932	14026.3
720.275	13980.65
720.617	13914.44
720.96	13913.31
721.303	13937.26
721.646	13896.13
721.989	13792.63
722.331	13916.24
722.674	13818.62
723.016	13886.64
723.359	13827.43
723.701	13825.63
724.044	13721.45
724.386	13702.92
724.729	13735.01
725.071	13739.75
725.413	13663.6
725.755	13706.98
726.097	13637.61
726.439	13534.79
726.782	13602.81
727.124	13628.57
727.465	13597.83
727.807	13616.37
728.149	13494.79
728.491	13556.03
728.833	13568.23
729.175	13566.2
729.516	13575.91
729.858	13427.44
730.199	13525.97
730.541	13468.35
730.882	13492.53
731.224	13518.74
731.565	13407.56
731.906	13431.06
732.248	13456.82
732.589	13443.71
732.93	13396.94
733.271	13380.67
733.612	13413.66
733.953	13475.13
734.294	13455.01
734.635	13436.71
734.976	13438.74
735.317	13386.54
735.658	13413.21
735.999	13422.92
736.339	13370.5
736.68	13350.38
737.021	13420.89
737.361	13372.76
737.702	13417.27
738.042	13350.84
738.383	13310.16
738.723	13332.3
739.063	13393.55
739.404	13393.32
739.744	13386.54
740.084	13299.76
740.424	13490.72
740.764	13431.06
741.104	13417.5
741.444	13387.44
741.784	13382.25
742.124	13472.87
742.464	13356.48
742.804	13408.46
743.143	13486.88
743.483	13567.33
743.823	13566.2
744.162	13561.45
744.502	13558.97
744.841	13543.37
745.181	13634.67
745.52	13715.12
745.86	13695.01
746.199	13698.4
746.538	13689.58
746.877	13796.02
747.216	13909.01
747.556	13841.9
747.895	13935.45
748.234	13939.52
748.573	13943.59
748.911	13997.37
749.25	14028.33
749.589	14080.99
749.928	14254.99
750.267	14231.72
750.605	14280.98
750.944	14344.93
751.283	14426.97
751.621	14535.44
751.96	14499.05
752.298	14624.7
752.636	14774.07
752.975	14752.15
753.313	14843.45
753.651	15007.74
753.989	14968.19
754.327	15138.58
754.666	15128.42
755.004	15372.48
755.342	15397.11
755.679	15531.79
756.017	15611.11
756.355	15751.68
