Data from hue_20_FLMS001491_69.txt Node
Date: Mon Feb 06 15:34:28 GMT 2017
User: dcchb
Spectrometer: FLMS00149
Trigger mode: 0
Integration Time (sec): 2.000000E-2
Scans to average: 10
Electric dark correction enabled: true
Nonlinearity correction enabled: false
Boxcar width: 0
XAxis mode: Wavelengths
Number of Pixels in Spectrum: 2048
>>>>>Begin Spectral Data<<<<<
341.393	-26.36
341.776	-26.36
342.16	-26.36
342.543	-62.96
342.927	-83.98
343.31	-49.18
343.693	-54.15
344.077	-82.62
344.46	-48.28
344.843	-52.34
345.226	-39.01
345.61	-20.93
345.993	-21.16
346.376	-12.12
346.759	-8.28
347.142	5.51
347.525	40.76
347.908	66.52
348.291	75.56
348.674	97.48
349.057	102.23
349.44	146.3
349.823	131.83
350.206	153.3
350.588	187.2
350.971	215.22
351.354	219.51
351.737	248.21
352.119	256.12
352.502	249.57
352.884	273.52
353.267	281.21
353.65	312.62
354.032	277.37
354.414	310.59
354.797	304.48
355.179	321.43
355.562	326.4
355.944	312.84
356.326	323.47
356.709	331.83
357.091	331.6
357.473	330.02
357.855	357.82
358.238	344.48
358.62	341.32
359.002	339.28
359.384	339.74
359.766	339.74
360.148	330.47
360.53	344.26
360.912	309.91
361.294	336.35
361.676	321.21
362.057	324.82
362.439	337.93
362.821	333.18
363.203	314.65
363.584	315.78
363.966	338.15
364.348	339.74
364.729	328.44
365.111	311.94
365.493	318.95
365.874	317.14
366.256	332.05
366.637	311.26
367.019	306.07
367.4	306.97
367.781	309.46
368.163	290.47
368.544	309.91
368.925	314.65
369.306	332.28
369.688	307.42
370.069	285.73
370.45	320.08
370.831	326.63
371.212	291.83
371.593	305.84
371.974	325.05
372.355	298.38
372.736	300.87
373.117	319.62
373.498	324.14
373.879	309.68
374.26	298.38
374.641	297.25
375.021	315.1
375.402	313.07
375.783	330.7
376.163	335.44
376.544	320.75
376.925	321.21
377.305	310.81
377.686	309
378.066	314.88
378.447	323.69
378.827	336.35
379.208	317.14
379.588	336.57
379.968	310.81
380.349	317.59
380.729	339.74
381.109	337.25
381.489	337.7
381.87	328.66
382.25	347.42
382.63	343.58
383.01	344.71
383.39	336.8
383.77	336.12
384.15	361.21
384.53	336.35
384.91	326.4
385.29	310.13
385.67	340.64
386.049	341.32
386.429	345.84
386.809	351.94
387.189	340.19
387.568	352.62
387.948	353.75
388.328	358.72
388.707	349.45
389.087	353.97
389.466	368.21
389.846	365.5
390.225	362.79
390.605	364.14
390.984	358.04
391.363	350.13
391.743	365.05
392.122	360.53
392.501	371.37
392.881	360.75
393.26	372.73
393.639	346.74
394.018	362.34
394.397	365.27
394.776	363.47
395.155	372.05
395.534	367.31
395.913	387.87
396.292	380.64
396.671	361.21
397.05	360.75
397.429	371.83
397.808	387.42
398.186	371.83
398.565	377.7
398.944	376.57
399.323	389
399.701	386.52
400.08	381.54
400.458	379.96
400.837	391.94
401.215	370.92
401.594	384.71
401.972	393.07
402.351	400.3
402.729	380.41
403.107	371.6
403.486	384.48
403.864	398.04
404.242	405.5
404.62	404.59
404.999	389
405.377	384.71
405.755	406.18
406.133	391.94
406.511	422.9
406.889	415.89
407.267	406.4
407.645	402.79
408.023	437.36
408.401	424.48
408.779	418.6
409.156	416.8
409.534	401.66
409.912	445.04
410.29	448.21
410.667	431.26
411.045	441.88
411.422	451.37
411.8	435.78
412.178	437.14
412.555	452.05
412.933	444.14
413.31	462.45
413.687	473.74
414.065	454.08
414.442	464.03
414.819	470.81
415.197	457.7
415.574	458.38
415.951	469.9
416.328	466.74
416.705	458.83
417.082	469.22
417.46	483.01
417.837	473.52
418.214	493.86
418.591	467.19
418.967	483.91
419.344	480.52
419.721	477.36
420.098	484.59
420.475	483.46
420.852	486.17
421.228	514.2
421.605	515.33
421.982	484.59
422.358	501.77
422.735	493.86
423.111	511.48
423.488	500.41
423.864	516.46
424.241	518.49
424.617	514.42
424.994	504.93
425.37	519.62
425.746	533.4
426.123	529.56
426.499	539.96
426.875	555.1
427.251	529.79
427.627	537.7
428.003	573.4
428.379	561.65
428.756	561.65
429.132	561.65
429.507	593.74
429.883	564.82
430.259	572.5
430.635	560.75
431.011	598.71
431.387	593.29
431.763	592.16
432.138	610.69
432.514	600.52
432.89	615.66
433.265	614.08
433.641	603.68
434.016	618.37
434.392	644.36
434.767	634.19
435.143	627.86
435.518	637.13
435.894	646.4
436.269	655.66
436.644	652.05
437.02	646.4
437.395	655.89
437.77	687.98
438.145	664.47
438.52	667.19
438.895	680.74
439.271	681.65
439.646	682.55
440.021	654.3
440.395	683.68
440.77	678.03
441.145	703.34
441.52	707.18
441.895	710.12
442.27	712.38
442.645	714.64
443.019	732.49
443.394	742.21
443.769	724.59
444.143	719.61
444.518	750.57
444.892	710.57
445.267	749.9
445.641	731.59
446.016	749.22
446.39	741.76
446.764	750.35
447.139	770.23
447.513	737.24
447.887	753.06
448.262	761.42
448.636	775.88
449.01	778.82
449.384	783.57
449.758	781.99
450.132	796
450.506	806.39
450.88	805.71
451.254	823.34
451.628	824.92
452.002	789.22
452.376	815.66
452.75	822.89
453.123	813.62
453.497	847.07
453.871	841.64
454.244	852.72
454.618	864.24
454.992	858.59
455.365	874.41
455.739	881.87
456.112	879.61
456.486	884.81
456.859	904.69
457.232	902.66
457.606	914.86
457.979	891.13
458.352	951.92
458.725	977.91
459.099	926.39
459.472	994.18
459.845	965.48
460.218	966.61
460.591	982.66
460.964	994.18
461.337	1013.39
461.71	1041.64
462.083	1039.83
462.456	1034.41
462.829	1027.4
463.201	1049.32
463.574	1066.27
463.947	1090.23
464.32	1077.34
464.692	1093.84
465.065	1098.59
465.438	1119.15
465.81	1129.32
466.183	1132.26
466.555	1171.13
466.928	1134.74
467.3	1157.12
467.672	1191.69
468.045	1229.2
468.417	1222.65
468.789	1236.44
469.161	1244.57
469.534	1263.1
469.906	1277.11
470.278	1280.96
470.65	1298.81
471.022	1315.08
471.394	1332.48
471.766	1363.44
472.138	1382.65
472.51	1394.85
472.882	1417
473.253	1443.44
473.625	1446.6
473.997	1454.28
474.369	1483.21
474.74	1527.28
475.112	1556.65
475.484	1552.59
475.855	1580.38
476.227	1582.42
476.598	1644.79
476.97	1653.37
477.341	1676.42
477.713	1707.38
478.084	1725.69
478.455	1766.14
478.827	1791.68
479.198	1835.97
479.569	1857.21
479.94	1898.34
480.311	1907.15
480.682	1955.29
481.053	2005.68
481.424	2033.25
481.795	2055.85
482.166	2097.43
482.537	2151.89
482.908	2198.67
483.279	2224.43
483.65	2217.2
484.021	2247.03
484.391	2312.34
484.762	2345.33
485.133	2399.8
485.503	2409.06
485.874	2496.97
486.244	2517.08
486.615	2553.46
486.985	2592.78
487.356	2633.24
487.726	2634.82
488.097	2701.93
488.467	2717.53
488.837	2756.17
489.207	2834.59
489.578	2884.53
489.948	2870.29
490.318	2950.52
490.688	2959.33
491.058	3038.2
491.428	3072.09
491.798	3100.34
492.168	3137.18
492.538	3150.06
492.908	3202.03
493.278	3242.94
493.648	3274.57
494.017	3334.91
494.387	3348.02
494.757	3389.6
495.126	3427.79
495.496	3444.97
495.866	3509.15
496.235	3534.68
496.605	3544.62
496.974	3595.24
497.344	3608.8
497.713	3638.18
498.082	3672.98
498.452	3733.55
498.821	3739.42
499.19	3709.59
499.559	3786.65
499.928	3799.76
500.298	3849.93
500.667	3862.36
501.036	3861.23
501.405	3917.72
501.774	3907.55
502.143	3959.3
502.512	3936.48
502.88	4027.78
503.249	4009.24
503.618	4041.33
503.987	4081.11
504.356	4096.02
504.724	4005.63
505.093	4102.8
505.462	4159.07
505.83	4217.37
506.199	4185.29
506.567	4240.88
506.936	4265.28
507.304	4288.33
507.672	4287.66
508.041	4328.78
508.409	4317.49
508.777	4368.56
509.145	4386.41
509.514	4415.79
509.882	4405.39
510.25	4450.59
510.618	4481.1
510.986	4485.84
511.354	4492.85
511.722	4547.31
512.09	4592.96
512.458	4577.14
512.826	4603.81
513.193	4599.74
513.561	4657.82
513.929	4649.23
514.297	4642.45
514.664	4712.28
515.032	4762.9
515.4	4800.86
515.767	4809.68
516.135	4816
516.502	4751.82
516.869	4825.72
517.237	4829.56
517.604	4848.54
517.972	4915.44
518.339	4950.92
518.706	4903.68
519.073	4971.25
519.44	4920.86
519.808	5007.64
520.175	4983.46
520.542	5048.31
520.909	5100.52
521.276	5097.8
521.643	5103.91
522.009	5163.56
522.376	5143.68
522.743	5132.83
523.11	5200.63
523.477	5226.84
523.843	5258.03
524.21	5320.85
524.577	5326.72
524.943	5347.97
525.31	5383.45
525.676	5453.05
526.043	5483.1
526.409	5465.48
526.776	5556.1
527.142	5580.73
527.508	5557.23
527.874	5575.08
528.241	5642.42
528.607	5714.74
528.973	5674.74
529.339	5641.52
529.705	5749.99
530.071	5768.29
530.437	5847.39
530.803	5847.16
531.169	5816.88
531.535	5871.57
531.901	5930.32
532.267	5919.03
532.632	5995.86
532.998	6027.5
533.364	6085.12
533.73	6058.91
534.095	6072.24
534.461	6086.03
534.826	6121.96
535.192	6117.89
535.557	6153.14
535.923	6189.3
536.288	6250.99
536.653	6277.66
537.019	6233.37
537.384	6293.25
537.749	6335.29
538.114	6336.64
538.479	6370.31
538.845	6340.26
539.21	6454.83
539.575	6472.91
539.94	6465
540.305	6447.82
540.67	6440.59
541.034	6459.12
541.399	6572.34
541.764	6528.5
542.129	6607.82
542.494	6606.92
542.858	6642.4
543.223	6632.68
543.587	6690.3
543.952	6703.19
544.316	6728.27
544.681	6749.06
545.045	6756.74
545.41	6810.98
545.774	6824.99
546.138	6867.93
546.503	6915.38
546.867	6927.36
547.231	6933.46
547.595	7005.55
547.959	7024.53
548.324	6993.57
548.688	6994.93
549.052	7047.13
549.416	7041.48
549.779	7078.99
550.143	7128.03
550.507	7163.96
550.871	7171.87
551.235	7176.85
551.599	7274.7
551.962	7297.75
552.326	7302.72
552.689	7368.03
553.053	7305.43
553.417	7330.97
553.78	7356.73
554.143	7412.32
554.507	7410.51
554.87	7468.14
555.234	7431.75
555.597	7511.07
555.96	7495.03
556.323	7529.38
556.686	7587.91
557.05	7615.7
557.413	7617.51
557.776	7615.25
558.139	7666.32
558.502	7741.8
558.865	7663.84
559.228	7701.13
559.59	7808.69
559.953	7802.14
560.316	7892.53
560.679	7888.01
561.041	7917.16
561.404	7953.55
561.767	7986.32
562.129	7913.77
562.492	8011.17
562.854	8059.31
563.217	8017.05
563.579	8066.09
563.941	8132.53
564.304	8140.44
564.666	8224.05
565.028	8262.47
565.39	8245.74
565.753	8299.75
566.115	8251.17
566.477	8378.62
566.839	8346.76
567.201	8454.1
567.563	8436.47
567.925	8514.66
568.287	8451.61
568.648	8537.94
569.01	8581.78
569.372	8659.29
569.734	8595.79
570.095	8631.95
570.457	8682.12
570.819	8743.13
571.18	8722.79
571.542	8770.7
571.903	8827.88
572.265	8883.92
572.626	8933.86
572.987	8897.7
573.349	8980.64
573.71	9093.86
574.071	9057.93
574.432	9132.5
574.794	9196.68
575.155	9279.84
575.516	9194.42
575.877	9338.37
576.238	9394.41
576.599	9443.23
576.96	9483.9
577.32	9572.04
577.681	9673.05
578.042	9654.52
578.403	9726.16
578.763	9879.6
579.124	9975.87
579.485	10045.92
579.845	10156.43
580.206	10119.82
580.566	10287.72
580.927	10296.54
581.287	10457.66
581.648	10550.77
582.008	10745.79
582.368	10793.02
582.728	10929.74
583.089	10957.99
583.449	11116.63
583.809	11349.16
584.169	11507.8
584.529	11598.2
584.889	11831.64
585.249	11848.81
585.609	11984.63
585.969	12257.62
586.329	12485.18
586.688	12656.93
587.048	12816.47
587.408	13032.28
587.768	13109.57
588.127	13348.21
588.487	13615.09
588.846	13893.05
589.206	14030.68
589.565	14217.11
589.925	14534.39
590.284	14783.42
590.643	14912.01
591.003	15241.49
591.362	15488.94
591.721	15704.08
592.08	15929.84
592.44	16187
592.799	16434.23
593.158	16728.46
593.517	17025.17
593.876	17255.45
594.235	17572.05
594.593	17779.73
594.952	18085.71
595.311	18359.6
595.67	18624.91
596.029	19047.95
596.387	19339.92
596.746	19605.67
597.104	19755.95
597.463	20133.34
597.822	20366.55
598.18	20693.55
598.538	20864.85
598.897	21352.07
599.255	21498.28
599.613	22053.52
599.972	22138.26
600.33	22507.74
600.688	22592.26
601.046	23079.25
601.404	23272.92
601.762	23533.48
602.12	23878.1
602.478	24278.54
602.836	24387.24
603.194	24620.23
603.552	24892.99
603.91	25031.74
604.268	25583.14
604.625	25739.97
604.983	26040.76
605.341	25993.75
605.698	26549.22
606.056	26743.11
606.413	26923.44
606.771	27280.5
607.128	27509.64
607.485	27674.39
607.843	27896.53
608.2	28244.54
608.557	28514.59
608.914	28666.9
609.272	28957.06
609.629	29183.72
609.986	29381.69
610.343	29627.78
610.7	29986.19
611.057	30150.25
611.414	30299.63
611.771	30604.03
612.127	30696.45
612.484	30956.11
612.841	31213.95
613.198	31333.27
613.554	31379.37
613.911	31826.14
614.267	31946.82
614.624	31972.58
614.98	32276.3
615.337	32692.33
615.693	32617.98
616.05	32804.19
616.406	32968.71
616.762	33078.31
617.118	33147.46
617.475	33378.87
617.831	33709.71
618.187	33753.77
618.543	33915.35
618.899	34163.03
619.255	34273.76
619.611	34304.27
619.967	34587.88
620.323	34664.71
620.678	34617.25
621.034	34721.43
621.39	34819.73
621.746	34927.3
622.101	35428.98
622.457	35274.41
622.812	35354.64
623.168	35608.41
623.523	35637.57
623.879	35851.35
624.234	35671.69
624.589	35912.59
624.945	35987.16
625.3	36243.43
625.655	36174.05
626.01	36213.14
626.365	36352.12
626.72	36358.9
627.075	36345.57
627.43	36461.72
627.785	36452.01
628.14	36600.25
628.495	36719.35
628.85	36660.14
629.205	36635.96
629.559	37003.41
629.914	36863.97
630.269	36933.8
630.623	36935.84
630.978	36913.46
631.332	37021.71
631.687	37110.07
632.041	37020.58
632.396	37039.79
632.75	36932.22
633.104	37004.31
633.459	36978.32
633.813	37063.07
634.167	37182.61
634.521	37074.36
634.875	37144.42
635.229	37115.27
635.583	37038.66
635.937	37053.8
636.291	37015.61
636.645	37177.19
636.999	37133.12
637.352	37315.94
637.706	36992.11
638.06	37251.99
638.413	37238.2
638.767	37100.8
639.121	37233.23
639.474	36943.52
639.828	37135.38
640.181	37013.35
640.534	37109.84
640.888	37034.59
641.241	36985.33
641.594	36957.98
641.947	37032.11
642.301	37069.17
642.654	37070.3
643.007	37071.2
643.36	37120.92
643.713	36975.61
644.066	37131.99
644.419	36994.14
644.771	36737.88
645.124	36340.15
645.477	36237.1
645.83	36101.28
646.182	36013.6
646.535	35967.73
646.888	36165.24
647.24	35753.27
647.593	36086.14
647.945	36081.17
648.298	35797.11
648.65	35675.08
649.002	35717.56
649.355	35884.79
649.707	35862.87
650.059	35978.57
650.411	36365.46
650.763	36459.01
651.115	36860.36
651.467	36708.95
651.819	36643.42
652.171	36516.41
652.523	36567.71
652.875	36586.69
653.227	36457.43
653.578	36548.95
653.93	36521.38
654.282	36477.77
654.633	36283.2
654.985	36493.14
655.337	36396.87
655.688	36508.96
656.039	36625.11
656.391	36316.19
656.742	36421.5
657.094	36401.84
657.445	36383.99
657.796	36291.79
658.147	36277.32
658.498	36341.73
658.849	36338.11
659.2	36384.21
659.551	36157.78
659.902	36361.61
660.253	36272.8
660.604	36365.91
660.955	36231.22
661.306	36375.85
661.656	36256.98
662.007	36249.98
662.358	36291.56
662.708	36166.14
663.059	36122.98
663.409	36035.97
663.76	36311.9
664.11	36240.71
664.461	36278.23
664.811	36191.68
665.161	36283.88
665.511	36278.45
665.862	36156.65
666.212	36325.68
666.562	36288.62
666.912	36201.84
667.262	36132.92
667.612	36204.33
667.962	36199.58
668.312	36179.7
668.662	36241.62
669.011	36123.43
669.361	36144.22
669.711	36081.62
670.06	35998.01
670.41	36041.17
670.76	36023.54
671.109	36184.22
671.459	36078.91
671.808	35932.02
672.157	36123.43
672.507	35838.24
672.856	35836.2
673.205	35874.62
673.554	36001.62
673.904	35894.96
674.253	36032.36
674.602	35839.14
674.951	35477.34
675.3	35268.08
675.649	35808.86
675.998	35743.55
676.346	35843.89
676.695	35883.21
677.044	35624.23
677.393	35765.02
677.741	35707.85
678.09	35618.13
678.438	35574.52
678.787	35621.3
679.135	35588.98
679.484	35437.57
679.832	35505.37
680.181	35356.22
680.529	35490.68
680.877	35381.53
681.225	35405.48
681.573	35526.83
681.922	35298.59
682.27	35000.97
682.618	35230.34
682.966	35098.82
683.314	35233.06
683.661	34929.79
684.009	34970.92
684.357	34952.16
684.705	34701.09
685.053	34871.71
685.4	34808.66
685.748	34700.42
686.095	34578.84
686.443	34429.24
686.79	34433.3
687.138	34618.38
687.485	34511.95
687.832	34435.79
688.18	34424.26
688.527	34193.99
688.874	34226.53
689.221	34075.57
689.568	34097.95
689.915	33969.36
690.262	34107.21
690.609	33865.41
690.956	33859.31
691.303	33805.75
691.65	33659.76
691.997	33525.3
692.344	33420.22
692.69	33480.11
693.037	33475.14
693.383	33140.68
693.73	33230.4
694.077	33118.08
694.423	33022.04
694.769	32983.85
695.116	32760.81
695.462	32760.58
695.808	32731.2
696.155	32688.26
696.501	32489.63
696.847	32396.3
697.193	32297.31
697.539	32451.21
697.885	32228.84
698.231	32112.01
698.577	32174.38
698.923	32015.51
699.269	31933.71
699.614	31689.65
699.96	31641.74
700.306	31750.89
700.651	31474.06
700.997	31551.57
701.342	31441.29
701.688	31353.84
702.033	31370.33
702.379	31349.99
702.724	31323.33
703.069	31293.05
703.415	30913.17
703.76	31023.22
704.105	30989.33
704.45	30820.97
704.795	30731.48
705.14	30619.39
705.485	30714.08
705.83	30512.73
706.175	30550.92
706.52	30237.93
706.865	30279.74
707.209	30150.93
707.554	30159.74
707.899	30169.46
708.243	29953.2
708.588	29940.31
708.932	29839.3
709.277	29726.31
709.621	29810.83
709.966	29511.63
710.31	29762.69
710.654	29388.69
710.998	29552.08
711.342	29377.84
711.687	29345.3
712.031	29258.07
712.375	29176.49
712.719	29347.79
713.063	29144.4
713.407	29214.68
713.75	29054.01
714.094	29113.22
714.438	28995.71
714.782	28980.11
715.125	28708.48
715.469	28759.55
715.812	28710.06
716.156	28566.34
716.499	28503.06
716.843	28717.52
717.186	28428.04
717.53	28521.82
717.873	28500.8
718.216	28458.55
718.559	28375.61
718.902	28036.64
719.246	28202.28
719.589	28054.26
719.932	27990.54
720.275	28058.78
720.617	27939.01
720.96	27835.96
721.303	27795.06
721.646	27887.71
721.989	27697.21
722.331	27711.67
722.674	27754.61
723.016	27744.21
723.359	27664.22
723.701	27657.89
724.044	27525.01
724.386	27412.47
724.729	27499.47
725.071	27408.4
725.413	27478.46
725.755	27360.04
726.097	27307.16
726.439	27173.16
726.782	27193.95
727.124	27049.77
727.465	27048.41
727.807	27026.94
728.149	27085.02
728.491	26973.39
728.833	26931.13
729.175	26746.27
729.516	26865.82
729.858	26701.08
730.199	26846.61
730.541	26627.63
730.882	26655.2
731.224	26737.01
731.565	26595.54
731.906	26544.92
732.248	26662.21
732.589	26335.66
732.93	26220.41
733.271	26420.41
733.612	26466.73
733.953	26450.24
734.294	26306.51
734.635	26205.72
734.976	26313.52
735.317	26092.73
735.658	26152.62
735.999	26103.81
736.339	26144.48
736.68	26178.61
737.021	26050.47
737.361	25900.87
737.702	26021.55
738.042	25968.22
738.383	25849.12
738.723	25882.57
739.063	25923.92
739.404	25908.56
739.744	25830.14
740.084	25603.93
740.424	25843.47
740.764	25603.03
741.104	25800.08
741.444	25584.27
741.784	25471.96
742.124	25549.47
742.464	25497.95
742.804	25473.77
743.143	25410.26
743.483	25391.06
743.823	25300.44
744.162	25341.57
744.502	25287.1
744.841	25203.04
745.181	25299.98
745.52	25206.65
745.86	25180.21
746.199	25148.12
746.538	25085.53
746.877	25207.33
747.216	25062.93
747.556	25034.91
747.895	24982.03
748.234	24944.74
748.573	24884.4
748.911	24893.22
749.25	24864.52
749.589	24716.95
749.928	24808.47
750.267	24782.71
750.605	24685.09
750.944	24665.88
751.283	24537.07
751.621	24528.71
751.96	24500.23
752.298	24462.49
752.636	24471.76
752.975	24328.94
753.313	24193.12
753.651	24371.87
753.989	24227.7
754.327	24095.27
754.666	24095.04
755.004	24129.17
755.342	24082.39
755.679	24098.66
756.017	23975.5
756.355	24123.52
756.693	23946.8
757.031	23857.31
757.368	23851.89
757.706	23859.34
758.044	23666.58
758.381	23723.53
758.719	23581.16
759.056	23566.92
759.394	23545
759.731	23449.86
760.068	23202.64
760.405	23262.75
760.743	23252.35
