Data from hue_80_FLMS001491_50.txt Node
Date: Mon Feb 06 15:23:04 GMT 2017
User: dcchb
Spectrometer: FLMS00149
Trigger mode: 0
Integration Time (sec): 2.000000E-2
Scans to average: 10
Electric dark correction enabled: true
Nonlinearity correction enabled: false
Boxcar width: 0
XAxis mode: Wavelengths
Number of Pixels in Spectrum: 2048
>>>>>Begin Spectral Data<<<<<
341.393	2.27
341.776	2.27
342.16	2.27
342.543	-69.36
342.927	-71.4
343.31	-62.81
343.693	-64.16
344.077	-57.16
344.46	-70.49
344.843	-42.02
345.226	-37.95
345.61	-25.75
345.993	-20.32
346.376	-29.59
346.759	14.7
347.142	26
347.525	35.04
347.908	48.6
348.291	70.75
348.674	99.22
349.057	115.94
349.44	128.15
349.823	158.2
350.206	153.68
350.588	198.88
350.971	190.97
351.354	217.86
351.737	243.17
352.119	269.16
352.502	261.02
352.884	266.67
353.267	301.48
353.65	305.32
354.032	301.93
354.414	301.48
354.797	312.55
355.179	319.33
355.562	332.89
355.944	312.32
356.326	324.07
356.709	313.23
357.091	354.81
357.473	342.6
357.855	355.71
358.238	360.91
358.62	354.58
359.002	345.54
359.384	343.73
359.766	349.38
360.148	364.75
360.53	342.15
360.912	372.21
361.294	339.89
361.676	341.47
362.057	351.19
362.439	352.55
362.821	322.72
363.203	330.4
363.584	336.05
363.966	336.05
364.348	330.17
364.729	337.41
365.111	337.41
365.493	323.17
365.874	318.2
366.256	343.51
366.637	297.63
367.019	307.58
367.4	307.12
367.781	326.33
368.163	320.68
368.544	327.01
368.925	308.03
369.306	326.11
369.688	328.59
370.069	337.41
370.45	319.33
370.831	321.36
371.212	342.83
371.593	327.24
371.974	312.55
372.355	318.88
372.736	323.4
373.117	318.2
373.498	320.46
373.879	314.81
374.26	309.84
374.641	339.21
375.021	323.4
375.402	335.15
375.783	316.16
376.163	315.26
376.544	335.82
376.925	341.7
377.305	311.64
377.686	328.14
378.066	327.92
378.447	329.95
378.827	329.05
379.208	343.06
379.588	340.34
379.968	340.57
380.349	334.69
380.729	324.98
381.109	345.54
381.489	340.57
381.87	348.71
382.25	353.45
382.63	356.39
383.01	335.6
383.39	366.11
383.77	334.02
384.15	343.51
384.53	333.11
384.91	363.17
385.29	346.45
385.67	354.81
386.049	370.63
386.429	356.84
386.809	353.23
387.189	347.58
387.568	368.14
387.948	350.29
388.328	368.59
388.707	345.09
389.087	355.26
389.466	369.27
389.846	361.13
390.225	364.98
390.605	370.4
390.984	367.91
391.363	375.15
391.743	365.65
392.122	386.22
392.501	369.5
392.881	360.68
393.26	398.42
393.639	375.82
394.018	357.07
394.397	370.85
394.776	396.84
395.155	386.67
395.534	395.94
395.913	376.05
396.292	384.86
396.671	385.31
397.05	383.73
397.429	391.42
397.808	391.19
398.186	395.71
398.565	392.55
398.944	398.42
399.323	406.78
399.701	394.35
400.08	388.03
400.458	399.33
400.837	400.23
401.215	407.24
401.594	401.36
401.972	412.66
402.351	399.1
402.729	410.4
403.107	402.04
403.486	398.42
403.864	398.42
404.242	417.18
404.62	400
404.999	440.45
405.377	424.86
405.755	410.17
406.133	442.04
406.511	425.09
406.889	438.19
407.267	423.05
407.645	446.33
408.023	444.3
408.401	445.2
408.779	453.56
409.156	441.58
409.534	444.52
409.912	444.97
410.29	461.7
410.667	470.06
411.045	462.83
411.422	457.63
411.8	476.61
412.178	469.83
412.555	474.35
412.933	444.52
413.31	475.03
413.687	466.44
414.065	483.84
414.442	470.74
414.819	463.5
415.197	482.26
415.574	495.82
415.951	490.85
416.328	484.3
416.705	471.87
417.082	497.18
417.46	506.22
417.837	507.8
418.214	520.23
418.591	508.25
418.967	512.32
419.344	516.84
419.721	534.24
420.098	523.16
420.475	528.14
420.852	516.16
421.228	525.2
421.605	535.82
421.982	531.75
422.358	541.47
422.735	546.67
423.111	542.15
423.488	559.77
423.864	569.72
424.241	564.29
424.617	545.31
424.994	574.46
425.37	554.58
425.746	574.69
426.123	559.32
426.499	578.53
426.875	559.77
427.251	574.46
427.627	584.63
428.003	571.98
428.379	629.15
428.756	607.91
429.132	604.74
429.507	604.07
429.883	630.51
430.259	618.53
430.635	632.77
431.011	659.43
431.387	616.5
431.763	657.4
432.138	633.22
432.514	672.54
432.89	654.91
433.265	666.89
433.641	663.73
434.016	665.31
434.392	672.31
434.767	715.93
435.143	676.15
435.518	688.13
435.894	703.5
436.269	714.57
436.644	713.22
437.02	716.15
437.395	705.31
437.77	718.87
438.145	759.32
438.52	723.84
438.895	726.1
439.271	720.9
439.646	758.19
440.021	752.76
440.395	767
440.77	770.62
441.145	768.13
441.52	813.78
441.895	772.2
442.27	809.48
442.645	767
443.019	787.56
443.394	810.39
443.769	772.42
444.143	801.57
444.518	809.94
444.892	819.2
445.267	822.59
445.641	833.21
446.016	848.58
446.39	844.51
446.764	844.74
447.139	856.04
447.513	853.33
447.887	849.26
448.262	860.1
448.636	840.22
449.01	854
449.384	842.93
449.758	880.67
450.132	900.1
450.506	920.89
450.88	902.82
451.254	884.96
451.628	917.96
452.002	945.98
452.376	929.26
452.75	920.22
453.123	946.66
453.497	933.1
453.871	957.96
454.244	976.26
454.618	989.14
454.992	995.92
455.365	986.88
455.739	1003.6
456.112	1039.99
456.486	1034.11
456.859	1050.38
457.232	1060.1
457.606	1064.84
457.979	1057.84
458.352	1077.05
458.725	1087.22
459.099	1109.59
459.472	1144.16
459.845	1114.34
460.218	1139.19
460.591	1179.64
460.964	1153.43
461.337	1184.84
461.71	1196.59
462.083	1205.18
462.456	1235.01
462.829	1230.72
463.201	1242.47
463.574	1249.47
463.947	1279.08
464.32	1312.75
464.692	1324.05
465.065	1327.66
465.438	1315.46
465.81	1349.13
466.183	1372.41
466.555	1425.29
466.928	1415.34
467.3	1437.94
467.672	1488.56
468.045	1496.02
468.417	1489.01
468.789	1528.34
469.161	1550.93
469.534	1619.41
469.906	1614.66
470.278	1619.18
470.65	1658.28
471.022	1683.81
471.394	1751.61
471.766	1768.1
472.138	1790.7
472.51	1827.08
472.882	1856.24
473.253	1900.76
473.625	1925.84
473.997	1977.59
474.369	1987.31
474.74	2043.35
475.112	2087.87
475.484	2129.68
475.855	2175.78
476.227	2242.44
476.598	2318.6
476.97	2319.95
477.341	2409.22
477.713	2467.52
478.084	2499.84
478.455	2615.54
478.827	2639.94
479.198	2768.75
479.569	2759.26
479.94	2870
480.311	2962.42
480.682	3039.48
481.053	3156.99
481.424	3194.28
481.795	3286.03
482.166	3333.94
482.537	3405.35
482.908	3517.21
483.279	3624.78
483.65	3725.11
484.021	3846.24
484.391	3939.8
484.762	4023.41
485.133	4102.51
485.503	4183.41
485.874	4321.48
486.244	4456.39
486.615	4604.41
486.985	4639.67
487.356	4813.45
487.726	4931.86
488.097	5096.38
488.467	5130.05
488.837	5295.69
489.207	5424.96
489.578	5609.81
489.948	5683.25
490.318	5825.62
490.688	5869.24
491.058	6087.31
491.428	6203.92
491.798	6335.89
492.168	6519.62
492.538	6555.77
492.908	6754.19
493.278	6886.16
493.648	7021.3
494.017	7165.25
494.387	7287.05
494.757	7435.52
495.126	7544.22
495.496	7628.74
495.866	7815.63
496.235	7934.04
496.605	8130.65
496.974	8264.2
497.344	8323.41
497.713	8388.27
498.082	8563.63
498.452	8781.03
498.821	8907.8
499.19	8940.34
499.559	9072.32
499.928	9205.42
500.298	9298.98
500.667	9492.87
501.036	9470.27
501.405	9680.66
501.774	9718.18
502.143	9884.27
502.512	9974.89
502.88	10094.89
503.249	10133.31
503.618	10259.63
503.987	10395.22
504.356	10437.48
504.724	10634.08
505.093	10663.01
505.462	10770.13
505.83	10961.99
506.199	11025.49
506.567	11108.2
506.936	11160.62
507.304	11319.26
507.672	11365.37
508.041	11440.39
508.409	11588.64
508.777	11764.45
509.145	11813.04
509.514	11844.9
509.882	11985.91
510.25	11982.52
510.618	12081.96
510.986	12176.19
511.354	12304.32
511.722	12364.43
512.09	12525.11
512.458	12545.22
512.826	12627.7
513.193	12711.77
513.561	12771.2
513.929	12932.33
514.297	13018.43
514.664	13056.85
515.032	13081.48
515.4	13216.39
515.767	13285.09
516.135	13397.18
516.502	13315.82
516.869	13628.13
517.237	13516.72
517.604	13573.89
517.972	13656.6
518.339	13758.3
518.706	13834.45
519.073	13807.56
519.44	13938.18
519.808	14005.07
520.175	14038.52
520.542	14173.2
520.909	14256.14
521.276	14193.54
521.643	14358.51
522.009	14423.14
522.376	14595.11
522.743	14594.88
523.11	14713.3
523.477	14759.85
523.843	14872.84
524.21	14874.43
524.577	15035.1
524.943	15135.44
525.31	15127.07
525.676	15249.78
526.043	15349.22
526.409	15320.06
526.776	15505.82
527.142	15496.1
527.508	15534.07
527.874	15626.95
528.241	15700.39
528.607	15730.22
528.973	15780.16
529.339	15772.25
529.705	15924.12
530.071	15939.26
530.437	16035.98
530.803	16021.74
531.169	16061.06
531.535	16025.13
531.901	16059.25
532.267	16121.85
532.632	16153.71
532.998	16274.39
533.364	16205.69
533.73	16156.88
534.095	16340.83
534.461	16351.67
534.826	16423.31
535.192	16351.22
535.557	16490.2
535.923	16367.04
536.288	16424.44
536.653	16591.22
537.019	16430.32
537.384	16455.63
537.749	16459.24
538.114	16499.92
538.479	16443.2
538.845	16589.86
539.21	16492.91
539.575	16529.3
539.94	16595.74
540.305	16655.62
540.67	16484.78
541.034	16649.52
541.399	16624.44
541.764	16670.76
542.129	16684.77
542.494	16626.02
542.858	16713.92
543.223	16656.75
543.587	16703.98
543.952	16568.84
544.316	16644.55
544.681	16594.15
545.045	16597.54
545.41	16608.39
545.774	16652.68
546.138	16642.74
546.503	16726.13
546.867	16562.74
547.231	16704.43
547.595	16672.8
547.959	16627.37
548.324	16651.33
548.688	16598.67
549.052	16637.32
549.416	16640.48
549.779	16612.68
550.143	16604.78
550.507	16686.81
550.871	16750.08
551.235	16655.85
551.599	16692.23
551.962	16710.08
552.326	16692.91
552.689	16802.28
553.053	16583.31
553.417	16585.79
553.78	16873.92
554.143	16749.86
554.507	16798.44
554.87	16720.48
555.234	16916.41
555.597	16684.32
555.96	16767.48
556.323	16786.69
556.686	16816.3
557.05	16762.06
557.413	16842.06
557.776	16820.81
558.139	16932
558.502	16943.98
558.865	16928.38
559.228	16890.42
559.59	17077.98
559.953	17065.1
560.316	17154.82
560.679	17118.43
561.041	17178.55
561.404	17157.98
561.767	17298.32
562.129	17176.29
562.492	17395.94
562.854	17271.2
563.217	17316.39
563.579	17344.42
563.941	17417.41
564.304	17434.58
564.666	17416.05
565.028	17481.14
565.39	17546.9
565.753	17467.13
566.115	17617.63
566.477	17625.54
566.839	17601.36
567.201	17753.22
567.563	17718.64
567.925	17865.53
568.287	17757.74
568.648	17856.49
569.01	17930.84
569.372	17971.97
569.734	17859.43
570.095	18043.38
570.457	18027.79
570.819	18047.45
571.18	18106.2
571.542	18213.32
571.903	18125.87
572.265	18166.54
572.626	18290.38
572.987	18279.31
573.349	18196.37
573.71	18282.02
574.071	18351.17
574.432	18344.84
574.794	18451.51
575.155	18381
575.516	18267.56
575.877	18435.01
576.238	18392.3
576.599	18527.44
576.96	18494.22
577.32	18523.37
577.681	18538.51
578.042	18619.19
578.403	18566.08
578.763	18565.85
579.124	18553.65
579.485	18651.5
579.845	18639.75
580.206	18595.46
580.566	18626.19
580.927	18557.49
581.287	18690.6
581.648	18603.14
582.008	18695.57
582.368	18616.7
582.728	18668.9
583.089	18544.61
583.449	18584.38
583.809	18591.84
584.169	18657.6
584.529	18624.16
584.889	18776.02
585.249	18631.84
585.609	18486.08
585.969	18586.42
586.329	18566.08
586.688	18667.32
587.048	18703.7
587.408	18572.63
587.768	18581.9
588.127	18551.62
588.487	18501.67
588.846	18648.56
589.206	18455.8
589.565	18575.34
589.925	18666.87
590.284	18466.2
590.643	18509.58
591.003	18672.07
591.362	18657.83
591.721	18543.48
592.08	18505.29
592.44	18594.78
592.799	18629.81
593.158	18470.49
593.517	18572.86
593.876	18537.61
594.235	18437.27
594.593	18583.48
594.952	18572.86
595.311	18459.42
595.67	18550.49
596.029	18684.04
596.387	18623.25
596.746	18573.76
597.104	18586.19
597.463	18542.35
597.822	18597.72
598.18	18562.69
598.538	18437.27
598.897	18589.13
599.255	18389.14
599.613	18573.09
599.972	18597.94
600.33	18579.19
600.688	18530.15
601.046	18553.2
601.404	18613.99
601.762	18630.03
602.12	18665.51
602.478	18654.66
602.836	18745.28
603.194	18582.12
603.552	18595.68
603.91	18533.31
604.268	18627.55
604.625	18669.13
604.983	18678.17
605.341	18602.01
605.698	18679.75
606.056	18676.59
606.413	18671.39
606.771	18737.6
607.128	18758.84
607.485	18682.23
607.843	18647.89
608.2	18835.9
608.557	18796.36
608.914	18750.26
609.272	18819.86
609.629	18835.68
609.986	18990.93
610.343	18782.35
610.7	18949.57
611.057	18919.97
611.414	18978.27
611.771	18863.25
612.127	18999.97
612.484	18989.12
612.841	19087.65
613.198	18985.96
613.554	19009.01
613.911	19041.1
614.267	19103.01
614.624	19094.65
614.98	19141.21
615.337	19293.07
615.693	19104.82
616.05	19070.93
616.406	19317.7
616.762	19339.84
617.118	19238.6
617.475	19184.14
617.831	19286.06
618.187	19189.11
618.543	19359.05
618.899	19397.92
619.255	19374.19
619.611	19331.03
619.967	19365.83
620.323	19482.44
620.678	19355.21
621.034	19339.17
621.39	19281.77
621.746	19304.82
622.101	19434.08
622.457	19362.89
622.812	19455.55
623.168	19493.06
623.523	19410.35
623.879	19506.62
624.234	19353.86
624.589	19455.32
624.945	19440.86
625.3	19431.59
625.655	19419.62
626.01	19498.94
626.365	19470.69
626.72	19468.2
627.075	19488.54
627.43	19567.86
627.785	19445.83
628.14	19476.79
628.495	19429.33
628.85	19558.37
629.205	19350.01
629.559	19433.85
629.914	19389.33
630.269	19498.48
630.623	19370.58
630.978	19305.5
631.332	19369.45
631.687	19430.46
632.041	19283.57
632.396	19300.07
632.75	19177.14
633.104	19388.43
633.459	19181.88
633.813	19179.4
634.167	19244.93
634.521	19193.86
634.875	19148.44
635.229	19199.06
635.583	19025.28
635.937	19091.49
636.291	19042.45
636.645	19148.44
636.999	19004.03
637.352	19112.28
637.706	19017.82
638.06	19088.55
638.413	18967.2
638.767	18977.37
639.121	18909.57
639.474	18842.23
639.828	18931.72
640.181	18891.95
640.534	18884.72
640.888	18861.89
641.241	18813.3
641.594	18752.52
641.947	18933.98
642.301	18795.23
642.654	18811.5
643.007	18845.85
643.36	18778.73
643.713	18749.35
644.066	18770.37
644.419	18633.87
644.771	18608.56
645.124	18454.44
645.477	18296.48
645.83	18304.17
646.182	18332.64
646.535	18170.61
646.888	18212.42
647.24	18125.41
647.593	18230.04
647.945	18194.79
648.298	18127.45
648.65	18093.78
649.002	18008.58
649.355	18121.8
649.707	17987.56
650.059	18190.72
650.411	18410.6
650.763	18406.31
651.115	18551.16
651.467	18558.4
651.819	18547.32
652.171	18459.87
652.523	18424.61
652.875	18510.71
653.227	18383.94
653.578	18572.86
653.93	18392.52
654.282	18349.59
654.633	18371.06
654.985	18390.27
655.337	18413.77
655.688	18413.99
656.039	18584.61
656.391	18314.79
656.742	18419.42
657.094	18494.22
657.445	18580.77
657.796	18359.76
658.147	18376.93
658.498	18422.35
658.849	18452.64
659.2	18367.89
659.551	18366.99
659.902	18385.07
660.253	18388.68
660.604	18471.39
660.955	18291.51
661.306	18516.59
661.656	18464.39
662.007	18458.29
662.358	18491.05
662.708	18511.62
663.059	18461.45
663.409	18387.33
663.76	18498.06
664.11	18526.08
664.461	18531.5
664.811	18507.1
665.161	18562.01
665.511	18528.79
665.862	18430.04
666.212	18510.94
666.562	18561.11
666.912	18508
667.262	18470.26
667.612	18519.98
667.962	18609.69
668.312	18479.08
668.662	18625.06
669.011	18386.88
669.361	18396.59
669.711	18475.46
670.06	18350.49
670.41	18380.32
670.76	18346.65
671.109	18451.73
671.459	18412.64
671.808	18359.31
672.157	18390.49
672.507	18252.19
672.856	18242.92
673.205	18416.25
673.554	18344.16
673.904	18265.75
674.253	18316.14
674.602	18361.34
674.951	18088.58
675.3	17887.91
675.649	18202.02
675.998	18191.4
676.346	18254.22
676.695	18287.44
677.044	18086.54
677.393	18212.87
677.741	18220.33
678.09	18185.3
678.438	18103.94
678.787	18128.8
679.135	18134.45
679.484	18024.85
679.832	18037.28
680.181	17909.6
680.529	18054
680.877	17920.45
681.225	17922.03
681.573	18011.07
681.922	17830.73
682.27	17825.53
682.618	17842.71
682.966	17755.71
683.314	17853.78
683.661	17658.08
684.009	17673.9
684.357	17571.53
684.705	17557.07
685.053	17593.45
685.4	17492.21
685.748	17425.77
686.095	17380.8
686.443	17352.1
686.79	17307.36
687.138	17363.17
687.485	17373.79
687.832	17348.48
688.18	17273.46
688.527	17087.25
688.874	17157.3
689.221	17185.55
689.568	17086.34
689.915	16997.76
690.262	17004.99
690.609	16977.65
690.956	16898.78
691.303	16920.47
691.65	16704.21
691.997	16732.46
692.344	16653.36
692.69	16609.75
693.037	16645.68
693.383	16463.54
693.73	16525.91
694.077	16438.45
694.423	16401.39
694.769	16357.1
695.116	16329.08
695.462	16319.59
695.808	16243.43
696.155	16263.54
696.501	16121.17
696.847	16105.13
697.193	16005.02
697.539	15939.03
697.885	15891.35
698.231	15873.27
698.577	15849.54
698.923	15808.41
699.269	15727.96
699.614	15513.28
699.96	15617.68
700.306	15535.42
700.651	15539.04
700.997	15519.61
701.342	15434.41
701.688	15334.07
702.033	15226.05
702.379	15229.67
702.724	15128.2
703.069	15231.25
703.415	14948.1
703.76	14989
704.105	14959.17
704.45	14918.04
704.795	14835.78
705.14	14749.91
705.485	14732.73
705.83	14762.79
706.175	14800.08
706.52	14643.47
706.865	14562.12
707.209	14627.88
707.554	14598.95
707.899	14551.04
708.243	14513.53
708.588	14519.86
708.932	14349.69
709.277	14347.43
709.621	14350.15
709.966	14241.45
710.31	14276.02
710.654	14227.21
710.998	14211.62
711.342	14130.26
711.687	14110.38
712.031	14132.75
712.375	14006.88
712.719	13996.93
713.063	14048.46
713.407	14082.58
713.75	13983.83
714.094	13970.04
714.438	13877.62
714.782	13929.59
715.125	13819.09
715.469	13835.81
715.812	13740.67
716.156	13720.78
716.499	13738.18
716.843	13694.34
717.186	13677.17
717.53	13676.72
717.873	13687.34
718.216	13625.87
718.559	13568.02
718.902	13454.35
719.246	13528.02
719.589	13444.41
719.932	13456.84
720.275	13457.29
720.617	13455.71
720.96	13374.8
721.303	13338.87
721.646	13384.29
721.989	13263.17
722.331	13380.91
722.674	13279.66
723.016	13273.56
723.359	13260.68
723.701	13296.61
724.044	13300.91
724.386	13148.37
724.729	13216.62
725.071	13189.72
725.413	13190.85
725.755	13180.91
726.097	13132.1
726.439	13130.74
726.782	13076.51
727.124	13130.74
727.465	13041.71
727.807	13110.86
728.149	13079.44
728.491	13020.01
728.833	13065.89
729.175	13012.55
729.516	13036.96
729.858	12934.82
730.199	12990.63
730.541	12970.97
730.882	12986.79
731.224	12967.13
731.565	12921.03
731.906	12959
732.248	12911.31
732.589	12859.34
732.93	12822.73
733.271	12904.53
733.612	12831.09
733.953	12933.46
734.294	12935.72
734.635	12844.42
734.976	12970.97
735.317	12818.66
735.658	12843.74
735.999	12823.18
736.339	12952.22
736.68	12895.95
737.021	12874.48
737.361	12821.82
737.702	12917.41
738.042	12912.67
738.383	12843.52
738.723	12895.49
739.063	12856.4
739.404	12977.07
739.744	12855.95
740.084	12924.65
740.424	12957.19
740.764	12861.6
741.104	13011.88
741.444	12923.06
741.784	12873.8
742.124	13020.91
742.464	12880.58
742.804	12980.92
743.143	13024.08
743.483	13027.02
743.823	12954.48
744.162	13036.28
744.502	13111.31
744.841	13031.31
745.181	13161.93
745.52	13079.22
745.86	13141.36
746.199	13091.87
746.538	13211.19
746.877	13219.33
747.216	13329.16
747.556	13297.29
747.895	13317.18
748.234	13390.17
748.573	13352.88
748.911	13424.52
749.25	13550.84
749.589	13505.2
749.928	13619.99
750.267	13685.53
750.605	13686.43
750.944	13734.34
751.283	13757.17
751.621	13924.62
751.96	13879.65
752.298	13960.33
752.636	14132.98
752.975	14135.69
753.313	14184.73
753.651	14418.17
753.989	14405.06
754.327	14573.42
754.666	14605.28
755.004	14699.51
755.342	14816.57
755.679	14875.56
756.017	14909
756.355	15027.19
756.693	15062.44
