Data from hue_140_FLMS001491_00022.txt Node
Date: Tue Feb 07 16:55:39 GMT 2017
User: dcchb
Spectrometer: FLMS00149
Trigger mode: 0
Integration Time (sec): 2.000000E-2
Scans to average: 10
Electric dark correction enabled: true
Nonlinearity correction enabled: false
Boxcar width: 0
XAxis mode: Wavelengths
Number of Pixels in Spectrum: 2048
>>>>>Begin Spectral Data<<<<<
341.393	-14.03
341.776	-14.03
342.16	-14.03
342.543	-70.07
342.927	-59.45
343.31	-55.38
343.693	-72.33
344.077	-67.36
344.46	-65.1
344.843	-56.28
345.226	-51.76
345.61	-25.55
345.993	-11.09
346.376	-15.38
346.759	21
347.142	10.83
347.525	36.37
347.908	72.3
348.291	70.04
348.674	82.02
349.057	127.67
349.44	132.86
349.823	149.36
350.206	171.28
350.588	198.4
350.971	194.78
351.354	221.67
351.737	252.41
352.119	261.22
352.502	261.9
352.884	272.3
353.267	302.58
353.65	294.44
354.032	318.85
354.414	293.31
354.797	315.68
355.179	308.68
355.562	314.78
355.944	316.14
356.326	342.35
356.709	317.27
357.091	343.03
357.473	336.02
357.855	321.79
358.238	350.71
358.62	331.05
359.002	317.27
359.384	358.62
359.766	319.3
360.148	343.71
360.53	323.59
360.912	337.15
361.294	336.25
361.676	334.21
362.057	328.11
362.439	328.11
362.821	322.01
363.203	317.72
363.584	326.98
363.966	328.34
364.348	339.86
364.729	327.43
365.111	332.86
365.493	340.09
365.874	326.3
366.256	313.2
366.637	321.33
367.019	333.54
367.4	299.64
367.781	308.9
368.163	306.87
368.544	308.9
368.925	312.52
369.306	318.4
369.688	334.21
370.069	322.01
370.45	305.51
370.831	305.51
371.212	291.96
371.593	322.24
371.974	317.94
372.355	309.58
372.736	325.85
373.117	316.36
373.498	339.41
373.879	319.75
374.26	337.83
374.641	312.07
375.021	323.82
375.402	333.99
375.783	301.9
376.163	338.73
376.544	319.07
376.925	327.43
377.305	329.47
377.686	316.59
378.066	323.14
378.447	322.69
378.827	326.98
379.208	329.24
379.588	351.84
379.968	339.41
380.349	330.6
380.729	349.36
381.109	320.43
381.489	348.68
381.87	325.85
382.25	322.01
382.63	344.16
383.01	351.84
383.39	370.6
383.77	347.32
384.15	349.58
384.53	351.62
384.91	369.69
385.29	348.23
385.67	349.58
386.049	359.98
386.429	355.91
386.809	367.43
387.189	339.41
387.568	344.16
387.948	367.21
388.328	348.23
388.707	359.3
389.087	350.49
389.466	371.05
389.846	353.42
390.225	371.95
390.605	362.69
390.984	380.54
391.363	376.25
391.743	371.73
392.122	355.23
392.501	367.43
392.881	392.29
393.26	391.61
393.639	379.18
394.018	394.78
394.397	403.37
394.776	381.44
395.155	365.85
395.534	370.82
395.913	411.73
396.292	377.15
396.671	385.29
397.05	407.43
397.429	402.24
397.808	389.81
398.186	399.07
398.565	383.48
398.944	412.86
399.323	403.59
399.701	414.21
400.08	404.5
400.458	378.73
400.837	400.65
401.215	412.4
401.594	398.85
401.972	424.83
402.351	414.66
402.729	399.52
403.107	407.21
403.486	410.37
403.864	396.81
404.242	419.86
404.62	418.05
404.999	432.52
405.377	425.96
405.755	403.37
406.133	438.84
406.511	444.49
406.889	447.66
407.267	430.71
407.645	436.13
408.023	444.27
408.401	463.93
408.779	446.08
409.156	439.75
409.534	454.44
409.912	447.66
410.29	449.92
410.667	460.99
411.045	468
411.422	474.1
411.8	458.05
412.178	477.26
412.555	478.17
412.933	498.96
413.31	477.26
413.687	477.94
414.065	510.03
414.442	478.17
414.819	486.3
415.197	490.37
415.574	509.8
415.951	502.35
416.328	508.67
416.705	506.41
417.082	505.74
417.46	516.13
417.837	497.6
418.214	501.89
418.591	522.23
418.967	544.38
419.344	547.77
419.721	529.46
420.098	526.75
420.475	561.1
420.852	519.75
421.228	556.13
421.605	559.52
421.982	540.76
422.358	569.24
422.735	559.07
423.111	551.16
423.488	588.22
423.864	556.36
424.241	577.37
424.617	592.29
424.994	560.65
425.37	573.3
425.746	571.95
426.123	571.95
426.499	580.54
426.875	585.51
427.251	610.37
427.627	612.63
428.003	603.81
428.379	601.1
428.756	614.43
429.132	623.02
429.507	623.25
429.883	639.29
430.259	637.03
430.635	635.45
431.011	652.17
431.387	657.6
431.763	672.51
432.138	677.93
432.514	681.1
432.89	684.26
433.265	680.42
433.641	687.43
434.016	667.09
434.392	716.35
434.767	727.65
435.143	716.8
435.518	717.26
435.894	736.69
436.269	749.12
436.644	729.68
437.02	745.28
437.395	740.98
437.77	736.24
438.145	775.56
438.52	751.6
438.895	759.29
439.271	773.07
439.646	779.85
440.021	800.87
440.395	788.21
440.77	784.6
441.145	780.98
441.52	803.35
441.895	817.14
442.27	807.2
442.645	822.34
443.019	845.61
443.394	821.21
443.769	808.55
444.143	845.61
444.518	853.97
444.892	828.21
445.267	822.56
445.641	867.76
446.016	871.6
446.39	844.71
446.764	889.68
447.139	887.19
447.513	878.83
447.887	879.74
448.262	866.86
448.636	897.82
449.01	905.95
449.384	893.07
449.758	921.32
450.132	911.6
450.506	921.09
450.88	931.03
451.254	933.29
451.628	975.33
452.002	953.41
452.376	970.81
452.75	988.21
453.123	964.71
453.497	1009.68
453.871	1009
454.244	1012.84
454.618	1034.53
454.992	1018.94
455.365	1028.89
455.739	1052.84
456.112	1073.86
456.486	1087.41
456.859	1084.7
457.232	1085.16
457.606	1097.36
457.979	1134.42
458.352	1144.59
458.725	1145.72
459.099	1159.05
459.472	1176.9
459.845	1202.21
460.218	1190.69
460.591	1223.91
460.964	1215.55
461.337	1252.38
461.71	1221.65
462.083	1303.91
462.456	1287.41
462.829	1285.83
463.201	1299.84
463.574	1343
463.947	1325.37
464.32	1391.36
464.692	1387.29
465.065	1393.17
465.438	1412.38
465.81	1451.7
466.183	1481.53
466.555	1484.92
466.928	1495.09
467.3	1495.77
467.672	1531.92
468.045	1589.55
468.417	1578.25
468.789	1612.15
469.161	1648.08
469.534	1669.32
469.906	1704.35
470.278	1707.29
470.65	1722.2
471.022	1782.99
471.394	1852.59
471.766	1832.25
472.138	1893.5
472.51	1925.13
472.882	1948.86
473.253	1985.02
473.625	2047.62
473.997	2100.04
474.369	2118.12
474.74	2153.38
475.112	2202.87
475.484	2221.62
475.855	2306.82
476.227	2318.12
476.598	2397.44
476.97	2445.8
477.341	2594.49
477.713	2583.65
478.084	2643.08
478.455	2734.83
478.827	2788.16
479.198	2860.93
479.569	2892.34
479.94	3022.51
480.311	3105.67
480.682	3171.2
481.053	3301.59
481.424	3347.47
481.795	3431.31
482.166	3522.38
482.537	3581.59
482.908	3729.15
483.279	3761.47
483.65	3877.85
484.021	4025.42
484.391	4087.56
484.762	4211.85
485.133	4288.91
485.503	4440.77
485.874	4537.27
486.244	4680.31
486.615	4785.17
486.985	4918.05
487.356	5010.02
487.726	5114.65
488.097	5228.55
488.467	5353.29
488.837	5513.97
489.207	5652.94
489.578	5822.21
489.948	5929.55
490.318	6007.29
490.688	6130.45
491.058	6300.84
491.428	6466.71
491.798	6558.68
492.168	6744.89
492.538	6800.94
492.908	7050.65
493.278	7066.92
493.648	7231.66
494.017	7359.79
494.387	7506.23
494.757	7616.51
495.126	7760.91
495.496	7855.82
495.866	8006.56
496.235	8099.21
496.605	8285.64
496.974	8363.38
497.344	8513.21
497.713	8599.76
498.082	8761.56
498.452	8891.05
498.821	8948.9
499.19	9068.9
499.559	9137.15
499.928	9287.2
500.298	9355.9
500.667	9546.18
501.036	9543.92
501.405	9693.97
501.774	9739.84
502.143	9870.46
502.512	9991.59
502.88	10082.66
503.249	10130.11
503.618	10258.02
503.987	10259.6
504.356	10361.52
504.724	10482.42
505.093	10502.08
505.462	10575.98
505.83	10688.97
506.199	10855.75
506.567	10979.13
506.936	10878.12
507.304	11120.15
507.672	11138.45
508.041	11222.52
508.409	11314.04
508.777	11389.52
509.145	11458.22
509.514	11451.89
509.882	11542.06
510.25	11609.4
510.618	11695.27
510.986	11668.61
511.354	11787.92
511.722	11878.32
512.09	12005.77
512.458	11963.97
512.826	12092.55
513.193	12110.63
513.561	12163.51
513.929	12255.93
514.297	12315.82
514.664	12389.26
515.032	12420.22
515.4	12399.21
515.767	12437.85
516.135	12565.53
516.502	12520.79
516.869	12690.5
517.237	12636.72
517.604	12621.57
517.972	12720.78
518.339	12784.06
518.706	12763.27
519.073	12808.69
519.44	12823.15
519.808	12921.68
520.175	12895.92
520.542	13020.43
520.909	13078.06
521.276	13011.17
521.643	13110.83
522.009	13102.24
522.376	13119.19
522.743	13171.39
523.11	13373.42
523.477	13384.72
523.843	13308.34
524.21	13471.04
524.577	13534.09
524.943	13478.95
525.31	13565.05
525.676	13682.34
526.043	13628.55
526.409	13687.31
526.776	13689.34
527.142	13663.13
527.508	13760.75
527.874	13853.86
528.241	13745.61
528.607	13757.14
528.973	13847.31
529.339	13793.52
529.705	13856.8
530.071	13918.04
530.437	13944.93
530.803	13852.73
531.169	13969.79
531.535	13821.77
531.901	13802.56
532.267	13890.69
532.632	13909.45
532.998	13888.66
533.364	13910.13
533.73	13889.34
534.095	13939.96
534.461	13873.29
534.826	13852.05
535.192	13879.62
535.557	13930.24
535.923	13939.51
536.288	13836.23
536.653	13791.71
537.019	13744.03
537.384	13818.38
537.749	13763.92
538.114	13761.66
538.479	13685.05
538.845	13790.81
539.21	13704.26
539.575	13634.2
539.94	13660.19
540.305	13725.27
540.67	13593.3
541.034	13551.04
541.399	13512.85
541.764	13526.18
542.129	13515.34
542.494	13495
542.858	13471.5
543.223	13491.38
543.587	13480.76
543.952	13345.4
544.316	13367.32
544.681	13344.49
545.045	13292.07
545.41	13278.96
545.774	13231.5
546.138	13292.29
546.503	13176.14
546.867	13134.78
547.231	13164.84
547.595	13126.65
547.959	13074.44
548.324	13108.12
548.688	13021.34
549.052	12976.14
549.416	13057.72
549.779	13000.55
550.143	12886.43
550.507	12966.2
550.871	12933.43
551.235	12906.31
551.599	12989.25
551.962	12868.35
552.326	12763.72
552.689	12886.2
553.053	12652.31
553.417	12777.28
553.78	12951.06
554.143	12708.58
554.507	12797.62
554.87	12755.36
555.234	12824.06
555.597	12667.45
555.96	12638.52
556.323	12656.15
556.686	12676.26
557.05	12619.54
557.413	12580.67
557.776	12581.8
558.139	12665.64
558.502	12678.75
558.865	12613.21
559.228	12706.09
559.59	12777.95
559.953	12618.41
560.316	12720.78
560.679	12652.76
561.041	12696.15
561.404	12724.17
561.767	12697.73
562.129	12753.32
562.492	12766.66
562.854	12651.4
563.217	12670.61
563.579	12757.62
563.941	12727.11
564.304	12710.84
564.666	12848.69
565.028	12723.72
565.39	12762.59
565.753	12813.21
566.115	12825.86
566.477	12812.3
566.839	12797.16
567.201	12868.57
567.563	12809.37
567.925	12960.32
568.287	12866.77
568.648	12968.23
569.01	12908.57
569.372	12980.66
569.734	12947.22
570.095	13007.33
570.457	12949.25
570.819	12999.64
571.18	12992.64
571.542	13053.65
571.903	12992.86
572.265	13084.39
572.626	12999.64
572.987	13114.44
573.349	13038.51
573.71	13088.68
574.071	13056.37
574.432	13106.99
574.794	13122.58
575.155	13183.14
575.516	13115.35
575.877	13220.43
576.238	13193.31
576.599	13176.36
576.96	13248.68
577.32	13238.51
577.681	13185.85
578.042	13281.67
578.403	13206.19
578.763	13229.47
579.124	13141.11
579.485	13160.77
579.845	13279.64
580.206	13198.73
580.566	13164.61
580.927	13239.41
581.287	13323.7
581.648	13217.72
582.008	13261.33
582.368	13152.86
582.728	13210.03
583.089	13233.76
583.449	13182.24
583.809	13178.17
584.169	13220.2
584.529	13084.39
584.889	13220.2
585.249	13114.22
585.609	13133.65
585.969	13176.14
586.329	13137.49
586.688	13150.6
587.048	13087.55
587.408	13069.7
587.768	13041.9
588.127	13055.69
588.487	13034.45
588.846	13121
589.206	13116.7
589.565	13116.7
589.925	13021.79
590.284	13095.69
590.643	13045.97
591.003	13087.55
591.362	13079.42
591.721	13033.54
592.08	13029.25
592.44	13078.29
592.799	13092.07
593.158	13034.45
593.517	13002.13
593.876	13029.02
594.235	13001.45
594.593	13010.94
594.952	13064.5
595.311	12932.53
595.67	13087.33
596.029	12991.51
596.387	13038.74
596.746	13025.63
597.104	12999.42
597.463	13014.33
597.822	12960.32
598.18	12963.03
598.538	12877.61
598.897	13028.57
599.255	12878.74
599.613	13006.42
599.972	12939.31
600.33	12987.89
600.688	12922.36
601.046	12967.55
601.404	13072.41
601.762	12927.78
602.12	13025.63
602.478	12995.12
602.836	13001.45
603.194	13022.24
603.552	13001.68
603.91	12945.41
604.268	12995.35
604.625	12918.74
604.983	13024.05
605.341	12983.6
605.698	12968.01
606.056	13048
606.413	12963.94
606.771	12973.66
607.128	13003.71
607.485	12944.73
607.843	12944.5
608.2	13047.55
608.557	13067.66
608.914	12988.8
609.272	13083.03
609.629	13126.87
609.986	13101.79
610.343	13059.98
610.7	13078.06
611.057	13113.09
611.414	13128
611.771	13144.95
612.127	13249.13
612.484	13193.09
612.841	13174.33
613.198	13213.2
613.554	13237.15
613.911	13281.44
614.267	13278.96
614.624	13142.47
614.98	13237.6
615.337	13288
615.693	13298.85
616.05	13245.74
616.406	13274.21
616.762	13222.69
617.118	13265.4
617.475	13225.85
617.831	13289.58
618.187	13326.64
618.543	13497.48
618.899	13404.38
619.255	13321.44
619.611	13332.06
619.967	13380.88
620.323	13414.77
620.678	13416.58
621.034	13353.53
621.39	13300.65
621.746	13363.25
622.101	13498.61
622.457	13348.56
622.812	13343.82
623.168	13400.76
623.523	13460.42
623.879	13418.84
624.234	13362.57
624.589	13418.16
624.945	13392.4
625.3	13430.14
625.655	13417.94
626.01	13405.51
626.365	13539.52
626.72	13407.99
627.075	13276.7
627.43	13347.88
627.785	13281.44
628.14	13347.66
628.495	13439.18
628.85	13343.59
629.205	13238.73
629.559	13459.52
629.914	13307.66
630.269	13311.73
630.623	13295
630.978	13277.6
631.332	13289.81
631.687	13286.42
632.041	13295.68
632.396	13295.68
632.75	13226.98
633.104	13242.8
633.459	13209.36
633.813	13181.56
634.167	13285.51
634.521	13150.83
634.875	13208.68
635.229	13237.15
635.583	13101.56
635.937	13055.01
636.291	13087.55
636.645	13128
636.999	13012.07
637.352	13077.16
637.706	13047.1
638.06	13037.61
638.413	13034.67
638.767	12933.21
639.121	12961.23
639.474	12907.67
639.828	12966.88
640.181	12925.3
640.534	12897.5
640.888	12947.89
641.241	12804.62
641.594	12851.4
641.947	12906.09
642.301	12897.95
642.654	12938.85
643.007	12798.75
643.36	12862.47
643.713	12831.74
644.066	12808.69
644.419	12808.91
644.771	12767.56
645.124	12591.29
645.477	12606.66
645.83	12525.53
646.182	12510.84
646.535	12359.43
646.888	12450.73
647.24	12309.72
647.593	12411.18
647.945	12380.9
648.298	12292.32
648.65	12300.68
649.002	12337.29
649.355	12321.92
649.707	12329.83
650.059	12370.51
650.411	12627.68
650.763	12554.46
651.115	12731.63
651.467	12753.55
651.819	12664.06
652.171	12725.75
652.523	12643.27
652.875	12605.3
653.227	12587.9
653.578	12661.12
653.93	12654.12
654.282	12629.71
654.633	12540
654.985	12546.55
655.337	12582.93
655.688	12577.06
656.039	12601.46
656.391	12564.4
656.742	12628.58
657.094	12558.98
657.445	12636.72
657.796	12612.31
658.147	12652.53
658.498	12586.77
658.849	12610.73
659.2	12716.26
659.551	12572.54
659.902	12629.71
660.253	12566.89
660.604	12617.06
660.955	12595.81
661.306	12650.73
661.656	12594.91
662.007	12664.29
662.358	12575.02
662.708	12629.26
663.059	12616.38
663.409	12663.16
663.76	12751.97
664.11	12681.23
664.461	12738.18
664.811	12688.01
665.161	12655.02
665.511	12658.64
665.862	12699.76
666.212	12667
666.562	12769.14
666.912	12737.73
667.262	12699.09
667.612	12622.48
667.962	12662.93
668.312	12568.02
668.662	12773.89
669.011	12692.31
669.361	12602.59
669.711	12520.56
670.06	12625.87
670.41	12597.62
670.76	12575.93
671.109	12573.67
671.459	12569.37
671.808	12584.74
672.157	12632.87
672.507	12502.48
672.856	12540.22
673.205	12484.63
673.554	12608.92
673.904	12495.7
674.253	12595.13
674.602	12505.87
674.951	12364.41
675.3	12298.19
675.649	12468.58
675.998	12446.66
676.346	12509.94
676.695	12513.56
677.044	12389.94
677.393	12452.77
677.741	12472.43
678.09	12375.25
678.438	12409.38
678.787	12387.23
679.135	12287.35
679.484	12245.77
679.832	12375.71
680.181	12215.71
680.529	12276.95
680.877	12222.94
681.225	12208.7
681.573	12220.46
681.922	12177.97
682.27	12119.89
682.618	12244.86
682.966	12137.97
683.314	12120.57
683.661	12094.58
684.009	11995.83
684.357	12071.31
684.705	12058.65
685.053	11974.59
685.4	11959.45
685.748	11900.92
686.095	11904.31
686.443	11939.78
686.79	11807.36
687.138	11878.54
687.485	11908.15
687.832	11796.06
688.18	11771.88
688.527	11801.26
688.874	11722.39
689.221	11614.6
689.568	11655.05
689.915	11566.01
690.262	11548.61
690.609	11525.33
690.956	11625.22
691.303	11498.21
691.65	11439.46
691.997	11448.72
692.344	11319.69
692.69	11355.62
693.037	11383.87
693.383	11263.42
693.73	11293.02
694.077	11151.56
694.423	11191.1
694.769	11164.89
695.116	11133.7
695.462	11130.99
695.808	11026.59
696.155	11001.05
696.501	10909.08
696.847	10947.95
697.193	10897.55
697.539	10913.15
697.885	10779.82
698.231	10725.58
698.577	10799.7
698.923	10744.79
699.269	10712.02
699.614	10665.24
699.96	10559.71
700.306	10512.48
700.651	10576.66
700.997	10490.78
701.342	10494.4
701.688	10422.31
702.033	10410.11
702.379	10342.99
702.724	10271.58
703.069	10354.06
703.415	10160.17
703.76	10192.03
704.105	10227.06
704.45	10161.53
704.795	10113.62
705.14	10103.22
705.485	10093.73
705.83	10001.76
706.175	10092.83
706.52	10000.85
706.865	9973.06
707.209	9965.15
707.554	9914.08
707.899	9910.01
708.243	9779.16
708.588	9867.07
708.932	9771.03
709.277	9730.58
709.621	9778.03
709.966	9689.22
710.31	9741.42
710.654	9623.24
710.998	9642.44
711.342	9617.81
711.687	9592.05
712.031	9495.33
712.375	9524.93
712.719	9527.87
713.063	9483.13
713.407	9523.58
713.75	9470.02
714.094	9480.19
714.438	9431.38
714.782	9407.87
715.125	9384.15
715.469	9399.29
715.812	9381.21
716.156	9263.02
716.499	9325.16
716.843	9317.48
717.186	9285.17
717.53	9260.76
717.873	9297.37
718.216	9272.28
718.559	9214.88
718.902	9218.05
719.246	9194.77
719.589	9119.52
719.932	9089.24
720.275	9169.91
720.617	9107.99
720.96	9123.81
721.303	9113.42
721.646	9176.92
721.989	9050.6
722.331	9077.04
722.674	9103.7
723.016	9066.41
723.359	9036.13
723.701	9087.66
724.044	9004.49
724.386	8939.86
724.729	9012.18
725.071	8968.11
725.413	9026.42
725.755	9037.71
726.097	8946.42
726.439	8919.3
726.782	8928.34
727.124	8938.51
727.465	8945.74
727.807	8959.75
728.149	8882.24
728.491	8830.71
728.833	8906.87
729.175	8866.87
729.516	8896.02
729.858	8893.99
730.199	8858.51
730.541	8847.21
730.882	8920.66
731.224	8880.88
731.565	8872.07
731.906	8863.03
732.248	8936.25
732.589	8842.47
732.93	8793.2
733.271	8822.58
733.612	8823.26
733.953	8799.3
734.294	8802.01
734.635	8799.98
734.976	8885.85
735.317	8747.55
735.658	8788.68
735.999	8810.83
736.339	8846.76
736.68	8825.97
737.021	8875.01
737.361	8834.33
737.702	8879.98
738.042	8766.31
738.383	8807.89
738.723	8860.09
739.063	8822.8
739.404	8906.64
739.744	8876.36
740.084	8823.03
740.424	8891.73
740.764	8854.22
741.104	8888.57
741.444	8924.27
741.784	8858.28
742.124	9035.45
742.464	8964.5
742.804	8960.88
743.143	8939.86
743.483	9014.89
743.823	8944.61
744.162	9003.82
744.502	9051.5
744.841	9035.91
745.181	9152.97
745.52	9095.57
745.86	9166.07
746.199	9187.09
746.538	9224.6
746.877	9356.8
747.216	9338.5
747.556	9360.87
747.895	9398.61
748.234	9435.22
748.573	9470.92
748.911	9511.6
749.25	9592.05
749.589	9578.49
749.928	9654.42
750.267	9884.92
750.605	9848.09
750.944	9938.03
751.283	9950.01
751.621	10067.29
751.96	10097.35
752.298	10226.61
752.636	10270.45
752.975	10379.15
753.313	10444.46
753.651	10572.59
753.989	10586.6
754.327	10781.17
754.666	10836.76
755.004	10968.96
755.342	11083.76
755.679	11185.23
756.017	11282.18
756.355	11448.27
756.693	11547.25
757.031	11726.23
757.368	11749.28
757.706	11903.4
758.044	12049.16
758.381	12243.05
758.719	12338.64
759.056	12561.01
