Data from hue_170_FLMS001491_00052.txt Node
Date: Tue Feb 07 16:48:52 GMT 2017
User: dcchb
Spectrometer: FLMS00149
Trigger mode: 0
Integration Time (sec): 2.000000E-2
Scans to average: 10
Electric dark correction enabled: true
Nonlinearity correction enabled: false
Boxcar width: 0
XAxis mode: Wavelengths
Number of Pixels in Spectrum: 2048
>>>>>Begin Spectral Data<<<<<
341.393	-10.99
341.776	-10.99
342.16	-10.99
342.543	-70.65
342.927	-78.33
343.31	-50.08
343.693	-81.27
344.077	-86.92
344.46	-84.66
344.843	-57.54
345.226	-46.47
345.61	-34.26
345.993	-12.57
346.376	1.89
346.759	18.39
347.142	48.45
347.525	49.35
347.908	42.8
348.291	88.9
348.674	95.9
349.057	108.1
349.44	146.97
349.823	157.82
350.206	173.87
350.588	190.81
350.971	209.34
351.354	213.19
351.737	229.91
352.119	252.96
352.502	256.8
352.884	268.78
353.267	283.24
353.65	288.21
354.032	296.8
354.414	315.33
354.797	304.26
355.179	308.1
355.562	324.14
355.944	323.69
356.326	334.99
356.709	344.71
357.091	307.42
357.473	344.71
357.855	360.98
358.238	356.69
358.62	349.23
359.002	342.22
359.384	335.44
359.766	339.96
360.148	354.65
360.53	353.3
360.912	338.38
361.294	328.21
361.676	349
362.057	348.32
362.439	348.1
362.821	338.61
363.203	329.34
363.584	314.65
363.966	306.29
364.348	339.06
364.729	320.3
365.111	290.47
365.493	330.47
365.874	303.13
366.256	324.14
366.637	285.73
367.019	307.87
367.4	315.78
367.781	316.46
368.163	306.74
368.544	328.44
368.925	309.91
369.306	313.97
369.688	311.71
370.069	317.14
370.45	310.59
370.831	311.94
371.212	308.78
371.593	313.75
371.974	322.34
372.355	321.66
372.736	323.01
373.117	303.58
373.498	327.76
373.879	327.76
374.26	302
374.641	319.85
375.021	303.35
375.402	332.51
375.783	322.56
376.163	307.42
376.544	327.53
376.925	331.83
377.305	335.22
377.686	331.38
378.066	325.05
378.447	341.32
378.827	329.79
379.208	327.99
379.588	332.51
379.968	338.15
380.349	336.8
380.729	341.54
381.109	343.35
381.489	347.87
381.87	346.97
382.25	332.96
382.63	344.26
383.01	352.84
383.39	341.32
383.77	348.78
384.15	367.98
384.53	337.25
384.91	350.36
385.29	336.57
385.67	337.48
386.049	367.31
386.429	351.71
386.809	350.13
387.189	351.04
387.568	344.71
387.948	344.26
388.328	343.8
388.707	351.49
389.087	367.98
389.466	365.05
389.846	357.36
390.225	373.86
390.605	375.67
390.984	359.85
391.363	385.61
391.743	367.76
392.122	377.48
392.501	380.41
392.881	396.01
393.26	386.74
393.639	374.09
394.018	379.51
394.397	387.19
394.776	379.51
395.155	375.67
395.534	402.33
395.913	399.4
396.292	386.52
396.671	397.36
397.05	399.17
397.429	393.07
397.808	399.17
398.186	378.38
398.565	422.67
398.944	398.94
399.323	397.59
399.701	396.46
400.08	373.18
400.458	399.62
400.837	404.37
401.215	417.47
401.594	405.72
401.972	407.31
402.351	433.29
402.729	425.38
403.107	419.51
403.486	413.86
403.864	433.75
404.242	432.62
404.62	442.11
404.999	441.66
405.377	424.71
405.755	436.46
406.133	448.43
406.511	458.83
406.889	471.26
407.267	444.59
407.645	445.95
408.023	461.54
408.401	465.16
408.779	466.29
409.156	472.61
409.534	457.47
409.912	475.78
410.29	459.96
410.667	475.55
411.045	475.33
411.422	499.51
411.8	511.71
412.178	514.65
412.555	525.27
412.933	537.25
413.31	521.43
413.687	532.27
414.065	532.73
414.442	538.83
414.819	552.61
415.197	547.41
415.574	553.52
415.951	553.06
416.328	592.84
416.705	569.34
417.082	584.93
417.46	584.7
417.837	580.41
418.214	577.7
418.591	616.57
418.967	581.76
419.344	603.01
419.721	600.52
420.098	629.67
420.475	605.72
420.852	633.74
421.228	643.01
421.605	651.37
421.982	634.42
422.358	657.24
422.735	662.89
423.111	653.63
423.488	668.32
423.864	694.98
424.241	687.98
424.617	673.74
424.994	687.98
425.37	671.03
425.746	695.66
426.123	735.66
426.499	736.34
426.875	723.91
427.251	732.72
427.627	734.08
428.003	762.78
428.379	777.01
428.756	775.66
429.132	768.2
429.507	795.77
429.883	785.6
430.259	812.94
430.635	809.33
431.011	797.58
431.387	822.44
431.763	854.07
432.138	813.17
432.514	871.02
432.89	856.56
433.265	865.82
433.641	920.51
434.016	889.33
434.392	904.69
434.767	927.29
435.143	891.59
435.518	962.09
435.894	941.08
436.269	970.91
436.644	975.88
437.02	975.43
437.395	1004.8
437.77	985.6
438.145	1019.72
438.52	1051.81
438.895	1020.17
439.271	1049.77
439.646	1067.63
440.021	1088.42
440.395	1071.92
440.77	1084.58
441.145	1133.84
441.52	1118.02
441.895	1132.48
442.27	1157.79
442.645	1156.66
443.019	1170.68
443.394	1167.51
443.769	1167.51
444.143	1146.95
444.518	1216.55
444.892	1193.5
445.267	1190.11
445.641	1231.24
446.016	1209.32
446.39	1257
446.764	1241.63
447.139	1258.58
447.513	1257.68
447.887	1264.68
448.262	1273.72
448.636	1304.01
449.01	1322.76
449.384	1311.46
449.758	1305.81
450.132	1350.11
450.506	1322.99
450.88	1357.56
451.254	1376.55
451.628	1399.6
452.002	1388.52
452.376	1370.67
452.75	1397.34
453.123	1400.05
453.497	1428.52
453.871	1462.87
454.244	1503.77
454.618	1491.57
454.992	1511.46
455.365	1529.99
455.739	1586.26
456.112	1571.12
456.486	1591.23
456.859	1609.76
457.232	1663.54
457.606	1636.43
457.979	1647.95
458.352	1670.32
458.725	1731.34
459.099	1725.01
459.472	1753.03
459.845	1774.28
460.218	1781.05
460.591	1807.95
460.964	1851.79
461.337	1853.82
461.71	1896.98
462.083	1909.19
462.456	1939.24
462.829	1960.94
463.201	1996.19
463.574	1962.97
463.947	2026.47
464.32	2109.41
464.692	2103.76
465.065	2132.01
465.438	2151.21
465.81	2201.61
466.183	2207.26
466.555	2242.29
466.928	2277.09
467.3	2309.4
467.672	2343.07
468.045	2401.83
468.417	2397.31
468.789	2454.94
469.161	2477.99
469.534	2541.03
469.906	2583.97
470.278	2640.92
470.65	2679.79
471.022	2738.77
471.394	2770.86
471.766	2776.73
472.138	2858.31
472.51	2893.34
472.882	2999.1
473.253	3066.44
473.625	3065.54
473.997	3161.81
474.369	3233.67
474.74	3255.37
475.112	3318.87
475.484	3410.16
475.855	3486.55
476.227	3523.16
476.598	3652.64
476.97	3719.99
477.341	3824.84
477.713	3853.09
478.084	3922.02
478.455	4034.55
478.827	4110.26
479.198	4249.24
479.569	4315.23
479.94	4470.7
480.311	4538.5
480.682	4667.98
481.053	4786.4
481.424	4892.84
481.795	4935.1
482.166	5061.19
482.537	5150.23
482.908	5276.33
483.279	5378.7
483.65	5541.86
484.021	5640.84
484.391	5758.58
484.762	5872.7
485.133	5954.05
485.503	6036.76
485.874	6251.9
486.244	6306.36
486.615	6516.52
486.985	6608.72
487.356	6822.05
487.726	6797.19
488.097	7092.1
488.467	7133.91
488.837	7381.36
489.207	7451.87
489.578	7644.18
489.948	7701.13
490.318	7937.5
490.688	7917.39
491.058	8147.22
491.428	8262.69
491.798	8446.64
492.168	8582.23
492.538	8712.4
492.908	8826.97
493.278	8953.52
493.648	9062.22
494.017	9146.06
494.387	9283.68
494.757	9381.31
495.126	9536.33
495.496	9515.31
495.866	9678.02
496.235	9811.13
496.605	9969.54
496.974	9973.38
497.344	10214.51
497.713	10188.29
498.082	10242.75
498.452	10498.11
498.821	10482.75
499.19	10595.96
499.559	10644.55
499.928	10739.24
500.298	10847.48
500.667	10933.58
501.036	10955.5
501.405	11130.87
501.774	11104.43
502.143	11301.93
502.512	11350.52
502.88	11415.38
503.249	11408.82
503.618	11545.77
503.987	11564.75
504.356	11612.89
504.724	11716.84
505.093	11703.51
505.462	11798.87
505.83	11865.99
506.199	11981.24
506.567	12125.19
506.936	12123.83
507.304	12206.09
507.672	12219.88
508.041	12219.65
508.409	12364.28
508.777	12437.95
509.145	12520.21
509.514	12532.18
509.882	12528.57
510.25	12640.43
510.618	12659.19
510.986	12686.3
511.354	12646.31
511.722	12816.92
512.09	12964.04
512.458	12867.77
512.826	12987.54
513.193	13022.57
513.561	13073.87
513.929	13123.36
514.297	13195.44
514.664	13231.83
515.032	13223.01
515.4	13272.73
515.767	13353.63
516.135	13378.26
516.502	13199.74
516.869	13450.35
517.237	13451.93
517.604	13422.78
517.972	13556.56
518.339	13479.05
518.706	13547.3
519.073	13527.86
519.44	13663.91
519.808	13677.47
520.175	13649.67
520.542	13794.07
520.909	13858.48
521.276	13710.23
521.643	13939.15
522.009	13946.16
522.376	13933.05
522.743	13931.7
523.11	14024.8
523.477	14099.6
523.843	14065.03
524.21	14209.65
524.577	14242.65
524.943	14266.83
525.31	14258.24
525.676	14249.88
526.043	14353.61
526.409	14338.24
526.776	14372.36
527.142	14309.09
527.508	14355.87
527.874	14508.18
528.241	14566.26
528.607	14375.3
528.973	14437.9
529.339	14480.16
529.705	14490.1
530.071	14591.34
530.437	14525.8
530.803	14586.59
531.169	14556.54
531.535	14488.97
531.901	14535.75
532.267	14527.16
532.632	14471.79
532.998	14527.39
533.364	14498.01
533.73	14551.57
534.095	14599.02
534.461	14509.08
534.826	14460.27
535.192	14444.22
535.557	14521.74
535.923	14462.3
536.288	14445.35
536.653	14408.75
537.019	14370.1
537.384	14253.95
537.749	14295.75
538.114	14248.52
538.479	14191.35
538.845	14293.27
539.21	14175.53
539.575	14171.69
539.94	14085.36
540.305	14108.64
540.67	14037.68
541.034	14050.11
541.399	14005.37
541.764	14026.16
542.129	13948.42
542.494	13980.06
542.858	13897.57
543.223	13881.08
543.587	13919.72
543.952	13870.23
544.316	13748.65
544.681	13696
545.045	13770.12
545.41	13692.61
545.774	13702.78
546.138	13625.49
546.503	13580.97
546.867	13543.46
547.231	13556.56
547.595	13483.35
547.959	13532.84
548.324	13544.14
548.688	13370.35
549.052	13382.78
549.416	13340.98
549.779	13270.02
550.143	13269.79
550.507	13203.81
550.871	13206.74
551.235	13148.21
551.599	13256.46
551.962	13087.42
552.326	13106.63
552.689	13147.31
553.053	12964.94
553.417	13017.14
553.78	13112.06
554.143	13044.71
554.507	12943.47
554.87	12941.44
555.234	13016.01
555.597	12894.21
555.96	12920.65
556.323	12950.48
556.686	12882.91
557.05	12979.63
557.413	12842.46
557.776	12824.15
558.139	12812.86
558.502	12794.55
558.865	12824.61
559.228	12848.56
559.59	12817.15
559.953	12769.01
560.316	12890.59
560.679	12785.51
561.041	12865.28
561.404	12886.07
561.767	12940.31
562.129	12785.51
562.492	12879.29
562.854	12855.11
563.217	12832.97
563.579	12748.68
563.941	12750.94
564.304	12856.24
564.666	12876.13
565.028	12837.04
565.39	12861.22
565.753	12966.07
566.115	12864.38
566.477	12957.94
566.839	12927.2
567.201	12962
567.563	12937.6
567.925	13006.75
568.287	12898.28
568.648	12959.29
569.01	12983.25
569.372	13065.05
569.734	12953.19
570.095	13006.07
570.457	13026.18
570.819	13041.78
571.18	13043.36
571.542	13112.96
571.903	13085.62
572.265	13162.45
572.626	13179.4
572.987	13141.66
573.349	13157.7
573.71	13177.14
574.071	13143.47
574.432	13130.13
574.794	13225.5
575.155	13124.26
575.516	13084.94
575.877	13192.96
576.238	13243.58
576.599	13194.31
576.96	13160.42
577.32	13103.92
577.681	13207.65
578.042	13215.78
578.403	13159.96
578.763	13160.87
579.124	13227.53
579.485	13216.01
579.845	13257.59
580.206	13213.07
580.566	13143.69
580.927	13287.42
581.287	13265.95
581.648	13165.84
582.008	13266.18
582.368	13189.34
582.728	13176.24
583.089	13185.05
583.449	13163.58
583.809	13164.94
584.169	13213.3
584.529	13158.61
584.889	13217.82
585.249	13125.62
585.609	13102.34
585.969	13143.47
586.329	13136.46
586.688	13169.23
587.048	13106.18
587.408	13108.89
587.768	13082.23
588.127	13056.01
588.487	13013.98
588.846	13074.09
589.206	13037.03
589.565	13065.5
589.925	13047.88
590.284	13053.53
590.643	13030.25
591.003	13051.27
591.362	13103.02
591.721	12943.47
592.08	13024.15
592.44	12993.19
592.799	12985.96
593.158	12989.57
593.517	12916.58
593.876	12982.57
594.235	12929.01
594.593	12992.74
594.952	12857.37
595.311	12877.94
595.67	12936.02
596.029	12985.51
596.387	12901.89
596.746	12936.69
597.104	12940.31
597.463	12913.64
597.822	12943.02
598.18	12889.46
598.538	12848.56
598.897	12960.87
599.255	12750.26
599.613	13085.84
599.972	12906.86
600.33	12920.87
600.688	12888.79
601.046	12819.86
601.404	12959.07
601.762	12865.06
602.12	12945.28
602.478	12889.46
602.836	12830.48
603.194	12810.14
603.552	12892.18
603.91	12833.87
604.268	12890.14
604.625	12816.7
604.983	12928.56
605.341	12832.29
605.698	12891.95
606.056	12889.46
606.413	12904.15
606.771	12936.47
607.128	12940.76
607.485	12870.71
607.843	12844.27
608.2	12922.91
608.557	13000.42
608.914	12962.23
609.272	12941.44
609.629	13033.64
609.986	13055.33
610.343	12942.12
610.7	13087.42
611.057	13025.73
611.414	13028.44
611.771	13008.78
612.127	13022.12
612.484	13085.84
612.841	13039.97
613.198	12957.48
613.554	13057.59
613.911	13040.87
614.267	13017.6
614.624	13095.11
614.98	13102.79
615.337	13169.91
615.693	13197.48
616.05	13091.49
616.406	13136.46
616.762	13198.83
617.118	13195.67
617.475	13192.73
617.831	13219.17
618.187	13217.59
618.543	13246.29
618.899	13241.09
619.255	13249.45
619.611	13198.83
619.967	13291.03
620.323	13220.08
620.678	13231.83
621.034	13206.07
621.39	13184.6
621.746	13206.97
622.101	13274.31
622.457	13191.6
622.812	13237.7
623.168	13225.05
623.523	13214.43
623.879	13338.94
624.234	13227.76
624.589	13257.59
624.945	13234.31
625.3	13302.11
625.655	13239.06
626.01	13233.86
626.365	13327.87
626.72	13244.26
627.075	13227.99
627.43	13243.58
627.785	13153.41
628.14	13219.17
628.495	13230.47
628.85	13184.82
629.205	13180.53
629.559	13142.34
629.914	13149.57
630.269	13194.99
630.623	13120.19
630.978	13118.38
631.332	13158.38
631.687	13280.19
632.041	13036.58
632.396	13089.68
632.75	13047.2
633.104	13132.62
633.459	12957.94
633.813	12958.39
634.167	12944.38
634.521	12982.12
634.875	13005.39
635.229	13002.45
635.583	12975.11
635.937	12875
636.291	12937.6
636.645	12885.85
636.999	12909.35
637.352	12882.91
637.706	12803.36
638.06	12839.52
638.413	12805.62
638.767	12721.56
639.121	12740.09
639.474	12637.94
639.828	12770.37
640.181	12789.35
640.534	12763.36
640.888	12790.03
641.241	12680.2
641.594	12675.23
641.947	12677.04
642.301	12672.07
642.654	12689.92
643.007	12735.8
643.36	12715
643.713	12692.41
644.066	12653.54
644.419	12649.92
644.771	12552.52
645.124	12410.15
645.477	12354.79
645.83	12359.76
646.182	12245.19
646.535	12244.73
646.888	12266.43
647.24	12160.22
647.593	12210.39
647.945	12173.32
648.298	12186.21
648.65	12155.47
649.002	12157.73
649.355	12273.66
649.707	12141.69
650.059	12284.51
650.411	12394.56
650.763	12449.93
651.115	12565.63
651.467	12500.77
651.819	12505.07
652.171	12453.54
652.523	12441.57
652.875	12471.4
653.227	12390.72
653.578	12473.2
653.93	12458.06
654.282	12385.07
654.633	12449.25
654.985	12479.76
655.337	12423.71
655.688	12513.2
656.039	12542.35
656.391	12432.98
656.742	12444.28
657.094	12468.68
657.445	12553.65
657.796	12503.94
658.147	12472.3
658.498	12444.05
658.849	12511.39
659.2	12476.59
659.551	12429.59
659.902	12460.32
660.253	12502.35
660.604	12540.55
660.955	12488.34
661.306	12443.6
661.656	12456.48
662.007	12503.03
662.358	12455.35
662.708	12536.7
663.059	12551.85
663.409	12446.54
663.76	12453.77
664.11	12567.66
664.461	12487.67
664.811	12575.57
665.161	12472.07
665.511	12479.76
665.862	12504.61
666.212	12540.09
666.562	12532.86
666.912	12484.95
667.262	12524.05
667.612	12482.02
667.962	12604.05
668.312	12468.68
668.662	12596.82
669.011	12533.99
669.361	12504.16
669.711	12500.77
670.06	12472.07
670.41	12491.28
670.76	12436.37
671.109	12565.4
671.459	12439.76
671.808	12375.8
672.157	12483.37
672.507	12390.95
672.856	12403.15
673.205	12433.88
673.554	12516.37
673.904	12329.03
674.253	12408.12
674.602	12401.34
674.951	12238.63
675.3	12202.02
675.649	12338.97
675.998	12409.48
676.346	12268.24
676.695	12397.95
677.044	12318.63
677.393	12298.29
677.741	12309.82
678.09	12192.53
678.438	12258.52
678.787	12138.3
679.135	12328.35
679.484	12146.21
679.832	12061.01
680.181	12129.03
680.529	12157.28
680.877	12119.31
681.225	12228.24
681.573	12181.91
681.922	12007.9
682.27	12050.62
682.618	12048.13
682.966	12004.29
683.314	12059.88
683.661	11996.15
684.009	11902.82
684.357	11902.37
684.705	11881.35
685.053	11854.01
685.4	11899.88
685.748	11814.46
686.095	11710.51
686.443	11814.69
686.79	11795.71
687.138	11727.46
687.485	11655.82
687.832	11616.5
688.18	11632.55
688.527	11598.42
688.874	11594.58
689.221	11560.68
689.568	11529.95
689.915	11451.54
690.262	11424.87
690.609	11473.23
690.956	11372.67
691.303	11385.1
691.65	11331.54
691.997	11305.78
692.344	11191.65
692.69	11228.26
693.037	11301.71
693.383	11083.18
693.73	11151.2
694.077	11064.43
694.423	11060.81
694.769	11081.15
695.116	10960.02
695.462	10950.08
695.808	10843.64
696.155	10893.81
696.501	10813.59
696.847	10812.91
697.193	10717.77
697.539	10800.93
697.885	10698.33
698.231	10618.79
698.577	10567.72
698.923	10588.28
699.269	10470.54
699.614	10481.62
699.96	10457.21
700.306	10416.76
700.651	10373.6
700.997	10330.21
701.342	10278.91
701.688	10251.11
702.033	10247.27
702.379	10206.37
702.724	10148.07
703.069	10185.58
703.415	10048.86
703.76	10070.55
704.105	10017
704.45	9983.55
704.795	9929.09
705.14	9928.41
705.485	9953.95
705.83	9858.81
706.175	9921.63
706.52	9837.34
706.865	9810
707.209	9746.95
707.554	9720.06
707.899	9730.9
708.243	9762.54
708.588	9633.28
708.932	9579.49
709.277	9591.24
709.621	9646.61
709.966	9436.9
710.31	9508.99
710.654	9427.41
710.998	9498.82
711.342	9475.32
711.687	9386.05
712.031	9355.09
712.375	9306.05
712.719	9384.7
713.063	9318.48
713.407	9357.35
713.75	9360.74
714.094	9223.35
714.438	9242.78
714.782	9288.65
715.125	9272.84
715.469	9227.86
715.812	9200.97
716.156	9146.51
716.499	9148.77
716.843	9156.91
717.186	9106.51
717.53	9165.72
717.873	9082.33
718.216	9121.2
718.559	9071.94
718.902	9004.82
719.246	9017.93
719.589	9015.44
719.932	9000.3
720.275	8964.82
720.617	8991.03
720.96	8965.95
721.303	8955.78
721.646	8952.39
721.989	8852.51
722.331	8932.51
722.674	8858.83
723.016	8893.41
723.359	8825.62
723.701	8917.14
724.044	8856.35
724.386	8759.85
724.729	8833.98
725.071	8806.41
725.413	8787.2
725.755	8851.6
726.097	8801.44
726.439	8749.91
726.782	8716.01
727.124	8870.81
727.465	8788.55
727.807	8832.62
728.149	8805.73
728.491	8720.31
728.833	8754.66
729.175	8801.44
729.516	8704.94
729.858	8700.19
730.199	8747.88
730.541	8749.91
730.882	8715.56
731.224	8700.87
731.565	8680.99
731.906	8685.28
732.248	8681.44
732.589	8708.78
732.93	8673.98
733.271	8737.93
733.612	8646.19
733.953	8687.09
734.294	8681.89
734.635	8653.64
734.976	8701.1
735.317	8650.25
735.658	8696.35
735.999	8721.21
736.339	8678.05
736.68	8696.58
737.021	8725.73
737.361	8727.76
737.702	8753.07
738.042	8710.14
738.383	8710.82
738.723	8719.86
739.063	8690.25
739.404	8758.72
739.744	8741.1
740.084	8726.86
740.424	8724.38
740.764	8793.53
741.104	8800.98
741.444	8836.01
741.784	8864.94
742.124	8788.78
742.464	8858.16
742.804	8850.93
743.143	8899.06
743.483	8934.77
743.823	8893.64
744.162	8992.62
744.502	9047.08
744.841	8954.88
745.181	9125.27
745.52	9091.15
745.86	9086.17
746.199	9137.25
746.538	9236.9
746.877	9180.41
747.216	9332.27
747.556	9344.92
747.895	9390.57
748.234	9409.55
748.573	9425.37
748.911	9467.41
749.25	9626.95
749.589	9669.89
749.928	9732.26
750.267	9744.01
750.605	9882.76
750.944	9868.98
751.283	9930.45
751.621	10013.38
751.96	10132.02
752.298	10162.76
752.636	10334.95
752.975	10408.62
753.313	10432.13
753.651	10626.92
753.989	10676.64
754.327	10763.87
754.666	10869.18
755.004	11049.74
755.342	11207.93
755.679	11272.1
756.017	11388.71
756.355	11594.81
756.693	11638.2
757.031	11831.19
757.368	11875.48
757.706	12027.79
