Data from hue_00_FLMS001491_87.txt Node
Date: Mon Feb 06 15:30:22 GMT 2017
User: dcchb
Spectrometer: FLMS00149
Trigger mode: 0
Integration Time (sec): 2.000000E-2
Scans to average: 10
Electric dark correction enabled: true
Nonlinearity correction enabled: false
Boxcar width: 0
XAxis mode: Wavelengths
Number of Pixels in Spectrum: 2048
>>>>>Begin Spectral Data<<<<<
341.393	-5.73
341.776	-5.73
342.16	-5.73
342.543	-54.09
342.927	-81.21
343.31	-76.47
343.693	-69.69
344.077	-66.98
344.46	-74.66
344.843	-34.66
345.226	-43.25
345.61	-30.82
345.993	-5.51
346.376	-1.21
346.759	16.64
347.142	28.39
347.525	33.81
347.908	67.03
348.291	70.65
348.674	78.11
349.057	108.61
349.44	109.29
349.823	151.1
350.206	156.52
350.588	194.94
350.971	189.51
351.354	212.57
351.737	212.57
352.119	250.76
352.502	254.82
352.884	258.21
353.267	273.81
353.65	276.52
354.032	309.29
354.414	284.65
354.797	322.84
355.179	307.93
355.562	330.08
355.944	324.88
356.326	340.7
356.709	356.06
357.091	330.53
357.473	330.53
357.855	331.21
358.238	330.3
358.62	340.47
359.002	345.67
359.384	323.3
359.766	336.86
360.148	330.53
360.53	342.51
360.912	327.14
361.294	327.82
361.676	330.53
362.057	328.72
362.439	327.36
362.821	338.21
363.203	315.39
363.584	335.95
363.966	329.85
364.348	306.8
364.729	335.27
365.111	299.12
365.493	317.65
365.874	311.77
366.256	302.51
366.637	318.55
367.019	308.83
367.4	317.87
367.781	311.32
368.163	290.76
368.544	300.47
368.925	305.44
369.306	299.57
369.688	309.74
370.069	323.07
370.45	304.54
370.831	326.91
371.212	308.83
371.593	321.26
371.974	301.15
372.355	325.33
372.736	286.69
373.117	339.34
373.498	307.03
373.879	286.24
374.26	312.45
374.641	301.83
375.021	316.97
375.402	305.44
375.783	304.77
376.163	307.03
376.544	298.89
376.925	317.65
377.305	313.35
377.686	331.66
378.066	314.48
378.447	325.56
378.827	321.04
379.208	312.45
379.588	329.4
379.968	335.5
380.349	337.76
380.729	335.73
381.109	329.85
381.489	332.56
381.87	337.99
382.25	343.64
382.63	316.29
383.01	342.96
383.39	340.02
383.77	336.18
384.15	327.59
384.53	353.58
384.91	336.18
385.29	338.89
385.67	332.79
386.049	342.51
386.429	339.12
386.809	346.35
387.189	352
387.568	341.15
387.948	343.86
388.328	353.13
388.707	369.4
389.087	351.32
389.466	360.13
389.846	371.88
390.225	362.17
390.605	358.78
390.984	354.93
391.363	370.3
391.743	379.34
392.122	351.77
392.501	348.15
392.881	373.01
393.26	361.26
393.639	356.74
394.018	359
394.397	361.71
394.776	355.61
395.155	375.72
395.534	344.99
395.913	357.42
396.292	375.05
396.671	365.1
397.05	362.39
397.429	382.28
397.808	372.33
398.186	375.5
398.565	370.75
398.944	394.71
399.323	375.5
399.701	398.32
400.08	384.09
400.458	414.59
400.837	402.39
401.215	406.46
401.594	380.7
401.972	378.44
402.351	395.16
402.729	379.34
403.107	399.45
403.486	393.8
403.864	409.62
404.242	390.64
404.62	403.97
404.999	397.19
405.377	413.69
405.755	407.36
406.133	433.12
406.511	430.41
406.889	406.68
407.267	413.01
407.645	414.14
408.023	438.1
408.401	413.46
408.779	403.07
409.156	439.9
409.534	409.4
409.912	414.14
410.29	428.15
410.667	433.58
411.045	443.97
411.422	450.52
411.8	442.62
412.178	459.34
412.555	438.77
412.933	441.03
413.31	443.75
413.687	469.28
414.065	473.12
414.442	476.74
414.819	473.35
415.197	474.03
415.574	460.92
415.951	481.94
416.328	515.61
416.705	500.92
417.082	486.23
417.46	476.06
417.837	481.48
418.214	493.46
418.591	506.79
418.967	492.11
419.344	513.57
419.721	488.04
420.098	503.18
420.475	519.45
420.852	522.16
421.228	522.39
421.605	514.25
421.982	537.75
422.358	505.89
422.735	533.91
423.111	539.34
423.488	555.61
423.864	557.87
424.241	545.21
424.617	555.61
424.994	529.17
425.37	552.67
425.746	539.11
426.123	556.06
426.499	547.47
426.875	567.36
427.251	574.36
427.627	566.68
428.003	585.66
428.379	591.99
428.756	569.62
429.132	597.41
429.507	591.09
429.883	595.15
430.259	606.9
430.635	619.11
431.011	579.34
431.387	594.7
431.763	630.63
432.138	612.55
432.514	638.77
432.89	624.31
433.265	660.24
433.641	653.91
434.016	658.88
434.392	658.88
434.767	676.06
435.143	674.25
435.518	656.62
435.894	658.43
436.269	680.12
436.644	701.59
437.02	679.67
437.395	718.77
437.77	695.26
438.145	728.48
438.52	701.14
438.895	711.08
439.271	704.76
439.646	706.56
440.021	737.52
440.395	706.34
440.77	748.37
441.145	745.88
441.52	770.52
441.895	740.23
442.27	723.96
442.645	770.29
443.019	768.03
443.394	773
443.769	773.91
444.143	774.81
444.518	773.45
444.892	787.24
445.267	796.05
445.641	778.2
446.016	777.07
446.39	804.64
446.764	807.8
447.139	772.1
447.513	800.8
447.887	829.5
448.262	808.48
448.636	803.06
449.01	812.1
449.384	840.12
449.758	826.79
450.132	864.3
450.506	841.48
450.88	840.12
451.254	847.35
451.628	860.46
452.002	845.32
452.376	880.57
452.75	852.1
453.123	873.56
453.497	884.64
453.871	889.38
454.244	900.23
454.618	928.03
454.992	947.69
455.365	928.93
455.739	945.88
456.112	972.32
456.486	965.31
456.859	957.86
457.232	971.19
457.606	971.42
457.979	973.45
458.352	1003.28
458.725	1002.6
459.099	1015.93
459.472	1035.37
459.845	1050.06
460.218	1061.58
460.591	1025.43
460.964	1061.13
461.337	1032.66
461.71	1088.02
462.083	1102.71
462.456	1079.89
462.829	1094.35
463.201	1110.62
463.574	1121.24
463.947	1118.98
464.32	1160.11
464.692	1166.44
465.065	1178.19
465.438	1215.25
465.81	1165.08
466.183	1217.96
466.555	1228.58
466.928	1234.46
467.3	1238.53
467.672	1256.15
468.045	1295.93
468.417	1268.81
468.789	1291.41
469.161	1322.82
469.534	1310.84
469.906	1342.7
470.278	1332.99
470.65	1387.9
471.022	1412.53
471.394	1407.34
471.766	1428.13
472.138	1458.41
472.51	1463.38
472.882	1524.62
473.253	1516.49
473.625	1554.45
473.997	1615.47
474.369	1611.85
474.74	1595.81
475.112	1653.66
475.484	1621.57
475.855	1687.78
476.227	1698.18
476.598	1756.03
476.97	1740.66
477.341	1816.82
477.713	1822.01
478.084	1820.88
478.455	1885.97
478.827	1912.18
479.198	1965.51
479.569	1979.98
479.94	2013.2
480.311	1998.96
480.682	2084.15
481.053	2127.77
481.424	2123.7
481.795	2214.09
482.166	2258.16
482.537	2273.98
482.908	2300.42
483.279	2343.36
483.65	2333.87
484.021	2403.47
484.391	2439.17
484.762	2467.65
485.133	2492.73
485.503	2551.71
485.874	2591.26
486.244	2635.33
486.615	2654.08
486.985	2702.67
487.356	2702.44
487.726	2803.68
488.097	2865.83
488.467	2840.74
488.837	2912.83
489.207	2951.7
489.578	3007.07
489.948	3044.35
490.318	3087.74
490.688	3077.35
491.058	3130
491.428	3175.42
491.798	3249.1
492.168	3252.03
492.538	3244.35
492.908	3290.9
493.278	3357.12
493.648	3365.48
494.017	3464.23
494.387	3461.97
494.757	3457.9
495.126	3524.34
495.496	3530.67
495.866	3557.11
496.235	3614.51
496.605	3622.64
496.974	3677.56
497.344	3721.17
497.713	3703.09
498.082	3754.62
498.452	3792.58
498.821	3792.36
499.19	3835.29
499.559	3855.86
499.928	3915.52
500.298	3932.24
500.667	3944.67
501.036	3904.45
501.405	3971.34
501.774	4026.25
502.143	4046.81
502.512	4056.98
502.88	4074.38
503.249	4040.26
503.618	4098.56
503.987	4136.3
504.356	4145.34
504.724	4163.87
505.093	4250.2
505.462	4172.69
505.83	4250.88
506.199	4294.49
506.567	4262.63
506.936	4312.12
507.304	4330.65
507.672	4359.35
508.041	4339.24
508.409	4431.44
508.777	4423.3
509.145	4482.06
509.514	4459.01
509.882	4506.46
510.25	4501.72
510.618	4547.14
510.986	4581.94
511.354	4574.26
511.722	4620.58
512.09	4646.35
512.458	4636.18
512.826	4641.15
513.193	4653.58
513.561	4689.51
513.929	4687.7
514.297	4748.04
514.664	4751.2
515.032	4749.17
515.4	4808.15
515.767	4824.42
516.135	4821.71
516.502	4807.25
516.869	4914.59
517.237	4899.45
517.604	4864.65
517.972	4906.23
518.339	4924.08
518.706	5002.95
519.073	4932.44
519.44	4974.7
519.808	5009.5
520.175	5020.8
520.542	5083.85
520.909	5037.07
521.276	5054.02
521.643	5131.31
522.009	5122.27
522.376	5159.33
522.743	5183.51
523.11	5242.94
523.477	5280.91
523.843	5339.66
524.21	5304.18
524.577	5351.86
524.943	5431.64
525.31	5361.81
525.676	5449.94
526.043	5505.31
526.409	5475.03
526.776	5540.33
527.142	5523.16
527.508	5605.87
527.874	5558.64
528.241	5620.56
528.607	5650.84
528.973	5681.8
529.339	5699.2
529.705	5728.35
530.071	5782.81
530.437	5843.6
530.803	5855.13
531.169	5885.64
531.535	5853.09
531.901	5931.96
532.267	5931.51
532.632	5927.67
532.998	5991.17
533.364	5995.24
533.73	6060.09
534.095	6077.27
534.461	6108.68
534.826	6134.22
535.192	6145.29
535.557	6185.52
535.923	6183.26
536.288	6182.35
536.653	6212.18
537.019	6188.23
537.384	6294.66
537.749	6324.72
538.114	6318.39
538.479	6356.81
538.845	6362.23
539.21	6362.23
539.575	6375.11
539.94	6413.53
540.305	6467.54
540.67	6439.29
541.034	6509.35
541.399	6535.56
541.764	6576.69
542.129	6592.28
542.494	6613.75
542.858	6697.37
543.223	6697.14
543.587	6724.03
543.952	6735.56
544.316	6764.71
544.681	6771.49
545.045	6847.87
545.41	6860.75
545.774	6810.36
546.138	6854.65
546.503	6901.88
546.867	6908.43
547.231	6935.1
547.595	6959.28
547.959	6945.27
548.324	7016.91
548.688	7043.57
549.052	7080.63
549.416	7094.87
549.779	7106.85
550.143	7063.68
550.507	7144.81
550.871	7247.86
551.235	7221.19
551.599	7181.42
551.962	7288.76
552.326	7323.11
552.689	7344.58
553.053	7281.53
553.417	7291.02
553.78	7420.51
554.143	7380.74
554.507	7431.36
554.87	7421.42
555.234	7475.2
555.597	7434.07
555.96	7532.37
556.323	7528.98
556.686	7556.33
557.05	7593.84
557.413	7630
557.776	7619.83
558.139	7655.76
558.502	7639.94
558.865	7704.8
559.228	7743.89
559.59	7689.88
559.953	7788.64
560.316	7909.31
560.679	7835.42
561.041	7882.42
561.404	7872.48
561.767	7932.14
562.129	7856.88
562.492	8071.12
562.854	8025.69
563.217	8034.73
563.579	8100.72
563.941	8126.71
564.304	8174.39
564.666	8203.99
565.028	8218.68
565.39	8178.68
565.753	8197.21
566.115	8253.48
566.477	8247.16
566.839	8332.58
567.201	8331.67
567.563	8396.53
567.925	8393.82
568.287	8515.17
568.648	8497.09
569.01	8533.93
569.372	8571.89
569.734	8582.06
570.095	8613.93
570.457	8688.95
570.819	8737.99
571.18	8724.21
571.542	8754.04
571.903	8740.48
572.265	8878.1
572.626	8908.16
572.987	8900.02
573.349	8982.28
573.71	9011.88
574.071	9122.16
574.432	9113.35
574.794	9184.31
575.155	9239.22
575.516	9181.14
575.877	9304.08
576.238	9314.7
576.599	9432.89
576.96	9522.15
577.32	9560.34
577.681	9559.66
578.042	9721.92
578.403	9774.8
578.763	9824.52
579.124	9962.82
579.485	10106.54
579.845	10221.12
580.206	10205.3
580.566	10384.05
580.927	10443.71
581.287	10568.22
581.648	10637.38
582.008	10788.33
582.368	10876.69
582.728	11005.28
583.089	11181.77
583.449	11307.87
583.809	11411.82
584.169	11613.85
584.529	11725.93
584.889	11952.6
585.249	12074.17
585.609	12251.8
585.969	12431
586.329	12596.19
586.688	12854.94
587.048	12959.8
587.408	13114.37
587.768	13344.2
588.127	13545.32
588.487	13737.63
588.846	14018.53
589.206	14131.75
589.565	14305.53
589.925	14575.35
590.284	14800.43
590.643	15013.53
591.003	15414.65
591.362	15576.68
591.721	15826.84
592.08	16114.07
592.44	16416.43
592.799	16564.9
593.158	16803.09
593.517	17034.95
593.876	17353.13
594.235	17609.17
594.593	17824.98
594.952	18195.37
595.311	18261.58
595.67	18739.31
596.029	18992.86
596.387	19271.95
596.746	19493.87
597.104	19678.95
597.463	19952.38
597.822	20427.63
598.18	20415.65
598.538	20598.24
598.897	21080.26
599.255	21125.24
599.613	21763.86
599.972	21938.77
600.33	22210.63
600.688	22315.49
601.046	22680.45
601.404	22929.93
601.762	23097.39
602.12	23471.39
602.478	23682.23
602.836	23985.27
603.194	23932.39
603.552	24389.56
603.91	24498.71
604.268	24865.25
604.625	24996.77
604.983	25238.8
605.341	25431.56
605.698	25852.57
606.056	26003.07
606.413	26116.06
606.771	26538.2
607.128	26670.17
607.485	26775.03
607.843	26979.09
608.2	27254.79
608.557	27660.2
608.914	27641.9
609.272	27868.56
609.629	28268.32
609.986	28436.46
610.343	28461.09
610.7	28854.3
611.057	29123.9
611.414	29099.04
611.771	29453.83
612.127	29598.46
612.484	29668.74
612.841	29979.69
613.198	30087.94
613.554	30145.11
613.911	30496.51
614.267	30589.39
614.624	30642.95
614.98	30997.74
615.337	31040.23
615.693	31317.06
616.05	31304.4
616.406	31634.79
616.762	31762.7
617.118	31728.57
617.475	31875.69
617.831	32186.87
618.187	32284.49
618.543	32330.36
618.899	32579.62
619.255	32628.21
619.611	32693.29
619.967	33004.92
620.323	33067.07
620.678	33097.8
621.034	33011.7
621.39	33159.5
621.746	33279.04
622.101	33832.25
622.457	33542.99
622.812	33672.02
623.168	33948.4
623.523	33934.84
623.879	34075.86
624.234	33992.69
624.589	34130.77
624.945	34215.96
625.3	34309.75
625.655	34338
626.01	34479.23
626.365	34489.18
626.72	34598.1
627.075	34633.58
627.43	34655.5
627.785	34813.24
628.14	34775.27
628.495	34817.76
628.85	34937.53
629.205	34830.19
629.559	35115.15
629.914	35074.7
630.269	35006
630.623	34991.54
630.978	34944.31
631.332	35211.87
631.687	35315.14
632.041	35236.28
632.396	35334.58
632.75	35197.86
633.104	35319.21
633.459	35212.1
633.813	35195.83
634.167	35158.09
634.521	35228.82
634.875	35334.13
635.229	35306.78
635.583	35086.68
635.937	35235.15
636.291	35208.71
636.645	35138.2
636.999	35126.68
637.352	35345.2
637.706	35115.38
638.06	35314.01
638.413	35168.71
638.767	35145.66
639.121	35236.95
639.474	35060.46
639.828	35133.23
640.181	35233.79
640.534	35235.15
640.888	35234.24
641.241	34947.47
641.594	35217.97
641.947	35238.31
642.301	35241.7
642.654	35048.71
643.007	35129.16
643.36	35124.42
643.713	35214.13
644.066	35198.76
644.419	34950.18
644.771	34682.17
645.124	34528.05
645.477	34433.36
645.83	34160.37
646.182	34224.55
646.535	33939.59
646.888	34115.63
647.24	34008.51
647.593	34166.25
647.945	34119.92
648.298	33915.86
648.65	33966.93
649.002	33735.53
649.355	33876.76
649.707	33792.7
650.059	34074.73
650.411	34443.76
650.763	34518.33
651.115	34804.42
651.467	34657.31
651.819	34676.74
652.171	34616.86
652.523	34650.08
652.875	34613.92
653.227	34530.53
653.578	34573.47
653.93	34458.67
654.282	34532.34
654.633	34378.45
654.985	34552.45
655.337	34512.91
655.688	34539.57
656.039	34632
656.391	34372.57
656.742	34331.67
657.094	34389.52
657.445	34601.94
657.796	34422.96
658.147	34407.15
658.498	34390.42
658.849	34402.17
659.2	34422.51
659.551	34380.48
659.902	34440.37
660.253	34364.44
660.604	34499.57
660.955	34353.59
661.306	34366.92
661.656	34300.48
662.007	34346.36
662.358	34365.11
662.708	34230.88
663.059	34322.85
663.409	34190.65
663.76	34399.69
664.11	34291.44
664.461	34436.75
664.811	34310.88
665.161	34318.56
665.511	34201.73
665.862	34333.25
666.212	34418.22
666.562	34410.08
666.912	34439.91
667.262	34285.79
667.612	34333.93
667.962	34232.24
668.312	34239.01
668.662	34338.67
669.011	34323.08
669.361	34116.08
669.711	34121.28
670.06	34142.97
670.41	34025.46
670.76	34129.87
671.109	34140.71
671.459	34104.33
671.808	34099.36
672.157	34223.2
672.507	33939.81
672.856	33922.41
673.205	34012.81
673.554	34046.48
673.904	34001.28
674.253	34211.22
674.602	34108.62
674.951	33529.66
675.3	33351.35
675.649	33817.78
675.998	33904.56
676.346	33888.29
676.695	33956.76
677.044	33721.29
677.393	33894.39
677.741	33846.71
678.09	33818.24
678.438	33794.96
678.787	33816.2
679.135	33657.79
679.484	33632.03
679.832	33741.4
680.181	33663.44
680.529	33778.46
680.877	33538.02
681.225	33531.91
681.573	33724.68
681.922	33502.54
682.27	33442.65
682.618	33411.01
682.966	33439.04
683.314	33439.49
683.661	33399.26
684.009	33207.86
684.357	33203.56
684.705	33057.13
685.053	33054.41
685.4	33023.23
685.748	32935.55
686.095	32801.54
686.443	32876.34
686.79	32620.75
687.138	32755.66
687.485	32815.32
687.832	32724.03
688.18	32806.06
688.527	32629.79
688.874	32404.71
689.221	32498.72
689.568	32329.46
689.915	32269.35
690.262	32143.93
690.609	32149.58
690.956	32092.86
691.303	32098.28
691.65	31920.88
691.997	31834.78
692.344	31583.04
692.69	31592.3
693.037	31765.18
693.383	31343.05
693.73	31543.94
694.077	31420.78
694.423	31426.89
694.769	31217.17
695.116	31112.54
695.462	31153.45
695.808	31088.82
696.155	31104.18
696.501	30970.4
696.847	30918.2
697.193	30685.21
697.539	30758.88
697.885	30519.56
698.231	30541.71
698.577	30422.62
698.923	30434.14
699.269	30258.78
699.614	29950.09
699.96	29997.09
700.306	30108.28
700.651	30025.11
700.997	29799.13
701.342	29795.97
701.688	29829.41
702.033	29674.62
702.379	29670.32
702.724	29570.44
703.069	29630.1
703.415	29359.82
703.76	29310.33
704.105	29376.09
704.45	29250.67
704.795	29218.81
705.14	29062.43
705.485	28972.94
705.83	29002.09
706.175	28996.44
706.52	28929.55
706.865	28792.6
707.209	28668.99
707.554	28691.36
707.899	28599.62
708.243	28508.77
708.588	28487.08
708.932	28337.02
709.277	28385.84
709.621	28270.36
709.966	28181.1
710.31	28124.15
710.654	27971.61
710.998	28011.16
711.342	27976.13
711.687	28028.78
712.031	27639.87
712.375	27657.04
712.719	27745.4
713.063	27743.37
713.407	27695.91
713.75	27563.26
714.094	27587.21
714.438	27399.87
714.782	27550.83
715.125	27289.82
715.469	27320.1
715.812	27190.16
716.156	27103.16
716.499	27202.14
716.843	27138.41
717.186	26956.04
717.53	27128.02
717.873	27143.38
718.216	27010.05
718.559	26922.37
718.902	26625.66
719.246	26709.27
719.589	26787.01
719.932	26535.94
720.275	26613.68
720.617	26650.74
720.96	26512.44
721.303	26542.27
721.646	26438.09
721.989	26350.18
722.331	26447.13
722.674	26263.86
723.016	26291.2
723.359	26295.5
723.701	26293.24
724.044	26029.29
724.386	25867.26
724.729	26078.78
725.071	26013.02
725.413	25918.1
725.755	25936.41
726.097	25864.77
726.439	25743.87
726.782	25825.68
727.124	25782.29
727.465	25664.78
727.807	25676.98
728.149	25622.74
728.491	25594.04
728.833	25733.7
729.175	25536.87
729.516	25567.38
729.858	25530.54
730.199	25417.55
730.541	25312.7
730.882	25352.47
731.224	25436.76
731.565	25300.94
731.906	25366.93
732.248	25136.88
732.589	25202.64
732.93	25051.46
733.271	25146.6
733.612	25036.77
733.953	25053.72
734.294	24947.73
734.635	24919.03
734.976	24996.55
735.317	24793.16
735.658	24750.68
735.999	24853.05
736.339	24809.66
736.68	24816.66
737.021	24674.75
737.361	24673.16
737.702	24777.79
738.042	24715.65
738.383	24531.93
738.723	24578.7
739.063	24584.81
739.404	24584.35
739.744	24433.17
740.084	24359.05
740.424	24511.59
740.764	24316.11
741.104	24432.95
741.444	24176.68
741.784	24274.76
742.124	24196.34
742.464	24214.87
742.804	24157.25
743.143	24095.55
743.483	24022.33
743.823	23952.73
744.162	23952.05
744.502	24007.87
744.841	23912.73
745.181	24011.71
745.52	23787.76
745.86	23827.09
746.199	23806.29
746.538	23652.63
746.877	23822.79
747.216	23742.79
747.556	23679.29
747.895	23759.97
748.234	23589.13
748.573	23565.4
748.911	23674.1
749.25	23582.12
749.589	23447.89
749.928	23488.11
750.267	23443.59
750.605	23404.27
750.944	23369.47
751.283	23293.31
751.621	23345.29
751.96	23110.49
752.298	23178.97
752.636	23207.67
752.975	23025.52
753.313	23032.08
753.651	23164.96
753.989	22846.09
754.327	22915.47
754.666	22825.08
755.004	22819.88
755.342	22832.54
755.679	22793.21
756.017	22688.36
756.355	22743.05
756.693	22565.65
757.031	22676.16
757.368	22494.69
757.706	22496.5
758.044	22411.08
758.381	22428.25
758.719	22217.18
759.056	22353.23
759.394	22231.87
759.731	22142.38
760.068	22091.09
760.405	22037.98
760.743	21969.28
