Data from hue_320_FLMS001491_78.txt Node
Date: Mon Feb 06 15:47:41 GMT 2017
User: dcchb
Spectrometer: FLMS00149
Trigger mode: 0
Integration Time (sec): 2.000000E-2
Scans to average: 10
Electric dark correction enabled: true
Nonlinearity correction enabled: false
Boxcar width: 0
XAxis mode: Wavelengths
Number of Pixels in Spectrum: 2048
>>>>>Begin Spectral Data<<<<<
341.393	-3.39
341.776	-3.39
342.16	-3.39
342.543	-56.72
342.927	-58.3
343.31	-72.09
343.693	-74.12
344.077	-55.59
344.46	-48.13
344.843	-61.47
345.226	-44.97
345.61	-31.41
345.993	-20.79
346.376	5.88
346.759	11.75
347.142	30.96
347.525	35.25
347.908	48.36
348.291	71.86
348.674	98.98
349.057	105.53
349.44	126.78
349.823	148.7
350.206	155.25
350.588	190.28
350.971	199.77
351.354	225.3
351.737	242.25
352.119	250.16
352.502	253.55
352.884	311.86
353.267	285.64
353.65	281.8
354.032	309.6
354.414	314.12
354.797	299.88
355.179	319.77
355.562	314.79
355.944	327.22
356.326	320.9
356.709	340.56
357.091	338.07
357.473	344.17
357.855	329.71
358.238	354.79
358.62	346.21
359.002	334.23
359.384	336.71
359.766	326.77
360.148	343.49
360.53	323.83
360.912	332.87
361.294	348.01
361.676	356.37
362.057	331.06
362.439	318.64
362.821	347.11
363.203	311.4
363.584	313.44
363.966	304.4
364.348	317.05
364.729	315.7
365.111	308.69
365.493	323.16
365.874	333.78
366.256	322.7
366.637	319.99
367.019	316.6
367.4	310.05
367.781	327.22
368.163	303.72
368.544	312.08
368.925	296.26
369.306	313.89
369.688	300.56
370.069	323.16
370.45	288.81
370.831	318.18
371.212	320.67
371.593	310.73
371.974	284.96
372.355	302.59
372.736	319.77
373.117	311.4
373.498	303.04
373.879	327.9
374.26	312.76
374.641	306.43
375.021	326.77
375.402	323.61
375.783	327.22
376.163	330.39
376.544	331.52
376.925	318.41
377.305	332.87
377.686	330.61
378.066	320.22
378.447	327.45
378.827	323.38
379.208	319.99
379.588	322.03
379.968	312.53
380.349	344.17
380.729	344.85
381.109	326.77
381.489	333.32
381.87	333.1
382.25	336.26
382.63	326.32
383.01	337.84
383.39	353.21
383.77	343.95
384.15	339.43
384.53	358.86
384.91	327.9
385.29	342.82
385.67	352.76
386.049	349.82
386.429	324.51
386.809	353.44
387.189	354.34
387.568	342.36
387.948	333.55
388.328	366.09
388.707	368.58
389.087	370.84
389.466	362.7
389.846	359.76
390.225	345.75
390.605	363.38
390.984	340.1
391.363	371.74
391.743	378.97
392.122	374.23
392.501	355.02
392.881	385.75
393.26	347.79
393.639	353.66
394.018	355.47
394.397	364.96
394.776	384.4
395.155	374
395.534	377.84
395.913	370.39
396.292	377.39
396.671	368.8
397.05	369.71
397.429	369.93
397.808	392.08
398.186	388.01
398.565	385.3
398.944	369.03
399.323	400.67
399.701	415.58
400.08	373.1
400.458	411.06
400.837	412.64
401.215	387.79
401.594	407.9
401.972	407.67
402.351	382.81
402.729	413.55
403.107	378.75
403.486	421.23
403.864	415.13
404.242	419.42
404.62	430.95
404.999	393.21
405.377	419.2
405.755	411.06
406.133	441.8
406.511	428.69
406.889	443.38
407.267	442.02
407.645	445.64
408.023	438.41
408.401	463.26
408.779	439.31
409.156	449.48
409.534	466.65
409.912	472.76
410.29	464.17
410.667	477.28
411.045	475.69
411.422	488.12
411.8	469.59
412.178	496.48
412.555	498.97
412.933	497.39
413.31	509.59
413.687	526.77
414.065	517.05
414.442	525.86
414.819	529.7
415.197	519.99
415.574	526.77
415.951	541.68
416.328	549.14
416.705	557.73
417.082	565.41
417.46	585.52
417.837	560.21
418.214	571.28
418.591	587.78
418.967	585.97
419.344	582.36
419.721	600.21
420.098	630.04
420.475	615.13
420.852	609.25
421.228	618.97
421.605	634.11
421.982	640.21
422.358	640.66
422.735	644.05
423.111	634.79
423.488	678.17
423.864	677.5
424.241	666.88
424.617	668.23
424.994	673.65
425.37	696.7
425.746	682.24
426.123	686.76
426.499	701.9
426.875	691.51
427.251	726.76
427.627	724.73
428.003	735.12
428.379	744.16
428.756	738.29
429.132	772.86
429.507	761.34
429.883	795.01
430.259	790.71
430.635	797.72
431.011	802.24
431.387	795.01
431.763	839.3
432.138	792.3
432.514	824.39
432.89	838.85
433.265	821
433.641	857.38
434.016	875.91
434.392	880.88
434.767	864.84
435.143	897.38
435.518	896.93
435.894	924.04
436.269	915
436.644	931.73
437.02	933.31
437.395	933.99
437.77	969.01
438.145	960.2
438.52	979.18
438.895	978.73
439.271	977.6
439.646	980.99
440.021	985.28
440.395	1010.14
440.77	1005.62
441.145	1016.47
441.52	1013.53
441.895	1016.92
442.27	1033.65
442.645	1020.31
443.019	1051.05
443.394	1049.69
443.769	1060.09
444.143	1051.72
444.518	1058.05
444.892	1053.98
445.267	1051.05
445.641	1055.34
446.016	1075.9
446.39	1074.1
446.764	1073.42
447.139	1071.38
447.513	1099.86
447.887	1075.23
448.262	1093.08
448.636	1100.99
449.01	1097.15
449.384	1109.58
449.758	1092.63
450.132	1114.55
450.506	1112.74
450.88	1110.48
451.254	1131.5
451.628	1132.4
452.002	1167.43
452.376	1138.28
452.75	1171.72
453.123	1146.86
453.497	1192.06
453.871	1203.58
454.244	1180.31
454.618	1167.43
454.992	1209.01
455.365	1179.63
455.739	1209.91
456.112	1226.18
456.486	1259.63
456.859	1243.58
457.232	1253.98
457.606	1222.79
457.979	1248.1
458.352	1285.16
458.725	1301.66
459.099	1300.98
459.472	1283.81
459.845	1325.84
460.218	1348.21
460.591	1354.99
460.964	1339.63
461.337	1361.55
461.71	1344.6
462.083	1414.88
462.456	1410.13
462.829	1408.1
463.201	1371.72
463.574	1402.22
463.947	1422.79
464.32	1464.37
464.692	1444.48
465.065	1439.28
465.438	1445.61
465.81	1467.76
466.183	1498.72
466.555	1478.38
466.928	1531.49
467.3	1500.07
467.672	1522.22
468.045	1578.94
468.417	1552.28
468.789	1557.25
469.161	1600.18
469.534	1555.44
469.906	1641.09
470.278	1633.63
470.65	1649.9
471.022	1672.5
471.394	1688.77
471.766	1714.08
472.138	1719.5
472.51	1712.05
472.882	1742.55
473.253	1750.24
473.625	1767.86
473.997	1833.85
474.369	1818.03
474.74	1824.81
475.112	1833.17
475.484	1853.06
475.855	1910.01
476.227	1889.22
476.598	1947.75
476.97	1946.84
477.341	2011.25
477.713	2012.6
478.084	2000.63
478.455	2050.57
478.827	2050.12
479.198	2085.59
479.569	2122.43
479.94	2153.62
480.311	2187.06
480.682	2207.63
481.053	2260.73
481.424	2243.1
481.795	2277.23
482.166	2295.53
482.537	2330.33
482.908	2362.88
483.279	2365.81
483.65	2404.23
484.021	2414.63
484.391	2462.76
484.762	2459.37
485.133	2474.29
485.503	2512.93
485.874	2561.97
486.244	2599.71
486.615	2569.42
486.985	2592.93
487.356	2655.75
487.726	2713.15
488.097	2721.28
488.467	2693.49
488.837	2784.79
489.207	2787.27
489.578	2798.57
489.948	2794.5
490.318	2872.69
490.688	2898.45
491.058	2908.62
491.428	2943.43
491.798	2941.62
492.168	2997.66
492.538	3008.51
492.908	3031.78
493.278	3030.88
493.648	3084.21
494.017	3114.04
494.387	3097.09
494.757	3123.99
495.126	3143.65
495.496	3158.34
495.866	3175.96
496.235	3222.06
496.605	3240.82
496.974	3220.48
497.344	3264.55
497.713	3231.33
498.082	3333.47
498.452	3292.57
498.821	3299.8
499.19	3320.36
499.559	3400.36
499.928	3376.86
500.298	3384.32
500.667	3410.08
501.036	3435.16
501.405	3431.1
501.774	3422.51
502.143	3425.9
502.512	3452.79
502.88	3484.2
503.249	3483.07
503.618	3492.11
503.987	3495.5
504.356	3537.31
504.724	3553.58
505.093	3534.14
505.462	3567.36
505.83	3567.82
506.199	3634.25
506.567	3660.92
506.936	3638.55
507.304	3629.74
507.672	3613.24
508.041	3679.23
508.409	3685.1
508.777	3700.47
509.145	3679.9
509.514	3692.78
509.882	3749.28
510.25	3732.11
510.618	3766.23
510.986	3761.48
511.354	3770.52
511.722	3807.81
512.09	3795.15
512.458	3842.16
512.826	3818.66
513.193	3851.42
513.561	3821.14
513.929	3860.92
514.297	3867.69
514.664	3890.52
515.032	3898.43
515.4	3921.25
515.767	3899.78
516.135	3973.68
516.502	3874.93
516.869	3982.72
517.237	3946.79
517.604	3944.76
517.972	3983.62
518.339	3986.56
518.706	3982.49
519.073	3947.92
519.44	3997.18
519.808	4050.06
520.175	4006.45
520.542	4045.77
520.909	4067.24
521.276	4095.03
521.643	4084.64
522.009	4105.43
522.376	4119.21
522.743	4152.89
523.11	4145.88
523.477	4207.12
523.843	4198.53
524.21	4255.93
524.577	4276.27
524.943	4260.45
525.31	4257.29
525.676	4290.73
526.043	4338.42
526.409	4308.59
526.776	4356.72
527.142	4345.2
527.508	4374.8
527.874	4438.08
528.241	4388.81
528.607	4427.23
528.973	4474.46
529.339	4478.98
529.705	4511.52
530.071	4581.8
530.437	4589.94
530.803	4593.78
531.169	4611.63
531.535	4585.87
531.901	4657.96
532.267	4660.89
532.632	4664.28
532.998	4714.45
533.364	4742.93
533.73	4747.9
534.095	4758.07
534.461	4791.96
534.826	4815.69
535.192	4749.71
535.557	4840.78
535.923	4853.66
536.288	4858.86
536.653	4883.94
537.019	4906.31
537.384	4884.17
537.749	4910.83
538.114	4937.95
538.479	4961.9
538.845	4988.34
539.21	5002.81
539.575	5006.42
539.94	5051.17
540.305	5071.05
540.67	5068.57
541.034	5104.95
541.399	5142.69
541.764	5125.74
542.129	5145.85
542.494	5167.55
542.858	5203.48
543.223	5213.65
543.587	5226.53
543.952	5257.26
544.316	5248.9
544.681	5250.71
545.045	5287.32
545.41	5310.14
545.774	5353.31
546.138	5346.75
546.503	5431.27
546.867	5404.83
547.231	5472.62
547.595	5434.66
547.959	5427.65
548.324	5507.65
548.688	5474.43
549.052	5478.27
549.416	5569.8
549.779	5544.04
550.143	5513.75
550.507	5617.48
550.871	5593.98
551.235	5696.12
551.599	5666.07
551.962	5693.86
552.326	5762.11
552.689	5696.35
553.053	5709
553.417	5709.91
553.78	5799.62
554.143	5765.5
554.507	5800.98
554.87	5765.72
555.234	5851.37
555.597	5797.14
555.96	5815.67
556.323	5882.11
556.686	5866.06
557.05	5890.01
557.413	5881.2
557.776	5937.47
558.139	6010.92
558.502	5994.19
558.865	6019.5
559.228	6018.6
559.59	6053.4
559.953	6034.64
560.316	6109.22
560.679	6081.2
561.041	6131.14
561.404	6110.8
561.767	6163.23
562.129	6197.8
562.492	6210.68
562.854	6244.81
563.217	6251.59
563.579	6241.87
563.941	6294.3
564.304	6279.61
564.666	6274.86
565.028	6304.24
565.39	6373.17
565.753	6370.91
566.115	6386.5
566.477	6430.57
566.839	6394.63
567.201	6423.33
567.563	6497
567.925	6534.74
568.287	6537.46
568.648	6525.25
569.01	6581.75
569.372	6627.4
569.734	6665.36
570.095	6692.93
570.457	6677.34
570.819	6744.91
571.18	6769.09
571.542	6803.89
571.903	6835.75
572.265	6829.65
572.626	6857.67
572.987	6890.67
573.349	6930.44
573.71	7010.21
574.071	7053.83
574.432	7056.99
574.794	7134.05
575.155	7178.79
575.516	7156.42
575.877	7299.24
576.238	7337.89
576.599	7408.39
576.96	7428.96
577.32	7426.25
577.681	7590.76
578.042	7691.55
578.403	7781.72
578.763	7854.71
579.124	7869.4
579.485	7971.32
579.845	8122.72
580.206	8155.27
580.566	8287.24
580.927	8382.83
581.287	8528.59
581.648	8609.72
582.008	8708.92
582.368	8865.3
582.728	9031.63
583.089	9117.73
583.449	9268.91
583.809	9441.79
584.169	9592.97
584.529	9731.95
584.889	9979.85
585.249	10169.45
585.609	10121.54
585.969	10514.98
586.329	10664.35
586.688	10945.7
587.048	11104.57
587.408	11231.57
587.768	11361.96
588.127	11684.89
588.487	11879.91
588.846	12222.73
589.206	12361.71
589.565	12597.86
589.925	12851.41
590.284	13171.63
590.643	13388.35
591.003	13700.66
591.362	13928.22
591.721	14154.88
592.08	14450.47
592.44	14720.29
592.799	14987.4
593.158	15259.49
593.517	15476.66
593.876	15849.98
594.235	16041.61
594.593	16401.15
594.952	16679.56
595.311	16959.55
595.67	17260.56
596.029	17603.15
596.387	17971.28
596.746	18216.24
597.104	18392.96
597.463	18733.29
597.822	19135.77
598.18	19258.7
598.538	19551.58
598.897	19891.45
599.255	20049.64
599.613	20676.07
599.972	20742.96
600.33	21095.72
600.688	21228.82
601.046	21622.03
601.404	21942.25
601.762	22100.89
602.12	22467.43
602.478	22629.24
602.836	22971.37
603.194	23141.09
603.552	23424.69
603.91	23656.1
604.268	24050.22
604.625	24158.23
604.983	24426.7
605.341	24615.4
605.698	24972.68
606.056	25260.58
606.413	25459.44
606.771	25770.62
607.128	25932.88
607.485	26104.62
607.843	26361.79
608.2	26653.54
608.557	26937.6
608.914	27145.05
609.272	27351.6
609.629	27557.02
609.986	27966.95
610.343	28032.71
610.7	28429.99
611.057	28465.92
611.414	28540.27
611.771	28780.71
612.127	29190.87
612.484	29276.52
612.841	29569.39
613.198	29662.27
613.554	29781.36
613.911	29966.67
614.267	30156.72
614.624	30318.52
614.98	30444.17
615.337	30812.07
615.693	30818.17
616.05	30981.11
616.406	31279.18
616.762	31310.82
617.118	31476.46
617.475	31520.75
617.831	31750.35
618.187	31871.25
618.543	32044.13
618.899	32323.22
619.255	32404.57
619.611	32529.77
619.967	32751.23
620.323	32867.38
620.678	32830.78
621.034	32927.95
621.39	33072.58
621.746	33135.4
622.101	33596.4
622.457	33450.19
622.812	33577.65
623.168	33646.57
623.523	33742.62
623.879	33987.35
624.234	33724.99
624.589	34065.54
624.945	34314.13
625.3	34273.68
625.655	34321.58
626.01	34432.77
626.365	34475.03
626.72	34463.95
627.075	34509.83
627.43	34659.65
627.785	34550.5
628.14	34719.99
628.495	34887.67
628.85	34795.92
629.205	34802.25
629.559	35029.14
629.914	34999.76
630.269	35006.31
630.623	35041.11
630.978	34917.5
631.332	35082.92
631.687	35386.87
632.041	35137.38
632.396	35246.3
632.75	35290.37
633.104	35229.81
633.459	35124.27
633.813	35263.03
634.167	35282.46
634.521	35256.47
634.875	35419.41
635.229	35325.85
635.583	35199.75
635.937	35332.86
636.291	35277.49
636.645	35204.5
636.999	35332.86
637.352	35388.9
637.706	35356.81
638.06	35358.84
638.413	35320.88
638.767	35311.16
639.121	35384.61
639.474	35322.46
639.828	35190.71
640.181	35218.73
640.534	35386.41
640.888	35228.68
641.241	35121.79
641.594	35202.46
641.947	35375.12
642.301	35239.07
642.654	35208.11
643.007	35317.94
643.36	35264.84
643.713	35159.53
644.066	35406.07
644.419	35166.31
644.771	35009.7
645.124	34646.09
645.477	34587.11
645.83	34385.76
646.182	34239.33
646.535	34113
646.888	34368.81
647.24	34124.07
647.593	34348.7
647.945	34332.2
648.298	34116.84
648.65	34058.77
649.002	33988.03
649.355	34255.82
649.707	34122.04
650.059	34237.07
650.411	34609.49
650.763	34778.07
651.115	34926.54
651.467	34932.64
651.819	34822.14
652.171	34889.48
652.523	34828.69
652.875	34838.63
653.227	34686.77
653.578	35011.28
653.93	34943.71
654.282	34758.86
654.633	34686.77
654.985	34836.6
655.337	34774.45
655.688	34683.38
656.039	34865.07
656.391	34596.38
656.742	34614.01
657.094	34682.25
657.445	34736.71
657.796	34664.4
658.147	34647.45
658.498	34651.52
658.849	34710.73
659.2	34644.06
659.551	34441.35
659.902	34569.49
660.253	34581.69
660.604	34578.75
660.955	34472.54
661.306	34613.33
661.656	34566.1
662.007	34595.93
662.358	34579.88
662.708	34444.29
663.059	34359.1
663.409	34315.26
663.76	34636.38
664.11	34408.59
664.461	34564.74
664.811	34614.91
665.161	34545.76
665.511	34417.4
665.862	34542.82
666.212	34601.8
666.562	34751.85
666.912	34510.05
667.262	34421.69
667.612	34554.8
667.962	34520.67
668.312	34418.98
668.662	34642.48
669.011	34502.6
669.361	34606.55
669.711	34452.88
670.06	34348.02
670.41	34488.81
670.76	34456.04
671.109	34446.33
671.459	34433.9
671.808	34278.65
672.157	34531.07
672.507	34208.14
672.856	34228.48
673.205	34327.23
673.554	34264.18
673.904	34244.52
674.253	34415.37
674.602	34162.04
674.951	33813.57
675.3	33830.97
675.649	34223.05
675.998	34225.09
676.346	34066.9
676.695	34400.45
677.044	33961.14
677.393	34143.96
677.741	34197.52
678.09	33993
678.438	33971.54
678.787	34125.43
679.135	34039.1
679.484	33721.37
679.832	33955.04
680.181	33717.76
680.529	33963.85
680.877	33745.55
681.225	33698.55
681.573	34011.08
681.922	33797.53
682.27	33607.25
682.618	33687.93
682.966	33477.54
683.314	33557.99
683.661	33617.42
684.009	33387.6
684.357	33204.32
684.705	33328.84
685.053	33347.15
685.4	33289.07
685.748	33079.13
686.095	33082.75
686.443	33069.19
686.79	32809.08
687.138	33115.29
687.485	33129.52
687.832	32918
688.18	32896.08
688.527	32722.53
688.874	32694.51
689.221	32598.24
689.568	32538.35
689.915	32444.34
690.262	32561.4
690.609	32476.43
690.956	32288.42
691.303	32353.95
691.65	32124.35
691.997	32022.89
692.344	31904.02
692.69	31988.54
693.037	31948.76
693.383	31697.47
693.73	31797.13
694.077	31550.58
694.423	31624.71
694.769	31463.58
695.116	31370.25
695.462	31413.41
695.808	31280.08
696.155	31258.61
696.501	31129.8
696.847	31096.58
697.193	30808.91
697.539	31033.53
697.885	30775.46
698.231	30686.65
698.577	30747.67
698.923	30619.76
699.269	30533.43
699.614	30388.13
699.96	30291.41
700.306	30271.07
700.651	30137.96
700.997	30164.18
701.342	30110.17
701.688	29937.74
702.033	29881.25
702.379	29894.81
702.724	29850.06
703.069	29775.71
703.415	29573.46
703.76	29569.39
704.105	29549.28
704.45	29483.97
704.795	29320.36
705.14	29304.54
705.485	29188.16
705.83	29130.76
706.175	29270.87
706.52	29189.06
706.865	28923.53
707.209	28915.62
707.554	28881.73
707.899	28961.72
708.243	28798.56
708.588	28678.79
708.932	28651.9
709.277	28547.05
709.621	28528.97
709.966	28438.35
710.31	28485.58
710.654	28178.02
710.998	28267.28
711.342	28163.33
711.687	28163.33
712.031	28022.31
712.375	27896.22
712.719	28054.18
713.063	27921.3
713.407	28035.2
713.75	27797.46
714.094	27744.81
714.438	27707.97
714.782	27682.44
715.125	27613.74
715.469	27610.35
715.812	27419.39
716.156	27266.18
716.499	27333.29
716.843	27427.3
717.186	27220.75
717.53	27369
717.873	27330.35
718.216	27230.7
718.559	27100.08
718.902	26938.95
719.246	27062.57
719.589	26903.25
719.932	26877.03
720.275	26809.46
720.617	26707.77
720.96	26875.45
721.303	26789.8
721.646	26772.4
721.989	26589.13
722.331	26691.05
722.674	26491.05
723.016	26547.55
723.359	26409.7
723.701	26449.93
724.044	26306.2
724.386	26164.06
724.729	26349.82
725.071	26208.12
725.413	26178.07
725.755	26199.99
726.097	26038.19
726.439	25986.66
726.782	25996.15
727.124	25985.08
727.465	25910.28
727.807	25794.12
728.149	25810.17
728.491	25822.37
728.833	25834.57
729.175	25699.21
729.516	25643.39
729.858	25629.83
730.199	25688.14
730.541	25592.55
730.882	25683.17
731.224	25615.15
731.565	25498.09
731.906	25484.75
732.248	25484.75
732.589	25332.67
732.93	25299.67
733.271	25307.58
733.612	25310.52
733.953	25239.34
734.294	25239.11
734.635	25082.5
734.976	25164.54
735.317	25066.46
735.658	25028.04
735.999	24968.16
736.339	24958.67
736.68	25055.39
737.021	24891.55
737.361	24806.58
737.702	24946.46
738.042	24838.44
738.383	24794.38
738.723	24834.38
739.063	24706.69
739.404	24796.64
739.744	24651.33
740.084	24520.03
740.424	24567.72
740.764	24551.67
741.104	24480.71
741.444	24511.22
741.784	24423.99
742.124	24394.16
742.464	24443.43
742.804	24319.36
743.143	24261.28
743.483	24407.72
743.823	24200.72
744.162	24245.01
744.502	24237.33
744.841	23978.8
745.181	24206.82
745.52	24132.92
745.86	24046.83
746.199	23996.66
746.538	23963.44
746.877	23907.62
747.216	23985.81
747.556	23978.58
747.895	23784.91
748.234	23695.42
748.573	23762.54
748.911	23715.53
749.25	23689.09
749.589	23566.61
749.928	23593.5
750.267	23643.9
750.605	23555.99
750.944	23412.72
751.283	23405.71
751.621	23418.14
751.96	23348.99
752.298	23265.38
752.636	23293.17
752.975	23180.41
753.313	23116.45
753.651	23199.84
753.989	23036.23
754.327	23122.56
754.666	22934.99
755.004	23109.22
755.342	22911.71
755.679	22890.47
756.017	22774.99
756.355	22834.43
756.693	22667.43
757.031	22697.93
757.368	22663.81
757.706	22550.82
758.044	22528.9
758.381	22460.43
758.719	22491.61
759.056	22368.23
759.394	22281.45
759.731	22185.86
760.068	22182.24
760.405	22114.22
