Data from hue_280_FLMS001491_00058.txt Node
Date: Tue Feb 07 15:55:28 GMT 2017
User: dcchb
Spectrometer: FLMS00149
Trigger mode: 0
Integration Time (sec): 2.000000E-2
Scans to average: 10
Electric dark correction enabled: true
Nonlinearity correction enabled: false
Boxcar width: 0
XAxis mode: Wavelengths
Number of Pixels in Spectrum: 2048
>>>>>Begin Spectral Data<<<<<
341.393	-5.1
341.776	-5.1
342.16	-5.1
342.543	-43.29
342.927	-79.9
343.31	-77.64
343.693	-71.99
344.077	-63.63
344.46	-56.85
344.843	-49.84
345.226	-33.57
345.61	-33.57
345.993	-33.12
346.376	-6
346.759	20.66
347.142	6.2
347.525	56.82
347.908	70.83
348.291	82.13
348.674	79.19
349.057	110.38
349.44	128.23
349.823	120.1
350.206	168.46
350.588	191.28
350.971	201.45
351.354	227.44
351.737	218.4
352.119	244.39
352.502	241.9
352.884	272.18
353.267	268.57
353.65	289.13
354.032	282.35
354.414	311.96
354.797	285.74
355.179	318.73
355.562	317.83
355.944	300.66
356.326	318.73
356.709	330.03
357.091	323.03
357.473	346.08
357.855	311.05
358.238	342.91
358.62	338.85
359.002	338.85
359.384	347.21
359.766	332.97
360.148	340.43
360.53	321.9
360.912	317.83
361.294	319.19
361.676	309.47
362.057	319.86
362.439	331.16
362.821	320.09
363.203	313.54
363.584	311.73
363.966	323.71
364.348	317.38
364.729	330.03
365.111	318.28
365.493	328.9
365.874	307.66
366.256	318.73
366.637	304.72
367.019	312.41
367.4	332.52
367.781	316.25
368.163	324.16
368.544	279.19
368.925	313.31
369.306	299.98
369.688	297.04
370.069	291.39
370.45	285.52
370.831	308.11
371.212	301.79
371.593	330.94
371.974	314.21
372.355	304.27
372.736	295.46
373.117	314.89
373.498	309.24
373.879	302.24
374.26	316.7
374.641	316.47
375.021	307.21
375.402	325.29
375.783	313.54
376.163	328.9
376.544	296.59
376.925	316.93
377.305	300.88
377.686	329.81
378.066	337.94
378.447	319.86
378.827	333.2
379.208	314.44
379.588	339.98
379.968	338.85
380.349	325.74
380.729	325.74
381.109	344.27
381.489	334.78
381.87	334.55
382.25	348.56
382.63	336.36
383.01	339.98
383.39	348.11
383.77	347.66
384.15	326.64
384.53	335.46
384.91	358.73
385.29	334.33
385.67	339.07
386.049	372.29
386.429	343.82
386.809	356.7
387.189	390.37
387.568	341.78
387.948	354.67
388.328	366.42
388.707	368
389.087	380.88
389.466	376.59
389.846	374.78
390.225	384.5
390.605	363.71
390.984	368.22
391.363	374.33
391.743	375.23
392.122	405.06
392.501	367.32
392.881	390.15
393.26	380.88
393.639	377.04
394.018	388.34
394.397	367.09
394.776	386.08
395.155	400.99
395.534	388.34
395.913	397.6
396.292	388.11
396.671	423.14
397.05	415.46
397.429	410.03
397.808	412.07
398.186	393.76
398.565	408.22
398.944	414.78
399.323	416.59
399.701	406.19
400.08	429.69
400.458	430.14
400.837	410.71
401.215	438.51
401.594	438.28
401.972	422.46
402.351	438.51
402.729	423.36
403.107	436.25
403.486	440.77
403.864	452.52
404.242	450.48
404.62	471.72
404.999	464.27
405.377	469.92
405.755	455.45
406.133	487.54
406.511	473.31
406.889	478.73
407.267	482.35
407.645	479.41
408.023	506.98
408.401	499.52
408.779	484.15
409.156	529.8
409.534	524.6
409.912	500.42
410.29	531.16
410.667	532.06
411.045	516.24
411.422	538.16
411.8	568.67
412.178	559.41
412.555	582
412.933	570.71
413.31	572.74
413.687	589.46
414.065	602.12
414.442	606.41
414.819	613.19
415.197	629.91
415.574	633.08
415.951	643.47
416.328	661.55
416.705	650.93
417.082	656.58
417.46	652.96
417.837	678.27
418.214	691.15
418.591	693.41
418.967	701.78
419.344	675.34
419.721	710.36
420.098	690.7
420.475	715.79
420.852	733.19
421.228	731.15
421.605	739.29
421.982	759.17
422.358	742.45
422.735	776.35
423.111	768.21
423.488	793.07
423.864	820.87
424.241	818.61
424.617	833.07
424.994	819.74
425.37	853.86
425.746	847.53
426.123	859.96
426.499	851.83
426.875	872.17
427.251	907.19
427.627	926.18
428.003	914.2
428.379	940.41
428.756	933.63
429.132	948.55
429.507	962.11
429.883	957.81
430.259	1006.85
430.635	991.71
431.011	1009.34
431.387	1005.27
431.763	1049.56
432.138	1045.72
432.514	1046.63
432.89	1075.55
433.265	1101.31
433.641	1116.91
434.016	1127.3
434.392	1126.4
434.767	1135.66
435.143	1159.16
435.518	1188.54
435.894	1183.12
436.269	1205.94
436.644	1225.6
437.02	1224.7
437.395	1252.5
437.77	1257.01
438.145	1274.42
438.52	1286.39
438.895	1283.91
439.271	1307.64
439.646	1320.97
440.021	1340.18
440.395	1333.62
440.77	1377.46
441.145	1353.06
441.52	1420.17
441.895	1395.09
442.27	1419.95
442.645	1431.7
443.019	1438.03
443.394	1394.64
443.769	1454.3
444.143	1454.98
444.518	1477.35
444.892	1460.85
445.267	1470.34
445.641	1492.94
446.016	1486.84
446.39	1480.74
446.764	1534.07
447.139	1519.38
447.513	1533.84
447.887	1530.68
448.262	1533.84
448.636	1525.26
449.01	1583.33
449.384	1582.2
449.758	1595.76
450.132	1605.93
450.506	1593.73
450.88	1580.85
451.254	1624.01
451.628	1636.21
452.002	1636.67
452.376	1693.84
452.75	1671.92
453.123	1698.81
453.497	1702.2
453.871	1719.15
454.244	1750.34
454.618	1713.95
454.992	1762.31
455.365	1775.87
455.739	1817.68
456.112	1806.38
456.486	1842.31
456.859	1829.2
457.232	1891.35
457.606	1885.7
457.979	1897
458.352	1897.45
458.725	1935.19
459.099	1939.48
459.472	1979.26
459.845	1977
460.218	2009.76
460.591	1999.82
460.964	1990.56
461.337	2054.51
461.71	2077.11
462.083	2157.1
462.456	2123.88
462.829	2113.04
463.201	2146.71
463.574	2173.83
463.947	2203.66
464.32	2232.13
464.692	2221.51
465.065	2262.41
465.438	2282.52
465.81	2294.73
466.183	2279.81
466.555	2377.66
466.928	2337.89
467.3	2339.47
467.672	2393.71
468.045	2449.53
468.417	2440.49
468.789	2437.32
469.161	2502.18
469.534	2514.38
469.906	2569.07
470.278	2571.56
470.65	2581.95
471.022	2622.63
471.394	2718.67
471.766	2666.92
472.138	2700.37
472.51	2750.76
472.882	2813.36
473.253	2830.31
473.625	2837.76
473.997	2903.53
474.369	2897.88
474.74	2932.23
475.112	2978.33
475.484	3024.65
475.855	3014.93
476.227	3077.53
476.598	3138.77
476.97	3178.09
477.341	3247.7
477.713	3265.78
478.084	3236.4
478.455	3312.33
478.827	3334.93
479.198	3426.22
479.569	3438.88
479.94	3498.76
480.311	3548.93
480.682	3581.02
481.053	3659.66
481.424	3679.32
481.795	3733.11
482.166	3770.17
482.537	3811.3
482.908	3851.3
483.279	3908.92
483.65	3955.02
484.021	4026.21
484.391	4051.74
484.762	4072.99
485.133	4127
485.503	4142.14
485.874	4192.98
486.244	4230.95
486.615	4305.97
486.985	4338.52
487.356	4394.11
487.726	4397.27
488.097	4499.19
488.467	4524.5
488.837	4559.3
489.207	4686.08
489.578	4673.65
489.948	4716.59
490.318	4746.87
490.688	4758.84
491.058	4871.61
491.428	4869.12
491.798	4941.44
492.168	4996.13
492.538	5046.75
492.908	5015.11
493.278	5100.08
493.648	5169.23
494.017	5140.08
494.387	5214.43
494.757	5271.15
495.126	5297.59
495.496	5282.22
495.866	5359.96
496.235	5398.15
496.605	5379.17
496.974	5392.27
497.344	5521.08
497.713	5474.76
498.082	5586.84
498.452	5570.8
498.821	5564.02
499.19	5603.12
499.559	5643.57
499.928	5636.11
500.298	5728.08
500.667	5744.13
501.036	5745.48
501.405	5841.75
501.774	5740.96
502.143	5863.67
502.512	5826.84
502.88	5870
503.249	5901.64
503.618	5925.37
503.987	5968.98
504.356	5954.97
504.724	6010.11
505.093	6023.22
505.462	6039.26
505.83	6093.27
506.199	6039.94
506.567	6145.47
506.936	6145.25
507.304	6224.12
507.672	6206.49
508.041	6223.44
508.409	6245.13
508.777	6293.49
509.145	6309.09
509.514	6324.68
509.882	6352.47
510.25	6373.94
510.618	6405.81
510.986	6445.81
511.354	6465.01
511.722	6468.63
512.09	6521.96
512.458	6582.07
512.826	6548.4
513.193	6573.94
513.561	6529.87
513.929	6609.19
514.297	6654.39
514.664	6713.14
515.032	6701.39
515.4	6630.21
515.767	6737.1
516.135	6803.08
516.502	6700.71
516.869	6816.87
517.237	6816.87
517.604	6849.18
517.972	6842.18
518.339	6914.04
518.706	6891.44
519.073	6912.23
519.44	6948.39
519.808	6947.26
520.175	6937.54
520.542	7063.42
520.909	7071.33
521.276	7108.16
521.643	7087.14
522.009	7118.33
522.376	7222.06
522.743	7237.65
523.11	7241.94
523.477	7344.76
523.843	7276.74
524.21	7385.22
524.577	7399.23
524.943	7400.81
525.31	7445.1
525.676	7455.95
526.043	7514.03
526.409	7556.06
526.776	7618.2
527.142	7657.75
527.508	7669.5
527.874	7733
528.241	7726.45
528.607	7743.85
528.973	7745.21
529.339	7784.98
529.705	7929.61
530.071	7842.15
530.437	7919.89
530.803	7969.15
531.169	8010.51
531.535	7976.61
531.901	7985.65
532.267	7992.66
532.632	8116.27
532.998	8089.15
533.364	8147.91
533.73	8160.56
534.095	8165.08
534.461	8192.65
534.826	8320.78
535.192	8296.38
535.557	8285.53
535.923	8287.79
536.288	8340.67
536.653	8348.58
537.019	8307.68
537.384	8374.79
537.749	8415.24
538.114	8443.94
538.479	8466.54
538.845	8453.44
539.21	8463.38
539.575	8452.53
539.94	8541.12
540.305	8559.2
540.67	8495.69
541.034	8583.38
541.399	8545.64
541.764	8596.48
542.129	8643.94
542.494	8637.61
542.858	8670.38
543.223	8687.55
543.587	8749.47
543.952	8719.42
544.316	8793.09
544.681	8726.42
545.045	8818.4
545.41	8888.23
545.774	8870.6
546.138	8826.31
546.503	8880.32
546.867	8817.27
547.231	8988.34
547.595	8935.01
547.959	8946.3
548.324	8943.59
548.688	9006.64
549.052	8949.24
549.416	9035.79
549.779	9017.71
550.143	9030.37
550.507	9088
550.871	9076.24
551.235	9095.23
551.599	9186.52
551.962	9161.21
552.326	9213.64
552.689	9218.84
553.053	9198.5
553.417	9172.06
553.78	9316.46
554.143	9322.57
554.507	9351.49
554.87	9330.93
555.234	9441.43
555.597	9369.8
555.96	9401.21
556.323	9439.4
556.686	9419.74
557.05	9516.91
557.413	9532.5
557.776	9476.23
558.139	9561.66
558.502	9563.46
558.865	9580.19
559.228	9602.33
559.59	9645.04
559.953	9666.74
560.316	9690.24
560.679	9744.25
561.041	9811.14
561.404	9809.56
561.767	9829.9
562.129	9811.14
562.492	10003
562.854	9957.8
563.217	9972.72
563.579	10014.52
563.941	10015.43
564.304	10059.27
564.666	10119.83
565.028	10069.89
565.39	10170.23
565.753	10200.96
566.115	10268.76
566.477	10259.49
566.839	10238.47
567.201	10313.05
567.563	10349.88
567.925	10357.57
568.287	10437.11
568.648	10448.41
569.01	10506.26
569.372	10577.9
569.734	10564.57
570.095	10581.52
570.457	10682.3
570.819	10628.07
571.18	10659.48
571.542	10720.04
571.903	10846.14
572.265	10868.29
572.626	10925.46
572.987	10886.37
573.349	10926.14
573.71	10936.08
574.071	10976.53
574.432	11016.98
574.794	11154.61
575.155	11100.82
575.516	11123.87
575.877	11220.37
576.238	11296.75
576.599	11274.38
576.96	11295.17
577.32	11356.41
577.681	11400.48
578.042	11421.95
578.403	11463.3
578.763	11502.85
579.124	11613.58
579.485	11623.97
579.845	11668.72
580.206	11705.1
580.566	11739.23
580.927	11768.83
581.287	11866.45
581.648	11922.27
582.008	11965.21
582.368	11967.69
582.728	12045.21
583.089	12093.34
583.449	12010.86
583.809	12132.44
584.169	12239.55
584.529	12282.26
584.889	12343.5
585.249	12386.67
585.609	12415.14
585.969	12488.58
586.329	12554.57
586.688	12601.12
587.048	12656.94
587.408	12748.46
587.768	12825.52
588.127	12832.98
588.487	12930.83
588.846	13029.13
589.206	12994.56
589.565	13058.74
589.925	13132.63
590.284	13161.33
590.643	13276.13
591.003	13362.69
591.362	13407.88
591.721	13507.54
592.08	13556.58
592.44	13640.19
592.799	13636.8
593.158	13703.92
593.517	13826.18
593.876	13819.85
594.235	13837.7
594.593	13962.44
594.952	14023.01
595.311	14012.84
595.67	14161.76
596.029	14251.25
596.387	14295.54
596.746	14367.4
597.104	14388.65
597.463	14320.63
597.822	14457.57
598.18	14490.11
598.538	14482.43
598.897	14654.63
599.255	14665.25
599.613	14853.04
599.972	14879.26
600.33	14899.59
600.688	14846.26
601.046	14969.2
601.404	15072.47
601.762	14953.38
602.12	15099.81
602.478	15225.24
602.836	15194.95
603.194	15269.53
603.552	15280.6
603.91	15196.99
604.268	15326.48
604.625	15286.48
604.983	15454.61
605.341	15358.11
605.698	15468.84
606.056	15574.6
606.413	15593.36
606.771	15667.48
607.128	15677.2
607.485	15634.94
607.843	15612.34
608.2	15834.03
608.557	15889.85
608.914	15767.37
609.272	15904.54
609.629	15922.84
609.986	16015.5
610.343	15912.45
610.7	15958.78
611.057	16113.35
611.414	16100.69
611.771	16145.44
612.127	16158.77
612.484	16215.72
612.841	16274.02
613.198	16302.04
613.554	16253
613.911	16415.71
614.267	16341.14
614.624	16297.75
614.98	16392.44
615.337	16520.79
615.693	16393.79
616.05	16504.07
616.406	16479.67
616.762	16497.74
617.118	16501.81
617.475	16567.35
617.831	16534.35
618.187	16589.27
618.543	16563.96
618.899	16705.42
619.255	16714.91
619.611	16716.95
619.967	16751.52
620.323	16856.83
620.678	16691.41
621.034	16771.18
621.39	16709.49
621.746	16765.99
622.101	16883.04
622.457	16822.26
622.812	16886.66
623.168	16939.99
623.523	16799.43
623.879	16964.62
624.234	16851.63
624.589	16877.4
624.945	16932.99
625.3	16970.5
625.655	16885.08
626.01	16860.45
626.365	17027.67
626.72	16879.43
627.075	16935.7
627.43	16954.91
627.785	16949.71
628.14	16938.86
628.495	16954
628.85	16901.58
629.205	16889.6
629.559	16972.76
629.914	16871.75
630.269	16956.26
630.623	16896.38
630.978	16889.15
631.332	16905.64
631.687	16932.76
632.041	16817.96
632.396	16856.38
632.75	16852.99
633.104	16918.98
633.459	16737.29
633.813	16756.04
634.167	16791.3
634.521	16785.42
634.875	16749.26
635.229	16716.5
635.583	16685.99
635.937	16749.04
636.291	16758.98
636.645	16629.94
636.999	16692.54
637.352	16657.06
637.706	16580.45
638.06	16715.82
638.413	16656.84
638.767	16572.09
639.121	16730.05
639.474	16508.82
639.828	16496.16
640.181	16570.96
640.534	16420.23
640.888	16475.82
641.241	16387.69
641.594	16431.53
641.947	16489.38
642.301	16444.19
642.654	16411.87
643.007	16502.94
643.36	16382.49
643.713	16351.08
644.066	16506.78
644.419	16366.22
644.771	16297.07
645.124	16086.23
645.477	16161.26
645.83	16034.71
646.182	15986.8
646.535	15872
646.888	15900.92
647.24	15776.63
647.593	15960.36
647.945	15828.38
648.298	15802.62
648.65	15743.87
649.002	15816.41
649.355	15907.03
649.707	15912.45
650.059	15926.91
650.411	16187.02
650.763	16195.83
651.115	16338.88
651.467	16267.47
651.819	16147.7
652.171	16234.25
652.523	16241.71
652.875	16257.07
653.227	16205.55
653.578	16292.78
653.93	16236.51
654.282	16164.19
654.633	16068.83
654.985	16175.04
655.337	16273.34
655.688	16243.06
656.039	16224.53
656.391	16148.37
656.742	16154.48
657.094	16270.41
657.445	16170.07
657.796	16251.2
658.147	16240.8
658.498	16210.75
658.849	16253
659.2	16270.41
659.551	16194.7
659.902	16244.87
660.253	16266.79
660.604	16343.17
660.955	16079.9
661.306	16349.5
661.656	16206
662.007	16241.71
662.358	16270.18
662.708	16283.96
663.059	16309.95
663.409	16220.46
663.76	16209.62
664.11	16227.24
664.461	16210.29
664.811	16303.62
665.161	16287.13
665.511	16311.08
665.862	16301.82
666.212	16377.52
666.562	16307.47
666.912	16213.23
667.262	16271.99
667.612	16297.98
667.962	16383.85
668.312	16273.8
668.662	16392.89
669.011	16216.17
669.361	16303.62
669.711	16249.62
670.06	16260.69
670.41	16221.37
670.76	16291.65
671.109	16225.21
671.459	16279.67
671.808	16171.43
672.157	16202.84
672.507	16081.48
672.856	16173.46
673.205	16230.63
673.554	16214.36
673.904	16133.91
674.253	16365.32
674.602	16169.62
674.951	15953.35
675.3	15768.72
675.649	16096.62
675.998	16110.41
676.346	16068.83
676.695	16116.29
677.044	15979.34
677.393	16023.63
677.741	16034.25
678.09	15970.75
678.438	15959
678.787	16016.63
679.135	15993.35
679.484	15822.96
679.832	15914.03
680.181	15865.22
680.529	15853.47
680.877	15828.61
681.225	15748.84
681.573	15852.56
681.922	15713.58
682.27	15743.87
682.618	15754.49
682.966	15615.51
683.314	15682.62
683.661	15606.24
684.009	15492.57
684.357	15543.42
684.705	15484.89
685.053	15493.93
685.4	15417.77
685.748	15385.91
686.095	15396.76
686.443	15345.68
686.79	15331.67
687.138	15332.58
687.485	15309.07
687.832	15179.13
688.18	15238.79
688.527	15128.74
688.874	15094.62
689.221	15045.58
689.568	14978.01
689.915	14887.39
690.262	14956.99
690.609	14913.15
690.956	14826.6
691.303	14881.06
691.65	14780.73
691.997	14801.52
692.344	14703.67
692.69	14662.31
693.037	14681.75
693.383	14593.61
693.73	14585.48
694.077	14513.84
694.423	14461.19
694.769	14423.67
695.116	14435.43
695.462	14366.5
695.808	14320.85
696.155	14293.96
696.501	14164.7
696.847	14230.01
697.193	14026.17
697.539	14118.37
697.885	13978.49
698.231	13943.91
698.577	13868.43
698.923	13828.44
699.269	13793.63
699.614	13679.97
699.96	13684.03
700.306	13630.47
700.651	13587.09
700.997	13490.14
701.342	13500.76
701.688	13487.43
702.033	13384.15
702.379	13382.35
702.724	13279.07
703.069	13299.86
703.415	13166.08
703.76	13183.48
704.105	13116.82
704.45	13074.11
704.795	12996.59
705.14	13087.89
705.485	12992.07
705.83	12854.45
706.175	12910.95
706.52	12907.33
706.865	12840.21
707.209	12825.07
707.554	12694.23
707.899	12719.31
708.243	12655.81
708.588	12651.97
708.932	12624.85
709.277	12551.86
709.621	12569.94
709.966	12531.29
710.31	12463.95
710.654	12448.81
710.998	12454.69
711.342	12412.65
711.687	12378.08
712.031	12378.3
712.375	12197.52
712.719	12234.35
713.063	12170.4
713.407	12286.1
713.75	12237.74
714.094	12184.41
714.438	12115.71
714.782	12182.83
715.125	12034.81
715.469	12170.85
715.812	11993.68
716.156	11915.49
716.499	12046.79
716.843	12001.59
717.186	11913.23
717.53	12005.21
717.873	11924.53
718.216	12019.22
718.559	11841.82
718.902	11827.36
719.246	11843.63
719.589	11895.38
719.932	11741.71
720.275	11733.12
720.617	11743.07
720.96	11701.49
721.303	11738.77
721.646	11724.99
721.989	11676.63
722.331	11704.42
722.674	11647.25
723.016	11642.28
723.359	11661.49
723.701	11629.17
724.044	11581.04
724.386	11552.11
724.729	11628.72
725.071	11527.03
725.413	11497.88
725.755	11456.29
726.097	11463.07
726.439	11507.14
726.782	11457.2
727.124	11560.7
727.465	11435.5
727.807	11483.86
728.149	11413.13
728.491	11410.42
728.833	11463.98
729.175	11411.32
729.516	11360.25
729.858	11320.93
730.199	11471.89
730.541	11407.26
730.882	11434.83
731.224	11518.89
731.565	11382.17
731.906	11425.79
732.248	11381.49
732.589	11399.35
732.93	11418.56
733.271	11352.79
733.612	11341.5
733.953	11356.41
734.294	11295.17
734.635	11302.4
734.976	11382.17
735.317	11397.31
735.658	11350.53
735.999	11411.55
736.339	11379.23
736.68	11399.12
737.021	11336.75
737.361	11268.28
737.702	11421.27
738.042	11377.43
738.383	11436.63
738.723	11443.87
739.063	11460.36
739.404	11398.22
739.744	11426.69
740.084	11356.18
740.424	11372.46
740.764	11407.93
741.104	11423.08
741.444	11399.8
741.784	11404.32
742.124	11484.77
742.464	11464.2
742.804	11454.71
743.143	11415.17
743.483	11475.5
743.823	11468.72
744.162	11444.09
744.502	11545.78
744.841	11523.64
745.181	11689.28
745.52	11654.93
745.86	11661.94
746.199	11701.94
746.538	11819.22
746.877	11907.13
747.216	11969.5
747.556	11911.88
747.895	11931.08
748.234	11931.76
748.573	12026.45
748.911	12023.96
749.25	12203.62
749.589	12240.45
749.928	12275.71
750.267	12367.91
750.605	12456.72
750.944	12446.33
751.283	12581.91
751.621	12656.04
751.96	12687.45
752.298	12775.58
752.636	12831.63
752.975	12908.46
753.313	13026.65
753.651	13245.85
753.989	13247.43
754.327	13313.42
754.666	13437.94
755.004	13538.27
755.342	13629.12
755.679	13809.68
756.017	13905.5
756.355	14129.67
756.693	14235.43
757.031	14378.25
757.368	14425.93
757.706	14587.51
758.044	14732.14
758.381	14824.79
758.719	14927.84
