Data from hue_20_FLMS001491_40.txt Node
Date: Mon Feb 06 15:34:00 GMT 2017
User: dcchb
Spectrometer: FLMS00149
Trigger mode: 0
Integration Time (sec): 2.000000E-2
Scans to average: 10
Electric dark correction enabled: true
Nonlinearity correction enabled: false
Boxcar width: 0
XAxis mode: Wavelengths
Number of Pixels in Spectrum: 2048
>>>>>Begin Spectral Data<<<<<
341.393	-8.71
341.776	-8.71
342.16	-8.71
342.543	-56.85
342.927	-64.76
343.31	-69.5
343.693	-58.2
344.077	-68.83
344.46	-63.18
344.843	-48.71
345.226	-62.5
345.61	-53.91
345.993	-13.69
346.376	0.1
346.759	14.56
347.142	19.53
347.525	61.34
347.908	76.93
348.291	71.06
348.674	83.03
349.057	111.96
349.44	135.69
349.823	130.49
350.206	160.09
350.588	185.4
350.971	219.3
351.354	204.16
351.737	221.79
352.119	250.71
352.502	260.21
352.884	271.5
353.267	267.89
353.65	284.61
354.032	278.51
354.414	325.51
354.797	308.79
355.179	318.73
355.562	309.7
355.944	313.31
356.326	328
356.709	337.94
357.091	342.46
357.473	333.2
357.855	343.37
358.238	336.14
358.62	331.84
359.002	352.86
359.384	336.81
359.766	335.91
360.148	349.92
360.53	345.85
360.912	324.38
361.294	340.2
361.676	322.12
362.057	333.42
362.439	337.27
362.821	344.04
363.203	341.33
363.584	320.77
363.966	318.51
364.348	320.77
364.729	328.23
365.111	298.85
365.493	303.37
365.874	315.57
366.256	336.14
366.637	314.44
367.019	309.47
367.4	312.63
367.781	296.59
368.163	308.57
368.544	293.42
368.925	319.41
369.306	320.09
369.688	299.3
370.069	321.9
370.45	303.59
370.831	298.85
371.212	300.2
371.593	302.92
371.974	294.33
372.355	293.88
372.736	310.15
373.117	301.11
373.498	329.13
373.879	311.05
374.26	316.25
374.641	311.5
375.021	289.81
375.402	322.8
375.783	307.66
376.163	311.5
376.544	316.25
376.925	302.92
377.305	322.8
377.686	325.51
378.066	313.99
378.447	318.28
378.827	322.35
379.208	325.74
379.588	326.19
379.968	349.02
380.349	329.81
380.729	351.05
381.109	341.11
381.489	334.78
381.87	314.89
382.25	338.4
382.63	322.35
383.01	358.28
383.39	338.85
383.77	335.01
384.15	338.62
384.53	335.68
384.91	339.98
385.29	326.87
385.67	346.53
386.049	356.25
386.429	348.56
386.809	333.88
387.189	367.32
387.568	349.69
387.948	346.76
388.328	346.08
388.707	346.08
389.087	347.89
389.466	346.76
389.846	364.61
390.225	356.02
390.605	369.13
390.984	373.42
391.363	368.68
391.743	353.31
392.122	355.12
392.501	349.47
392.881	344.72
393.26	371.84
393.639	358.28
394.018	373.65
394.397	379.52
394.776	370.48
395.155	355.12
395.534	373.87
395.913	363.48
396.292	345.85
396.671	372.29
397.05	386.76
397.429	380.2
397.808	361.67
398.186	381.78
398.565	380.88
398.944	388.34
399.323	381.11
399.701	365.06
400.08	380.43
400.458	372.07
400.837	380.2
401.215	380.43
401.594	365.51
401.972	385.63
402.351	358.28
402.729	400.31
403.107	384.5
403.486	403.48
403.864	382.91
404.242	393.31
404.62	402.8
404.999	392.86
405.377	408.68
405.755	406.19
406.133	414.1
406.511	402.12
406.889	401.9
407.267	422.01
407.645	412.29
408.023	390.82
408.401	404.16
408.779	417.49
409.156	396.02
409.534	415.23
409.912	391.95
410.29	420.65
410.667	430.14
411.045	427.43
411.422	417.26
411.8	424.72
412.178	437.6
412.555	433.99
412.933	452.06
413.31	426.08
413.687	447.32
414.065	427.21
414.442	444.15
414.819	461.56
415.197	448.9
415.574	455.68
415.951	462.91
416.328	465.17
416.705	474.21
417.082	471.05
417.46	474.66
417.837	452.97
418.214	440.77
418.591	476.92
418.967	461.33
419.344	456.58
419.721	467.43
420.098	462.69
420.475	478.73
420.852	491.16
421.228	486.87
421.605	471.05
421.982	471.05
422.358	481.22
422.735	492.52
423.111	500.88
423.488	480.31
423.864	505.4
424.241	502.01
424.617	500.2
424.994	508.79
425.37	513.31
425.746	511.95
426.123	503.81
426.499	529.12
426.875	521.89
427.251	523.02
427.627	506.98
428.003	526.86
428.379	523.25
428.756	550.82
429.132	572.74
429.507	546.98
429.883	545.4
430.259	559.18
430.635	551.5
431.011	551.04
431.387	588.78
431.763	572.06
432.138	577.26
432.514	581.78
432.89	570.71
433.265	565.96
433.641	590.14
434.016	589.24
434.392	576.58
434.767	599.63
435.143	590.59
435.518	593.08
435.894	604.6
436.269	632.17
436.644	623.36
437.02	638.95
437.395	626.98
437.77	630.59
438.145	646.64
438.52	633.98
438.895	658.39
439.271	642.34
439.646	661.32
440.021	655
440.395	652.06
440.77	653.64
441.145	666.97
441.52	686.41
441.895	676.24
442.27	681.89
442.645	664.04
443.019	690.48
443.394	682.79
443.769	691.61
444.143	675.56
444.518	673.75
444.892	687.76
445.267	693.64
445.641	691.15
446.016	699.52
446.39	725.28
446.764	700.65
447.139	706.97
447.513	701.1
447.887	702
448.262	725.96
448.636	706.52
449.01	731.61
449.384	748.1
449.758	745.16
450.132	752.4
450.506	742
450.88	752.17
451.254	736.8
451.628	775.9
452.002	750.59
452.376	779.51
452.75	742.45
453.123	759.4
453.497	798.95
453.871	777.48
454.244	821.55
454.618	803.47
454.992	808.89
455.365	823.58
455.739	818.16
456.112	840.53
456.486	831.49
456.859	837.36
457.232	850.25
457.606	869.91
457.979	846.63
458.352	870.36
458.725	894.54
459.099	902.67
459.472	926.18
459.845	922.33
460.218	924.37
460.591	910.81
460.964	948.55
461.337	930.7
461.71	942.67
462.083	971.37
462.456	973.63
462.829	991.49
463.201	969.56
463.574	984.03
463.947	1020.19
464.32	1030.81
464.692	1033.74
465.065	1004.37
465.438	1059.96
465.81	1078.26
466.183	1080.75
466.555	1110.13
466.928	1087.53
467.3	1089.56
467.672	1121.88
468.045	1129.56
468.417	1146.51
468.789	1152.84
469.161	1163.68
469.534	1194.87
469.906	1194.64
470.278	1211.37
470.65	1242.78
471.022	1255.43
471.394	1267.18
471.766	1283.91
472.138	1299.5
472.51	1318.48
472.882	1327.75
473.253	1344.02
473.625	1356.9
473.997	1393.51
474.369	1406.84
474.74	1446.16
475.112	1440.51
475.484	1459.04
475.855	1490.91
476.227	1515.31
476.598	1534.3
476.97	1539.04
477.341	1590.57
477.713	1603.9
478.084	1643.9
478.455	1649.77
478.827	1706.95
479.198	1745.14
479.569	1764.12
479.94	1781.07
480.311	1805.25
480.682	1867.17
481.053	1900.84
481.424	1932.7
481.795	1945.58
482.166	1985.58
482.537	2020.61
482.908	2035.75
483.279	2050.44
483.65	2125.69
484.021	2175.63
484.391	2187.61
484.762	2179.48
485.133	2246.37
485.503	2257.21
485.874	2338.79
486.244	2336.08
486.615	2408.85
486.985	2420.15
487.356	2478
487.726	2525.91
488.097	2568.39
488.467	2621.72
488.837	2656.98
489.207	2689.97
489.578	2699.46
489.948	2712.34
490.318	2776.52
490.688	2794.15
491.058	2836.63
491.428	2890.42
491.798	2888.61
492.168	2966.35
492.538	2983.98
492.908	3014.03
493.278	3049.06
493.648	3095.38
494.017	3125.44
494.387	3133.58
494.757	3148.94
495.126	3203.86
495.496	3279.79
495.866	3263.97
496.235	3327.69
496.605	3351.65
496.974	3383.29
497.344	3376.51
497.713	3451.53
498.082	3432.33
498.452	3432.33
498.821	3472.55
499.19	3530.18
499.559	3555.03
499.928	3581.7
500.298	3584.86
500.667	3622.38
501.036	3610.85
501.405	3638.65
501.774	3661.02
502.143	3672.77
502.512	3720
502.88	3723.39
503.249	3771.3
503.618	3785.31
503.987	3844.07
504.356	3816.72
504.724	3862.37
505.093	3809.04
505.462	3875.48
505.83	3897.62
506.199	3905.53
506.567	3974.23
506.936	3954.8
507.304	4044.74
507.672	3995.47
508.041	4003.16
508.409	4072.99
508.777	4081.57
509.145	4048.81
509.514	4105.08
509.882	4155.47
510.25	4125.41
510.618	4162.93
510.986	4135.81
511.354	4201.34
511.722	4182.59
512.09	4255.13
512.458	4252.64
512.826	4290.61
513.193	4254.9
513.561	4288.12
513.929	4397.05
514.297	4385.52
514.664	4388.68
515.032	4367.44
515.4	4418.74
515.767	4454.9
516.135	4435.91
516.502	4416.25
516.869	4484.95
517.237	4491.96
517.604	4491.51
517.972	4543.26
518.339	4545.06
518.706	4559.3
519.073	4551.84
519.44	4563.37
519.808	4598.4
520.175	4579.19
520.542	4692.86
520.909	4698.51
521.276	4700.54
521.643	4705.96
522.009	4763.82
522.376	4747.32
522.743	4813.53
523.11	4766.98
523.477	4786.41
523.843	4896.24
524.21	4922
524.577	4932.4
524.943	4922.91
525.31	4973.3
525.676	5002
526.043	5092.17
526.409	5029.57
526.776	5021.66
527.142	5128.78
527.508	5128.55
527.874	5162
528.241	5172.84
528.607	5165.61
528.973	5232.96
529.339	5226.18
529.705	5236.8
530.071	5324.7
530.437	5325.16
530.803	5313.63
531.169	5372.39
531.535	5367.64
531.901	5414.87
532.267	5444.7
532.632	5453.29
532.998	5451.03
533.364	5566.05
533.73	5494.87
534.095	5574.64
534.461	5586.39
534.826	5621.19
535.192	5617.35
535.557	5658.48
535.923	5675.88
536.288	5708.42
536.653	5673.4
537.019	5736.67
537.384	5717.69
537.749	5741.42
538.114	5771.47
538.479	5782.77
538.845	5820.74
539.21	5778.93
539.575	5835.65
539.94	5892.15
540.305	5936.44
540.67	5900.51
541.034	5883.11
541.399	5969.66
541.764	6028.64
542.129	6004.01
542.494	6057.57
542.858	6100.73
543.223	6086.27
543.587	6155.87
543.952	6134.85
544.316	6202.87
544.681	6170.11
545.045	6228.64
545.41	6287.39
545.774	6332.59
546.138	6275.41
546.503	6279.93
546.867	6319.03
547.231	6387.28
547.595	6344.56
547.959	6391.12
548.324	6461.4
548.688	6467.27
549.052	6497.33
549.416	6471.34
549.779	6483.09
550.143	6516.09
550.507	6563.99
550.871	6545.01
551.235	6529.87
551.599	6639.02
551.962	6608.74
552.326	6663.2
552.689	6708.62
553.053	6633.14
553.417	6659.58
553.78	6752.92
554.143	6730.32
554.507	6781.84
554.87	6805.57
555.234	6887.6
555.597	6807.38
555.96	6861.39
556.323	6883.31
556.686	6902.06
557.05	6938.9
557.413	6952.46
557.776	6949.75
558.139	7001.95
558.502	7018.9
558.865	7087.14
559.228	7040.37
559.59	7149.06
559.953	7073.59
560.316	7180.25
560.679	7156.29
561.041	7189.74
561.404	7227.25
561.767	7282.85
562.129	7261.15
562.492	7344.54
562.854	7332.79
563.217	7361.04
563.579	7349.51
563.941	7419.11
564.304	7441.26
564.666	7497.75
565.028	7526.68
565.39	7464.08
565.753	7509.51
566.115	7482.39
566.477	7574.36
566.839	7632.67
567.201	7673.8
567.563	7682.38
567.925	7707.69
568.287	7677.64
568.648	7717.18
569.01	7768.26
569.372	7821.14
569.734	7896.16
570.095	7886.67
570.457	7902.26
570.819	7935.71
571.18	7938.2
571.542	8009.61
571.903	8053.45
572.265	8085.31
572.626	8097.29
572.987	8161.92
573.349	8230.39
573.71	8238.3
574.071	8248.7
574.432	8366.21
574.794	8419.31
575.155	8415.24
575.516	8459.31
575.877	8482.81
576.238	8486.66
576.599	8663.6
576.96	8673.09
577.32	8749.7
577.681	8831.73
578.042	8893.65
578.403	8833.76
578.763	8987.43
579.124	9115.11
579.485	9233.3
579.845	9272.62
580.206	9361.21
580.566	9486.63
580.927	9605.95
581.287	9657.02
581.648	9756.45
582.008	9857.24
582.368	9945.6
582.728	10075.31
583.089	10197.8
583.449	10374.74
583.809	10531.35
584.169	10696.54
584.529	10805.01
584.889	10999.36
585.249	11086.14
585.609	11275.06
585.969	11462.62
586.329	11671.43
586.688	11865.55
587.048	12042.49
587.408	12186.67
587.768	12401.81
588.127	12620.78
588.487	12825.52
588.846	13179.41
589.206	13246.76
589.565	13444.94
589.925	13802.45
590.284	13976.68
590.643	14155.21
591.003	14489.21
591.362	14837.22
591.721	15023.21
592.08	15267.95
592.44	15528.96
592.799	15756.07
593.158	16021.15
593.517	16304.08
593.876	16645.76
594.235	16806.21
594.593	17199.19
594.952	17416.82
595.311	17622.01
595.67	17973.86
596.029	18355.77
596.387	18664.92
596.746	18919.83
597.104	19110.78
597.463	19332.02
597.822	19728.85
598.18	20009.74
598.538	20273.46
598.897	20683.85
599.255	20742.83
599.613	21373.55
599.972	21524.73
600.33	21806.53
600.688	22000.88
601.046	22372.84
601.404	22700.74
601.762	22917.91
602.12	23313.16
602.478	23661.4
602.836	23802.64
603.194	23921.5
603.552	24349.52
603.91	24401.72
604.268	24949.5
604.625	24978.2
604.983	25388.36
605.341	25447.79
605.698	25935.91
606.056	26183.59
606.413	26348.11
606.771	26780.64
607.128	26927.53
607.485	27092.95
607.843	27223.79
608.2	27723.21
608.557	27997.33
608.914	28123.65
609.272	28427.37
609.629	28706.46
609.986	28963.86
610.343	29000.01
610.7	29395.94
611.057	29568.36
611.414	29754.8
611.771	29881.8
612.127	30325.18
612.484	30409.02
612.841	30694.66
613.198	30709.35
613.554	30992.05
613.911	31248.54
614.267	31464.36
614.624	31452.61
614.98	31684.01
615.337	31969.65
615.693	32098.69
616.05	32117.67
616.406	32584.33
616.762	32612.35
617.118	32888.5
617.475	32824.32
617.831	33172.79
618.187	33159.23
618.543	33388.15
618.899	33763.73
619.255	33833.11
619.611	33887.8
619.967	34048.47
620.323	34325.98
620.678	34252.31
621.034	34338.41
621.39	34449.14
621.746	34450.27
622.101	34899.52
622.457	34901.1
622.812	34971.83
623.168	35140.64
623.523	35164.37
623.879	35323.92
624.234	35239.62
624.589	35595.1
624.945	35664.7
625.3	35632.83
625.655	35637.35
626.01	35895.88
626.365	35952.15
626.72	35973.84
627.075	36026.95
627.43	36163.22
627.785	36165.7
628.14	36337.22
628.495	36316.43
628.85	36350.78
629.205	36358.92
629.559	36552.13
629.914	36552.36
630.269	36523.21
630.623	36494.73
630.978	36673.94
631.332	36759.36
631.687	36802.97
632.041	36840.03
632.396	36877.55
632.75	36731.11
633.104	36813.82
633.459	36685.69
633.813	36598.46
634.167	36746.25
634.521	36728.17
634.875	36887.94
635.229	36810.66
635.583	36701.05
635.937	36812.24
636.291	36722.98
636.645	36768.85
636.999	36763.65
637.352	36870.54
637.706	36734.73
638.06	36946.02
638.413	36864.89
638.767	36822.41
639.121	36983.99
639.474	36636.2
639.828	36649.98
640.181	36798.23
640.534	37055.62
640.888	36717.55
641.241	36672.13
641.594	36773.37
641.947	36787.83
642.301	36647.04
642.654	36808.17
643.007	36776.98
643.36	36776.76
643.713	36801.84
644.066	36780.37
644.419	36658.34
644.771	36491.34
645.124	36123.89
645.477	36067.4
645.83	35770.01
646.182	35843.22
646.535	35785.15
646.888	35686.17
647.24	35650.01
647.593	35752.83
647.945	35739.05
648.298	35732.72
648.65	35548.54
649.002	35579.5
649.355	35635.32
649.707	35480.75
650.059	35643.46
650.411	36097.45
650.763	36143.1
651.115	36552.13
651.467	36505.13
651.819	36409.99
652.171	36487.5
652.523	36481.17
652.875	36405.47
653.227	36211.12
653.578	36581.51
653.93	36389.88
654.282	36249.09
654.633	36174.06
654.985	36266.26
655.337	36225.59
655.688	36271.01
656.039	36281.4
656.391	36077.57
656.742	36110.11
657.094	36151.92
657.445	36292.7
657.796	36191.24
658.147	36120.28
658.498	36144.23
658.849	36219.26
659.2	36120.51
659.551	36136.1
659.902	36095.65
660.253	36043.22
660.604	36161.63
660.955	35944.92
661.306	36205.47
661.656	36101.75
662.007	35962.32
662.358	36079.6
662.708	36043.9
663.059	36025.59
663.409	35697.24
663.76	36038.93
664.11	35999.15
664.461	35921.19
664.811	35957.57
665.161	36034.18
665.511	35979.27
665.862	36052.26
666.212	36038.02
666.562	36028.3
666.912	36024.46
667.262	36071.69
667.612	36052.03
667.962	36112.82
668.312	35950.34
668.662	36174.51
669.011	36067.17
669.361	35946.72
669.711	35790.34
670.06	35861.75
670.41	35869.21
670.76	35816.78
671.109	35938.81
671.459	35938.81
671.808	35869.44
672.157	35983.33
672.507	35527.98
672.856	35708.54
673.205	35777.24
673.554	35855.88
673.904	35784.92
674.253	35896.56
674.602	35763.23
674.951	35299.51
675.3	35091.61
675.649	35727.52
675.998	35570.69
676.346	35565.94
676.695	35719.61
677.044	35510.8
677.393	35535.21
677.741	35592.84
678.09	35440.97
678.438	35395.78
678.787	35471.26
679.135	35556
679.484	35274.65
679.832	35510.58
680.181	35225.16
680.529	35409.11
680.877	35237.82
681.225	35177.48
681.573	35420.41
681.922	35231.49
682.27	35128.44
682.618	34983.81
682.966	34907.43
683.314	35080.08
683.661	34867.66
684.009	34782.91
684.357	34753.99
684.705	34703.82
685.053	34572.98
685.4	34622.01
685.748	34463.83
686.095	34478.74
686.443	34438.74
686.79	34365.3
687.138	34410.27
687.485	34272.42
687.832	34190.61
688.18	34271.74
688.527	34171.4
688.874	34043.5
689.221	34000.79
689.568	33939.32
689.915	33965.76
690.262	33905.42
690.609	33744.97
690.956	33828.14
691.303	33653.68
691.65	33450.52
691.997	33531.87
692.344	33306.34
692.69	33271.09
693.037	33292.56
693.383	33141.15
693.73	33206.01
694.077	32902.74
694.423	32979.8
694.769	32824.09
695.116	32809.86
695.462	32693.02
695.808	32730.09
696.155	32724.21
696.501	32528.96
696.847	32599.02
697.193	32209.42
697.539	32329.87
697.885	32244.9
698.231	31929.43
698.577	31991.57
698.923	31876.55
699.269	31770.56
699.614	31709.55
699.96	31495.77
700.306	31538.03
700.651	31418.48
700.997	31446.5
701.342	31320.18
701.688	31244.93
702.033	31104.14
702.379	31090.58
702.724	31110.24
703.069	31098.49
703.415	30717.26
703.76	30788.44
704.105	30844.71
704.45	30710.93
704.795	30533.76
705.14	30431.39
705.485	30511.39
705.83	30361.33
706.175	30320.21
706.52	30290.15
706.865	30166.09
707.209	30065.52
707.554	30080.21
707.899	30115.47
708.243	29826.89
708.588	29936.26
708.932	29645.2
709.277	29577.85
709.621	29669.38
709.966	29544.41
710.31	29436.39
710.654	29332.21
710.998	29364.98
711.342	29486.1
711.687	29333.56
712.031	29256.96
712.375	29112.1
712.719	29025.78
713.063	29083.63
713.407	29146.9
713.75	28951.43
714.094	28982.39
714.438	28804.54
714.782	28839.11
715.125	28764.99
715.469	28786.01
715.812	28545.11
716.156	28481.61
716.499	28505.11
716.843	28486.36
717.186	28376.3
717.53	28356.19
717.873	28345.79
718.216	28342.63
718.559	28242.29
718.902	28075.52
719.246	28185.8
719.589	27939.48
719.932	27919.82
720.275	27943.09
720.617	27799.59
720.96	27819.25
721.303	27705.59
721.646	27767.73
721.989	27730.44
722.331	27672.14
722.674	27562.99
723.016	27608.19
723.359	27562.31
723.701	27563.89
724.044	27533.39
724.386	27264.24
724.729	27404.8
725.071	27277.12
725.413	27356.89
725.755	27251.81
726.097	27156.67
726.439	26941.09
726.782	27048.65
727.124	27139.5
727.465	26988.32
727.807	27035.09
728.149	26879.84
728.491	26936.34
728.833	26960.29
729.175	26774.08
729.516	26754.2
729.858	26646.86
730.199	26659.51
730.541	26674.65
730.882	26707.42
731.224	26700.19
731.565	26394.89
731.906	26450.02
732.248	26448.44
732.589	26410.03
732.93	26314.21
733.271	26317.15
733.612	26348.33
733.953	26359.41
734.294	26152.18
734.635	26088.68
734.976	26324.83
735.317	26085.51
735.658	25975.91
735.999	26085.51
736.339	26018.85
736.68	25983.82
737.021	25889.81
737.361	25817.27
737.702	26055.01
738.042	25877.16
738.383	25851.85
738.723	25811.17
739.063	25702.7
739.404	25807.78
739.744	25659.31
740.084	25691.63
740.424	25646.43
740.764	25510.84
741.104	25648.69
741.444	25428.36
741.784	25332.54
742.124	25415.93
742.464	25402.37
742.804	25283.5
743.143	25349.94
743.483	25297.06
743.823	25124.41
744.162	25171.87
744.502	25212.77
744.841	25082.15
745.181	25260.45
745.52	25031.98
745.86	25065.2
746.199	24957.63
746.538	25000.35
746.877	25081.93
747.216	25137.29
747.556	25037.63
747.895	24984.98
748.234	24869.95
748.573	24827.69
748.911	24724.42
749.25	24708.15
749.589	24662.28
749.928	24759.22
750.267	24750.18
750.605	24636.06
750.944	24483.75
751.283	24479.23
751.621	24463.86
751.96	24345.67
752.298	24440.13
752.636	24402.4
752.975	24299.8
753.313	24249.86
753.651	24396.97
753.989	24216.64
754.327	24134.38
754.666	24012.57
755.004	24134.15
755.342	24072.23
755.679	24071.33
756.017	23934.84
756.355	23941.62
756.693	23755.63
757.031	23921.5
757.368	23744.33
757.706	23832.01
758.044	23606.48
758.381	23644.67
758.719	23446.71
759.056	23615.98
759.394	23468.41
759.731	23320.62
760.068	23375.53
760.405	23216.21
760.743	23232.71
761.08	23239.49
761.417	23058.7
