Data from hue_320_FLMS001491_75.txt Node
Date: Mon Feb 06 15:47:40 GMT 2017
User: dcchb
Spectrometer: FLMS00149
Trigger mode: 0
Integration Time (sec): 2.000000E-2
Scans to average: 10
Electric dark correction enabled: true
Nonlinearity correction enabled: false
Boxcar width: 0
XAxis mode: Wavelengths
Number of Pixels in Spectrum: 2048
>>>>>Begin Spectral Data<<<<<
341.393	-16.38
341.776	-16.38
342.16	-16.38
342.543	-71.98
342.927	-57.96
343.31	-77.85
343.693	-65.2
344.077	-61.81
344.46	-74.91
344.843	-60.9
345.226	-45.08
345.61	-34.69
345.993	-22.26
346.376	1.24
346.759	6.44
347.142	30.39
347.525	47.34
347.908	69.49
348.291	84.63
348.674	99.55
349.057	103.61
349.44	111.3
349.823	143.16
350.206	156.95
350.588	183.84
350.971	201.46
351.354	207.57
351.737	235.14
352.119	264.74
352.502	233.78
352.884	270.39
353.267	257.28
353.65	276.49
354.032	295.02
354.414	310.61
354.797	297.96
355.179	319.43
355.562	324.17
355.944	303.61
356.326	347.22
356.709	334.34
357.091	331.4
357.473	325.98
357.855	334.79
358.238	343.61
358.62	317.62
359.002	320.1
359.384	317.17
359.766	325.3
360.148	347.67
360.53	337.51
360.912	316.26
361.294	308.58
361.676	344.06
362.057	339.09
362.439	307.9
362.821	342.02
363.203	338.18
363.584	323.49
363.966	312.65
364.348	325.08
364.729	309.71
365.111	334.12
365.493	311.52
365.874	336.15
366.256	332.99
366.637	309.94
367.019	312.42
367.4	314.68
367.781	316.94
368.163	308.13
368.544	327.56
368.925	316.26
369.306	318.07
369.688	304.29
370.069	313.78
370.45	315.13
370.831	296.15
371.212	311.07
371.593	296.38
371.974	304.29
372.355	311.74
372.736	295.47
373.117	306.09
373.498	324.62
373.879	322.14
374.26	309.71
374.641	320.56
375.021	316.04
375.402	304.74
375.783	307.9
376.163	348.13
376.544	321.91
376.925	316.04
377.305	325.08
377.686	316.26
378.066	312.42
378.447	321.01
378.827	321.01
379.208	318.97
379.588	356.49
379.968	339.99
380.349	309.48
380.729	321.91
381.109	349.71
381.489	315.36
381.87	322.82
382.25	345.19
382.63	337.05
383.01	337.05
383.39	352.19
383.77	355.58
384.15	347
384.53	332.53
384.91	322.14
385.29	345.19
385.67	328.47
386.049	343.15
386.429	371.4
386.809	325.75
387.189	365.75
387.568	366.66
387.948	335.92
388.328	371.4
388.707	357.39
389.087	344.96
389.466	354.91
389.846	362.36
390.225	351.97
390.605	376.37
390.984	356.49
391.363	365.3
391.743	352.19
392.122	361.91
392.501	350.16
392.881	352.65
393.26	356.04
393.639	367.79
394.018	369.14
394.397	381.12
394.776	378.18
395.155	391.74
395.534	388.58
395.913	386.54
396.292	376.15
396.671	368.92
397.05	387
397.429	379.99
397.808	368.01
398.186	395.36
398.565	389.26
398.944	399.65
399.323	388.13
399.701	405.98
400.08	364.85
400.458	389.03
400.837	387.9
401.215	400.33
401.594	399.42
401.972	396.26
402.351	386.09
402.729	384.74
403.107	410.27
403.486	411.63
403.864	418.63
404.242	404.17
404.62	415.47
404.999	410.95
405.377	419.31
405.755	415.92
406.133	416.15
406.511	450.72
406.889	445.75
407.267	418.86
407.645	431.51
408.023	464.96
408.401	433.77
408.779	462.25
409.156	455.92
409.534	463.83
409.912	469.48
410.29	462.93
410.667	451.63
411.045	473.77
411.422	489.82
411.8	478.74
412.178	504.28
412.555	495.47
412.933	486.43
413.31	501.12
413.687	491.4
414.065	519.2
414.442	505.41
414.819	535.69
415.197	526.88
415.574	556.26
415.951	548.35
416.328	534.34
416.705	564.84
417.082	544.51
417.46	555.35
417.837	575.01
418.214	568.46
418.591	603.03
418.967	608.23
419.344	595.8
419.721	595.35
420.098	600.1
420.475	612.07
420.852	609.81
421.228	626.31
421.605	649.36
421.982	621.34
422.358	644.16
422.735	659.53
423.111	661.11
423.488	663.37
423.864	679.42
424.241	685.52
424.617	677.61
424.994	680.55
425.37	682.13
425.746	663.6
426.123	695.69
426.499	720.32
426.875	719.19
427.251	706.99
427.627	725.97
428.003	736.59
428.379	726.65
428.756	771.39
429.132	743.37
429.507	747.89
429.883	774.78
430.259	803.71
430.635	789.24
431.011	799.64
431.387	796.25
431.763	823.59
432.138	838.74
432.514	849.13
432.89	859.75
433.265	849.36
433.641	851.16
434.016	862.69
434.392	877.38
434.767	892.74
435.143	903.82
435.518	898.39
435.894	904.95
436.269	897.72
436.644	912.63
437.02	947.43
437.395	922.8
437.77	916.93
438.145	962.8
438.52	975.91
438.895	970.48
439.271	993.31
439.646	994.44
440.021	1001.89
440.395	981.33
440.77	1003.7
441.145	991.5
441.52	1026.53
441.895	1016.13
442.27	1050.93
442.645	1042.12
443.019	1016.81
443.394	1037.6
443.769	1053.64
444.143	1038.5
444.518	1060.88
444.892	1028.79
445.267	1041.22
445.641	1058.16
446.016	1047.77
446.39	1081.89
446.764	1064.49
447.139	1063.59
447.513	1066.3
447.887	1099.52
448.262	1111.95
448.636	1094.32
449.01	1103.81
449.384	1122.12
449.758	1144.72
450.132	1102.91
450.506	1099.29
450.88	1129.12
451.254	1149.46
451.628	1139.97
452.002	1155.34
452.376	1151.04
452.75	1162.57
453.123	1127.99
453.497	1174.55
453.871	1194.88
454.244	1187.2
454.618	1194.88
454.992	1216.13
455.365	1192.62
455.739	1219.52
456.112	1251.15
456.486	1253.19
456.859	1231.04
457.232	1246.18
457.606	1268.78
457.979	1258.84
458.352	1318.72
458.725	1303.58
459.099	1313.98
459.472	1315.56
459.845	1347.2
460.218	1338.61
460.591	1344.71
460.964	1356.24
461.337	1372.73
461.71	1367.08
462.083	1374.99
462.456	1367.99
462.829	1391.04
463.201	1388.78
463.574	1418.15
463.947	1394.88
464.32	1441.43
464.692	1442.56
465.065	1456.35
465.438	1473.29
465.81	1509.23
466.183	1478.04
466.555	1497.93
466.928	1545.16
467.3	1489.57
467.672	1521.65
468.045	1591.03
468.417	1558.94
468.789	1594.65
469.161	1578.15
469.534	1600.52
469.906	1648.88
470.278	1645.72
470.65	1650.24
471.022	1661.76
471.394	1684.59
471.766	1699.28
472.138	1706.28
472.51	1724.81
472.882	1760.74
473.253	1765.72
473.625	1763.68
473.997	1827.41
474.369	1847.07
474.74	1819.73
475.112	1841.42
475.484	1860.4
475.855	1931.36
476.227	1912.83
476.598	1949.44
476.97	1963.9
477.341	2013.62
477.713	2009.33
478.084	2028.76
478.455	2029.89
478.827	2060.4
479.198	2094.07
479.569	2078.02
479.94	2147.85
480.311	2146.95
480.682	2192.82
481.053	2261.97
481.424	2257.68
481.795	2275.53
482.166	2313.27
482.537	2295.87
482.908	2351.01
483.279	2342.42
483.65	2395.53
484.021	2466.26
484.391	2414.29
484.762	2497
485.133	2508.75
485.503	2492.48
485.874	2519.82
486.244	2572.7
486.615	2613.6
486.985	2624.45
487.356	2673.04
487.726	2654.05
488.097	2713.71
488.467	2709.87
488.837	2755.52
489.207	2779.25
489.578	2790.32
489.948	2844.56
490.318	2846.14
490.688	2860.15
491.058	2896.08
491.428	2930.21
491.798	2932.92
492.168	2987.83
492.538	3033.48
492.908	3024.21
493.278	3052.46
493.648	3060.15
494.017	3077.09
494.387	3121.39
494.757	3144.21
495.126	3158.9
495.496	3141.05
495.866	3223.08
496.235	3165.68
496.605	3202.74
496.974	3267.37
497.344	3251.78
497.713	3278.9
498.082	3296.07
498.452	3315.51
498.821	3330.19
499.19	3324.09
499.559	3356.18
499.928	3354.38
500.298	3381.49
500.667	3385.79
501.036	3427.14
501.405	3402.74
501.774	3444.77
502.143	3465.11
502.512	3534.03
502.88	3483.19
503.249	3494.48
503.618	3510.98
503.987	3556.18
504.356	3527.48
504.724	3538.1
505.093	3507.59
505.462	3585.1
505.83	3574.71
506.199	3564.77
506.567	3623.75
506.936	3626.23
507.304	3646.8
507.672	3637.31
508.041	3693.58
508.409	3664.42
508.777	3682.28
509.145	3715.95
509.514	3725.44
509.882	3717.53
510.25	3697.87
510.618	3686.34
510.986	3767.92
511.354	3772.44
511.722	3794.59
512.09	3827.81
512.458	3792.33
512.826	3847.02
513.193	3854.02
513.561	3823.74
513.929	3843.85
514.297	3888.82
514.664	3867.13
515.032	3905.77
515.4	3989.61
515.767	3925.66
516.135	3895.38
516.502	3923.4
516.869	3896.06
517.237	4029.39
517.604	3971.76
517.972	3963.62
518.339	3969.95
518.706	4008.14
519.073	3988.26
519.44	3999.33
519.808	4032.1
520.175	3992.32
520.542	4025.09
520.909	4058.54
521.276	4068.48
521.643	4078.65
522.009	4084.75
522.376	4138.08
522.743	4182.83
523.11	4151.64
523.477	4205.43
523.843	4204.3
524.21	4266.44
524.577	4253.56
524.943	4256.27
525.31	4293.79
525.676	4310.28
526.043	4344.41
526.409	4363.39
526.776	4347.12
527.142	4371.07
527.508	4354.12
527.874	4414.23
528.241	4428.25
528.607	4449.94
528.973	4448.81
529.339	4515.25
529.705	4522.03
530.071	4526.32
530.437	4572.87
530.803	4574.46
531.169	4607.22
531.535	4584.63
531.901	4587.11
532.267	4640.67
532.632	4683.38
532.998	4632.08
533.364	4733.55
533.73	4726.32
534.095	4718.86
534.461	4735.58
534.826	4788.24
535.192	4798.86
535.557	4824.39
535.923	4801.79
536.288	4846.99
536.653	4862.13
537.019	4885.86
537.384	4891.74
537.749	4854.67
538.114	4936.93
538.479	4966.76
538.845	4979.64
539.21	4977.38
539.575	4979.19
539.94	5047.89
540.305	5059.64
540.67	5070.71
541.034	5068.91
541.399	5044.95
541.764	5091.73
542.129	5177.15
542.494	5149.81
542.858	5188.9
543.223	5179.41
543.587	5218.05
543.952	5244.95
544.316	5221.67
544.681	5259.18
545.045	5290.6
545.41	5307.77
545.774	5319.75
546.138	5373.31
546.503	5424.83
546.867	5391.61
547.231	5420.08
547.595	5492.85
547.959	5420.31
548.324	5493.53
548.688	5498.27
549.052	5494.21
549.416	5504.6
549.779	5560.64
550.143	5551.61
550.507	5588.89
550.871	5597.93
551.235	5664.82
551.599	5657.59
551.962	5692.84
552.326	5720.19
552.689	5720.87
553.053	5742.11
553.417	5766.29
553.78	5753.41
554.143	5752.96
554.507	5777.36
554.87	5800.86
555.234	5847.19
555.597	5802.45
555.96	5870.24
556.323	5920.41
556.686	5910.69
557.05	5912.73
557.413	5869.79
557.776	5911.6
558.139	5949.56
558.502	5955.21
558.865	5980.97
559.228	6046.96
559.59	6052.16
559.953	6063.91
560.316	6085.83
560.679	6121.31
561.041	6121.76
561.404	6178.26
561.767	6188.2
562.129	6179.61
562.492	6230.46
562.854	6221.64
563.217	6228.65
563.579	6211.93
563.941	6248.54
564.304	6365.82
564.666	6300.96
565.028	6295.77
565.39	6408.31
565.753	6431.81
566.115	6398.59
566.477	6432.26
566.839	6418.48
567.201	6471.81
567.563	6498.47
567.925	6547.29
568.287	6532.6
568.648	6557.45
569.01	6590.45
569.372	6608.75
569.734	6584.57
570.095	6657.34
570.457	6696.43
570.819	6748.18
571.18	6764.23
571.542	6806.49
571.903	6802.65
572.265	6831.57
572.626	6867.5
572.987	6951.34
573.349	6928.97
573.71	7008.74
574.071	7037.22
574.432	7063.66
574.794	7173.26
575.155	7238.11
575.516	7225.69
575.877	7346.59
576.238	7324.67
576.599	7430.88
576.96	7493.25
577.32	7543.87
577.681	7594.26
578.042	7657.99
578.403	7753.81
578.763	7793.13
579.124	7956.97
579.485	8018.89
579.845	8018.89
580.206	8255.04
580.566	8351.76
580.927	8340.46
581.287	8518.31
581.648	8603.73
582.008	8816.38
582.368	8890.5
582.728	8948.35
583.089	9133.88
583.449	9265.41
583.809	9445.74
584.169	9643.7
584.529	9739.74
584.889	9984.03
585.249	10075.1
585.609	10310.35
585.969	10528.2
586.329	10632.15
586.688	10883.67
587.048	11060.61
587.408	11341.74
587.768	11432.58
588.127	11677.09
588.487	11895.39
588.846	12197.31
589.206	12351.43
589.565	12590.06
589.925	12916.16
590.284	13167.22
590.643	13386.88
591.003	13698.74
591.362	13935.11
591.721	14134.88
592.08	14447.42
592.44	14796.11
592.799	14955.43
593.158	15302.31
593.517	15611.45
593.876	15899.58
594.235	16131.67
594.593	16344.09
594.952	16700.46
595.311	16937.29
595.67	17251.64
596.029	17603.04
596.387	17899.53
596.746	18202.8
597.104	18431.04
597.463	18742.9
597.822	18994.42
598.18	19259.95
598.538	19491.8
598.897	19856.77
599.255	20033.71
599.613	20573.81
599.972	20716.4
600.33	21028.03
600.688	21082.95
601.046	21636.15
601.404	21945.52
601.762	22251.05
602.12	22527.2
602.478	22802.45
602.836	23014.42
603.194	23181.42
603.552	23425.26
603.91	23636.33
604.268	23999.26
604.625	24099.37
604.983	24556.53
605.341	24621.61
605.698	24976.63
606.056	25306.34
606.413	25389.95
606.771	25754.24
607.128	25978.86
607.485	26192.64
607.843	26312.42
608.2	26745.4
608.557	26991.95
608.914	27102.45
609.272	27427.41
609.629	27661.31
609.986	27981.3
610.343	27951.69
610.7	28348.52
611.057	28507.84
611.414	28667.61
611.771	28880.48
612.127	29231.89
612.484	29196.63
612.841	29575.15
613.198	29530.41
613.554	29779.44
613.911	30022.15
614.267	30111.64
614.624	30326.1
614.98	30484.51
615.337	30806.31
615.693	30907.55
616.05	30940.99
616.406	31352.96
616.762	31342.79
617.118	31450.36
617.475	31577.36
617.831	31893.96
618.187	31997.24
618.543	32087.86
618.899	32432.93
619.255	32385.93
619.611	32637.67
619.967	32735.75
620.323	32888.74
620.678	32907.5
621.034	32899.59
621.39	33031.11
621.746	33155.63
622.101	33623.41
622.457	33361.5
622.812	33592.68
623.168	33815.04
623.523	33775.5
623.879	33932.55
624.234	33798.09
624.589	34095.71
624.945	34154.92
625.3	34164.64
625.655	34290.28
626.01	34382.26
626.365	34532.54
626.72	34391.07
627.075	34616.83
627.43	34811.85
627.785	34616.83
628.14	34737.28
628.495	34715.36
628.85	34788.35
629.205	34831.06
629.559	35121.22
629.914	34966.88
630.269	35065.18
630.623	35092.75
630.978	34983.37
631.332	35242.35
631.687	35386.53
632.041	35164.84
632.396	35233.08
632.75	35203.48
633.104	35236.02
633.459	35088.91
633.813	35120.77
634.167	35264.95
634.521	35254.55
634.875	35359.41
635.229	35319.64
635.583	35144.5
635.937	35308.56
636.291	35333.87
636.645	35300.43
636.999	35352.4
637.352	35447.09
637.706	35146.53
638.06	35396.02
638.413	35302.01
638.767	35319.86
639.121	35385.17
639.474	35283.48
639.828	35283.25
640.181	35279.19
640.534	35259.07
640.888	35290.94
641.241	35132.52
641.594	35341.33
641.947	35348.11
642.301	35174.33
642.654	35147.89
643.007	35278.51
643.36	35190.15
643.713	35189.24
644.066	35353.76
644.419	35165.97
644.771	34963.94
645.124	34622.03
645.477	34669.94
645.83	34382.49
646.182	34282.38
646.535	34143.4
646.888	34225.88
647.24	34146.33
647.593	34293.67
647.945	34255.48
648.298	34199.21
648.65	34061.82
649.002	33995.6
649.355	34077.64
649.707	34081.02
650.059	34269.95
650.411	34710.39
650.763	34664.29
651.115	35162.8
651.467	34908.12
651.819	34878.29
652.171	34943.83
652.523	34829.48
652.875	34793.1
653.227	34761.23
653.578	34845.75
653.93	34896.37
654.282	34847.78
654.633	34799.65
654.985	34746.54
655.337	34774.34
655.688	34810.95
656.039	34812.98
656.391	34572.09
656.742	34600.56
657.094	34613.67
657.445	34945.18
657.796	34784.51
658.147	34668.81
658.498	34678.07
658.849	34649.15
659.2	34692.53
659.551	34658.18
659.902	34590.39
660.253	34585.19
660.604	34678.98
660.955	34469.94
661.306	34751.06
661.656	34507.23
662.007	34525.76
662.358	34517.4
662.708	34520.34
663.059	34455.7
663.409	34410.28
663.76	34533.67
664.11	34494.57
664.461	34594.01
664.811	34676.04
665.161	34507.23
665.511	34426.1
665.862	34531.41
666.212	34787.22
666.562	34575.02
666.912	34523.05
667.262	34454.12
667.612	34444.63
667.962	34495.93
668.312	34396.72
668.662	34660.44
669.011	34573.44
669.361	34443.28
669.711	34336.84
670.06	34457.74
670.41	34312.21
670.76	34316.72
671.109	34447.34
671.459	34425.42
671.808	34336.61
672.157	34447.57
672.507	34295.48
672.856	34219.1
673.205	34434.46
673.554	34348.36
673.904	34194.47
674.253	34423.61
674.602	34309.27
674.951	33912.22
675.3	33807.59
675.649	34205.99
675.998	34209.16
676.346	34212.09
676.695	34278.99
677.044	33962.84
677.393	34024.3
677.741	34115.6
678.09	34049.16
678.438	33911.99
678.787	34098.88
679.135	34072.44
679.484	33756.29
679.832	33912.89
680.181	33724.88
680.529	33889.62
680.877	33795.16
681.225	33763.97
681.573	33922.38
681.922	33734.14
682.27	33525.11
682.618	33582.96
682.966	33497.31
683.314	33701.83
683.661	33520.81
684.009	33401.49
684.357	33436.52
684.705	33402.4
685.053	33328.5
685.4	33316.3
685.748	32914.73
686.095	33136.87
686.443	33033.59
686.79	32979.13
687.138	33071.33
687.485	32937.55
687.832	32915.18
688.18	33053.03
688.527	32702.08
688.874	32728.74
689.221	32632.48
689.568	32441.07
689.915	32561.97
690.262	32327.17
690.609	32267.06
690.956	32339.38
691.303	32144.8
691.65	32104.81
691.997	31996.33
692.344	32014.86
692.69	31842.89
693.037	31873.85
693.383	31670.92
693.73	31889.22
694.077	31492.62
694.423	31536.01
694.769	31440.87
695.116	31518.38
695.462	31469.12
695.808	31331.72
696.155	31401.1
696.501	31088.11
696.847	31151.84
697.193	31009.02
697.539	31012.86
697.885	30800.66
698.231	30682.02
698.577	30650.15
698.923	30593.21
699.269	30416.26
699.614	30291.07
699.96	30267.34
700.306	30386.66
700.651	30209.26
700.997	30148.25
701.342	30017.4
701.688	30027.35
702.033	29954.58
702.379	29888.37
702.724	29759.1
703.069	29824.19
703.415	29429.85
703.76	29501.71
704.105	29473.01
704.45	29463.07
704.795	29191.21
705.14	29243.64
705.485	29252.45
705.83	29165.9
706.175	29202.96
706.52	29103.3
706.865	28861.05
707.209	28937.66
707.554	28969.07
707.899	28949.41
708.243	28746.25
708.588	28737.89
708.932	28510.78
709.277	28510.55
709.621	28494.28
709.966	28386.71
710.31	28441.85
710.654	28256.55
710.998	28237.11
711.342	28249.31
711.687	28139.71
712.031	28041.86
712.375	28009.09
712.719	28049.54
713.063	27937.68
713.407	28096.78
713.75	27831.92
714.094	27816.56
714.438	27617.01
714.782	27797.57
715.125	27591.48
715.469	27631.48
715.812	27486.85
716.156	27350.81
716.499	27401.43
716.843	27433.97
717.186	27154.43
717.53	27336.8
717.873	27266.97
718.216	27102
718.559	27087.08
718.902	27073.53
719.246	26868.11
719.589	26927.99
719.932	26829.69
720.275	26796.24
720.617	26731.61
720.96	26755.79
721.303	26731.16
721.646	26641.9
721.989	26561.22
722.331	26703.37
722.674	26452.52
723.016	26513.99
723.359	26525.97
723.701	26457.72
724.044	26294.79
724.386	26211.18
724.729	26301.34
725.071	26202.59
725.413	26060.9
725.755	26262.25
726.097	26045.98
726.439	25923.73
726.782	25897.74
727.124	26040.78
727.465	25925.31
727.807	25882.6
728.149	25819.55
728.491	25755.82
728.833	25916.04
729.175	25627.46
729.516	25707.46
729.858	25672.21
730.199	25749.72
730.541	25565.54
730.882	25527.58
731.224	25574.13
731.565	25404.42
731.906	25503.62
732.248	25455.49
732.589	25351.99
732.93	25192.22
733.271	25297.53
733.612	25244.19
733.953	25356.73
734.294	25181.82
734.635	25155.61
734.976	25109.96
735.317	25060.25
735.658	25139.34
735.999	25116.06
736.339	24936.18
736.68	24964.65
737.021	24883.3
737.361	24789.52
737.702	24906.58
738.042	24857.54
738.383	24719.24
738.723	24837.43
739.063	24785
739.404	24822.29
739.744	24715.85
740.084	24581.39
740.424	24683.08
740.764	24521.05
741.104	24593.36
741.444	24476.98
741.784	24412.8
742.124	24477.44
742.464	24306.59
742.804	24297.1
743.143	24362.18
743.483	24186.6
743.823	24098.01
744.162	24139.59
744.502	24185.92
744.841	23986.83
745.181	24099.82
745.52	23909.31
745.86	24089.88
746.199	24082.87
746.538	24022.08
746.877	24063.89
747.216	23862.76
747.556	23912.25
747.895	23847.4
748.234	23825.25
748.573	23740.05
748.911	23747.06
749.25	23658.7
749.589	23583.67
749.928	23642.2
750.267	23564.92
750.605	23558.59
750.944	23396.11
751.283	23459.84
751.621	23395.2
751.96	23325.6
752.298	23307.3
752.636	23273.4
752.975	23287.86
753.313	23066.4
753.651	23213.97
753.989	23101.88
754.327	23045.38
754.666	22914.54
755.004	22834.99
755.342	22970.58
755.679	22872.05
756.017	22733.3
756.355	22786.63
756.693	22592.97
757.031	22806.97
757.368	22690.82
757.706	22623.7
758.044	22558.16
758.381	22504.83
758.719	22392.74
759.056	22330.83
759.394	22314.78
759.731	22232.75
