Data from hue_150_FLMS001491_00085.txt Node
Date: Tue Feb 07 16:54:39 GMT 2017
User: dcchb
Spectrometer: FLMS00149
Trigger mode: 0
Integration Time (sec): 2.000000E-2
Scans to average: 10
Electric dark correction enabled: true
Nonlinearity correction enabled: false
Boxcar width: 0
XAxis mode: Wavelengths
Number of Pixels in Spectrum: 2048
>>>>>Begin Spectral Data<<<<<
341.393	-24.18
341.776	-24.18
342.16	-24.18
342.543	-63.05
342.927	-62.15
343.31	-51.07
343.693	-58.76
344.077	-73.22
344.46	-47.91
344.843	-62.6
345.226	-38.19
345.61	-24.18
345.993	-12.43
346.376	-11.3
346.759	18.98
347.142	22.82
347.525	41.35
347.908	27.12
348.291	61.02
348.674	86.55
349.057	121.8
349.44	134.46
349.823	143.73
350.206	162.48
350.588	175.36
350.971	210.84
351.354	211.52
351.737	235.02
352.119	236.83
352.502	245.87
352.884	257.85
353.267	286.09
353.65	305.98
354.032	315.47
354.414	303.95
354.797	307.34
355.179	321.35
355.562	331.97
355.944	323.16
356.326	335.13
356.709	327.67
357.091	326.09
357.473	343.49
357.855	327.22
358.238	315.92
358.62	310.73
359.002	353.89
359.384	344.85
359.766	336.26
360.148	341.01
360.53	339.43
360.912	328.35
361.294	336.71
361.676	352.76
362.057	334.68
362.439	332.19
362.821	336.26
363.203	316.15
363.584	324.29
363.966	323.38
364.348	314.79
364.729	318.18
365.111	291.52
365.493	322.25
365.874	316.38
366.256	320.22
366.637	307.79
367.019	319.99
367.4	314.34
367.781	323.83
368.163	309.6
368.544	305.08
368.925	325.19
369.306	331.29
369.688	322.7
370.069	320.9
370.45	301.24
370.831	307.11
371.212	315.02
371.593	312.08
371.974	310.5
372.355	331.74
372.736	296.26
373.117	322.7
373.498	308.69
373.879	293.78
374.26	313.44
374.641	343.04
375.021	309.37
375.402	311.63
375.783	314.79
376.163	334
376.544	338.3
376.925	340.33
377.305	326.55
377.686	309.37
378.066	336.49
378.447	325.42
378.827	333.1
379.208	347.11
379.588	305.3
379.968	325.64
380.349	326.32
380.729	339.2
381.109	358.63
381.489	353.66
381.87	327.9
382.25	335.81
382.63	343.04
383.01	345.98
383.39	331.29
383.77	359.54
384.15	329.93
384.53	335.36
384.91	347.34
385.29	341.23
385.67	333.55
386.049	349.6
386.429	349.37
386.809	367.9
387.189	337.62
387.568	357.5
387.948	366.09
388.328	366.09
388.707	346.88
389.087	353.21
389.466	371.29
389.846	381.46
390.225	363.15
390.605	373.78
390.984	365.64
391.363	379.88
391.743	366.77
392.122	374.23
392.501	382.81
392.881	374.45
393.26	377.62
393.639	405.64
394.018	374.45
394.397	379.88
394.776	383.04
395.155	399.76
395.534	386.43
395.913	387.11
396.292	381.23
396.671	388.01
397.05	378.3
397.429	405.87
397.808	384.62
398.186	393.21
398.565	412.87
398.944	386.43
399.323	402.02
399.701	380.33
400.08	392.31
400.458	414.23
400.837	428.46
401.215	395.24
401.594	423.49
401.972	428.01
402.351	406.09
402.729	421.46
403.107	431.4
403.486	416.94
403.864	414.9
404.242	424.62
404.62	420.1
404.999	408.58
405.377	462.36
405.755	453.77
406.133	442.93
406.511	447.22
406.889	473.66
407.267	431.85
407.645	436.6
408.023	448.12
408.401	430.05
408.779	465.3
409.156	465.98
409.534	467.33
409.912	470.5
410.29	469.37
410.667	454
411.045	478.63
411.422	486.77
411.8	492.87
412.178	492.19
412.555	492.42
412.933	478.86
413.31	510.5
413.687	494.9
414.065	486.31
414.442	512.3
414.819	520.21
415.197	515.92
415.574	529.25
415.951	531.96
416.328	521.12
416.705	533.09
417.082	532.42
417.46	529.7
417.837	531.96
418.214	517.05
418.591	535.13
418.967	554.56
419.344	549.36
419.721	561.34
420.098	535.35
420.475	565.18
420.852	583.04
421.228	542.13
421.605	576.26
421.982	574
422.358	570.38
422.735	590.04
423.111	577.84
423.488	603.37
423.864	606.09
424.241	599.98
424.617	636.37
424.994	602.47
425.37	611.74
425.746	591.4
426.123	603.37
426.499	604.05
426.875	628.91
427.251	615.35
427.627	639.08
428.003	629.36
428.379	640.44
428.756	663.71
429.132	649.25
429.507	672.3
429.883	672.98
430.259	671.85
430.635	671.17
431.011	668.01
431.387	693.77
431.763	704.39
432.138	686.08
432.514	729.7
432.89	696.7
433.265	717.04
433.641	724.73
434.016	733.09
434.392	734.22
434.767	769.92
435.143	759.53
435.518	752.07
435.894	771.96
436.269	797.95
436.644	783.26
437.02	783.71
437.395	785.74
437.77	799.08
438.145	811.28
438.52	821.45
438.895	809.02
439.271	811.5
439.646	862.35
440.021	855.57
440.395	835.46
440.77	861.9
441.145	859.86
441.52	881.33
441.895	867.1
442.27	851.95
442.645	877.04
443.019	882.91
443.394	888.56
443.769	915.23
444.143	898.96
444.518	921.33
444.892	897.38
445.267	913.2
445.641	934.44
446.016	927.21
446.39	937.15
446.764	932.63
447.139	945.74
447.513	978.05
447.887	936.92
448.262	982.35
448.636	971.95
449.01	977.83
449.384	1017.37
449.758	993.87
450.132	999.75
450.506	1016.47
450.88	1030.03
451.254	996.81
451.628	1028.9
452.002	1029.58
452.376	1028.67
452.75	1065.73
453.123	1080.65
453.497	1094.21
453.871	1106.64
454.244	1091.27
454.618	1135.11
454.992	1126.07
455.365	1125.17
455.739	1167.43
456.112	1162.46
456.486	1214.66
456.859	1206.3
457.232	1219.85
457.606	1221.21
457.979	1232.06
458.352	1263.24
458.725	1265.28
459.099	1275.67
459.472	1282.23
459.845	1302.11
460.218	1319.51
460.591	1355.44
460.964	1368.1
461.337	1384.6
461.71	1418.95
462.083	1402
462.456	1421.88
462.829	1413.3
463.201	1437.02
463.574	1494.42
463.947	1491.94
464.32	1550.69
464.692	1531.03
465.065	1556.34
465.438	1553.18
465.81	1598.6
466.183	1620.07
466.555	1616.91
466.928	1655.1
467.3	1680.41
467.672	1697.36
468.045	1730.58
468.417	1767.86
468.789	1752.04
469.161	1781.42
469.534	1826.17
469.906	1881.98
470.278	1903
470.65	1911.81
471.022	1951.59
471.394	2008.08
471.766	2070.91
472.138	2075.65
472.51	2148.19
472.882	2131.7
473.253	2203.78
473.625	2231.81
473.997	2276.1
474.369	2313.39
474.74	2387.51
475.112	2429.54
475.484	2502.08
475.855	2576.88
476.227	2598.58
476.598	2645.35
476.97	2726.03
477.341	2829.76
477.713	2848.51
478.084	2883.99
478.455	3008.51
478.827	3035.85
479.198	3189.29
479.569	3193.59
479.94	3329.86
480.311	3352.23
480.682	3502.05
481.053	3545.22
481.424	3674.93
481.795	3731.65
482.166	3894.13
482.537	3933
482.908	4036.05
483.279	4123.28
483.65	4215.93
484.021	4315.14
484.391	4484.18
484.762	4557.85
485.133	4628.35
485.503	4734.34
485.874	4937.27
486.244	4972.52
486.615	5154.21
486.985	5225.63
487.356	5368.45
487.726	5440.31
488.097	5630.59
488.467	5657.25
488.837	5867.42
489.207	6053.63
489.578	6127.07
489.948	6218.37
490.318	6433.5
490.688	6494.97
491.058	6677.34
491.428	6809.54
491.798	6880.95
492.168	7099.47
492.538	7193.03
492.908	7292.92
493.278	7514.15
493.648	7575.85
494.017	7682.06
494.387	7866.46
494.757	8004.54
495.126	8081.37
495.496	8234.59
495.866	8348.48
496.235	8442.49
496.605	8601.58
496.974	8666.66
497.344	8790.5
497.713	8917.73
498.082	8962.02
498.452	9094.9
498.821	9176.48
499.19	9264.39
499.559	9425.51
499.928	9543.93
500.298	9532.63
500.667	9743.02
501.036	9785.96
501.405	9905.73
501.774	9948.44
502.143	10053.29
502.512	10141.2
502.88	10162.44
503.249	10293.51
503.618	10399.73
503.987	10440.18
504.356	10580.29
504.724	10639.04
505.093	10699.15
505.462	10798.59
505.83	10906.83
506.199	10959.26
506.567	11046.94
506.936	11112.02
507.304	11272.25
507.672	11217.78
508.041	11311.12
508.409	11371.9
508.777	11443.31
509.145	11557.21
509.514	11605.57
509.882	11692.8
510.25	11661.61
510.618	11787.49
510.986	11804.89
511.354	11861.38
511.722	12006.69
512.09	12074.71
512.458	12048.04
512.826	12186.8
513.193	12192
513.561	12201.04
513.929	12282.61
514.297	12288.49
514.664	12466.56
515.032	12411.2
515.4	12454.36
515.767	12463.63
516.135	12589.05
516.502	12567.81
516.869	12689.61
517.237	12673.57
517.604	12653
517.972	12722.15
518.339	12826.56
518.706	12872.43
519.073	12852.32
519.44	12857.29
519.808	12979.32
520.175	12890.28
520.542	13084.63
520.909	13108.81
521.276	13111.52
521.643	13111.07
522.009	13202.59
522.376	13261.57
522.743	13204.62
523.11	13364.62
523.477	13445.75
523.843	13472.19
524.21	13527.33
524.577	13542.02
524.943	13549.25
525.31	13541.11
525.676	13619.08
526.043	13610.72
526.409	13697.72
526.776	13701.33
527.142	13768.9
527.508	13785.17
527.874	13786.3
528.241	13882.35
528.607	13782.91
528.973	13914.66
529.339	13847.77
529.705	13948.11
530.071	13923.7
530.437	13879.18
530.803	13957.83
531.169	13955.34
531.535	13898.84
531.901	13979.07
532.267	13904.04
532.632	13941.55
532.998	13986.98
533.364	13996.47
533.73	13963.02
534.095	13996.69
534.461	14019.52
534.826	13952.4
535.192	13993.08
535.557	13923.25
535.923	13884.61
536.288	13928
536.653	13926.19
537.019	13856.58
537.384	13817.49
537.749	13797.15
538.114	13817.26
538.479	13769.58
538.845	13801.22
539.21	13660.88
539.575	13676.48
539.94	13656.82
540.305	13694.56
540.67	13600.55
541.034	13660.21
541.399	13665.18
541.764	13589.7
542.129	13519.19
542.494	13589.02
542.858	13566.2
543.223	13458.4
543.587	13429.03
543.952	13455.69
544.316	13446.2
544.681	13336.15
545.045	13342.7
545.41	13498.4
545.774	13292.76
546.138	13292.53
546.503	13277.17
546.867	13215.7
547.231	13232.42
547.595	13217.51
547.959	13177.51
548.324	13193.78
548.688	13162.37
549.052	13102.48
549.416	13084.18
549.779	13036.27
550.143	12970.73
550.507	13032.88
550.871	13046.21
551.235	13011.64
551.599	13048.47
551.962	12993.1
552.326	13004.63
552.689	12971.86
553.053	12835.14
553.417	12876.05
553.78	12957.17
554.143	12847.8
554.507	12831.3
554.87	12843.05
555.234	12831.98
555.597	12793.56
555.96	12811.87
556.323	12766.22
556.686	12822.94
557.05	12848.25
557.413	12821.36
557.776	12709.04
558.139	12818.19
558.502	12756.27
558.865	12753.34
559.228	12820
559.59	12827.23
559.953	12775.26
560.316	12854.8
560.679	12745.43
561.041	12861.13
561.404	12870.17
561.767	12876.05
562.129	12802.15
562.492	12892.99
562.854	12841.7
563.217	12814.35
563.579	12891.41
563.941	12953.56
564.304	12937.06
564.666	12963.05
565.028	12951.52
565.39	12914.24
565.753	13015.93
566.115	12928.02
566.477	13085.08
566.839	13008.25
567.201	13022.26
567.563	13118.07
567.925	13088.92
568.287	13103.16
568.648	13089.15
569.01	13135.7
569.372	13163.72
569.734	13092.31
570.095	13209.14
570.457	13108.81
570.819	13127.11
571.18	13154.23
571.542	13258.86
571.903	13224.96
572.265	13247.11
572.626	13320.78
572.987	13301.8
573.349	13355.13
573.71	13380.67
574.071	13316.03
574.432	13293.89
574.794	13365.3
575.155	13363.26
575.516	13305.19
575.877	13390.83
576.238	13379.76
576.599	13450.27
576.96	13454.11
577.32	13416.82
577.681	13437.16
578.042	13392.19
578.403	13447.78
578.763	13427.67
579.124	13474.45
579.485	13350.84
579.845	13430.61
580.206	13516.93
580.566	13492.3
580.927	13410.49
581.287	13505.86
581.648	13459.08
582.008	13514.67
582.368	13479.87
582.728	13509.93
583.089	13466.31
583.449	13468.8
583.809	13496.59
584.169	13430.16
584.529	13454.34
584.889	13443.49
585.249	13352.64
585.609	13407.78
585.969	13368.91
586.329	13357.84
586.688	13348.58
587.048	13395.58
587.408	13235.36
587.768	13297.28
588.127	13234.68
588.487	13280.33
588.846	13358.74
589.206	13313.1
589.565	13297.28
589.925	13336.6
590.284	13307.22
590.643	13240.33
591.003	13241.91
591.362	13298.18
591.721	13299.54
592.08	13294.79
592.44	13317.39
592.799	13323.04
593.158	13236.26
593.517	13308.35
593.876	13235.13
594.235	13282.81
594.593	13197.62
594.952	13297.5
595.311	13202.14
595.67	13184.29
596.029	13338.18
596.387	13258.41
596.746	13352.19
597.104	13260.67
597.463	13310.84
597.822	13288.92
598.18	13238.3
598.538	13195.81
598.897	13215.47
599.255	13162.82
599.613	13239.65
599.972	13158.75
600.33	13267
600.688	13159.65
601.046	13217.73
601.404	13231.06
601.762	13152.65
602.12	13197.17
602.478	13175.92
602.836	13329.59
603.194	13121.01
603.552	13220.44
603.91	13212.99
604.268	13161.69
604.625	13259.76
604.983	13210.5
605.341	13245.53
605.698	13245.53
606.056	13220.44
606.413	13224.96
606.771	13229.93
607.128	13371.63
607.485	13226.54
607.843	13219.99
608.2	13287.33
608.557	13366.65
608.914	13243.04
609.272	13278.29
609.629	13291.85
609.986	13376.82
610.343	13323.72
610.7	13353.32
611.057	13334.79
611.414	13400.78
611.771	13356.71
612.127	13439.87
612.484	13315.58
612.841	13394.9
613.198	13388.12
613.554	13357.84
613.911	13530.27
614.267	13456.37
614.624	13421.57
614.98	13468.57
615.337	13479.42
615.693	13487.78
616.05	13497.05
616.406	13600.32
616.762	13505.41
617.118	13563.71
617.475	13459.53
617.831	13504.5
618.187	13568.46
618.543	13612.52
618.899	13580.43
619.255	13623.6
619.611	13601.45
619.967	13593.77
620.323	13678.28
620.678	13613.65
621.034	13600.09
621.39	13628.12
621.746	13587.44
622.101	13761.22
622.457	13665.4
622.812	13565.75
623.168	13624.27
623.523	13629.47
623.879	13735.91
624.234	13577.04
624.589	13636.03
624.945	13675.57
625.3	13690.49
625.655	13668.57
626.01	13609.13
626.365	13596.48
626.72	13606.65
627.075	13606.2
627.43	13676.93
627.785	13558.51
628.14	13543.37
628.495	13601.68
628.85	13605.29
629.205	13527.55
629.559	13565.07
629.914	13567.55
630.269	13599.64
630.623	13600.77
630.978	13585.41
631.332	13603.71
631.687	13530.04
632.041	13460.89
632.396	13601.9
632.75	13525.07
633.104	13497.27
633.459	13468.8
633.813	13464.28
634.167	13409.59
634.521	13375.24
634.875	13366.43
635.229	13341.8
635.583	13345.64
635.937	13272.65
636.291	13365.07
636.645	13305.41
636.999	13246.43
637.352	13354.9
637.706	13237.17
638.06	13328.46
638.413	13179.99
638.767	13188.81
639.121	13198.52
639.474	13075.81
639.828	13129.6
640.181	13249.14
640.534	13216.6
640.888	13077.62
641.241	13187.45
641.594	13106.1
641.947	13138.41
642.301	13036.72
642.654	13103.84
643.007	13108.58
643.36	13034.69
643.713	13137.28
644.066	13111.52
644.419	13089.6
644.771	12946.78
645.124	12882.83
645.477	12822.94
645.83	12697.52
646.182	12726.22
646.535	12664.3
646.888	12678.54
647.24	12568.26
647.593	12620.01
647.945	12672.89
648.298	12566.45
648.65	12577.97
649.002	12513.12
649.355	12588.14
649.707	12619.33
650.059	12660.01
650.411	12722.15
650.763	12795.82
651.115	12919.89
651.467	12897.06
651.819	12892.32
652.171	12801.02
652.523	12869.72
652.875	12801.7
653.227	12805.76
653.578	12928.02
653.93	12847.57
654.282	12755.6
654.633	12698.65
654.985	12777.97
655.337	12822.49
655.688	12797.86
656.039	12830.62
656.391	12777.74
656.742	12730.06
657.094	12785.88
657.445	12805.99
657.796	12790.4
658.147	12845.76
658.498	12744.07
658.849	12773.22
659.2	12753.79
659.551	12754.92
659.902	12789.95
660.253	12854.35
660.604	12796.05
660.955	12719.67
661.306	12839.66
661.656	12853.45
662.007	12839.21
662.358	12894.12
662.708	12865.42
663.059	12826.56
663.409	12803.28
663.76	12854.35
664.11	12888.02
664.461	12952.65
664.811	12862.71
665.161	12884.63
665.511	12811.87
665.862	12843.05
666.212	12817.97
666.562	12853.22
666.912	12863.39
667.262	12860
667.612	12796.73
667.962	12861.13
668.312	12871.3
668.662	12960.56
669.011	12767.57
669.361	12861.81
669.711	12843.05
670.06	12845.76
670.41	12868.81
670.76	12740.68
671.109	12788.14
671.459	12844.41
671.808	12790.85
672.157	12843.5
672.507	12729.61
672.856	12807.35
673.205	12670.4
673.554	12823.17
673.904	12777.97
674.253	12822.26
674.602	12747.46
674.951	12545.88
675.3	12429.73
675.649	12725.32
675.998	12709.95
676.346	12698.42
676.695	12667.46
677.044	12612.32
677.393	12676.95
677.741	12661.14
678.09	12542.95
678.438	12611.19
678.787	12650.97
679.135	12575.71
679.484	12489.84
679.832	12493.68
680.181	12454.14
680.529	12519.44
680.877	12400.8
681.225	12389.05
681.573	12553.12
681.922	12380.47
682.27	12376.17
682.618	12371.2
682.966	12286.68
683.314	12445.1
683.661	12211.43
684.009	12258.66
684.357	12254.82
684.705	12153.58
685.053	12200.36
685.4	12175.27
685.748	12047.59
686.095	12107.7
686.443	12053.02
686.79	12042.17
687.138	12104.54
687.485	12086.69
687.832	12020.25
688.18	11979.35
688.527	11879.91
688.874	11900.03
689.221	11815.28
689.568	11772.57
689.915	11867.26
690.262	11864.55
690.609	11772.35
690.956	11713.59
691.303	11714.95
691.65	11615.74
691.997	11619.36
692.344	11567.38
692.69	11582.29
693.037	11537.1
693.383	11426.14
693.73	11511.34
694.077	11443.31
694.423	11380.72
694.769	11335.52
695.116	11231.34
695.462	11291
695.808	11259.14
696.155	11309.99
696.501	11168.75
696.847	11125.36
697.193	11070.44
697.539	11090.78
697.885	10990.22
698.231	10946.6
698.577	10938.7
698.923	10925.14
699.269	10819.6
699.614	10750.45
699.96	10773.5
700.306	10821.18
700.651	10692.83
700.997	10639.72
701.342	10590.68
701.688	10643.79
702.033	10626.16
702.379	10564.47
702.724	10520.18
703.069	10496.45
703.415	10406.28
703.76	10408.09
704.105	10475.2
704.45	10357.47
704.795	10338.94
705.14	10318.37
705.485	10214.19
705.83	10165.38
706.175	10213.52
706.52	10196.57
706.865	10112.05
707.209	10161.99
707.554	10096.01
707.899	10094.2
708.243	9959.51
708.588	9962.45
708.932	9964.71
709.277	9908.89
709.621	9970.59
709.966	9844.49
710.31	9883.13
710.654	9804.26
710.998	9794.77
711.342	9777.14
711.687	9742.79
712.031	9737.82
712.375	9743.7
712.719	9662.8
713.063	9692.63
713.407	9724.26
713.75	9648.33
714.094	9626.19
714.438	9571.5
714.782	9539.86
715.125	9557.26
715.469	9550.94
715.812	9499.64
716.156	9472.29
716.499	9421.67
716.843	9423.26
717.186	9465.29
717.53	9438.17
717.873	9458.51
718.216	9455.34
718.559	9375.8
718.902	9321.79
719.246	9319.3
719.589	9350.94
719.932	9296.7
720.275	9334.22
720.617	9298.06
720.96	9215.8
721.303	9293.09
721.646	9321.56
721.989	9263.71
722.331	9245.18
722.674	9265.75
723.016	9247.67
723.359	9227.1
723.701	9164.28
724.044	9185.52
724.386	9171.51
724.729	9170.38
725.071	9145.07
725.413	9144.39
725.755	9066.65
726.097	9020.1
726.439	9061
726.782	9029.59
727.124	9142.58
727.465	9025.75
727.807	9019.65
728.149	9079.31
728.491	9002.48
728.833	8995.24
729.175	8977.62
729.516	9020.55
729.858	8996.15
730.199	9007.22
730.541	8976.94
730.882	9022.36
731.224	9056.94
731.565	8995.47
731.906	8931.06
732.248	9040.21
732.589	8984.62
732.93	8930.16
733.271	8905.08
733.612	8956.6
733.953	8898.75
734.294	8987.56
734.635	8918.86
734.976	8989.82
735.317	8944.62
735.658	8919.77
735.999	9042.02
736.339	8978.07
736.68	9036.37
737.021	8981.68
737.361	8957.73
737.702	8995.47
738.042	9030.72
738.383	8949.14
738.723	8978.97
739.063	8950.95
739.404	9010.16
739.744	9025.98
740.084	8973.1
740.424	8995.24
740.764	8977.62
741.104	9052.64
741.444	9006.32
741.784	9004.06
742.124	9058.29
742.464	9047.45
742.804	9060.78
743.143	9059.87
743.483	9212.87
743.823	9069.82
744.162	9117.27
744.502	9151.4
744.841	9180.55
745.181	9195.24
745.52	9297.38
745.86	9288.12
746.199	9259.42
746.538	9338.96
746.877	9365.86
747.216	9463.03
747.556	9429.58
747.895	9462.12
748.234	9481.56
748.573	9586.41
748.911	9586.64
749.25	9671.61
749.589	9615.57
749.928	9745.51
750.267	9897.59
750.605	9868.67
750.944	9963.35
751.283	9984.14
751.621	10150.02
751.96	10110.69
752.298	10273.4
752.636	10392.04
752.975	10403.12
753.313	10454.64
753.651	10646.73
753.989	10703.22
754.327	10788.19
754.666	10850.79
755.004	11053.72
755.342	11075.64
755.679	11244.22
756.017	11288.06
756.355	11492.58
756.693	11547.27
757.031	11721.73
757.368	11731.22
757.706	11900.93
758.044	12019.34
758.381	12283.29
758.719	12325.55
759.056	12495.94
