Data from hue_30_FLMS001491_39.txt Node
Date: Mon Feb 06 15:05:12 GMT 2017
User: dcchb
Spectrometer: FLMS00149
Trigger mode: 0
Integration Time (sec): 2.000000E-2
Scans to average: 10
Electric dark correction enabled: true
Nonlinearity correction enabled: false
Boxcar width: 0
XAxis mode: Wavelengths
Number of Pixels in Spectrum: 2048
>>>>>Begin Spectral Data<<<<<
341.393	-23.98
341.776	-23.98
342.16	-23.98
342.543	-67.6
342.927	-49.29
343.31	-58.11
343.693	-55.85
344.077	-74.15
344.46	-72.34
344.843	-55.39
345.226	-43.87
345.61	-26.69
345.993	-15.85
346.376	-7.49
346.759	13.98
347.142	28.45
347.525	32.29
347.908	63.47
348.291	63.7
348.674	95.34
349.057	112.51
349.44	106.64
349.823	148.22
350.206	156.8
350.588	199.74
350.971	229.8
351.354	247.42
351.737	239.51
352.119	247.2
352.502	247.2
352.884	262.34
353.267	263.92
353.65	278.83
354.032	303.24
354.414	305.73
354.797	309.34
355.179	314.09
355.562	312.73
355.944	327.19
356.326	333.75
356.709	339.85
357.091	336.91
357.473	322
357.855	330.36
358.238	315.44
358.62	323.13
359.002	320.42
359.384	358.61
359.766	331.94
360.148	328.1
360.53	326.06
360.912	337.36
361.294	319.29
361.676	321.77
362.057	317.7
362.439	321.09
362.821	340.08
363.203	292.17
363.584	331.71
363.966	305.73
364.348	314.77
364.729	312.51
365.111	303.24
365.493	329.23
365.874	311.83
366.256	301.88
366.637	305.27
367.019	306.63
367.4	322.68
367.781	326.06
368.163	303.92
368.544	287.87
368.925	329
369.306	320.87
369.688	316.12
370.069	309.79
370.45	302.11
370.831	317.7
371.212	322.45
371.593	313.41
371.974	309.34
372.355	309.57
372.736	315.9
373.117	287.65
373.498	325.61
373.879	315.9
374.26	309.34
374.641	291.49
375.021	321.77
375.402	312.05
375.783	313.64
376.163	308.66
376.544	322.68
376.925	326.74
377.305	307.53
377.686	317.93
378.066	302.11
378.447	315.67
378.827	316.12
379.208	317.03
379.588	328.1
379.968	332.17
380.349	335.1
380.729	312.51
381.109	317.03
381.489	322.22
381.87	332.84
382.25	320.42
382.63	333.97
383.01	334.65
383.39	331.26
383.77	338.04
384.15	331.71
384.53	332.62
384.91	341.43
385.29	311.38
385.67	334.2
386.049	347.76
386.429	349.57
386.809	339.4
387.189	357.93
387.568	324.48
387.948	344.14
388.328	337.82
388.707	356.12
389.087	330.58
389.466	346.4
389.846	364.48
390.225	352.5
390.605	349.12
390.984	344.82
391.363	349.79
391.743	350.7
392.122	339.85
392.501	354.99
392.881	366.52
393.26	363.13
393.639	369.23
394.018	342.34
394.397	361.09
394.776	363.13
395.155	360.87
395.534	359.51
395.913	375.78
396.292	369
396.671	374.88
397.05	377.36
397.429	398.61
397.808	391.83
398.186	381.2
398.565	394.76
398.944	374.65
399.323	381.2
399.701	371.04
400.08	380.75
400.458	374.65
400.837	379.4
401.215	394.09
401.594	387.98
401.972	388.44
402.351	397.93
402.729	409.23
403.107	390.24
403.486	388.66
403.864	404.25
404.242	394.99
404.62	407.19
404.999	396.35
405.377	399.74
405.755	408.77
406.133	421.43
406.511	407.42
406.889	403.8
407.267	406.29
407.645	417.59
408.023	415.55
408.401	430.92
408.779	435.89
409.156	439.96
409.534	437.25
409.912	441.32
410.29	437.93
410.667	449.45
411.045	427.53
411.422	433.86
411.8	429.56
412.178	418.49
412.555	453.07
412.933	456.91
413.31	458.94
413.687	433.63
414.065	461.2
414.442	450.36
414.819	447.42
415.197	458.72
415.574	485.16
415.951	498.72
416.328	474.99
416.705	470.69
417.082	478.38
417.46	457.36
417.837	462.33
418.214	469.56
418.591	480.64
418.967	489.45
419.344	493.74
419.721	488.55
420.098	481.32
420.475	498.94
420.852	501.43
421.228	514.99
421.605	510.01
421.982	489
422.358	505.95
422.735	517.02
423.111	504.59
423.488	512.27
423.864	514.76
424.241	526.29
424.617	519.28
424.994	529.68
425.37	524.7
425.746	529.22
426.123	543.46
426.499	555.66
426.875	517.7
427.251	538.71
427.627	558.38
428.003	533.07
428.379	552.73
428.756	554.76
429.132	559.28
429.507	585.95
429.883	554.76
430.259	589.56
430.635	576.68
431.011	555.21
431.387	595.89
431.763	591.14
432.138	602.44
432.514	601.54
432.89	586.4
433.265	619.62
433.641	606.74
434.016	626.4
434.392	621.2
434.767	641.08
435.143	657.81
435.518	633.4
435.894	644.93
436.269	649.45
436.644	653.51
437.02	682.44
437.395	663.46
437.77	643.8
438.145	662.55
438.52	669.33
438.895	685.38
439.271	673.85
439.646	705.49
440.021	699.16
440.395	688.99
440.77	695.32
441.145	714.3
441.52	702.78
441.895	709.33
442.27	738.26
442.645	712.95
443.019	732.61
443.394	737.81
443.769	718.14
444.143	742.33
444.518	752.27
444.892	743.68
445.267	753.4
445.641	750.69
446.016	739.16
446.39	757.47
446.764	747.52
447.139	771.02
447.513	754.75
447.887	764.25
448.262	770.35
448.636	769.9
449.01	784.81
449.384	780.29
449.758	790.69
450.132	811.25
450.506	806.28
450.88	787.52
451.254	778.93
451.628	812.61
452.002	814.19
452.376	836.33
452.75	808.99
453.123	838.14
453.497	842.66
453.871	861.64
454.244	857.8
454.618	870.91
454.992	894.41
455.365	904.13
455.739	914.75
456.112	911.13
456.486	921.3
456.859	923.56
457.232	952.49
457.606	931.02
457.979	946.84
458.352	950.23
458.725	963.34
459.099	940.96
459.472	992.26
459.845	980.28
460.218	988.42
460.591	1034.07
460.964	1007.4
461.337	1047.63
461.71	1023.67
462.083	1060.51
462.456	1067.29
462.829	1072.71
463.201	1061.41
463.574	1092.15
463.947	1107.29
464.32	1080.62
464.692	1128.53
465.065	1148.64
465.438	1147.29
465.81	1170.34
466.183	1164.46
466.555	1187.29
466.928	1198.81
467.3	1205.82
467.672	1223.89
468.045	1258.92
468.417	1262.31
468.789	1283.33
469.161	1271.8
469.534	1302.99
469.906	1304.8
470.278	1303.67
470.65	1353.38
471.022	1407.17
471.394	1402.87
471.766	1384.79
472.138	1432.48
472.51	1465.92
472.882	1492.14
473.253	1494.85
473.625	1530.55
473.997	1565.81
474.369	1585.01
474.74	1592.92
475.112	1629.76
475.484	1646.26
475.855	1686.26
476.227	1701.62
476.598	1751.34
476.97	1771.45
477.341	1813.94
477.713	1830.43
478.084	1872.69
478.455	1904.33
478.827	1936.42
479.198	1998.79
479.569	1986.59
479.94	2062.06
480.311	2079.01
480.682	2132.57
481.053	2209.86
481.424	2246.24
481.795	2266.58
482.166	2321.72
482.537	2340.48
482.908	2432.45
483.279	2468.38
483.65	2478.32
484.021	2536.63
484.391	2609.62
484.762	2631.09
485.133	2677.19
485.503	2744.98
485.874	2782.72
486.244	2864.08
486.615	2910.18
486.985	2937.97
487.356	3007.8
487.726	3041.25
488.097	3152.43
488.467	3154.01
488.837	3239.66
489.207	3265.42
489.578	3367.57
489.948	3392.2
490.318	3443.72
490.688	3460.45
491.058	3584.96
491.428	3652.98
491.798	3668.12
492.168	3757.39
492.538	3749.7
492.908	3840.32
493.278	3871.51
493.648	3920.55
494.017	3960.77
494.387	4064.72
494.757	4038.96
495.126	4106.3
495.496	4150.82
495.866	4196.92
496.235	4269.92
496.605	4309.24
496.974	4347.43
497.344	4434.66
497.713	4429.46
498.082	4503.13
498.452	4553.3
498.821	4618.38
499.19	4620.64
499.559	4676.91
499.928	4694.76
500.298	4706.06
500.667	4735.67
501.036	4795.33
501.405	4863.35
501.774	4910.58
502.143	4967.75
502.512	4989.45
502.88	5020.86
503.249	5014.08
503.618	5066.28
503.987	5088.43
504.356	5171.36
504.724	5158.03
505.093	5190.34
505.462	5199.61
505.83	5263.11
506.199	5318.93
506.567	5425.59
506.936	5418.59
507.304	5485.03
507.672	5454.07
508.041	5542.88
508.409	5572.71
508.777	5615.64
509.145	5606.38
509.514	5667.17
509.882	5771.12
510.25	5704
510.618	5728.63
510.986	5813.15
511.354	5839.14
511.722	5883.21
512.09	5866.71
512.458	5841.17
512.826	5934.73
513.193	5948.06
513.561	6014.95
513.929	6024.45
514.297	6086.82
514.664	6076.2
515.032	6134.5
515.4	6110.77
515.767	6187.83
516.135	6184.22
516.502	6115.52
516.869	6294.72
517.237	6260.37
517.604	6269.19
517.972	6374.49
518.339	6397.54
518.706	6390.31
519.073	6402.06
519.44	6452.23
519.808	6506.02
520.175	6463.3
520.542	6623.3
520.909	6568.39
521.276	6607.71
521.643	6637.31
522.009	6691.1
522.376	6687.25
522.743	6779.23
523.11	6845.67
523.477	6824.65
523.843	6868.04
524.21	6986
524.577	6964.53
524.943	6975.38
525.31	7032.78
525.676	7019
526.043	7097.86
526.409	7215.38
526.776	7197.07
527.142	7249.5
527.508	7250.4
527.874	7364.3
528.241	7345.09
528.607	7398.87
528.973	7423.96
529.339	7410.17
529.705	7500.34
530.071	7537.17
530.437	7550.06
530.803	7633.22
531.169	7657.17
531.535	7664.85
531.901	7698.53
532.267	7741.92
532.632	7807
532.998	7861.23
533.364	7833.66
533.73	7925.87
534.095	7974.45
534.461	7964.96
534.826	8001.57
535.192	8036.14
535.557	8155.92
535.923	8121.79
536.288	8194.33
536.653	8111.17
537.019	8136.25
537.384	8256.93
537.749	8203.37
538.114	8255.8
538.479	8218.29
538.845	8346.87
539.21	8341.22
539.575	8376.7
539.94	8482.69
540.305	8442.01
540.67	8523.82
541.034	8514.1
541.399	8556.58
541.764	8609.01
542.129	8601.55
542.494	8731.72
542.858	8686.97
543.223	8776.01
543.587	8777.37
543.952	8790.7
544.316	8800.64
544.681	8851.26
545.045	8873.86
545.41	8959.51
545.774	8977.36
546.138	8996.57
546.503	9017.81
546.867	9062.56
547.231	9136.91
547.595	9094.2
547.959	9220.29
548.324	9162.67
548.688	9200.41
549.052	9257.36
549.416	9292.61
549.779	9307.52
550.143	9397.92
550.507	9408.76
550.871	9387.52
551.235	9441.53
551.599	9524.24
551.962	9491.93
552.326	9543.9
552.689	9590
553.053	9579.38
553.417	9519.04
553.78	9675.65
554.143	9639.72
554.507	9672.94
554.87	9701.64
555.234	9829.54
555.597	9773.73
555.96	9830.67
556.323	9898.02
556.686	9830.22
557.05	9900.28
557.413	9949.77
557.776	9959.03
558.139	10051.68
558.502	10071.57
558.865	10041.29
559.228	10131
559.59	10190.21
559.953	10161.51
560.316	10300.49
560.679	10168.07
561.041	10366.48
561.404	10415.97
561.767	10396.76
562.129	10381.85
562.492	10480.83
562.854	10468.62
563.217	10567.83
563.579	10532.58
563.941	10629.07
564.304	10684.21
564.666	10696.19
565.028	10820.03
565.39	10746.58
565.753	10798.33
566.115	10872
566.477	10859.57
566.839	10886.47
567.201	11015.95
567.563	10970.76
567.925	11023.86
568.287	11076.74
568.648	11098.89
569.01	11204.42
569.372	11189.96
569.734	11107.93
570.095	11196.51
570.457	11316.06
570.819	11309.96
571.18	11401.03
571.542	11465.66
571.903	11482.16
572.265	11570.97
572.626	11640.8
572.987	11634.69
573.349	11771.41
573.71	11750.62
574.071	11800.34
574.432	11977.51
574.794	11914.69
575.155	12046.89
575.516	12107.22
575.877	12203.94
576.238	12281
576.599	12383.6
576.96	12429.25
577.32	12454.56
577.681	12640.09
578.042	12689.13
578.403	12749.47
578.763	12909.01
579.124	13006.86
579.485	13082.11
579.845	13220.42
580.206	13288.66
580.566	13377.02
580.927	13469.22
581.287	13716
581.648	13812.04
582.008	13922.54
582.368	14085.93
582.728	14213.38
583.089	14349.65
583.449	14496.31
583.809	14726.82
584.169	14822.63
584.529	15028.05
584.889	15332.22
585.249	15416.06
585.609	15508.04
585.969	15787.13
586.329	15946.9
586.688	16117.06
587.048	16382.37
587.408	16493.1
587.768	16750.27
588.127	16962.46
588.487	17134.66
588.846	17540.53
589.206	17620.53
589.565	17817.58
589.925	18041.08
590.284	18373.95
590.643	18516.1
591.003	18811.23
591.362	19075.63
591.721	19291.67
592.08	19452.79
592.44	19861.37
592.799	20042.61
593.158	20281.47
593.517	20591.97
593.876	20828.58
594.235	21052.3
594.593	21267.89
594.952	21614.32
595.311	21695.9
595.67	21921.2
596.029	22320.97
596.387	22666.72
596.746	22976.77
597.104	23095.86
597.463	23321.84
597.822	23663.76
598.18	23762.96
598.538	24023.07
598.897	24343.74
599.255	24450.63
599.613	24936.72
599.972	25073.44
600.33	25292.19
600.688	25478.85
601.046	25814.21
601.404	26098.04
601.762	26162.9
602.12	26587.07
602.478	26731.25
602.836	26988.41
603.194	27030.67
603.552	27391.12
603.91	27509.98
604.268	27893.02
604.625	27956.98
604.983	28230.87
605.341	28312.22
605.698	28646
606.056	28791.08
606.413	28887.57
606.771	29198.53
607.128	29490.5
607.485	29504.51
607.843	29697.5
608.2	30112.63
608.557	30184.71
608.914	30297.93
609.272	30578.6
609.629	30690.01
609.986	30949.67
610.343	31100.62
610.7	31423.1
611.057	31469.2
611.414	31627.61
611.771	31716.65
612.127	32055.17
612.484	32072.8
612.841	32340.82
613.198	32407.48
613.554	32525.44
613.911	32815.61
614.267	32727.25
614.624	33005.88
614.98	33097.18
615.337	33539.43
615.693	33483.84
616.05	33486.32
616.406	33776.26
616.762	33728.12
617.118	33956.59
617.475	33968.8
617.831	34149.13
618.187	34291.05
618.543	34424.38
618.899	34773.97
619.255	34539.18
619.611	34726.06
619.967	34891.48
620.323	35127.64
620.678	35024.14
621.034	34965.15
621.39	35119.27
621.746	35219.61
622.101	35542.77
622.457	35314.3
622.812	35481.52
623.168	35603.1
623.523	35695.08
623.879	35877.9
624.234	35662.76
624.589	35966.26
624.945	36070.66
625.3	36083.54
625.655	35997.44
626.01	36339.36
626.365	36287.83
626.72	36239.24
627.075	36322.18
627.43	36397.88
627.785	36319.02
628.14	36466.36
628.495	36545.23
628.85	36569.86
629.205	36454.83
629.559	36674.94
629.914	36587.03
630.269	36765.78
630.623	36636.52
630.978	36563.3
631.332	36728.27
631.687	36780.02
632.041	36574.83
632.396	36615.51
632.75	36697.99
633.104	36678.78
633.459	36626.35
633.813	36561.5
634.167	36672.91
634.521	36629.07
634.875	36720.81
635.229	36771.66
635.583	36529.86
635.937	36531.44
636.291	36646.24
636.645	36766.91
636.999	36613.92
637.352	36704.54
637.706	36491.22
638.06	36613.25
638.413	36539.58
638.767	36495.06
639.121	36725.33
639.474	36435.4
639.828	36533.93
640.181	36498.67
640.534	36634.26
640.888	36451.89
641.241	36294.61
641.594	36473.59
641.947	36654.38
642.301	36472.23
642.654	36458.45
643.007	36566.92
643.36	36328.73
643.713	36375.06
644.066	36688.05
644.419	36393.82
644.771	36082.86
645.124	35772.14
645.477	35641.07
645.83	35479.04
646.182	35373.05
646.535	35305.48
646.888	35262.32
647.24	35100.74
647.593	35383.45
647.945	35333.05
648.298	35142.55
648.65	35227.75
649.002	35084.02
649.355	35135.55
649.707	35075.66
650.059	35225.26
650.411	35690.56
650.763	35689.2
651.115	36059.81
651.467	36015.52
651.819	36005.8
652.171	35899.59
652.523	35938.69
652.875	35794.51
653.227	35752.93
653.578	35912.25
653.93	35804.23
654.282	35711.35
654.633	35562.65
654.985	35715.42
655.337	35650.79
655.688	35699.6
656.039	35881.29
656.391	35484.01
656.742	35652.37
657.094	35570.34
657.445	35620.05
657.796	35577.12
658.147	35545.7
658.498	35542.77
658.849	35754.74
659.2	35549.32
659.551	35457.34
659.902	35719.94
660.253	35513.16
660.604	35545.48
660.955	35394.07
661.306	35653.05
661.656	35496.67
662.007	35482.88
662.358	35427.06
662.708	35630
663.059	35546.16
663.409	35276.33
663.76	35584.57
664.11	35680.39
664.461	35514.74
664.811	35534.4
665.161	35571.01
665.511	35364.24
665.862	35395.88
666.212	35533.05
666.562	35464.8
666.912	35515.42
667.262	35289.89
667.612	35273.62
667.962	35458.02
668.312	35315.2
668.662	35468.42
669.011	35333.51
669.361	35390.68
669.711	35380.96
670.06	35243.79
670.41	35266.84
670.76	35119.95
671.109	35407.63
671.459	35213.28
671.808	35238.37
672.157	35349.32
672.507	35138.93
672.856	35162.44
673.205	35152.49
673.554	35177.13
673.904	35196.79
674.253	35404.92
674.602	35188.88
674.951	34586.63
675.3	34466.86
675.649	35045.83
675.998	35030.92
676.346	35087.41
676.695	35089.44
677.044	34891.71
677.393	35007.64
677.741	34971.93
678.09	34890.81
678.438	34841.32
678.787	34903.69
679.135	34914.08
679.484	34720.87
679.832	34761.09
680.181	34523.58
680.529	34765.16
680.877	34660.08
681.225	34528.56
681.573	34764.26
681.922	34425.96
682.27	34385.96
682.618	34381.89
682.966	34331.05
683.314	34349.58
683.661	34176.7
684.009	34160.88
684.357	34171.5
684.705	34032.07
685.053	34077.49
685.4	34071.39
685.748	33822.36
686.095	33919.53
686.443	33766.77
686.79	33691.97
687.138	33748.91
687.485	33716.83
687.832	33531.75
688.18	33680.44
688.527	33415.82
688.874	33425.53
689.221	33406.1
689.568	33355.48
689.915	33329.04
690.262	33294.46
690.609	33009.27
690.956	33046.11
691.303	32929.73
691.65	32766.79
691.997	32899.9
692.344	32785.55
692.69	32656.97
693.037	32647.02
693.383	32438.89
693.73	32460.81
694.077	32302.4
694.423	32419.23
694.769	32155.28
695.116	32166.13
695.462	32066.25
695.808	32071.22
696.155	32045.68
696.501	31781.28
696.847	31779.93
697.193	31518.01
697.539	31744.45
697.885	31496.54
698.231	31383.55
698.577	31333.84
698.923	31191.92
699.269	31235.99
699.614	30948.08
699.96	30986.28
700.306	30960.06
700.651	30754.19
700.997	30812.27
701.342	30678.49
701.688	30706.28
702.033	30492.96
702.379	30653.18
702.724	30381.32
703.069	30438.04
703.415	30236.46
703.76	30136.35
704.105	30130.93
704.45	30075.34
704.795	29887.77
705.14	29880.54
705.485	29881.22
705.83	29681.23
706.175	29730.49
706.52	29722.13
706.865	29633.32
707.209	29575.92
707.554	29469.48
707.899	29498.18
708.243	29252.54
708.588	29355.13
708.932	29116.95
709.277	29012.54
709.621	29194.91
709.966	28917.63
710.31	29006.67
710.654	28801.25
710.998	28786.56
711.342	28742.72
711.687	28643.51
712.031	28558.54
712.375	28518.54
712.719	28488.26
713.063	28414.82
713.407	28510.86
713.75	28324.2
714.094	28277.19
714.438	28201.26
714.782	28099.12
715.125	28127.59
715.469	28081.95
715.812	27928.05
716.156	27836.53
716.499	27786.13
716.843	27926.47
717.186	27593.14
717.53	27837.43
717.873	27708.62
718.216	27689.19
718.559	27614.16
718.902	27438.35
719.246	27504.79
719.589	27429.53
719.932	27327.16
720.275	27391.12
720.617	27134.63
720.96	27241.74
721.303	27142.31
721.646	27204.91
721.989	27018.92
722.331	27138.24
722.674	27009.88
723.016	27063.21
723.359	27008.75
723.701	26916.78
724.044	26890.34
724.386	26816.22
724.729	26844.69
725.071	26668.88
725.413	26669.1
725.755	26658.93
726.097	26580.52
726.439	26435.89
726.782	26438.15
727.124	26614.19
727.465	26490.57
727.807	26326.29
728.149	26311.82
728.491	26306.62
728.833	26380.52
729.175	26179.4
729.516	26077.48
729.858	26116.8
730.199	26068.66
730.541	26082
730.882	26073.18
731.224	26075.67
731.565	25893.75
731.906	25856.47
732.248	25942.11
732.589	25884.49
732.93	25697.6
733.271	25815.79
733.612	25709.8
733.953	25791.38
734.294	25696.7
734.635	25648.79
734.976	25663.93
735.317	25557.49
735.658	25503.48
735.999	25514.78
736.339	25409.93
736.68	25494.89
737.021	25425.74
737.361	25214.45
737.702	25376.93
738.042	25299.65
738.383	25279.08
738.723	25288.57
739.063	25265.52
739.404	25121.8
739.744	25126.32
740.084	25145.75
740.424	25126.77
740.764	24962.71
741.104	25089.26
741.444	24912.09
741.784	24913.44
742.124	24858.98
742.464	24851.75
742.804	24811.97
743.143	24756.16
743.483	24782.6
743.823	24634.13
744.162	24628.48
744.502	24731.07
744.841	24568.14
745.181	24606.33
745.52	24565.65
745.86	24651.53
746.199	24499.44
746.538	24400.46
746.877	24426.45
747.216	24531.76
747.556	24388.48
747.895	24406.56
748.234	24280.01
748.573	24282.27
748.911	24271.88
749.25	24208.6
749.589	24116.17
749.928	24136.51
750.267	24230.07
750.605	24031.2
750.944	23994.82
751.283	23984.65
751.621	23931.77
751.96	23847.93
752.298	23908.04
752.636	23936.97
752.975	23821.27
753.313	23621.72
753.651	23839.57
753.989	23501.95
754.327	23602.97
754.666	23445.46
755.004	23512.8
755.342	23622.85
755.679	23577.66
756.017	23393.71
756.355	23448.39
756.693	23339.02
757.031	23377.21
757.368	23248.85
757.706	23202.75
758.044	23208.85
758.381	23226.25
758.719	23089.53
759.056	23041.17
759.394	23057.9
759.731	22715.08
760.068	22864.68
