Data from hue_22_FLMS001491_00016.txt Node
Date: Tue Feb 07 17:09:41 GMT 2017
User: dcchb
Spectrometer: FLMS00149
Trigger mode: 0
Integration Time (sec): 2.000000E-2
Scans to average: 10
Electric dark correction enabled: true
Nonlinearity correction enabled: false
Boxcar width: 0
XAxis mode: Wavelengths
Number of Pixels in Spectrum: 2048
>>>>>Begin Spectral Data<<<<<
341.393	-11.77
341.776	-11.77
342.16	-11.77
342.543	-70.52
342.927	-61.93
343.31	-75.94
343.693	-75.49
344.077	-69.39
344.46	-56.74
344.843	-49.5
345.226	-54.02
345.61	-27.81
345.993	-28.04
346.376	8.12
346.759	17.84
347.142	17.16
347.525	56.03
347.908	56.48
348.291	80.44
348.674	96.25
349.057	104.62
349.44	145.29
349.823	146.42
350.206	164.28
350.588	217.83
350.971	215.12
351.354	240.21
351.737	243.82
352.119	252.63
352.502	284.5
352.884	264.61
353.267	295.35
353.65	288.34
354.032	296.48
354.414	316.14
354.797	312.07
355.179	326.76
355.562	334.89
355.944	318.17
356.326	350.03
356.709	338.06
357.091	355.68
357.473	340.09
357.855	346.42
358.238	362.01
358.62	362.46
359.002	353.65
359.384	353.87
359.766	341.67
360.148	346.87
360.53	348.9
360.912	348.9
361.294	334.89
361.676	345.97
362.057	345.97
362.439	334.21
362.821	330.37
363.203	334.67
363.584	344.38
363.966	330.6
364.348	331.05
364.729	351.39
365.111	316.36
365.493	320.43
365.874	319.07
366.256	335.57
366.637	317.27
367.019	328.79
367.4	313.65
367.781	306.42
368.163	313.65
368.544	323.59
368.925	330.37
369.306	347.1
369.688	335.12
370.069	324.72
370.45	315.23
370.831	326.53
371.212	312.97
371.593	324.95
371.974	329.24
372.355	328.34
372.736	345.74
373.117	328.79
373.498	336.02
373.879	340.09
374.26	326.98
374.641	330.6
375.021	309.13
375.402	321.11
375.783	326.98
376.163	338.96
376.544	336.93
376.925	348
377.305	325.4
377.686	318.62
378.066	357.72
378.447	340.99
378.827	316.14
379.208	343.48
379.588	326.76
379.968	357.72
380.349	348
380.729	354.33
381.109	338.06
381.489	351.16
381.87	345.29
382.25	337.38
382.63	345.74
383.01	353.42
383.39	358.17
383.77	372.41
384.15	353.42
384.53	367.43
384.91	369.69
385.29	358.17
385.67	370.6
386.049	353.65
386.429	355.46
386.809	359.07
387.189	357.26
387.568	375.34
387.948	355.91
388.328	361.56
388.707	381.44
389.087	367.43
389.466	388.45
389.846	373.31
390.225	379.64
390.605	389.35
390.984	385.06
391.363	371.5
391.743	372.86
392.122	383.25
392.501	381.9
392.881	389.35
393.26	364.72
393.639	381.67
394.018	386.87
394.397	396.59
394.776	390.94
395.155	414.66
395.534	403.14
395.913	415.79
396.292	406.3
396.671	415.57
397.05	393.42
397.429	401.11
397.808	394.33
398.186	395
398.565	405.4
398.944	398.17
399.323	400.88
399.701	409.47
400.08	412.4
400.458	423.93
400.837	419.86
401.215	420.99
401.594	425.29
401.972	435.45
402.351	421.44
402.729	451.27
403.107	434.1
403.486	433.65
403.864	435.91
404.242	448.79
404.62	438.17
404.999	427.32
405.377	452.63
405.755	446.3
406.133	440.65
406.511	459.86
406.889	464.38
407.267	442.23
407.645	464.15
408.023	456.47
408.401	463.48
408.779	455.12
409.156	457.37
409.534	466.41
409.912	456.92
410.29	489.24
410.667	497.6
411.045	469.35
411.422	474.55
411.8	470.03
412.178	482.23
412.555	504.61
412.933	501.67
413.31	512.97
413.687	493.76
414.065	522.46
414.442	506.87
414.819	505.74
415.197	517.49
415.574	499.63
415.951	513.19
416.328	524.94
416.705	525.17
417.082	538.73
417.46	532.85
417.837	538.95
418.214	540.99
418.591	524.94
418.967	562.23
419.344	551.61
419.721	540.31
420.098	577.15
420.475	542.57
420.852	547.09
421.228	551.84
421.605	570.82
421.982	575.34
422.358	573.98
422.735	551.16
423.111	565.62
423.488	562.68
423.864	587.54
424.241	605.39
424.617	595.9
424.994	595
425.37	635.68
425.746	610.37
426.123	606.75
426.499	593.87
426.875	585.96
427.251	609.46
427.627	621.21
428.003	622.79
428.379	620.53
428.756	641.32
429.132	631.83
429.507	645.39
429.883	632.06
430.259	666.41
430.635	663.92
431.011	666.86
431.387	664.6
431.763	699.18
432.138	684.04
432.514	677.48
432.89	687.65
433.265	693.53
433.641	713.19
434.016	729.46
434.392	714.09
434.767	706.63
435.143	726.75
435.518	729.91
435.894	738.72
436.269	749.57
436.644	756.8
437.02	790.25
437.395	776.46
437.77	794.54
438.145	766.29
438.52	778.04
438.895	799.51
439.271	786.86
439.646	783.69
440.021	818.95
440.395	803.58
440.77	829.57
441.145	811.94
441.52	834.77
441.895	804.94
442.27	844.48
442.645	843.13
443.019	866.18
443.394	851.94
443.769	847.42
444.143	838.83
444.518	837.25
444.892	874.31
445.267	876.8
445.641	870.25
446.016	883.8
446.39	880.41
446.764	889.23
447.139	901.66
447.513	910.02
447.887	921.32
448.262	893.07
448.636	915.22
449.01	921.77
449.384	910.92
449.758	930.58
450.132	967.42
450.506	945.95
450.88	939.85
451.254	952.96
451.628	962.45
452.002	982.78
452.376	980.07
452.75	976.46
453.123	974.2
453.497	991.15
453.871	987.98
454.244	1021.43
454.618	1050.35
454.992	1045.83
455.365	1046.51
455.739	1059.17
456.112	1102.33
456.486	1082.44
456.859	1092.61
457.232	1112.27
457.606	1085.83
457.979	1108.21
458.352	1135.32
458.725	1167.64
459.099	1145.49
459.472	1189.11
459.845	1172.16
460.218	1189.56
460.591	1192.72
460.964	1190.92
461.337	1222.1
461.71	1247.18
462.083	1254.42
462.456	1265.72
462.829	1279.05
463.201	1284.92
463.574	1302.78
463.947	1308.65
464.32	1329.67
464.692	1326.28
465.065	1336
465.438	1377.12
465.81	1421.19
466.183	1417.58
466.555	1463.9
466.928	1446.28
467.3	1442.43
467.672	1467.97
468.045	1477.01
468.417	1497.12
468.789	1514.52
469.161	1548.65
469.534	1549.32
469.906	1567.63
470.278	1652.6
470.65	1611.47
471.022	1667.96
471.394	1685.14
471.766	1670.45
472.138	1704.57
472.51	1770.33
472.882	1792.03
473.253	1782.31
473.625	1818.24
473.997	1846.72
474.369	1851.46
474.74	1881.52
475.112	1903.44
475.484	1942.99
475.855	1999.93
476.227	2035.19
476.598	2048.29
476.97	2063.66
477.341	2128.07
477.713	2179.59
478.084	2183.66
478.455	2230.44
478.827	2293.48
479.198	2316.31
479.569	2341.62
479.94	2401.5
480.311	2455.06
480.682	2509.98
481.053	2570.31
481.424	2565.34
481.795	2617.77
482.166	2649.41
482.537	2703.64
482.908	2756.52
483.279	2791.55
483.65	2834.04
484.021	2871.77
484.391	2935.73
484.762	2980.25
485.133	3011.88
485.503	3082.16
485.874	3139.56
486.244	3130.07
486.615	3248.04
486.985	3270.86
487.356	3350.18
487.726	3382.04
488.097	3458.43
488.467	3459.78
488.837	3564.41
489.207	3615.48
489.578	3652.77
489.948	3694.13
490.318	3724.18
490.688	3740
491.058	3800.56
491.428	3881.69
491.798	3933.67
492.168	3976.38
492.538	4082.14
492.908	4100.44
493.278	4101.12
493.648	4135.92
494.017	4228.35
494.387	4268.57
494.757	4300.44
495.126	4386.09
495.496	4388.57
495.866	4422.69
496.235	4489.36
496.605	4466.08
496.974	4533.88
497.344	4606.64
497.713	4630.82
498.082	4681.9
498.452	4701.11
498.821	4709.01
499.19	4791.95
499.559	4776.58
499.928	4816.36
500.298	4902.91
500.667	4906.75
501.036	4909.69
501.405	4949.91
501.774	4981.55
502.143	5006.41
502.512	5009.35
502.88	5057.48
503.249	5034.43
503.618	5112.85
503.987	5147.65
504.356	5161.21
504.724	5191.49
505.093	5266.74
505.462	5258.83
505.83	5285.95
506.199	5310.35
506.567	5391.93
506.936	5411.82
507.304	5448.2
507.672	5453.4
508.041	5490.69
508.409	5480.75
508.777	5540.18
509.145	5557.58
509.514	5592.61
509.882	5580.63
510.25	5639.61
510.618	5697.24
510.986	5707.41
511.354	5727.29
511.722	5805.03
512.09	5805.26
512.458	5837.35
512.826	5869.66
513.193	5859.49
513.561	5875.09
513.929	5885.48
514.297	5975.2
514.664	6008.64
515.032	6045.25
515.4	6114.63
515.767	6111.01
516.135	6108.53
516.502	6104.23
516.869	6223.55
517.237	6207.28
517.604	6181.29
517.972	6202.53
518.339	6212.03
518.706	6219.26
519.073	6282.98
519.44	6313.04
519.808	6360.27
520.175	6367.05
520.542	6447.95
520.909	6485.24
521.276	6520.49
521.643	6547.38
522.009	6554.84
522.376	6606.82
522.743	6594.84
523.11	6730.88
523.477	6735.85
523.843	6781.05
524.21	6790.77
524.577	6855.85
524.943	6874.38
525.31	6940.59
525.676	7031.89
526.043	7001.61
526.409	7025.56
526.776	7086.81
527.142	7169.51
527.508	7187.37
527.874	7262.17
528.241	7268.95
528.607	7247.93
528.973	7301.26
529.339	7317.53
529.705	7424.42
530.071	7461.48
530.437	7377.87
530.803	7468.72
531.169	7534.03
531.535	7557.53
531.901	7559.56
532.267	7652.44
532.632	7642.95
532.998	7730.63
533.364	7723.85
533.73	7739.67
534.095	7785.32
534.461	7845.2
534.826	7903.28
535.192	7887.91
535.557	7981.24
535.923	7961.81
536.288	8025.54
536.653	8015.14
537.019	8012.2
537.384	8137.4
537.749	8098.53
538.114	8162.71
538.479	8164.97
538.845	8231.18
539.21	8184.86
539.575	8211.52
539.94	8293.55
540.305	8343.72
540.67	8370.39
541.034	8419.43
541.399	8462.14
541.764	8478.86
542.129	8473.89
542.494	8544.62
542.858	8518.18
543.223	8539.42
543.587	8607.67
543.952	8602.92
544.316	8745.74
544.681	8668.23
545.045	8718.17
545.41	8787.78
545.774	8822.58
546.138	8874.33
546.503	8937.15
546.867	8923.82
547.231	8955.23
547.595	8963.37
547.959	9000.88
548.324	8967.66
548.688	9045.85
549.052	9082.91
549.416	9124.72
549.779	9195.68
550.143	9203.59
550.507	9172.4
550.871	9244.49
551.235	9214.21
551.599	9300.76
551.962	9350.02
552.326	9401.09
552.689	9384.6
553.053	9393.19
553.417	9409.91
553.78	9535.33
554.143	9520.41
554.507	9534.42
554.87	9620.98
555.234	9684.7
555.597	9660.75
555.96	9698.04
556.323	9780.75
556.686	9742.78
557.05	9794.76
557.413	9736.45
557.776	9852.61
558.139	9930.57
558.502	9943.91
558.865	9974.41
559.228	10059.16
559.59	10011.47
559.953	10066.84
560.316	10161.75
560.679	10130.57
561.041	10210.11
561.404	10225.03
561.767	10243.11
562.129	10349.32
562.492	10349.77
562.854	10338.02
563.217	10407.62
563.579	10479.94
563.941	10443.78
564.304	10525.58
564.666	10575.75
565.028	10648.29
565.39	10611.68
565.753	10740.49
566.115	10722.64
566.477	10738.69
566.839	10837.44
567.201	10912.92
567.563	10890.32
567.925	10982.52
568.287	10947.95
568.648	10971.67
569.01	10979.58
569.372	11150.88
569.734	11102.97
570.095	11145.91
570.457	11282.4
570.819	11230.43
571.18	11291.44
571.542	11368.73
571.903	11395.39
572.265	11492.57
572.626	11517.42
572.987	11515.84
573.349	11547.03
573.71	11683.07
574.071	11693.46
574.432	11742.95
574.794	11878.77
575.155	11866.79
575.516	11922.61
575.877	12006
576.238	12028.82
576.599	12152.89
576.96	12192.43
577.32	12276.27
577.681	12371.41
578.042	12483.73
578.403	12541.58
578.763	12605.3
579.124	12744.06
579.485	12799.2
579.845	12952.87
580.206	13064.95
580.566	13104.73
580.927	13260.88
581.287	13405.06
581.648	13484.15
582.008	13719.4
582.368	13804.59
582.728	13867.19
583.089	14024.25
583.449	14272.38
583.809	14399.38
584.169	14532.71
584.529	14611.81
584.889	14990.55
585.249	15071.91
585.609	15249.98
585.969	15583.53
586.329	15736.52
586.688	15964.99
587.048	16188.94
587.408	16396.39
587.768	16582.6
588.127	16912.08
588.487	17026.43
588.846	17437.49
589.206	17461.9
589.565	17712.74
589.925	18094.2
590.284	18309.11
590.643	18716.1
591.003	18940.28
591.362	19223.89
591.721	19466.82
592.08	19754.49
592.44	20099.8
592.799	20370.52
593.158	20713.57
593.517	20917.85
593.876	21304.74
594.235	21495.69
594.593	21993.53
594.952	22284.37
595.311	22517.81
595.67	22941.98
596.029	23308.75
596.387	23586.71
596.746	23863.54
597.104	24141.5
597.463	24512.11
597.822	24952.55
598.18	25094.24
598.538	25442.48
598.897	25858.74
599.255	26007.44
599.613	26581.43
599.972	26861.43
600.33	27234.98
600.688	27430.9
601.046	27877.67
601.404	28310.65
601.762	28396.98
602.12	28846.01
602.478	29163.06
602.836	29455.71
603.194	29537.06
603.552	29940.67
603.91	30081.68
604.268	30606.64
604.625	30794.2
604.983	31156.45
605.341	31293.85
605.698	31739.49
606.056	32055.19
606.413	32339.7
606.771	32652.23
607.128	32925.45
607.485	33003.86
607.843	33381.03
608.2	33759.55
608.557	34017.4
608.914	34195.47
609.272	34699.19
609.629	34814.66
609.986	35310.92
610.343	35227.99
610.7	35771.93
611.057	35983.67
611.414	36094.18
611.771	36302.31
612.127	36679.02
612.484	36802.86
612.841	37258.67
613.198	37260.25
613.554	37451.88
613.911	37756.06
614.267	37864.75
614.624	37955.82
614.98	38302.03
615.337	38679.87
615.693	38822.69
616.05	38919.87
616.406	39239.86
616.762	39292.06
617.118	39526.63
617.475	39590.81
617.831	39792.84
618.187	40087.97
618.543	40243.9
618.899	40470.56
619.255	40614.29
619.611	40701.06
619.967	40928.4
620.323	41084.56
620.678	41042.52
621.034	41207.49
621.39	41355.73
621.746	41350.54
622.101	41803.41
622.457	41658.55
622.812	41739.91
623.168	42025.32
623.523	42177.86
623.879	42388.48
624.234	42186
624.589	42408.59
624.945	42535.59
625.3	42594.35
625.655	42814.23
626.01	42811.97
626.365	43009.02
626.72	42861.01
627.075	42998.4
627.43	43068.91
627.785	43010.83
628.14	43076.14
628.495	43404.72
628.85	43243.82
629.205	43283.37
629.559	43600.87
629.914	43507.77
630.269	43564.04
630.623	43531.72
630.978	43478.62
631.332	43761.55
631.687	43780.53
632.041	43743.24
632.396	43755.45
632.75	43697.59
633.104	43929
633.459	43760.87
633.813	43731.94
634.167	43824.14
634.521	43910.92
634.875	43945.72
635.229	43892.39
635.583	43844.48
635.937	43776.01
636.291	43788.67
636.645	43900.07
636.999	43790.7
637.352	43866.86
637.706	43645.39
638.06	43914.31
638.413	43849.68
638.767	43666.86
639.121	43892.62
639.474	43638.84
639.828	43686.75
640.181	43869.79
640.534	43747.31
640.888	43664.83
641.241	43498.05
641.594	43773.3
641.947	43788.21
642.301	43703.7
642.654	43633.64
643.007	43772.85
643.36	43753.86
643.713	43811.49
644.066	43960.19
644.419	43473.65
644.771	43384.83
645.124	42998.18
645.477	43021
645.83	42627.79
646.182	42644.29
646.535	42604.29
646.888	42715.7
647.24	42339.89
647.593	42683.61
647.945	42621.92
648.298	42458.98
648.65	42353.45
649.002	42413.56
649.355	42588.47
649.707	42434.58
650.059	42648.81
650.411	42992.3
650.763	43165.4
651.115	43608.33
651.467	43392.07
651.819	43351.39
652.171	43304.16
652.523	43116.59
652.875	43221.22
653.227	43115.46
653.578	43390.94
653.93	43173.09
654.282	43078.63
654.633	43028.23
654.985	43235.23
655.337	43216.7
655.688	43221.67
656.039	43336.47
656.391	43040.89
656.742	43079.08
657.094	43057.61
657.445	43216.25
657.796	43053.09
658.147	43057.61
658.498	43079.98
658.849	43189.36
659.2	43131.73
659.551	42799.54
659.902	43005.41
660.253	42921.57
660.604	43018.97
660.955	42882.25
661.306	43024.39
661.656	43077.95
662.007	43165.63
662.358	43087.89
662.708	42937.84
663.059	43011.51
663.409	42717.05
663.76	43070.04
664.11	42995.92
664.461	42939.65
664.811	43070.49
665.161	42934.9
665.511	42894
665.862	42905.52
666.212	43033.2
666.562	42965.86
666.912	42827.79
667.262	42911.17
667.612	42805.19
667.962	42922.7
668.312	42844.74
668.662	43022.36
669.011	42891.74
669.361	42736.26
669.711	42661.01
670.06	42806.77
670.41	42600
670.76	42599.09
671.109	42884.96
671.459	42782.36
671.808	42731.29
672.157	42818.07
672.507	42382.6
672.856	42600.9
673.205	42530.39
673.554	42706.21
673.904	42538.3
674.253	42688.13
674.602	42630.73
674.951	42103.29
675.3	41844.99
675.649	42399.32
675.998	42464.86
676.346	42569.49
676.695	42536.49
677.044	42285.88
677.393	42435.25
677.741	42543.95
678.09	42478.64
678.438	42399.32
678.787	42381.7
679.135	42461.92
679.484	42296.5
679.832	42335.14
680.181	42042.04
680.529	42223.28
680.877	41988.71
681.225	41992.1
681.573	42169.5
681.922	41919.79
682.27	41840.24
682.618	41770.86
682.966	41720.7
683.314	41813.58
683.661	41696.52
684.009	41428.95
684.357	41327.03
684.705	41354.83
685.053	41392.34
685.4	41252.01
685.748	41138.11
686.095	41310.76
686.443	41101.28
686.79	41043.88
687.138	41239.81
687.485	41209.3
687.832	40981.06
688.18	41001.39
688.527	40877.33
688.874	40935.63
689.221	40671.46
689.568	40608.41
689.915	40532.71
690.262	40539.94
690.609	40342.2
690.956	40207.74
691.303	40327.74
691.65	40116.67
691.997	40011.82
692.344	39703.35
692.69	39803.23
693.037	39812.72
693.383	39499.29
693.73	39534.09
694.077	39327.09
694.423	39336.13
694.769	39323.7
695.116	39070.6
695.462	39157.83
695.808	39126.41
696.155	39085.29
696.501	38810.49
696.847	38747.89
697.193	38528.69
697.539	38730.04
697.885	38308.13
698.231	38390.84
698.577	38386.77
698.923	38231.52
699.269	38248.92
699.614	37892.1
699.96	37907.46
700.306	37811.2
700.651	37612.33
700.997	37716.28
701.342	37533.69
701.688	37522.84
702.033	37311.55
702.379	37460.92
702.724	37163.98
703.069	37277.42
703.415	37001.72
703.76	36919.47
704.105	36918.11
704.45	36831.33
704.795	36785.69
705.14	36535.52
705.485	36681.51
705.83	36336.21
706.175	36597.67
706.52	36418.24
706.865	36188.41
707.209	36110.9
707.554	36020.73
707.899	36140.28
708.243	36046.04
708.588	35938.02
708.932	35685.38
709.277	35485.15
709.621	35668.43
709.966	35474.76
710.31	35528.09
710.654	35304.59
710.998	35312.5
711.342	35242.45
711.687	35186.86
712.031	34989.8
712.375	34847.43
712.719	34966.07
713.063	34839.52
713.407	34983.25
713.75	34743.71
714.094	34693.08
714.438	34562.24
714.782	34580.32
715.125	34349.59
715.469	34581.45
715.812	34354.11
716.156	34241.35
716.499	34209.03
716.843	34296.03
717.186	33945.99
717.53	34169.03
717.873	33910.05
718.216	34089.03
718.559	33949.38
718.902	33692.66
719.246	33704.18
719.589	33702.15
719.932	33525.88
720.275	33565.43
720.617	33548.71
720.96	33584.87
721.303	33576.05
721.646	33432.33
721.989	33295.16
722.331	33448.82
722.674	33305.78
723.016	33322.27
723.359	33091.32
723.701	33183.07
724.044	32898.56
724.386	32791.21
724.729	33019
725.071	32880.25
725.413	32979.91
725.755	32822.4
726.097	32539.7
726.439	32532.01
726.782	32513.26
727.124	32662.18
727.465	32520.71
727.807	32356.65
728.149	32338.8
728.491	32293.15
728.833	32214.96
729.175	32233.94
729.516	32167.28
729.858	32121.4
730.199	32102.64
730.541	32222.42
730.882	31975.64
731.224	32062.19
731.565	31839.37
731.906	31816.1
732.248	31915.08
732.589	31715.08
732.93	31602.54
733.271	31685.48
733.612	31678.02
733.953	31729.32
734.294	31543.56
734.635	31472.6
734.976	31483.9
735.317	31322.33
735.658	31410.46
735.999	31353.06
736.339	31262.21
736.68	31375.43
737.021	31366.62
737.361	31086.63
737.702	31272.61
738.042	31111.03
738.383	31118.04
738.723	31181.31
739.063	30942.68
739.404	31067.19
739.744	30886.63
740.084	30796.46
740.424	30914.2
740.764	30753.53
741.104	30871.04
741.444	30726.64
741.784	30520.31
742.124	30721.21
742.464	30664.49
742.804	30558.5
743.143	30571.61
743.483	30505.62
743.823	30412.29
744.162	30384.95
744.502	30439.41
744.841	30228.57
745.181	30272.86
745.52	30210.94
745.86	30225.41
746.199	30203.03
746.538	30125.52
746.877	30199.19
747.216	30164.62
747.556	30055.47
747.895	30072.64
748.234	29961.46
748.573	29916.49
748.911	29827.45
749.25	29737.06
749.589	29665.42
749.928	29594.01
750.267	29681.24
750.605	29649.38
750.944	29605.76
751.283	29530.28
751.621	29685.98
751.96	29370.74
752.298	29513.56
752.636	29387.24
752.975	29227.47
753.313	29055.95
753.651	29232.89
753.989	29009.39
754.327	28994.03
754.666	28819.12
755.004	28979.11
755.342	28904.54
755.679	28883.97
756.017	28687.82
756.355	28734.37
756.693	28663.41
757.031	28620.93
757.368	28440.14
757.706	28521.5
758.044	28380.93
758.381	28320.15
758.719	28177.32
759.056	28303.42
759.394	28295.74
