Data from hue_330_FLMS001491_28.txt Node
Date: Mon Feb 06 15:45:10 GMT 2017
User: dcchb
Spectrometer: FLMS00149
Trigger mode: 0
Integration Time (sec): 2.000000E-2
Scans to average: 10
Electric dark correction enabled: true
Nonlinearity correction enabled: false
Boxcar width: 0
XAxis mode: Wavelengths
Number of Pixels in Spectrum: 2048
>>>>>Begin Spectral Data<<<<<
341.393	-11.86
341.776	-11.86
342.16	-11.86
342.543	-60.9
342.927	-75.14
343.31	-64.52
343.693	-71.3
344.077	-72.65
344.46	-53.22
344.843	-48.93
345.226	-61.13
345.61	-40.56
345.993	-15.93
346.376	-9.15
346.759	5.54
347.142	36.27
347.525	49.38
347.908	65.42
348.291	51.64
348.674	109.26
349.057	119.88
349.44	125.31
349.823	151.07
350.206	158.53
350.588	199.43
350.971	212.31
351.354	224.29
351.737	242.37
352.119	246.89
352.502	261.12
352.884	285.3
353.267	298.64
353.65	280.56
354.032	287.11
354.414	299.31
354.797	300.67
355.179	324.62
355.562	339.31
355.944	318.97
356.326	330.27
356.709	335.47
357.091	347.45
357.473	332.99
357.855	346.77
358.238	354.68
358.62	338.86
359.002	352.65
359.384	344.28
359.766	341.12
360.148	335.02
360.53	323.95
360.912	356.04
361.294	338.64
361.676	341.57
362.057	355.81
362.439	344.51
362.821	320.33
363.203	316.71
363.584	319.65
363.966	321.69
364.348	323.49
364.729	325.75
365.111	311.74
365.493	318.3
365.874	327.34
366.256	306.09
366.637	318.3
367.019	299.31
367.4	325.08
367.781	310.61
368.163	327.34
368.544	318.75
368.925	313.33
369.306	316.49
369.688	296.6
370.069	306.55
370.45	327.11
370.831	325.08
371.212	310.61
371.593	311.74
371.974	307.45
372.355	301.57
372.736	329.6
373.117	328.47
373.498	317.39
373.879	304.51
374.26	313.55
374.641	318.07
375.021	310.61
375.402	330.5
375.783	331.4
376.163	314.68
376.544	328.69
376.925	339.09
377.305	315.13
377.686	321.01
378.066	325.98
378.447	334.12
378.827	319.88
379.208	336.38
379.588	337.73
379.968	331.4
380.349	328.24
380.729	348.58
381.109	317.62
381.489	309.94
381.87	316.49
382.25	343.38
382.63	340.89
383.01	332.53
383.39	342.48
383.77	325.75
384.15	344.28
384.53	352.19
384.91	340.89
385.29	351.74
385.67	354
386.049	359.43
386.429	333.21
386.809	342.7
387.189	355.58
387.568	352.65
387.948	353.55
388.328	340.67
388.707	332.76
389.087	357.62
389.466	363.72
389.846	356.94
390.225	378.86
390.605	363.95
390.984	372.31
391.363	369.59
391.743	363.49
392.122	366.43
392.501	360.33
392.881	378.63
393.26	355.58
393.639	371.4
394.018	376.15
394.397	369.37
394.776	365.75
395.155	358.52
395.534	365.08
395.913	376.6
396.292	377.05
396.671	376.6
397.05	366.66
397.429	368.01
397.808	387.45
398.186	398.07
398.565	384.28
398.944	376.83
399.323	361.23
399.701	383.15
400.08	375.7
400.458	362.59
400.837	415.7
401.215	387.22
401.594	407.79
401.972	410.27
402.351	385.87
402.729	396.71
403.107	422.47
403.486	400.1
403.864	426.09
404.242	415.02
404.62	425.41
404.999	418.41
405.377	423.15
405.755	429.93
406.133	418.63
406.511	441.01
406.889	440.33
407.267	434.23
407.645	448.69
408.023	439.65
408.401	447.78
408.779	437.62
409.156	469.25
409.534	464.06
409.912	447.11
410.29	477.39
410.667	453.43
411.045	484.39
411.422	489.14
411.8	478.52
412.178	482.81
412.555	492.98
412.933	494.11
413.31	483.26
413.687	504.96
414.065	494.56
414.442	534.11
414.819	535.92
415.197	536.14
415.574	543.6
415.951	535.24
416.328	577.05
416.705	575.92
417.082	545.41
417.46	566.2
417.837	563.26
418.214	563.26
418.591	588.12
418.967	591.06
419.344	572.53
419.721	575.92
420.098	589.25
420.475	598.74
420.852	587.89
421.228	610.94
421.605	624.73
421.982	623.6
422.358	651.4
422.735	651.62
423.111	642.58
423.488	673.09
423.864	661.79
424.241	665.18
424.617	664.73
424.994	684.61
425.37	675.12
425.746	701.56
426.123	680.77
426.499	678.29
426.875	728
427.251	686.42
427.627	714.9
428.003	740.43
428.379	743.6
428.756	731.39
429.132	756.03
429.507	748.12
429.883	784.5
430.259	757.16
430.635	785.4
431.011	790.37
431.387	827.66
431.763	806.42
432.138	819.3
432.514	840.77
432.89	816.14
433.265	861.33
433.641	840.32
434.016	851.84
434.392	849.13
434.767	882.35
435.143	872.63
435.518	862.24
435.894	912.18
436.269	888.9
436.644	931.84
437.02	943.59
437.395	897.04
437.77	921.22
438.145	910.15
438.52	943.59
438.895	982.46
439.271	976.81
439.646	993.08
440.021	972.52
440.395	987.66
440.77	960.54
441.145	997.37
441.52	1004.83
441.895	1029.24
442.27	1016.13
442.645	1018.39
443.019	1056.81
443.394	1024.27
443.769	1016.13
444.143	1031.05
444.518	1027.43
444.892	1038.73
445.267	1064.72
445.641	1038.28
446.016	1050.71
446.39	1092.51
446.764	1097.03
447.139	1058.84
447.513	1075.56
447.887	1071.05
448.262	1071.72
448.636	1077.15
449.01	1073.08
449.384	1103.81
449.758	1102.91
450.132	1120.54
450.506	1100.42
450.88	1116.02
451.254	1133.64
451.628	1142.23
452.002	1158.05
452.376	1167.99
452.75	1139.97
453.123	1179.74
453.497	1191.27
453.871	1162.57
454.244	1198.5
454.618	1212.51
454.992	1220.42
455.365	1225.39
455.739	1242.34
456.112	1244.15
456.486	1236.46
456.859	1269.46
457.232	1251.83
457.606	1278.72
457.979	1254.77
458.352	1313.98
458.725	1294.32
459.099	1316.69
459.472	1321.21
459.845	1352.17
460.218	1348.78
460.591	1350.59
460.964	1356.01
461.337	1378.61
461.71	1367.53
462.083	1403.47
462.456	1417.7
462.829	1401.66
463.201	1390.81
463.574	1421.77
463.947	1453.18
464.32	1486.85
464.692	1479.17
465.065	1490.7
465.438	1523.24
465.81	1513.52
466.183	1564.59
466.555	1593.07
466.928	1535.21
467.3	1546.74
467.672	1567.08
468.045	1611.37
468.417	1612.27
468.789	1612.27
469.161	1618.83
469.534	1643.01
469.906	1678.49
470.278	1682.78
470.65	1659.5
471.022	1744.02
471.394	1733.4
471.766	1762.78
472.138	1748.32
472.51	1780.18
472.882	1814.75
473.253	1873.06
473.625	1836.67
473.997	1880.29
474.369	1875.54
474.74	1908.09
475.112	1929.55
475.484	1989.44
475.855	1998.03
476.227	2033.73
476.598	2046.61
476.97	2050.68
477.341	2080.74
477.713	2165.03
478.084	2120.06
478.455	2203.67
478.827	2180.62
479.198	2279.83
479.569	2260.39
479.94	2289.09
480.311	2326.61
480.682	2346.94
481.053	2426.72
481.424	2433.95
481.795	2472.36
482.166	2480.05
482.537	2489.77
482.908	2511.23
483.279	2561.4
483.65	2590.33
484.021	2610.21
484.391	2658.8
484.762	2669.65
485.133	2708.97
485.503	2720.95
485.874	2746.71
486.244	2791.68
486.615	2816.76
486.985	2861.73
487.356	2895.63
487.726	2897.44
488.097	2977.66
488.467	2952.13
488.837	2995.97
489.207	3024.44
489.578	3127.49
489.948	3129.75
490.318	3128.17
490.688	3172.23
491.058	3202.74
491.428	3217.2
491.798	3248.62
492.168	3335.17
492.538	3320.93
492.908	3351.66
493.278	3357.09
493.648	3447.93
494.017	3429.85
494.387	3409.74
494.757	3502.39
495.126	3499.46
495.496	3501.94
495.866	3515.73
496.235	3601.6
496.605	3616.29
496.974	3618.1
497.344	3671.2
497.713	3654.25
498.082	3656.51
498.452	3710.07
498.821	3733.35
499.19	3734.03
499.559	3739.68
499.928	3786.68
500.298	3790.3
500.667	3806.79
501.036	3825.1
501.405	3869.16
501.774	3876.17
502.143	3907.35
502.512	3902.61
502.88	3953.23
503.249	3948.48
503.618	3985.09
503.987	3974.47
504.356	3983.74
504.724	3964.75
505.093	4041.36
505.462	4031.65
505.83	4043.85
506.199	4048.82
506.567	4095.37
506.936	4098.54
507.304	4154.35
507.672	4120
508.041	4163.17
508.409	4176.05
508.777	4199.1
509.145	4214.24
509.514	4219.44
509.882	4223.5
510.25	4259.44
510.618	4218.31
510.986	4200.45
511.354	4295.59
511.722	4340.11
512.09	4336.72
512.458	4281.13
512.826	4385.08
513.193	4397.74
513.561	4337.63
513.929	4385.53
514.297	4421.47
514.664	4433.89
515.032	4439.32
515.4	4503.27
515.767	4495.59
516.135	4482.26
516.502	4473.22
516.869	4560.9
517.237	4503.5
517.604	4498.07
517.972	4541.91
518.339	4554.57
518.706	4570.16
519.073	4597.96
519.44	4598.86
519.808	4573.33
520.175	4621.69
520.542	4658.07
520.909	4676.37
521.276	4658.52
521.643	4693.32
522.009	4715.47
522.376	4738.75
522.743	4753.43
523.11	4796.82
523.477	4831.62
523.843	4822.36
524.21	4872.3
524.577	4878.85
524.943	4872.98
525.31	4884.96
525.676	4953.66
526.043	4980.77
526.409	5016.48
526.776	5022.58
527.142	5039.53
527.508	5108.68
527.874	5117.27
528.241	5126.53
528.607	5087.44
528.973	5158.4
529.339	5172.18
529.705	5205.85
530.071	5266.64
530.437	5268.9
530.803	5292.18
531.169	5294.44
531.535	5340.76
531.901	5371.5
532.267	5363.59
532.632	5447.43
532.998	5395.68
533.364	5434.55
533.73	5450.59
534.095	5505.28
534.461	5524.94
534.826	5548.67
535.192	5545.28
535.557	5613.52
535.923	5544.6
536.288	5625.95
536.653	5650.13
537.019	5623.92
537.384	5691.26
537.749	5690.36
538.114	5700.53
538.479	5746.85
538.845	5709.34
539.21	5756.12
539.575	5814.65
539.94	5818.49
540.305	5837.25
540.67	5865.72
541.034	5868.21
541.399	5934.87
541.764	5872.05
542.129	5946.85
542.494	5954.76
542.858	5958.37
543.223	5986.62
543.587	6046.51
543.952	6070.01
544.316	6042.67
544.681	6094.42
545.045	6135.32
545.41	6146.62
545.774	6179.84
546.138	6189.55
546.503	6209.22
546.867	6225.03
547.231	6329.44
547.595	6298.25
547.959	6335.54
548.324	6337.35
548.688	6367.4
549.052	6385.48
549.416	6381.87
549.779	6441.07
550.143	6391.81
550.507	6420.28
550.871	6503.9
551.235	6452.82
551.599	6581.18
551.962	6537.79
552.326	6553.61
552.689	6601.97
553.053	6599.49
553.417	6575.76
553.78	6665.7
554.143	6641.29
554.507	6708.86
554.87	6676.1
555.234	6742.76
555.597	6745.25
555.96	6720.61
556.323	6761.29
556.686	6724
557.05	6795.64
557.413	6871.57
557.776	6855.07
558.139	6882.19
558.502	6869.54
558.865	6920.16
559.228	6979.36
559.59	7001.06
559.953	6950.89
560.316	7080.6
560.679	7068.4
561.041	7085.35
561.404	7100.49
561.767	7127.61
562.129	7058.23
562.492	7243.09
562.854	7209.87
563.217	7186.14
563.579	7219.13
563.941	7220.94
564.304	7227.04
564.666	7311.11
565.028	7329.64
565.39	7327.38
565.753	7321.95
566.115	7379.58
566.477	7375.96
566.839	7474.72
567.201	7452.12
567.563	7545.68
567.925	7472.91
568.287	7457.09
568.648	7525.34
569.01	7606.47
569.372	7594.94
569.734	7620.7
570.095	7693.47
570.457	7704.54
570.819	7772.11
571.18	7771.21
571.542	7860.25
571.903	7840.13
572.265	7868.61
572.626	7902.05
572.987	7943.18
573.349	8090.75
573.71	8113.35
574.071	8138.88
574.432	8159.22
574.794	8313.57
575.155	8279.9
575.516	8293.45
575.877	8361.02
576.238	8442.83
576.599	8577.97
576.96	8542.04
577.32	8612.77
577.681	8699.09
578.042	8831.29
578.403	8869.71
578.763	8992.42
579.124	9035.36
579.485	9201
579.845	9230.38
580.206	9398.51
580.566	9447.77
580.927	9604.38
581.287	9744.26
581.648	9786.3
582.008	10029.23
582.368	10144.71
582.728	10294.08
583.089	10304.47
583.449	10557.12
583.809	10743.79
584.169	10881.41
584.529	11100.61
584.889	11257.9
585.249	11402.75
585.609	11553.26
585.969	11841.16
586.329	11957.99
586.688	12221.26
587.048	12392.78
587.408	12597.3
587.768	12787.8
588.127	13050.84
588.487	13210.16
588.846	13576.93
589.206	13722.24
589.565	14034.09
589.925	14286.29
590.284	14480.18
590.643	14737.58
591.003	15028.42
591.362	15305.7
591.721	15533.72
592.08	15867.04
592.44	16172.57
592.799	16400.36
593.158	16658.43
593.517	16870.4
593.876	17263.16
594.235	17473.33
594.593	17796.71
594.952	18158.51
595.311	18276.02
595.67	18588.32
596.029	19024.7
596.387	19383.56
596.746	19600.05
597.104	19788.75
597.463	20183.54
597.822	20368.17
598.18	20618.33
598.538	20875.27
598.897	21331.53
599.255	21428.93
599.613	22039.08
599.972	22188.23
600.33	22508.9
600.688	22604.04
601.046	23053.07
601.404	23318.82
601.762	23541.64
602.12	23859.82
602.478	24115.41
602.836	24443.76
603.194	24567.6
603.552	24820.03
603.91	25040.13
604.268	25361.48
604.625	25540.01
604.983	25841.47
605.341	25977.28
605.698	26430.38
606.056	26764.83
606.413	26870.59
606.771	27186.52
607.128	27440.52
607.485	27429.45
607.843	27770.46
608.2	28248.18
608.557	28399.82
608.914	28428.52
609.272	28863.99
609.629	29060.37
609.986	29348.49
610.343	29438.66
610.7	29707.81
611.057	29848.37
611.414	30119.1
611.771	30174.01
612.127	30446.09
612.484	30647.44
612.841	30814.67
613.198	31001.11
613.554	31194.32
613.911	31490.81
614.267	31574.65
614.624	31696
614.98	31989.33
615.337	32216.44
615.693	32205.37
616.05	32285.37
616.406	32627.05
616.762	32619.82
617.118	32783.66
617.475	32974.84
617.831	33138.9
618.187	33413.7
618.543	33516.29
618.899	33733.01
619.255	33787.47
619.611	33900.01
619.967	34082.61
620.323	34223.85
620.678	34232.66
621.034	34271.3
621.39	34363.5
621.746	34455.25
622.101	34894.56
622.457	34606.66
622.812	34875.58
623.168	35053.2
623.523	35068.57
623.879	35328.9
624.234	35035.35
624.589	35309.47
624.945	35447.54
625.3	35505.85
625.655	35556.01
626.01	35620.87
626.365	35692.73
626.72	35788.32
627.075	35961.65
627.43	35952.61
627.785	35765.73
628.14	36160.74
628.495	36138.37
628.85	36181.08
629.205	36056.57
629.559	36304.92
629.914	36245.49
630.269	36391.92
630.623	36200.74
630.978	36284.36
631.332	36432.6
631.687	36572.71
632.041	36402.55
632.396	36458.82
632.75	36497.01
633.104	36531.13
633.459	36503.33
633.813	36467.63
634.167	36484.8
634.521	36555.08
634.875	36643.22
635.229	36560.51
635.583	36389.21
635.937	36612.71
636.291	36492.26
636.645	36533.39
636.999	36628.08
637.352	36644.8
637.706	36587.85
638.06	36607.51
638.413	36658.36
638.767	36480.06
639.121	36656.32
639.474	36429.89
639.828	36597.34
640.181	36584.46
640.534	36708.98
640.888	36497.91
641.241	36397.57
641.594	36503.11
641.947	36630.34
642.301	36419.72
642.654	36492.94
643.007	36496.1
643.36	36386.05
643.713	36339.72
644.066	36631.92
644.419	36437.57
644.771	36098.15
645.124	35875.55
645.477	35825.39
645.83	35572.29
646.182	35493.42
646.535	35496.35
646.888	35371.39
647.24	35283.93
647.593	35414.55
647.945	35387.21
648.298	35156.48
648.65	35285.51
649.002	35189.92
649.355	35264.95
649.707	35143.14
650.059	35423.81
650.411	35757.59
650.763	35862.22
651.115	36369.55
651.467	36081.42
651.819	36167.98
652.171	36096.79
652.523	36073.51
652.875	36041.43
653.227	35953.74
653.578	36181.08
653.93	36019.28
654.282	35906.06
654.633	35944.25
654.985	35973.18
655.337	36030.8
655.688	36031.26
656.039	36116.23
656.391	35774.31
656.742	35930.69
657.094	35809.34
657.445	35916.91
657.796	35884.14
658.147	35658.38
658.498	35833.3
658.849	35852.05
659.2	35840.75
659.551	35634.66
659.902	35755.78
660.253	35849.34
660.604	35798.49
660.955	35692.51
661.306	35750.59
661.656	35769.57
662.007	35720.53
662.358	35654.32
662.708	35690.47
663.059	35740.19
663.409	35601.66
663.76	35713.75
664.11	35645.96
664.461	35806.4
664.811	35793.52
665.161	35711.49
665.511	35714.43
665.862	35722.11
666.212	35756.46
666.562	35828.32
666.912	35813.63
667.262	35664.94
667.612	35727.08
667.962	35670.59
668.312	35522.12
668.662	35866.29
669.011	35612.51
669.361	35616.35
669.711	35611.38
670.06	35624.94
670.41	35431.95
670.76	35474.66
671.109	35693.41
671.459	35520.31
671.808	35391.5
672.157	35475.79
672.507	35312.4
672.856	35368.22
673.205	35389.24
673.554	35530.48
673.904	35339.07
674.253	35484.83
674.602	35373.87
674.951	34963.49
675.3	34736.83
675.649	35276.7
675.998	35200.09
676.346	35258.39
676.695	35391.5
677.044	35193.99
677.393	35199.19
677.741	35362.57
678.09	35132.75
678.438	35158.28
678.787	35245.97
679.135	35148.79
679.484	34943.83
679.832	35033.99
680.181	34856.6
680.529	34960.32
680.877	34918.74
681.225	34953.09
681.573	35131.17
681.922	34765.53
682.27	34740.67
682.618	34766.2
682.966	34629.26
683.314	34791.06
683.661	34602.37
684.009	34440.79
684.357	34462.48
684.705	34429.26
685.053	34481.47
685.4	34332.32
685.748	34229.5
686.095	34222.26
686.443	34048.03
686.79	34166.67
687.138	34167.12
687.485	34161.47
687.832	33877.87
688.18	34079.89
688.527	33791.31
688.874	33794.7
689.221	33703.18
689.568	33576.63
689.915	33603.3
690.262	33584.54
690.609	33430.42
690.956	33363.08
691.303	33355.39
691.65	33310.42
691.997	33186.59
692.344	33019.81
692.69	33031.11
693.037	33150.88
693.383	32801.06
693.73	32837.44
694.077	32711.57
694.423	32756.31
694.769	32525.81
695.116	32514.51
695.462	32448.98
695.808	32333.27
696.155	32420.05
696.501	32129.44
696.847	32193.39
697.193	31978.03
697.539	32178.93
697.885	31873.85
698.231	31787.98
698.577	31787.53
698.923	31695.1
699.269	31506.4
699.614	31406.52
699.96	31402.45
700.306	31358.38
700.651	31286.52
700.997	31081.78
701.342	31105.51
701.688	31037.94
702.033	31048.79
702.379	31042.69
702.724	30849.47
703.069	30887.44
703.415	30498.29
703.76	30668.69
704.105	30623.94
704.45	30574.45
704.795	30352.76
705.14	30413.55
705.485	30288.13
705.83	30122.48
706.175	30206.78
706.52	30084.07
706.865	29884.98
707.209	29945.99
707.554	29842.72
707.899	29911.87
708.243	29810.63
708.588	29650.18
708.932	29499.22
709.277	29509.85
709.621	29453.35
709.966	29254.94
710.31	29292.9
710.654	29006.36
710.998	29188.27
711.342	29219.23
711.687	29123.42
712.031	28956.87
712.375	28904.66
712.719	28800.03
713.063	28834.84
713.407	28920.26
713.75	28809.07
714.094	28608.85
714.438	28509.42
714.782	28694.5
715.125	28401.17
715.469	28592.58
715.812	28401.85
716.156	28317.56
716.499	28206.38
716.843	28327.73
717.186	28055.65
717.53	28332.7
717.873	28145.36
718.216	28178.36
718.559	28010.9
718.902	27866.95
719.246	27954.18
719.589	27831.25
719.932	27774.3
720.275	27676
720.617	27685.71
720.96	27594.64
721.303	27600.74
721.646	27637.8
721.989	27401.88
722.331	27530.91
722.674	27486.62
723.016	27480.07
723.359	27330.69
723.701	27397.36
724.044	27270.58
724.386	27155.56
724.729	27281.43
725.071	27136.8
725.413	27087.54
725.755	27071.72
726.097	27074.2
726.439	26827.88
726.782	26906.07
727.124	26987.65
727.465	26812.06
727.807	26845.28
728.149	26748.79
728.491	26605.74
728.833	26738.62
729.175	26667.43
729.516	26542.92
729.858	26625.63
730.199	26464.28
730.541	26497.5
730.882	26435.12
731.224	26485.07
731.565	26339.53
731.906	26413.2
732.248	26389.25
732.589	26263.38
732.93	26065.64
733.271	26219.99
733.612	26221.57
733.953	26105.87
734.294	26004.63
734.635	26015.47
734.976	26034.68
735.317	25902.48
735.658	25885.31
735.999	25829.72
736.339	25772.54
736.68	25901.35
737.021	25826.78
737.361	25684.41
737.702	25745.2
738.042	25624.07
738.383	25676.95
738.723	25734.13
739.063	25475.83
739.404	25678.31
739.744	25473.34
740.084	25483.06
740.424	25550.63
740.764	25407.13
741.104	25490.74
741.444	25286.23
741.784	25273.8
742.124	25442.16
742.464	25228.6
742.804	25230.64
743.143	25099.11
743.483	25069.96
743.823	25035.61
744.162	25055.95
744.502	25039.68
744.841	24832
745.181	24962.85
745.52	24797.43
745.86	24893.24
746.199	24783.42
746.538	24775.05
746.877	24845.56
747.216	24804.88
747.556	24730.31
747.895	24618.9
748.234	24542.52
748.573	24609.64
748.911	24409.87
749.25	24516.53
749.589	24322.41
749.928	24415.97
750.267	24453.03
750.605	24291.45
750.944	24302.75
751.283	24276.76
751.621	24282.19
751.96	24088.52
752.298	24078.8
752.636	24162.64
752.975	24033.38
753.313	23947.28
753.651	23966.49
753.989	23777.79
754.327	23809.88
754.666	23698.7
755.004	23693.5
755.342	23775.53
755.679	23559.04
756.017	23519.04
756.355	23563.56
756.693	23479.04
757.031	23512.49
757.368	23332.15
757.706	23208.77
758.044	23320.4
758.381	23205.15
758.719	23071.6
759.056	23105.27
759.394	23024.14
759.731	22909.34
760.068	23031.15
