Data from hue_10_FLMS001491_19.txt Node
Date: Mon Feb 06 15:31:30 GMT 2017
User: dcchb
Spectrometer: FLMS00149
Trigger mode: 0
Integration Time (sec): 2.000000E-2
Scans to average: 10
Electric dark correction enabled: true
Nonlinearity correction enabled: false
Boxcar width: 0
XAxis mode: Wavelengths
Number of Pixels in Spectrum: 2048
>>>>>Begin Spectral Data<<<<<
341.393	-26.33
341.776	-26.33
342.16	-26.33
342.543	-66.33
342.927	-81.92
343.31	-69.72
343.693	-81.47
344.077	-67
344.46	-55.03
344.843	-51.41
345.226	-29.04
345.61	-44.63
345.993	-14.8
346.376	6.89
346.759	22.94
347.142	25.2
347.525	40.79
347.908	52.77
348.291	61.35
348.674	91.41
349.057	111.75
349.44	132.54
349.823	120.11
350.206	146.78
350.588	181.13
350.971	211.63
351.354	201.24
351.737	228.36
352.119	249.6
352.502	260.22
352.884	264.96
353.267	275.36
353.65	280.11
354.032	271.52
354.414	298.18
354.797	312.87
355.179	301.57
355.562	311.97
355.944	305.87
356.326	344.74
356.709	322.59
357.091	348.35
357.473	318.3
357.855	336.83
358.238	347.22
358.62	339.54
359.002	307
359.384	322.36
359.766	331.4
360.148	345.41
360.53	328.92
360.912	324.62
361.294	317.17
361.676	331.63
362.057	322.14
362.439	326.88
362.821	331.4
363.203	315.58
363.584	316.49
363.966	325.08
364.348	318.3
364.729	325.98
365.111	297.51
365.493	300.44
365.874	325.53
366.256	330.5
366.637	299.77
367.019	301.35
367.4	306.32
367.781	300.44
368.163	288.69
368.544	315.81
368.925	305.19
369.306	310.84
369.688	316.49
370.069	299.54
370.45	313.33
370.831	298.41
371.212	313.33
371.593	302.93
371.974	318.97
372.355	291.4
372.736	300.44
373.117	309.94
373.498	322.59
373.879	288.92
374.26	288.69
374.641	315.36
375.021	294.79
375.402	315.13
375.783	299.31
376.163	316.94
376.544	308.13
376.925	304.96
377.305	303.83
377.686	306.32
378.066	303.83
378.447	308.81
378.827	327.34
379.208	322.14
379.588	319.65
379.968	300.44
380.349	334.57
380.729	313.33
381.109	332.76
381.489	316.71
381.87	323.95
382.25	327.34
382.63	350.61
383.01	329.82
383.39	328.92
383.77	328.69
384.15	331.86
384.53	297.73
384.91	350.84
385.29	324.17
385.67	342.48
386.049	336.6
386.429	335.92
386.809	326.66
387.189	352.65
387.568	337.28
387.948	353.32
388.328	327.79
388.707	333.66
389.087	347.45
389.466	334.57
389.846	337.73
390.225	359.43
390.605	343.83
390.984	347.9
391.363	353.78
391.743	359.88
392.122	370.72
392.501	335.92
392.881	370.95
393.26	334.79
393.639	355.58
394.018	348.8
394.397	358.07
394.776	347
395.155	369.14
395.534	358.07
395.913	361.46
396.292	373.21
396.671	382.25
397.05	384.96
397.429	359.2
397.808	374.57
398.186	346.54
398.565	364.85
398.944	376.6
399.323	390.16
399.701	380.22
400.08	383.83
400.458	382.48
400.837	365.75
401.215	364.4
401.594	396.49
401.972	380.67
402.351	377.28
402.729	378.86
403.107	390.84
403.486	372.76
403.864	362.82
404.242	400.78
404.62	403.04
404.999	368.46
405.377	395.81
405.755	371.85
406.133	412.53
406.511	384.96
406.889	407.33
407.267	407.33
407.645	384.28
408.023	395.81
408.401	412.53
408.779	389.48
409.156	425.19
409.534	392.65
409.912	422.93
410.29	420.21
410.667	417.73
411.045	398.07
411.422	413.66
411.8	420.67
412.178	409.14
412.555	427.45
412.933	459.54
413.31	433.55
413.687	432.87
414.065	423.38
414.442	428.58
414.819	446.88
415.197	424.96
415.574	457.95
415.951	434.45
416.328	452.53
416.705	441.23
417.082	449.82
417.46	464.96
417.837	446.88
418.214	457.28
418.591	469.03
418.967	460.67
419.344	475.81
419.721	477.39
420.098	476.03
420.475	457.95
420.852	474.68
421.228	486.2
421.605	475.81
421.982	471.74
422.358	478.07
422.735	488.01
423.111	494.34
423.488	512.64
423.864	471.29
424.241	495.92
424.617	515.58
424.994	490.72
425.37	504.73
425.746	504.96
426.123	520.78
426.499	521.23
426.875	521.46
427.251	513.55
427.627	528.69
428.003	547.9
428.379	538.18
428.756	538.4
429.132	539.99
429.507	548.35
429.883	529.82
430.259	525.75
430.635	540.44
431.011	562.13
431.387	555.8
431.763	567.33
432.138	568.01
432.514	571.4
432.89	567.33
433.265	575.24
433.641	564.17
434.016	578.63
434.392	577.72
434.767	602.13
435.143	605.75
435.518	598.74
435.894	608.46
436.269	612.53
436.644	613.88
437.02	613.43
437.395	614.79
437.77	628.35
438.145	637.61
438.52	643.71
438.895	625.18
439.271	628.35
439.646	661.34
440.021	637.84
440.395	665.63
440.77	649.14
441.145	626.31
441.52	674.67
441.895	650.72
442.27	646.2
442.645	669.93
443.019	662.92
443.394	649.36
443.769	689.36
444.143	685.97
444.518	705.86
444.892	701.11
445.267	694.56
445.641	697.72
446.016	710.38
446.39	695.69
446.764	708.12
447.139	709.92
447.513	693.43
447.887	705.41
448.262	706.31
448.636	705.18
449.01	705.41
449.384	720.09
449.758	741.56
450.132	734.1
450.506	730.72
450.88	742.69
451.254	738.85
451.628	735.23
452.002	768.23
452.376	772.3
452.75	777.72
453.123	775.01
453.497	781.79
453.871	785.4
454.244	784.73
454.618	807.32
454.992	820.66
455.365	809.81
455.739	837.38
456.112	860.43
456.486	824.72
456.859	830.6
457.232	836.48
457.606	847.1
457.979	844.38
458.352	876.47
458.725	867.89
459.099	882.8
459.472	897.26
459.845	910.6
460.218	890.49
460.591	913.76
460.964	909.24
461.337	932.29
461.71	946.75
462.083	949.47
462.456	923.03
462.829	951.95
463.201	957.6
463.574	979.52
463.947	998.5
464.32	986.08
464.692	1014.55
465.065	1013.19
465.438	1023.14
465.81	1024.72
466.183	1036.02
466.555	1063.14
466.928	1064.27
467.3	1078.28
467.672	1100.42
468.045	1122.8
468.417	1104.94
468.789	1128.67
469.161	1127.54
469.534	1135.45
469.906	1160.08
470.278	1178.16
470.65	1200.99
471.022	1200.08
471.394	1225.62
471.766	1250.93
472.138	1255.9
472.51	1259.06
472.882	1290.47
473.253	1336.12
473.625	1352.17
473.997	1359.17
474.369	1363.69
474.74	1388.55
475.112	1401.66
475.484	1438.72
475.855	1452.73
476.227	1490.7
476.598	1499.06
476.97	1514.2
477.341	1567.08
477.713	1581.54
478.084	1583.35
478.455	1670.8
478.827	1626.06
479.198	1711.25
479.569	1724.14
479.94	1768.2
480.311	1779.95
480.682	1817.24
481.053	1863.57
481.424	1904.24
481.795	1884.13
482.166	1929.33
482.537	1963.23
482.908	2019.95
483.279	2041.42
483.65	2107.85
484.021	2134.07
484.391	2129.55
484.762	2207.06
485.133	2233.05
485.503	2253.84
485.874	2290.22
486.244	2350.11
486.615	2377.9
486.985	2404.12
487.356	2475.75
487.726	2472.59
488.097	2556.88
488.467	2525.92
488.837	2594.62
489.207	2640.72
489.578	2691.34
489.948	2693.15
490.318	2774.73
490.688	2778.35
491.058	2787.38
491.428	2844.56
491.798	2865.35
492.168	2908.51
492.538	2953.93
492.908	3010.66
493.278	3040.71
493.648	3094.95
494.017	3112.12
494.387	3170.88
494.757	3162.52
495.126	3209.75
495.496	3218.79
495.866	3275.96
496.235	3324.55
496.605	3296.98
496.974	3339.91
497.344	3368.61
497.713	3394.6
498.082	3427.59
498.452	3483.86
498.821	3537.65
499.19	3543.52
499.559	3546.69
499.928	3575.61
500.298	3585.78
500.667	3616.97
501.036	3616.74
501.405	3602.28
501.774	3654.03
502.143	3712.56
502.512	3690.19
502.88	3735.16
503.249	3768.83
503.618	3784.65
503.987	3848.83
504.356	3867.81
504.724	3817.19
505.093	3868.03
505.462	3906.45
505.83	3893.12
506.199	3904.42
506.567	3981.7
506.936	3981.93
507.304	3976.05
507.672	3997.52
508.041	4044.98
508.409	4083.17
508.777	4120.68
509.145	4111.42
509.514	4065.09
509.882	4113.23
510.25	4136.73
510.618	4193.9
510.986	4161.81
511.354	4235.03
511.722	4207.69
512.09	4248.14
512.458	4202.71
512.826	4290.85
513.193	4262.15
513.561	4305.99
513.929	4294.46
514.297	4340.79
514.664	4378.75
515.032	4359.32
515.4	4396.83
515.767	4392.09
516.135	4435.7
516.502	4403.39
516.869	4481.35
517.237	4478.87
517.604	4412.88
517.972	4540.11
518.339	4533.1
518.706	4508.24
519.073	4539.2
519.44	4544.17
519.808	4562.25
520.175	4589.6
520.542	4645.87
520.909	4652.42
521.276	4638.86
521.643	4663.04
522.009	4690.39
522.376	4702.14
522.743	4659.2
523.11	4755.24
523.477	4803.38
523.843	4834.79
524.21	4861.68
524.577	4892.19
524.943	4880.89
525.31	4896.26
525.676	4897.39
526.043	4923.15
526.409	5018.51
526.776	4993.65
527.142	5078.17
527.508	5031.39
527.874	5063.93
528.241	5117.72
528.607	5130.6
528.973	5141.67
529.339	5143.25
529.705	5192.52
530.071	5259.86
530.437	5241.33
530.803	5272.29
531.169	5329.24
531.535	5326.3
531.901	5368.11
532.267	5352.29
532.632	5397.94
532.998	5377.82
533.364	5410.59
533.73	5426.86
534.095	5469.35
534.461	5549.35
534.826	5522.45
535.192	5588.89
535.557	5554.77
535.923	5559.74
536.288	5579.18
536.653	5605.84
537.019	5587.08
537.384	5661.89
537.749	5682
538.114	5671.83
538.479	5690.13
538.845	5740.98
539.21	5743.24
539.575	5790.47
539.94	5830.69
540.305	5916.57
540.67	5885.61
541.034	5898.71
541.399	5866.4
541.764	5904.36
542.129	5948.88
542.494	6023.23
542.858	6012.16
543.223	6062.78
543.587	6032.72
543.952	6042.89
544.316	6109.78
544.681	6065.26
545.045	6134.64
545.41	6165.6
545.774	6116.56
546.138	6200.63
546.503	6188.42
546.867	6245.37
547.231	6342.32
547.595	6232.49
547.959	6310
548.324	6334.86
548.688	6337.12
549.052	6399.94
549.416	6370.79
549.779	6458.25
550.143	6424.58
550.507	6452.15
550.871	6524.69
551.235	6474.29
551.599	6639.26
551.962	6579.15
552.326	6557
552.689	6654.63
553.053	6563.33
553.417	6612.37
553.78	6694.17
554.143	6652.37
554.507	6763.32
554.87	6726.04
555.234	6785.47
555.597	6770.56
555.96	6768.52
556.323	6766.49
556.686	6790.89
557.05	6846.71
557.413	6822.08
557.776	6891.46
558.139	6859.14
558.502	6910.44
558.865	6912.25
559.228	6973.71
559.59	7012.58
559.953	7034.96
560.316	7090.77
560.679	7063.2
561.041	7068.63
561.404	7101.4
561.767	7215.74
562.129	7161.73
562.492	7191.56
562.854	7185.46
563.217	7172.35
563.579	7234.95
563.941	7302.29
564.304	7295.06
564.666	7342.07
565.028	7349.3
565.39	7401.27
565.753	7446.24
566.115	7430.43
566.477	7472.01
566.839	7465.45
567.201	7548.39
567.563	7525.11
567.925	7632.45
568.287	7569.41
568.648	7661.61
569.01	7666.35
569.372	7745.9
569.734	7696.18
570.095	7731.66
570.457	7759.46
570.819	7827.93
571.18	7823.64
571.542	7887.59
571.903	7942.95
572.265	7901.83
572.626	7998.77
572.987	8080.58
573.349	8096.4
573.71	8120.13
574.071	8140.46
574.432	8192.89
574.794	8272.89
575.155	8333.23
575.516	8314.47
575.877	8424.75
576.238	8479.44
576.599	8604.41
576.96	8586.78
577.32	8662.03
577.681	8731.18
578.042	8830.16
578.403	8881.01
578.763	9005.53
579.124	9052.53
579.485	9130.27
579.845	9305.18
580.206	9300.43
580.566	9450.03
580.927	9511.73
581.287	9685.73
581.648	9710.14
582.008	9891.83
582.368	10079.85
582.728	10236.45
583.089	10351.03
583.449	10430.8
583.809	10577.69
584.169	10785.82
584.529	10911.01
584.889	11249.08
585.249	11259.7
585.609	11334.5
585.969	11638.68
586.329	11811.78
586.688	12047.03
587.048	12257.19
587.408	12445.89
587.768	12592.1
588.127	12808.82
588.487	13070.05
588.846	13318.86
589.206	13428.01
589.565	13724.5
589.925	13997.71
590.284	14217.82
590.643	14565.15
591.003	14824.36
591.362	15069.55
591.721	15284.46
592.08	15527.61
592.44	15922.41
592.799	16152.46
593.158	16355.84
593.517	16691.43
593.876	17076.95
594.235	17217.74
594.593	17553.1
594.952	17884.39
595.311	18026.08
595.67	18375.45
596.029	18744.03
596.387	19059.72
596.746	19361.19
597.104	19578.58
597.463	19877.33
597.822	20288.62
598.18	20388.28
598.538	20705.78
598.897	21073.23
599.255	21158.88
599.613	21842.7
599.972	22031.4
600.33	22332.86
600.688	22544.15
601.046	22927.87
601.404	23157.47
601.762	23523.56
602.12	23803.1
602.478	24090.33
602.836	24366.03
603.194	24532.35
603.552	24833.81
603.91	25019.34
604.268	25408.48
604.625	25577.97
604.983	25930.73
605.341	26024.06
605.698	26425.86
606.056	26667.89
606.413	26949.23
606.771	27327.98
607.128	27367.75
607.485	27692.94
607.843	27822.43
608.2	28312.14
608.557	28556.42
608.914	28657.44
609.272	28992.8
609.629	29187.37
609.986	29443.41
610.343	29455.38
610.7	29878.42
611.057	30157.06
611.414	30254.46
611.771	30522.7
612.127	30603.15
612.484	30960.65
612.841	31114.78
613.198	31090.59
613.554	31451.72
613.911	31742.33
614.267	31862.55
614.624	31969.22
614.98	32272.71
615.337	32545.7
615.693	32646.26
616.05	32801.96
616.406	33006.7
616.762	33036.08
617.118	33240.14
617.475	33350.42
617.831	33524.43
618.187	33684.2
618.543	33966.45
618.899	34013
619.255	34126
619.611	34381.58
619.967	34499.77
620.323	34711.52
620.678	34723.95
621.034	34697.05
621.39	34975.46
621.746	34952.87
622.101	35435.79
622.457	35189.02
622.812	35379.52
623.168	35668.78
623.523	35582.68
623.879	35924.37
624.234	35619.74
624.589	35881.2
624.945	36096.34
625.3	36209.33
625.655	36249.56
626.01	36250.46
626.365	36407.52
626.72	36474.41
627.075	36637.34
627.43	36463.34
627.785	36532.71
628.14	36681.18
628.495	36767.51
628.85	36763.44
629.205	36711.24
629.559	36927.5
629.914	36815.42
630.269	36922.08
630.623	36873.49
630.978	36870.1
631.332	37075.52
631.687	37055.41
632.041	37031
632.396	37237.55
632.75	37073.94
633.104	37177.89
633.459	37075.07
633.813	37071.91
634.167	37084.34
634.521	37186.03
634.875	37178.12
635.229	37178.34
635.583	37075.97
635.937	37308.74
636.291	37217.44
636.645	37253.37
636.999	37167.5
637.352	37301.05
637.706	37212.02
638.06	37214.05
638.413	37096.99
638.767	37197.1
639.121	37188.74
639.474	37200.04
639.828	37286.59
640.181	37218.57
640.534	37399.13
640.888	37183.54
641.241	37096.54
641.594	37113.71
641.947	37155.97
642.301	37175.63
642.654	37274.39
643.007	37128.4
643.36	37158.46
643.713	37161.4
644.066	37325.69
644.419	37080.72
644.771	36760.73
645.124	36459.95
645.477	36489.1
645.83	36362.77
646.182	36087.3
646.535	36096.11
646.888	36132.27
647.24	36084.36
647.593	36197.81
647.945	36168.43
648.298	35960.3
648.65	35962.78
649.002	35862.45
649.355	36066.06
649.707	35996.68
650.059	36111.03
650.411	36490.45
650.763	36474.41
651.115	36902.42
651.467	36734.29
651.819	36753.04
652.171	36791.24
652.523	36753.5
652.875	36795.98
653.227	36601.41
653.578	36865.13
653.93	36726.83
654.282	36525.25
654.633	36527.29
654.985	36641.86
655.337	36715.31
655.688	36560.28
656.039	36673.5
656.391	36476.22
656.742	36534.97
657.094	36563.9
657.445	36712.14
657.796	36633.95
658.147	36536.78
658.498	36452.26
658.849	36594.18
659.2	36491.81
659.551	36486.39
659.902	36463.11
660.253	36385.14
660.604	36447.74
660.955	36285.49
661.306	36519.15
661.656	36480.28
662.007	36310.57
662.358	36341.76
662.708	36381.3
663.059	36399.16
663.409	36213.17
663.76	36433.73
664.11	36438.25
664.461	36463.11
664.811	36338.59
665.161	36431.92
665.511	36317.58
665.862	36343.79
666.212	36393.96
666.562	36454.97
666.912	36382.43
667.262	36295.2
667.612	36352.83
667.962	36418.36
668.312	36343.56
668.662	36459.95
669.011	36281.64
669.361	36276
669.711	36288.42
670.06	36221.08
670.41	36237.13
670.76	36117.81
671.109	36336.78
671.459	36159.84
671.808	36038.94
672.157	36237.58
672.507	36022.67
672.856	36108.77
673.205	36188.31
673.554	36287.07
673.904	36096.11
674.253	36228.09
674.602	36061.54
674.951	35705.39
675.3	35490.93
675.649	36004.14
675.998	36093.85
676.346	36119.16
676.695	36254.07
677.044	35822.9
677.393	36011.82
677.741	35983.57
678.09	35808.21
678.438	35909.23
678.787	35898.6
679.135	35897.7
679.484	35828.78
679.832	35752.39
680.181	35620.87
680.529	35870.81
680.877	35624.26
681.225	35696.12
681.573	35684.82
681.922	35531.16
682.27	35413.19
682.618	35446.86
682.966	35340.88
683.314	35307.89
683.661	35330.26
684.009	35096.37
684.357	35045.75
684.705	35135.01
685.053	35181.56
685.4	35000.32
685.748	34835.81
686.095	34913.32
686.443	34802.14
686.79	34683.27
687.138	34694.57
687.485	34793.77
687.832	34646.43
688.18	34561.24
688.527	34407.8
688.874	34536.15
689.221	34415.48
689.568	34266.56
689.915	34133.23
690.262	34250.51
690.609	34111.53
690.956	34007.13
691.303	34043.74
691.65	33908.6
691.997	33829.96
692.344	33650.53
692.69	33645.78
693.037	33700.47
693.383	33417.31
693.73	33472.23
694.077	33283.76
694.423	33309.07
694.769	33218
695.116	33112.01
695.462	33089.41
695.808	32944.11
696.155	33043.09
696.501	32760.61
696.847	32757.67
697.193	32462.99
697.539	32635.19
697.885	32374.63
698.231	32341.18
698.577	32405.81
698.923	32318.36
699.269	32076.78
699.614	32027.07
699.96	31897.81
700.306	31774.64
700.651	31753.85
700.997	31736
701.342	31614.42
701.688	31684.48
702.033	31515.67
702.379	31567.19
702.724	31383.92
703.069	31359.51
703.415	31003.37
703.76	31152.74
704.105	31174.89
704.45	31144.15
704.795	31014.44
705.14	30816.93
705.485	30824.61
705.83	30756.37
706.175	30790.72
706.52	30691.74
706.865	30571.29
707.209	30466.43
707.554	30457.62
707.899	30416.49
708.243	30229.83
708.588	30229.6
708.932	29979.44
709.277	30056.27
709.621	29945.99
709.966	29748.94
710.31	29896.5
710.654	29634.14
710.998	29751.2
711.342	29676.62
711.687	29649.5
712.031	29510.3
712.375	29431.43
712.719	29454.48
713.063	29360.47
713.407	29446.8
713.75	29249.29
714.094	29288.16
714.438	29153.7
714.782	29257.65
715.125	29064.43
715.469	29117.09
715.812	28872.57
716.156	28802.97
716.499	28931.1
716.843	28789.64
717.186	28721.62
717.53	28728.62
717.873	28734.27
718.216	28718.68
718.559	28550.1
718.902	28271.91
719.246	28324.11
719.589	28391.46
719.932	28275.08
720.275	28158.92
720.617	28054.06
720.96	28139.71
721.303	28178.58
721.646	28093.16
721.989	28017
722.331	27935.65
722.674	27878.48
723.016	27933.62
723.359	27899.27
723.701	27849.78
724.044	27630.12
724.386	27673.06
724.729	27577.02
725.071	27626.28
725.413	27556.45
725.755	27473.29
726.097	27429.67
726.439	27518.71
726.782	27486.17
727.124	27469
727.465	27223.13
727.807	27246.4
728.149	27196.23
728.491	27214.76
728.833	27269.9
729.175	27097.71
729.516	26934.55
729.858	26989.69
730.199	27000.31
730.541	26977.93
730.882	26896.13
731.224	27024.49
731.565	26845.51
731.906	26836.47
732.248	26770.48
732.589	26625.85
732.93	26523.48
733.271	26623.14
733.612	26565.97
733.953	26615.46
734.294	26475.8
734.635	26491.39
734.976	26471.06
735.317	26420.21
735.658	26204.62
735.999	26288.69
736.339	26220.21
736.68	26283.49
737.021	26242.81
737.361	26143.38
737.702	26324.84
738.042	26228.35
738.383	26062.48
738.723	26062.25
739.063	25952.2
739.404	26024.06
739.744	26118.52
740.084	25897.51
740.424	25916.72
740.764	25855.48
741.104	25984.51
741.444	25825.87
741.784	25715.37
742.124	25795.82
742.464	25758.98
742.804	25682.38
743.143	25620.68
743.483	25674.92
743.823	25560.57
744.162	25506.33
744.502	25529.84
744.841	25370.52
745.181	25603.96
745.52	25433.79
745.86	25459.1
746.199	25357.41
746.538	25270.63
746.877	25285.55
747.216	25434.47
747.556	25300.01
747.895	25332.78
748.234	25104.76
748.573	24971.21
748.911	25054.14
749.25	25102.96
749.589	24886.69
749.928	25044.2
750.267	25007.59
750.605	24886.69
750.944	24933.02
751.283	24769.63
751.621	24783.87
751.96	24581.84
752.298	24660.26
752.636	24675.4
752.975	24602.86
753.313	24499.13
753.651	24586.13
753.989	24509.53
754.327	24420.49
754.666	24244
755.004	24432.69
755.342	24379.58
755.679	24327.61
756.017	24160.38
756.355	24228.18
756.693	24085.13
757.031	24151.57
757.368	23961.29
757.706	24058.46
758.044	23799.04
758.381	23919.26
758.719	23814.63
759.056	23952.03
759.394	23766.49
759.731	23534.18
760.068	23561.75
760.405	23513.17
760.743	23484.69
761.08	23478.82
761.417	23361.31
