Data from hue_140_FLMS001491_00025.txt Node
Date: Tue Feb 07 16:55:39 GMT 2017
User: dcchb
Spectrometer: FLMS00149
Trigger mode: 0
Integration Time (sec): 2.000000E-2
Scans to average: 10
Electric dark correction enabled: true
Nonlinearity correction enabled: false
Boxcar width: 0
XAxis mode: Wavelengths
Number of Pixels in Spectrum: 2048
>>>>>Begin Spectral Data<<<<<
341.393	-35.59
341.776	-35.59
342.16	-35.59
342.543	-69.94
342.927	-76.27
343.31	-87.34
343.693	-64.52
344.077	-69.04
344.46	-44.63
344.843	-52.32
345.226	-25.88
345.61	-27
345.993	-23.16
346.376	3.28
346.759	4.18
347.142	19.55
347.525	42.82
347.908	58.19
348.291	59.77
348.674	100
349.057	106.1
349.44	122.6
349.823	149.71
350.206	155.59
350.588	192.42
350.971	205.53
351.354	205.31
351.737	228.13
352.119	243.5
352.502	256.6
352.884	268.58
353.267	266.55
353.65	293.89
354.032	290.05
354.414	296.6
354.797	292.53
355.179	314.91
355.562	325.98
355.944	316.94
356.326	335.02
356.709	328.47
357.091	319.2
357.473	328.01
357.855	344.74
358.238	346.09
358.62	327.79
359.002	350.39
359.384	335.92
359.766	345.19
360.148	317.62
360.53	350.16
360.912	316.04
361.294	333.21
361.676	337.96
362.057	317.39
362.439	315.58
362.821	310.61
363.203	330.73
363.584	336.6
363.966	326.21
364.348	340.67
364.729	325.08
365.111	339.54
365.493	329.82
365.874	326.43
366.256	327.11
366.637	321.46
367.019	307.9
367.4	318.3
367.781	311.07
368.163	328.69
368.544	294.34
368.925	317.84
369.306	321.46
369.688	288.47
370.069	297.28
370.45	310.84
370.831	303.61
371.212	302.03
371.593	316.49
371.974	282.59
372.355	309.71
372.736	309.03
373.117	302.48
373.498	314.68
373.879	303.16
374.26	323.04
374.641	317.84
375.021	325.98
375.402	319.88
375.783	327.79
376.163	336.6
376.544	320.78
376.925	336.6
377.305	351.06
377.686	326.21
378.066	331.63
378.447	330.5
378.827	324.62
379.208	325.08
379.588	331.86
379.968	323.27
380.349	328.24
380.729	335.7
381.109	344.51
381.489	345.64
381.87	299.99
382.25	326.66
382.63	336.38
383.01	345.19
383.39	354.45
383.77	312.2
384.15	328.47
384.53	330.95
384.91	362.36
385.29	353.55
385.67	333.89
386.049	342.02
386.429	354.23
386.809	330.05
387.189	338.64
387.568	357.62
387.948	363.72
388.328	368.69
388.707	355.13
389.087	356.26
389.466	347.45
389.846	349.93
390.225	363.27
390.605	368.92
390.984	351.74
391.363	359.65
391.743	345.41
392.122	363.04
392.501	359.65
392.881	363.27
393.26	352.42
393.639	382.02
394.018	374.79
394.397	369.59
394.776	386.09
395.155	410.05
395.534	377.5
395.913	388.35
396.292	366.66
396.671	395.13
397.05	389.26
397.429	397.39
397.808	375.02
398.186	399.65
398.565	405.53
398.944	389.71
399.323	373.21
399.701	377.73
400.08	397.62
400.458	407.11
400.837	408.01
401.215	408.69
401.594	396.49
401.972	407.79
402.351	415.02
402.729	418.86
403.107	403.49
403.486	408.46
403.864	383.38
404.242	400.33
404.62	412.53
404.999	427.9
405.377	426.09
405.755	451.4
406.133	399.65
406.511	426.54
406.889	431.51
407.267	426.77
407.645	440.33
408.023	436.71
408.401	446.2
408.779	437.39
409.156	452.76
409.534	465.19
409.912	438.52
410.29	456.6
410.667	434.23
411.045	452.53
411.422	448.91
411.8	474.68
412.178	469.25
412.555	471.29
412.933	488.01
413.31	474.22
413.687	470.38
414.065	486.2
414.442	469.71
414.819	478.07
415.197	494.79
415.574	497.5
415.951	498.18
416.328	506.77
416.705	505.64
417.082	509.93
417.46	507.22
417.837	526.88
418.214	526.2
418.591	528.01
418.967	516.26
419.344	516.94
419.721	512.42
420.098	517.16
420.475	533.66
420.852	517.61
421.228	535.69
421.605	522.36
421.982	538.18
422.358	568.01
422.735	551.28
423.111	549.48
423.488	580.21
423.864	565.52
424.241	564.62
424.617	590.38
424.994	563.94
425.37	590.61
425.746	569.36
426.123	569.82
426.499	604.16
426.875	581.57
427.251	575.01
427.627	603.03
428.003	610.27
428.379	606.88
428.756	627.67
429.132	612.98
429.507	607.33
429.883	633.54
430.259	640.55
430.635	636.93
431.011	644.39
431.387	648.46
431.763	666.99
432.138	662.69
432.514	658.17
432.89	669.93
433.265	690.72
433.641	697.04
434.016	676.25
434.392	704.5
434.767	705.86
435.143	699.53
435.518	715.57
435.894	721.45
436.269	719.64
436.644	722.81
437.02	748.57
437.395	741.56
437.77	760.54
438.145	761
438.52	761.45
438.895	778.4
439.271	776.36
439.646	777.04
440.021	778.85
440.395	772.07
440.77	768
441.145	791.96
441.52	805.74
441.895	793.54
442.27	805.29
442.645	787.89
443.019	821.33
443.394	848.9
443.769	842.12
444.143	837.61
444.518	840.32
444.892	858.62
445.267	845.06
445.641	838.51
446.016	877.38
446.39	869.69
446.764	856.81
447.139	878.28
447.513	869.02
447.887	894.1
448.262	885.29
448.636	889.13
449.01	891.61
449.384	917.38
449.758	906.3
450.132	906.3
450.506	906.3
450.88	913.08
451.254	932.52
451.628	945.17
452.002	968.45
452.376	943.14
452.75	978.39
453.123	975.45
453.497	972.74
453.871	1010.93
454.244	1008.45
454.618	1005.28
454.992	1040.09
455.365	1030.37
455.739	1029.69
456.112	1035.57
456.486	1045.51
456.859	1087.99
457.232	1093.87
457.606	1109.91
457.979	1115.34
458.352	1147.65
458.725	1134.55
459.099	1134.32
459.472	1179.52
459.845	1165.96
460.218	1203.25
460.591	1202.79
460.964	1200.53
461.337	1250.7
461.71	1267.42
462.083	1297.48
462.456	1260.42
462.829	1273.07
463.201	1296.8
463.574	1331.6
463.947	1337.25
464.32	1350.81
464.692	1377.25
465.065	1390.58
465.438	1418.15
465.81	1421.09
466.183	1440.08
466.555	1486.85
466.928	1495.21
467.3	1531.6
467.672	1540.41
468.045	1562.11
468.417	1577.92
468.789	1604.14
469.161	1650.69
469.534	1658.6
469.906	1682.55
470.278	1693.18
470.65	1739.73
471.022	1768.2
471.394	1835.54
471.766	1850.46
472.138	1883.23
472.51	1930.91
472.882	1969.1
473.253	1984.92
473.625	2032.83
473.997	2075.31
474.369	2098.14
474.74	2147.18
475.112	2193.28
475.484	2261.75
475.855	2306.49
476.227	2338.81
476.598	2432.59
476.97	2464.91
477.341	2515.08
477.713	2598.46
478.084	2633.72
478.455	2724.34
478.827	2739.48
479.198	2839.36
479.569	2906.48
479.94	3054.27
480.311	3045.91
480.682	3169.07
481.053	3258.78
481.424	3363.41
481.795	3401.61
482.166	3476.41
482.537	3620.81
482.908	3722.28
483.279	3770.64
483.65	3897.64
484.021	4051.98
484.391	4106.45
484.762	4218.53
485.133	4301.02
485.503	4435.02
485.874	4535.81
486.244	4639.99
486.615	4781.23
486.985	4878.4
487.356	4997.72
487.726	5114.33
488.097	5285.4
488.467	5355.68
488.837	5508.44
489.207	5641.09
489.578	5758.15
489.948	5867.98
490.318	6034.76
490.688	6097.58
491.058	6362.88
491.428	6439.49
491.798	6575.76
492.168	6704.12
492.538	6872.02
492.908	6999.93
493.278	7145.91
493.648	7196.53
494.017	7328.96
494.387	7498.9
494.757	7590.2
495.126	7755.16
495.496	7855.73
495.866	7989.28
496.235	8151.31
496.605	8281.25
496.974	8354.02
497.344	8479.66
497.713	8628.59
498.082	8780.45
498.452	8859.32
498.821	8911.29
499.19	9008.92
499.559	9147.9
499.928	9335.69
500.298	9266.99
500.667	9572.52
501.036	9556.02
501.405	9697.49
501.774	9750.14
502.143	9825.62
502.512	9936.35
502.88	10035.78
503.249	10083.69
503.618	10236.68
503.987	10260.86
504.356	10428.31
504.724	10419.27
505.093	10463.79
505.462	10608.65
505.83	10706.27
506.199	10817
506.567	10996.66
506.936	10960.73
507.304	11088.63
507.672	11146.94
508.041	11162.53
508.409	11312.13
508.777	11348.97
509.145	11471
509.514	11479.59
509.882	11571.11
510.25	11614.27
510.618	11573.59
510.986	11693.59
511.354	11867.15
511.722	11835.73
512.09	12000.02
512.458	11951.44
512.826	12113.92
513.193	12207.02
513.561	12137.87
513.929	12210.19
514.297	12272.78
514.664	12374.02
515.032	12362.95
515.4	12454.7
515.767	12390.3
516.135	12460.35
516.502	12484.76
516.869	12738.08
517.237	12692.21
517.604	12588.71
517.972	12762.72
518.339	12803.17
518.706	12801.36
519.073	12743.05
519.44	12866.67
519.808	12891.75
520.175	12865.99
520.542	13016.27
520.909	13074.12
521.276	13025.99
521.643	13112.54
522.009	13145.76
522.376	13184.4
522.743	13141.46
523.11	13262.36
523.477	13405.86
523.843	13393.89
524.21	13464.17
524.577	13525.18
524.943	13565.41
525.31	13558.4
525.676	13603.6
526.043	13661.67
526.409	13616.03
526.776	13762.46
527.142	13683.37
527.508	13746.19
527.874	13778.51
528.241	13782.12
528.607	13728.79
528.973	13870.03
529.339	13797.49
529.705	13814.21
530.071	13844.72
530.437	13907.54
530.803	13949.8
531.169	13874.32
531.535	13856.7
531.901	13873.65
532.267	13908.45
532.632	13906.87
532.998	13900.76
533.364	13987.99
533.73	13881.33
534.095	14035.68
534.461	13899.41
534.826	13811.73
535.192	13841.33
535.557	13917.71
535.923	13874.1
536.288	13945.96
536.653	13879.97
537.019	13748.9
537.384	13804.72
537.749	13728.79
538.114	13732.41
538.479	13716.81
538.845	13755.46
539.21	13648.12
539.575	13637.72
539.94	13570.83
540.305	13632.3
540.67	13581.9
541.034	13523.6
541.399	13541.68
541.764	13545.52
542.129	13548.68
542.494	13475.24
542.858	13450.83
543.223	13442.25
543.587	13477.72
543.952	13403.38
544.316	13423.49
544.681	13335.81
545.045	13431.4
545.41	13341.68
545.774	13250.39
546.138	13219.65
546.503	13203.38
546.867	13120.9
547.231	13155.47
547.595	13156.6
547.959	13142.82
548.324	13001.58
548.688	13049.26
549.052	13021.24
549.416	12975.14
549.779	12972.88
550.143	12991.41
550.507	12998.87
550.871	13005.42
551.235	12901.02
551.599	12885.2
551.962	12774.24
552.326	12926.78
552.689	12907.12
553.053	12717.29
553.417	12822.15
553.78	12848.81
554.143	12683.17
554.507	12740.79
554.87	12778.53
555.234	12812.66
555.597	12606.79
555.96	12711.19
556.323	12657.86
556.686	12690.85
557.05	12645.88
557.413	12715.71
557.776	12649.05
558.139	12684.75
558.502	12666.45
558.865	12632.32
559.228	12732.66
559.59	12678.65
559.953	12658.76
560.316	12740.79
560.679	12696.73
561.041	12760.68
561.404	12699.89
561.767	12714.58
562.129	12692.21
562.492	12726.78
562.854	12703.06
563.217	12653.34
563.579	12581.03
563.941	12697.41
564.304	12689.5
564.666	12781.47
565.028	12793.45
565.39	12835.26
565.753	12782.6
566.115	12836.16
566.477	12908.47
566.839	12840.68
567.201	12943.73
567.563	12792.32
567.925	12934.91
568.287	12945.54
568.648	12894.46
569.01	12857.18
569.372	12999.55
569.734	12930.39
570.095	13003.61
570.457	13068.24
570.819	12993.22
571.18	13002.03
571.542	13080.9
571.903	13055.14
572.265	13117.28
572.626	13082.71
572.987	13155.93
573.349	13021.24
573.71	13188.92
574.071	13116.6
574.432	13075.25
574.794	13247.22
575.155	13184.17
575.516	13114.12
575.877	13182.14
576.238	13173.33
576.599	13206.77
576.96	13214
577.32	13170.39
577.681	13272.98
578.042	13285.41
578.403	13192.31
578.763	13219.88
579.124	13264.4
579.485	13322.02
579.845	13325.64
580.206	13239.76
580.566	13232.99
580.927	13314.34
581.287	13274.79
581.648	13184.63
582.008	13227.56
582.368	13229.14
582.728	13259.65
583.089	13217.84
583.449	13199.54
583.809	13258.75
584.169	13206.77
584.529	13149.82
584.889	13274.34
585.249	13189.37
585.609	13135.59
585.969	13188.24
586.329	13131.52
586.688	13129.71
587.048	13151.86
587.408	13104.63
587.768	13136.72
588.127	13067.34
588.487	13038.19
588.846	13123.61
589.206	13053.33
589.565	13003.84
589.925	13119.09
590.284	13054.01
590.643	13082.03
591.003	13049.71
591.362	13139.2
591.721	13129.94
592.08	13036.15
592.44	13095.14
592.799	13127
593.158	13004.97
593.517	13078.64
593.876	13104.85
594.235	13019.66
594.593	13014.23
594.952	13029.37
595.311	12896.5
595.67	13028.47
596.029	13093.33
596.387	13051.75
596.746	13087
597.104	13025.08
597.463	13011.97
597.822	13092.42
598.18	13003.16
598.538	12983.5
598.897	13005.42
599.255	12953.44
599.613	13128.58
599.972	12978.53
600.33	13027.57
600.688	12928.13
601.046	12986.21
601.404	13012.65
601.762	13006.55
602.12	13072.76
602.478	13075.48
602.836	13057.17
603.194	12989.6
603.552	12996.38
603.91	12927.68
604.268	12971.98
604.625	13001.35
604.983	13004.74
605.341	12884.07
605.698	13005.65
606.056	13018.08
606.413	12997.96
606.771	13061.46
607.128	13002.03
607.485	12902.15
607.843	12936.72
608.2	13002.03
608.557	13081.8
608.914	13047.68
609.272	13070.73
609.629	13103.95
609.986	13096.27
610.343	13009.71
610.7	13215.81
611.057	13169.26
611.414	13043.16
611.771	13183.5
612.127	13129.94
612.484	13155.25
612.841	13161.8
613.198	13122.93
613.554	13195.25
613.911	13229.14
614.267	13207.22
614.624	13207.9
614.98	13200.67
615.337	13273.21
615.693	13246.09
616.05	13227.11
616.406	13304.62
616.762	13311.85
617.118	13250.16
617.475	13305.75
617.831	13290.16
618.187	13353.66
618.543	13337.62
618.899	13388.24
619.255	13404.28
619.611	13344.85
619.967	13432.3
620.323	13467.1
620.678	13411.96
621.034	13347.11
621.39	13349.37
621.746	13341.46
622.101	13458.29
622.457	13381.68
622.812	13390.27
623.168	13472.53
623.523	13404.96
623.879	13486.76
624.234	13427.56
624.589	13425.75
624.945	13401.57
625.3	13454.67
625.655	13401.57
626.01	13421.46
626.365	13426.65
626.72	13432.75
627.075	13413.32
627.43	13473.88
627.785	13389.59
628.14	13362.25
628.495	13392.76
628.85	13339.88
629.205	13344.39
629.559	13403.38
629.914	13276.83
630.269	13307.33
630.623	13222.14
630.978	13200.67
631.332	13351.63
631.687	13359.76
632.041	13241.8
632.396	13303.94
632.75	13234.12
633.104	13253.78
633.459	13153.67
633.813	13167.45
634.167	13198.18
634.521	13237.51
634.875	13219.88
635.229	13189.37
635.583	13154.12
635.937	13170.16
636.291	13132.88
636.645	13079.32
636.999	13032.09
637.352	13100.79
637.706	12908.25
638.06	13089.26
638.413	13067.57
638.767	13043.84
639.121	12947.34
639.474	12861.7
639.828	12943.28
640.181	12945.76
640.534	12937.4
640.888	12923.61
641.241	12831.41
641.594	12954.35
641.947	12922.94
642.301	12845.42
642.654	12927.46
643.007	12900.11
643.36	12816.05
643.713	12849.27
644.066	12863.73
644.419	12790.74
644.771	12779.44
645.124	12622.38
645.477	12613.11
645.83	12552.1
646.182	12488.82
646.535	12433.01
646.888	12475.49
647.24	12335.61
647.593	12441.82
647.945	12405.66
648.298	12326.12
648.65	12286.34
649.002	12254.48
649.355	12358.21
649.707	12408.37
650.059	12481.37
650.411	12534.92
650.763	12562.49
651.115	12655.83
651.467	12716.39
651.819	12634.81
652.171	12675.71
652.523	12583.74
652.875	12663.06
653.227	12561.36
653.578	12752.55
653.93	12648.82
654.282	12628.48
654.633	12536.73
654.985	12555.04
655.337	12655.6
655.688	12607.69
656.039	12600.23
656.391	12568.6
656.742	12556.62
657.094	12541.03
657.445	12614.7
657.796	12643.17
658.147	12633.68
658.498	12679.78
658.849	12613.34
659.2	12632.55
659.551	12581.7
659.902	12655.37
660.253	12552.1
660.604	12605.88
660.955	12630.97
661.306	12666.9
661.656	12593.23
662.007	12637.52
662.358	12663.73
662.708	12671.87
663.059	12642.27
663.409	12593.45
663.76	12686.56
664.11	12667.35
664.461	12659.89
664.811	12654.47
665.161	12727.69
665.511	12711.64
665.862	12637.29
666.212	12678.88
666.562	12753
666.912	12710.74
667.262	12615.6
667.612	12675.26
667.962	12676.62
668.312	12633.91
668.662	12699.21
669.011	12701.47
669.361	12590.74
669.711	12656.96
670.06	12629.61
670.41	12609.27
670.76	12655.6
671.109	12671.42
671.459	12544.42
671.808	12596.84
672.157	12645.43
672.507	12539.22
672.856	12529.05
673.205	12473.46
673.554	12588.93
673.904	12442.05
674.253	12642.04
674.602	12487.92
674.951	12350.3
675.3	12314.59
675.649	12455.38
675.998	12515.49
676.346	12468.71
676.695	12476.4
677.044	12375.83
677.393	12420.13
677.741	12418.09
678.09	12401.37
678.438	12424.42
678.787	12449.05
679.135	12379
679.484	12274.37
679.832	12289.51
680.181	12275.04
680.529	12289.73
680.877	12210.87
681.225	12187.59
681.573	12272.33
681.922	12165.44
682.27	12251.54
682.618	12122.51
682.966	12194.14
683.314	12239.57
683.661	12093.81
684.009	12018.55
684.357	12040.93
684.705	12038.44
685.053	12068.04
685.4	11975.17
685.748	11915.73
686.095	11929.74
686.443	11868.28
686.79	11856.52
687.138	11880.7
687.485	11888.84
687.832	11816.07
688.18	11804.77
688.527	11701.73
688.874	11715.06
689.221	11697.88
689.568	11670.77
689.915	11655.85
690.262	11666.25
690.609	11570.88
690.956	11565.46
691.303	11494.05
691.65	11464.67
691.997	11488.17
692.344	11316.88
692.69	11348.06
693.037	11328.63
693.383	11206.15
693.73	11269.65
694.077	11295.64
694.423	11187.84
694.769	11134.74
695.116	11131.12
695.462	11060.16
695.808	11052.25
696.155	11018.35
696.501	10952.14
696.847	10934.51
697.193	10855.87
697.539	10889.09
697.885	10772.03
698.231	10723.67
698.577	10732.71
698.923	10742.66
699.269	10693.84
699.614	10675.31
699.96	10581.76
700.306	10599.38
700.651	10535.2
700.997	10452.95
701.342	10506.96
701.688	10448.43
702.033	10371.37
702.379	10319.39
702.724	10354.42
703.069	10389.44
703.415	10206.85
703.76	10152.61
704.105	10195.33
704.45	10227.64
704.795	10097.02
705.14	10177.02
705.485	10108.77
705.83	9992.62
706.175	10032.62
706.52	9963.01
706.865	9968.44
707.209	9986.52
707.554	9941.77
707.899	9929.12
708.243	9882.11
708.588	9765.51
708.932	9733.64
709.277	9786.75
709.621	9824.49
709.966	9685.51
710.31	9685.96
710.654	9664.27
710.998	9697.26
711.342	9698.84
711.687	9580.43
712.031	9582.91
712.375	9537.26
712.719	9570.03
713.063	9568.45
713.407	9562.12
713.75	9506.76
714.094	9517.6
714.438	9428.57
714.782	9465.4
715.125	9380.88
715.469	9464.95
715.812	9403.93
716.156	9405.29
716.499	9292.98
716.843	9364.16
717.186	9254.56
717.53	9325.97
717.873	9320.32
718.216	9306.08
718.559	9271.51
718.902	9171.4
719.246	9175.01
719.589	9161.23
719.932	9118.97
720.275	9103.83
720.617	9158.06
720.96	9103.38
721.303	9095.69
721.646	9189.02
721.989	9106.31
722.331	9099.53
722.674	9073.32
723.016	9081
723.359	9069.03
723.701	9100.21
724.044	9010.5
724.386	8955.58
724.729	8989.71
725.071	8959.2
725.413	9009.37
725.755	9000.33
726.097	8969.37
726.439	8905.64
726.782	8857.96
727.124	8923.49
727.465	8888.69
727.807	8851.86
728.149	8883.72
728.491	8929.14
728.833	8833.55
729.175	8881.24
729.516	8912.42
729.858	8882.59
730.199	8951.52
730.541	8837.17
730.882	8920.1
731.224	8865.42
731.565	8809.6
731.906	8852.08
732.248	8869.03
732.589	8876.72
732.93	8808.69
733.271	8808.92
733.612	8856.38
733.953	8803.05
734.294	8859.77
734.635	8837.39
734.976	8818.41
735.317	8730.28
735.658	8802.37
735.999	8904.29
736.339	8757.85
736.68	8841.91
737.021	8855.25
737.361	8816.6
737.702	8870.39
738.042	8795.36
738.383	8766.21
738.723	8877.62
739.063	8768.02
739.404	8859.54
739.744	8832.65
740.084	8841.46
740.424	8869.71
740.764	8912.2
741.104	8925.75
741.444	8907
741.784	8920.1
742.124	8970.95
742.464	8945.19
742.804	8977.5
743.143	8935.47
743.483	8962.82
743.823	9030.16
744.162	9034
744.502	9056.6
744.841	9086.65
745.181	9116.03
745.52	9111.29
745.86	9122.13
746.199	9205.52
746.538	9263.6
746.877	9333.65
747.216	9359.41
747.556	9329.13
747.895	9411.84
748.234	9423.82
748.573	9484.61
748.911	9502.69
749.25	9605.28
749.589	9645.74
749.928	9702
750.267	9791.27
750.605	9799.63
750.944	9917.37
751.283	9900.42
751.621	10071.03
751.96	10129.56
752.298	10173.63
752.636	10298.15
752.975	10343.57
753.313	10456.34
753.651	10598.93
753.989	10652.71
754.327	10759.83
754.666	10828.3
755.004	10978.58
755.342	11152.59
755.679	11229.65
756.017	11318.46
756.355	11486.14
756.693	11560.94
757.031	11637.32
757.368	11764.55
757.706	11896.3
758.044	12125.9
758.381	12298.09
758.719	12331.09
759.056	12538.54
