Data from hue_50_FLMS001491_29.txt Node
Date: Mon Feb 06 15:09:49 GMT 2017
User: dcchb
Spectrometer: FLMS00149
Trigger mode: 0
Integration Time (sec): 2.000000E-2
Scans to average: 10
Electric dark correction enabled: true
Nonlinearity correction enabled: false
Boxcar width: 0
XAxis mode: Wavelengths
Number of Pixels in Spectrum: 2048
>>>>>Begin Spectral Data<<<<<
341.393	0.88
341.776	0.88
342.16	0.88
342.543	-49.52
342.927	-55.62
343.31	-55.85
343.693	-56.98
344.077	-51.1
344.46	-72.12
344.843	-52.68
345.226	-44.77
345.61	-36.64
345.993	-16.75
346.376	-7.71
346.759	0.42
347.142	6.75
347.525	37.03
347.908	49.46
348.291	81.1
348.674	95.34
349.057	124.49
349.44	122.23
349.823	146.86
350.206	168.78
350.588	197.93
350.971	230.47
351.354	227.08
351.737	233.64
352.119	253.07
352.502	259.17
352.884	293.52
353.267	282.9
353.65	285.39
354.032	312.73
354.414	334.43
354.797	311.6
355.179	310.25
355.562	330.13
355.944	318.83
356.326	331.26
356.709	356.12
357.091	360.87
357.473	342.34
357.855	331.49
358.238	335.56
358.62	351.83
359.002	371.94
359.384	345.05
359.766	351.37
360.148	330.58
360.53	333.3
360.912	326.52
361.294	339.85
361.676	350.47
362.057	358.61
362.439	338.49
362.821	339.17
363.203	331.49
363.584	342.11
363.966	319.96
364.348	335.56
364.729	331.26
365.111	332.17
365.493	327.87
365.874	315.44
366.256	322.22
366.637	315.67
367.019	313.86
367.4	333.07
367.781	314.31
368.163	336.01
368.544	333.07
368.925	319.29
369.306	341.43
369.688	301.88
370.069	317.93
370.45	312.51
370.831	316.12
371.212	321.55
371.593	327.87
371.974	311.6
372.355	320.87
372.736	318.38
373.117	326.97
373.498	311.6
373.879	320.19
374.26	323.35
374.641	337.36
375.021	287.2
375.402	311.83
375.783	317.48
376.163	322
376.544	326.52
376.925	345.5
377.305	354.54
377.686	342.79
378.066	337.36
378.447	324.26
378.827	325.61
379.208	339.4
379.588	336.46
379.968	336.91
380.349	342.79
380.729	338.04
381.109	337.36
381.489	332.39
381.87	343.92
382.25	341.43
382.63	372.62
383.01	344.6
383.39	348.66
383.77	347.08
384.15	349.12
384.53	348.66
384.91	345.73
385.29	350.92
385.67	347.76
386.049	345.5
386.429	363.58
386.809	360.87
387.189	334.65
387.568	337.14
387.948	351.37
388.328	355.89
388.707	344.82
389.087	361.09
389.466	353.63
389.846	347.31
390.225	364.03
390.605	373.07
390.984	373.52
391.363	362.9
391.743	361.32
392.122	360.64
392.501	366.74
392.881	369.91
393.26	351.83
393.639	373.07
394.018	373.07
394.397	359.28
394.776	389.34
395.155	348.21
395.534	396.12
395.913	352.5
396.292	379.85
396.671	369.91
397.05	392.5
397.429	390.02
397.808	381.66
398.186	386.4
398.565	390.47
398.944	371.71
399.323	378.49
399.701	386.85
400.08	400.64
400.458	422.56
400.837	383.24
401.215	392.05
401.594	394.09
401.972	394.31
402.351	381.2
402.729	399.51
403.107	392.96
403.486	392.05
403.864	390.47
404.242	415.33
404.62	407.87
404.999	399.74
405.377	429.34
405.755	400.41
406.133	414.65
406.511	407.19
406.889	421.88
407.267	415.1
407.645	423.92
408.023	426.85
408.401	411.49
408.779	408.55
409.156	449.9
409.534	440.86
409.912	437.25
410.29	448.77
410.667	443.58
411.045	441.77
411.422	436.34
411.8	449.45
412.178	451.26
412.555	446.51
412.933	448.1
413.31	450.13
413.687	448.55
414.065	447.87
414.442	462.56
414.819	467.53
415.197	460.52
415.574	473.41
415.951	486.06
416.328	470.24
416.705	470.24
417.082	474.31
417.46	494.2
417.837	465.72
418.214	495.78
418.591	479.96
418.967	498.72
419.344	505.95
419.721	482.22
420.098	488.32
420.475	499.62
420.852	491.26
421.228	490.58
421.605	513.86
421.982	505.27
422.358	503.91
422.735	518.83
423.111	525.83
423.488	527.19
423.864	527.19
424.241	528.09
424.617	521.99
424.994	532.16
425.37	535.32
425.746	541.65
426.123	520.41
426.499	550.92
426.875	559.05
427.251	545.27
427.627	544.59
428.003	561.99
428.379	575.1
428.756	545.27
429.132	584.14
429.507	571.93
429.883	584.82
430.259	562.89
430.635	576.23
431.011	583.69
431.387	588.88
431.763	604.7
432.138	595.21
432.514	611.71
432.89	616
433.265	626.62
433.641	615.77
434.016	638.6
434.392	624.36
434.767	630.46
435.143	632.27
435.518	642.44
435.894	628.88
436.269	659.84
436.644	634.76
437.02	663.46
437.395	666.85
437.77	677.24
438.145	658.49
438.52	676.34
438.895	678.82
439.271	667.98
439.646	681.54
440.021	688.54
440.395	700.97
440.77	689.22
441.145	694.42
441.52	727.18
441.895	706.17
442.27	712.04
442.645	714.3
443.019	743.91
443.394	725.6
443.769	730.57
444.143	746.17
444.518	733.29
444.892	750.91
445.267	751.59
445.641	743
446.016	761.31
446.39	752.27
446.764	764.47
447.139	759.27
447.513	763.57
447.887	768.77
448.262	765.15
448.636	772.15
449.01	772.61
449.384	790.69
449.758	760.86
450.132	791.82
450.506	764.02
450.88	819.84
451.254	811.7
451.628	816.9
452.002	826.84
452.376	823.23
452.75	820.52
453.123	833.17
453.497	834.07
453.871	844.24
454.244	872.94
454.618	850.12
454.992	893.06
455.365	903
455.739	891.93
456.112	913.85
456.486	867.07
456.859	911.36
457.232	928.31
457.606	909.33
457.979	917.69
458.352	940.96
458.725	950.23
459.099	997.01
459.472	961.53
459.845	1018.93
460.218	1004.24
460.591	1032.26
460.964	979.61
461.337	1013.5
461.71	1041.07
462.083	1062.54
462.456	1067.74
462.829	1100.96
463.201	1055.09
463.574	1092.37
463.947	1089.21
464.32	1131.47
464.692	1119.94
465.065	1160.39
465.438	1192.03
465.81	1200.84
466.183	1200.17
466.555	1226.38
466.928	1219.37
467.3	1251.46
467.672	1259.15
468.045	1277.45
468.417	1314.51
468.789	1309.32
469.161	1325.36
469.534	1336.43
469.906	1378.92
470.278	1373.95
470.65	1422.53
471.022	1429.09
471.394	1471.12
471.766	1474.28
472.138	1523.32
472.51	1567.16
472.882	1582.53
473.253	1623.88
473.625	1652.13
473.997	1698.23
474.369	1707.72
474.74	1744.78
475.112	1792.69
475.484	1810.09
475.855	1845.35
476.227	1938
476.598	1951.11
476.97	2022.74
477.341	2053.93
477.713	2113.81
478.084	2124.89
478.455	2192
478.827	2250.31
479.198	2327.37
479.569	2368.95
479.94	2442.85
480.311	2507.93
480.682	2585.67
481.053	2636.74
481.424	2705.44
481.795	2803.29
482.166	2875.15
482.537	2942.72
482.908	3014.81
483.279	3119.66
483.65	3234.24
484.021	3321.92
484.391	3414.57
484.762	3442.82
485.133	3515.81
485.503	3631.51
485.874	3772.75
486.244	3837.84
486.615	3965.52
486.985	4057.94
487.356	4178.62
487.726	4238.96
488.097	4416.8
488.467	4506.07
488.837	4609.12
489.207	4775.21
489.578	4908.54
489.948	4955.32
490.318	5119.39
490.688	5177.91
491.058	5342.88
491.428	5426.5
491.798	5558.02
492.168	5744.45
492.538	5828.52
492.908	5961.4
493.278	6114.39
493.648	6158.68
494.017	6282.97
494.387	6410.65
494.757	6559.57
495.126	6747.59
495.496	6845.67
495.866	6979
496.235	7051.31
496.605	7178.09
496.974	7310.29
497.344	7431.41
497.713	7532.88
498.082	7673.67
498.452	7865.08
498.821	7968.8
499.19	7992.98
499.559	8190.94
499.928	8227.33
500.298	8395.68
500.667	8495.12
501.036	8464.38
501.405	8656.47
501.774	8829.57
502.143	8910.92
502.512	9037.02
502.88	9205.38
503.249	9209.9
503.618	9334.42
503.987	9505.48
504.356	9518.59
504.724	9709.55
505.093	9778.92
505.462	9813.73
505.83	9960.16
506.199	10037.45
506.567	10275.41
506.936	10307.5
507.304	10365.8
507.672	10482.63
508.041	10655.28
508.409	10778.22
508.777	10832.46
509.145	10918.55
509.514	11032.22
509.882	11125.78
510.25	11190.86
510.618	11314.25
510.986	11355.15
511.354	11536.84
511.722	11682.15
512.09	11757.63
512.458	11753.56
512.826	11895.93
513.193	12011.18
513.561	12046.43
513.929	12172.31
514.297	12326.2
514.664	12408.23
515.032	12497.72
515.4	12621.11
515.767	12693.88
516.135	12811.84
516.502	12669.47
516.869	13029.46
517.237	13050.93
517.604	13004.6
517.972	13213.86
518.339	13322.11
518.706	13405.49
519.073	13429.22
519.44	13573.4
519.808	13743.57
520.175	13732.94
520.542	13853.62
520.909	13984.91
521.276	14074.4
521.643	14173.38
522.009	14200.28
522.376	14398.46
522.743	14498.57
523.11	14688.63
523.477	14753.93
523.843	14852.24
524.21	14997.32
524.577	15113.92
524.943	15201.38
525.31	15245.9
525.676	15439.11
526.043	15479.11
526.409	15635.04
526.776	15757.98
527.142	15834.58
527.508	15981.7
527.874	15985.77
528.241	16078.87
528.607	16160.22
528.973	16410.16
529.339	16339.43
529.705	16541.91
530.071	16731.74
530.437	16720.66
530.803	16847.89
531.169	16912.07
531.535	16932.41
531.901	17078.84
532.267	17098.51
532.632	17190.03
532.998	17254.21
533.364	17429.34
533.73	17523.13
534.095	17690.35
534.461	17669.34
534.826	17712.95
535.192	17867.07
535.557	17922.89
535.923	17903.91
536.288	18046.95
536.653	18099.61
537.019	18210.34
537.384	18267.51
537.749	18301.41
538.114	18348.87
538.479	18357.91
538.845	18515.87
539.21	18464.35
539.575	18645.81
539.94	18611.23
540.305	18791.34
540.67	18774.85
541.034	18882.41
541.399	18960.6
541.764	19041.96
542.129	19151.78
542.494	19124.21
542.858	19268.84
543.223	19308.62
543.587	19407.15
543.952	19255.06
544.316	19422.96
544.681	19460.48
545.045	19629.51
545.41	19687.82
545.774	19732.33
546.138	19662.73
546.503	19864.99
546.867	19892.78
547.231	20041.93
547.595	20037.19
547.959	20092.32
548.324	20213.68
548.688	20281.92
549.052	20327.35
549.416	20398.08
549.779	20442.15
550.143	20460.22
550.507	20626.55
550.871	20595.36
551.235	20575.93
551.599	20882.36
551.962	20762.82
552.326	20951.06
552.689	21072.19
553.053	20980.66
553.417	21112.41
553.78	21368.9
554.143	21176.36
554.507	21366.42
554.87	21374.1
555.234	21537.26
555.597	21436.92
555.96	21598.5
556.323	21748.78
556.686	21785.16
557.05	21877.14
557.413	21986.06
557.776	22055.44
558.139	22156
558.502	22260.63
558.865	22269.44
559.228	22383.34
559.59	22521.19
559.953	22525.93
560.316	22758.92
560.679	22743.55
561.041	22923.89
561.404	23033.72
561.767	23099.48
562.129	23059.93
562.492	23332.47
562.854	23313.26
563.217	23365.23
563.579	23525.91
563.941	23673.93
564.304	23645.23
564.666	23864.2
565.028	23811.78
565.39	23922.28
565.753	24102.16
566.115	24168.15
566.477	24248.83
566.839	24269.16
567.201	24406.34
567.563	24454.47
567.925	24681.81
568.287	24585.77
568.648	24747.57
569.01	24851.75
569.372	25028.69
569.734	24982.82
570.095	25185.07
570.457	25222.59
570.819	25413.77
571.18	25361.11
571.542	25453.54
571.903	25603.14
572.265	25756.13
572.626	25786.41
572.987	25957.03
573.349	25931.72
573.71	26063.02
574.071	26218.49
574.432	26255.1
574.794	26499.16
575.155	26477.69
575.516	26360.18
575.877	26547.75
576.238	26671.13
576.599	26782.54
576.96	26805.37
577.32	26926.5
577.681	26998.58
578.042	27128.3
578.403	27283.1
578.763	27273.38
579.124	27356.54
579.485	27503.66
579.845	27561.96
580.206	27611.22
580.566	27622.75
580.927	27812.35
581.287	27884.89
581.648	27914.49
582.008	28071.55
582.368	28060.7
582.728	28325.33
583.089	28380.24
583.449	28328.72
583.809	28454.82
584.169	28781.36
584.529	28632.89
584.889	29030.39
585.249	28894.81
585.609	28864.98
585.969	29230.39
586.329	29154.23
586.688	29317.84
587.048	29345.87
587.408	29474.23
587.768	29615.01
588.127	29566.65
588.487	29699.53
588.846	30004.83
589.206	29977.04
589.565	29976.13
589.925	30067.88
590.284	30227.2
590.643	30290.47
591.003	30435.56
591.362	30720.29
591.721	30541.54
592.08	30702.89
592.44	30939.5
592.799	30984.92
593.158	31083.22
593.517	31099.27
593.876	31304.01
594.235	31198.93
594.593	31480.5
594.952	31583.32
595.311	31372.93
595.67	31619.48
596.029	31835.97
596.387	32030.32
596.746	32098.56
597.104	31988.51
597.463	32046.81
597.822	32346.69
598.18	32309.63
598.538	32278.9
598.897	32519.79
599.255	32236.64
599.613	32778.77
599.972	32753.46
600.33	32899.22
600.688	32738.77
601.046	33044.98
601.404	33186.44
601.762	33171.75
602.12	33434.8
602.478	33441.8
602.836	33432.54
603.194	33446.55
603.552	33440.45
603.91	33562.71
604.268	33733.77
604.625	33600.22
604.983	33903.71
605.341	33760.89
605.698	34005.18
606.056	34110.71
606.413	34199.3
606.771	34277.71
607.128	34404.94
607.485	34126.76
607.843	34331.5
608.2	34599.06
608.557	34735.33
608.914	34489.23
609.272	34817.14
609.629	34985.49
609.986	35065.26
610.343	34951.14
610.7	35210.57
611.057	35121.53
611.414	35196.56
611.771	35300.51
612.127	35460.28
612.484	35475.2
612.841	35569.21
613.198	35453.73
613.554	35479.94
613.911	35862.76
614.267	35814.4
614.624	35894.4
614.98	35811.69
615.337	36051.91
615.693	36012.81
616.05	36065.01
616.406	36190.21
616.762	36214.39
617.118	36289.19
617.475	36183.88
617.831	36389.98
618.187	36453.7
618.543	36408.28
618.899	36756.97
619.255	36674.04
619.611	36669.52
619.967	36797.2
620.323	36892.11
620.678	36742.06
621.034	36643.53
621.39	36763.75
621.746	36823.41
622.101	37205.55
622.457	36916.29
622.812	37118.32
623.168	37186.79
623.523	37176.62
623.879	37312.44
624.234	37032.9
624.589	37212.78
624.945	37284.19
625.3	37293.68
625.655	37360.8
626.01	37412.1
626.365	37467.46
626.72	37379.55
627.075	37456.16
627.43	37365.09
627.785	37305.43
628.14	37540.23
628.495	37431.3
628.85	37499.78
629.205	37482.6
629.559	37552.2
629.914	37348.14
630.269	37473.34
630.623	37343.62
630.978	37346.33
631.332	37490.29
631.687	37645.08
632.041	37351.31
632.396	37511.98
632.75	37323.74
633.104	37450.06
633.459	37166.45
633.813	37188.82
634.167	37274.47
634.521	37310.18
634.875	37414.58
635.229	37381.59
635.583	37029.28
635.937	37246.22
636.291	37095.04
636.645	37205.55
636.999	37072.44
637.352	37258.2
637.706	37006.46
638.06	37209.84
638.413	37075.61
638.767	37024.31
639.121	37037.64
639.474	36840.36
639.828	36916.74
640.181	36933.01
640.534	36890.53
640.888	36969.85
641.241	36587.48
641.594	36714.03
641.947	36932.79
642.301	36832.22
642.654	36779.57
643.007	36850.3
643.36	36789.96
643.713	36685.11
644.066	36928.49
644.419	36541.16
644.771	36400.82
645.124	35956.77
645.477	35970.1
645.83	35849.2
646.182	35638.13
646.535	35504.57
646.888	35660.73
647.24	35495.54
647.593	35761.52
647.945	35481.07
648.298	35451.92
648.65	35348.65
649.002	35246.5
649.355	35397.46
649.707	35324.47
650.059	35466.16
650.411	35941.4
650.763	36030.21
651.115	36113.82
651.467	36224.33
651.819	36186.82
652.171	36154.05
652.523	36091
652.875	36064.33
653.227	35958.35
653.578	36146.37
653.93	36067.95
654.282	35874.96
654.633	35813.49
654.985	35888.29
655.337	35928.07
655.688	35856.2
656.039	36070.89
656.391	35733.72
656.742	35679.71
657.094	35845.36
657.445	35997.67
657.796	35727.17
658.147	35829.54
658.498	35714.29
658.849	35811.69
659.2	35797.22
659.551	35750.9
659.902	35800.84
660.253	35764.68
660.604	35652.59
660.955	35562.65
661.306	35775.3
661.656	35615.08
662.007	35725.13
662.358	35639.71
662.708	35596.32
663.059	35594.97
663.409	35403.33
663.76	35543.22
664.11	35661.63
664.461	35782.53
664.811	35498.02
665.161	35599.71
665.511	35397.23
665.862	35578.92
666.212	35707.73
666.562	35733.95
666.912	35557
667.262	35532.37
667.612	35621.41
667.962	35634.06
668.312	35519.04
668.662	35604.23
669.011	35574.63
669.361	35511.13
669.711	35447.18
670.06	35298.7
670.41	35354.97
670.76	35359.72
671.109	35403.11
671.459	35453.5
671.808	35233.4
672.157	35384.58
672.507	35223.23
672.856	35248.08
673.205	35174.64
673.554	35390.45
673.904	35313.17
674.253	35539.6
674.602	35378.93
674.951	34869.79
675.3	34640.19
675.649	35183.23
675.998	35162.44
676.346	35213.74
676.695	35329.66
677.044	35097.81
677.393	35158.37
677.741	35174.19
678.09	35054.87
678.438	35001.54
678.787	34980.52
679.135	35070.01
679.484	34719.06
679.832	34928.54
680.181	34799.96
680.529	34964.93
680.877	34830.69
681.225	34683.13
681.573	34796.57
681.922	34535.56
682.27	34581.21
682.618	34537.59
682.966	34383.93
683.314	34471.61
683.661	34296.47
684.009	34318.84
684.357	34200.43
684.705	34169.69
685.053	34232.74
685.4	34113.65
685.748	34036.82
686.095	34012.41
686.443	33913.2
686.79	33820.1
687.138	33926.09
687.485	33916.59
687.832	33737.39
688.18	33789.59
688.527	33628.47
688.874	33664.17
689.221	33509.15
689.568	33452.88
689.915	33312.99
690.262	33425.76
690.609	33200.91
690.956	33210.85
691.303	33195.03
691.65	32967.92
691.997	32994.58
692.344	32893.57
692.69	32693.8
693.037	32782.61
693.383	32638.89
693.73	32704.65
694.077	32473.24
694.423	32484.54
694.769	32399.35
695.116	32376.97
695.462	32288.61
695.808	32185.11
696.155	32195.74
696.501	32001.16
696.847	31890.21
697.193	31722.53
697.539	31775.63
697.885	31730.21
698.231	31547.16
698.577	31501.74
698.923	31559.82
699.269	31320.28
699.614	31143.56
699.96	31114.86
700.306	31101.07
700.651	31017.24
700.997	30925.26
701.342	30911.93
701.688	30852.04
702.033	30693.4
702.379	30776.11
702.724	30586.96
703.069	30750.8
703.415	30186.07
703.76	30438.27
704.105	30355.11
704.45	30343.58
704.795	30031.05
705.14	30047.32
705.485	29861.11
705.83	29788.34
706.175	29973.65
706.52	29874.21
706.865	29677.16
707.209	29747.89
707.554	29436.49
707.899	29704.73
708.243	29482.13
708.588	29478.07
708.932	29234.46
709.277	29286.43
709.621	29255.02
709.966	29052.32
710.31	29045.54
710.654	28856.84
710.998	28980.9
711.342	28832.89
711.687	28788.37
712.031	28745.88
712.375	28558.99
712.719	28575.72
713.063	28476.96
713.407	28732.55
713.75	28609.16
714.094	28418.89
714.438	28265.67
714.782	28420.02
715.125	28209.4
715.469	28286.46
715.812	28190.19
716.156	27947.49
716.499	28067.93
716.843	28083.53
717.186	27890.31
717.53	28118.33
717.873	28000.37
718.216	27871.1
718.559	27685.35
718.902	27666.59
719.246	27584.33
719.589	27582.75
719.932	27387.5
720.275	27497.55
720.617	27434.05
720.96	27346.82
721.303	27408.74
721.646	27363.32
721.989	27180.5
722.331	27239.93
722.674	27108.86
723.016	27161.97
723.359	27124.23
723.701	27095.76
724.044	26868.87
724.386	26798.59
724.729	26872.03
725.071	26800.17
725.413	26817.57
725.755	26747.74
726.097	26661.64
726.439	26510.01
726.782	26598.14
727.124	26711.36
727.465	26516.79
727.807	26531.93
728.149	26488.09
728.491	26472.72
728.833	26441.31
729.175	26204.03
729.516	26325.38
729.858	26329.67
730.199	26200.19
730.541	26210.13
730.882	26148.66
731.224	26241.32
731.565	26033.19
731.906	26078.38
732.248	26133.75
732.589	25867.54
732.93	25891.95
733.271	25793.87
733.612	25887.65
733.953	25801.78
734.294	25693.08
734.635	25668.68
734.976	25837.26
735.317	25629.58
735.658	25610.82
735.999	25532.41
736.339	25474.56
736.68	25597.04
737.021	25506.42
737.361	25383.94
737.702	25534.22
738.042	25428.68
738.383	25310.49
738.723	25398.4
739.063	25260.32
739.404	25331.28
739.744	25285.86
740.084	25107.56
740.424	25092.19
740.764	25229.36
741.104	25178.52
741.444	25005.87
741.784	25055.81
742.124	25105.3
742.464	24985.08
742.804	24825.08
743.143	24875.93
743.483	24899.2
743.823	24716.38
744.162	24742.82
744.502	24746.89
744.841	24585.09
745.181	24737.63
745.52	24729.04
745.86	24628.93
746.199	24569.72
746.538	24430.06
746.877	24666.22
747.216	24539.21
747.556	24321.37
747.895	24491.76
748.234	24215.61
748.573	24334.93
748.911	24259.9
749.25	24256.74
749.589	24123.41
749.928	24245.44
750.267	24163.86
750.605	24010.64
750.944	24056.97
751.283	23878.21
751.621	24014.26
751.96	23840.02
752.298	23909.4
752.636	23775.17
752.975	23762.51
753.313	23618.11
753.651	23723.64
753.989	23498.11
754.327	23574.95
754.666	23456.08
755.004	23498.56
755.342	23463.54
755.679	23400.71
756.017	23315.74
756.355	23392.58
756.693	23129.99
757.031	23200.94
