Data from hue_36_FLMS001491_00086.txt Node
Date: Tue Feb 07 17:30:25 GMT 2017
User: dcchb
Spectrometer: FLMS00149
Trigger mode: 0
Integration Time (sec): 2.000000E-2
Scans to average: 10
Electric dark correction enabled: true
Nonlinearity correction enabled: false
Boxcar width: 0
XAxis mode: Wavelengths
Number of Pixels in Spectrum: 2048
>>>>>Begin Spectral Data<<<<<
341.393	-29.02
341.776	-29.02
342.16	-29.02
342.543	-74.9
342.927	-70.38
343.31	-83.03
343.693	-53.43
344.077	-65.18
344.46	-70.38
344.843	-49.59
345.226	-42.81
345.61	-20.66
345.993	-22.25
346.376	6.23
346.759	1.48
347.142	20.47
347.525	20.69
347.908	62.27
348.291	59.33
348.674	101.59
349.057	135.26
349.44	128.71
349.823	136.62
350.206	148.6
350.588	201.03
350.971	194.25
351.354	231.76
351.737	238.76
352.119	238.99
352.502	267.46
352.884	285.77
353.267	278.76
353.65	295.03
354.032	297.52
354.414	302.27
354.797	319.89
355.179	338.65
355.562	323.96
355.944	331.87
356.326	347.46
356.709	354.02
357.091	344.07
357.473	329.84
357.855	328.48
358.238	343.85
358.62	341.59
359.002	344.52
359.384	323.51
359.766	361.7
360.148	339.78
360.53	337.75
360.912	335.03
361.294	322.83
361.676	334.13
362.057	344.52
362.439	347.24
362.821	318.76
363.203	349.04
363.584	330.06
363.966	301.59
364.348	336.16
364.729	333
365.111	349.27
365.493	318.31
365.874	315.6
366.256	346.11
366.637	332.55
367.019	323.73
367.4	320.8
367.781	298.42
368.163	320.8
368.544	309.05
368.925	308.14
369.306	332.77
369.688	323.51
370.069	316.95
370.45	307.46
370.831	323.28
371.212	318.31
371.593	310.18
371.974	316.5
372.355	325.09
372.736	305.88
373.117	303.62
373.498	324.86
373.879	311.76
374.26	323.06
374.641	341.81
375.021	304.98
375.402	318.31
375.783	336.84
376.163	305.88
376.544	335.26
376.925	336.39
377.305	314.47
377.686	333.9
378.066	327.8
378.447	342.94
378.827	333.68
379.208	323.96
379.588	308.37
379.968	347.24
380.349	337.29
380.729	337.75
381.109	349.27
381.489	337.97
381.87	333.45
382.25	360.8
382.63	329.61
383.01	325.77
383.39	334.58
383.77	351.53
384.15	361.7
384.53	364.86
384.91	356.05
385.29	365.32
385.67	344.52
386.049	343.62
386.429	347.24
386.809	348.14
387.189	351.53
387.568	359.21
387.948	360.12
388.328	358.54
388.707	366.9
389.087	336.39
389.466	354.24
389.846	361.02
390.225	356.5
390.605	369.16
390.984	351.53
391.363	365.32
391.743	358.08
392.122	372.77
392.501	377.29
392.881	380.68
393.26	371.64
393.639	379.33
394.018	366.22
394.397	377.29
394.776	366.67
395.155	387.01
395.534	378.2
395.913	371.87
396.292	360.57
396.671	382.72
397.05	391.98
397.429	381.36
397.808	413
398.186	395.6
398.565	389.5
398.944	375.71
399.323	367.12
399.701	391.76
400.08	384.52
400.458	388.37
400.837	372.77
401.215	382.04
401.594	397.18
401.972	398.99
402.351	405.09
402.729	404.41
403.107	404.18
403.486	389.72
403.864	415.94
404.242	394.92
404.62	425.65
404.999	417.74
405.377	407.12
405.755	420.46
406.133	428.59
406.511	415.03
406.889	405.09
407.267	412.09
407.645	420
408.023	418.65
408.401	447.35
408.779	413.68
409.156	414.13
409.534	424.75
409.912	444.18
410.29	456.16
410.667	440.79
411.045	446.67
411.422	456.39
411.8	437.63
412.178	448.25
412.555	445.54
412.933	456.39
413.31	470.62
413.687	474.69
414.065	467.23
414.442	464.3
414.819	470.85
415.197	482.37
415.574	470.85
415.951	484.18
416.328	487.8
416.705	476.05
417.082	476.05
417.46	489.15
417.837	506.33
418.214	492.54
418.591	496.39
418.967	475.82
419.344	505.65
419.721	497.97
420.098	514.46
420.475	500.23
420.852	499.55
421.228	513.33
421.605	514.69
421.982	520.57
422.358	515.82
422.735	525.76
423.111	515.59
423.488	525.54
423.864	521.92
424.241	523.28
424.617	546.1
424.994	553.11
425.37	544.75
425.746	532.54
426.123	541.58
426.499	543.16
426.875	542.03
427.251	563.95
427.627	524.41
428.003	556.27
428.379	552.65
428.756	570.51
429.132	574.35
429.507	582.94
429.883	558.3
430.259	584.74
430.635	576.61
431.011	558.08
431.387	603.5
431.763	616.38
432.138	599.66
432.514	584.97
432.89	629.49
433.265	605.76
433.641	620
434.016	622.03
434.392	644.86
434.767	624.07
435.143	641.47
435.518	648.47
435.894	640.79
436.269	656.16
436.644	641.92
437.02	657.74
437.395	634.69
437.77	662.26
438.145	683.05
438.52	679.43
438.895	665.87
439.271	698.19
439.646	711.29
440.021	700.67
440.395	715.59
440.77	693.44
441.145	706.55
441.52	730.28
441.895	707.23
442.27	720.33
442.645	712.65
443.019	724.18
443.394	738.19
443.769	745.87
444.143	711.97
444.518	736.6
444.892	741.12
445.267	725.31
445.641	734.8
446.016	758.07
446.39	748.58
446.764	778.41
447.139	757.17
447.513	784.06
447.887	764.17
448.262	763.95
448.636	773.67
449.01	786.32
449.384	767.56
449.758	805.76
450.132	783.61
450.506	802.59
450.88	792.42
451.254	800.33
451.628	790.84
452.002	831.52
452.376	825.42
452.75	820.22
453.123	840.56
453.497	830.16
453.871	842.14
454.244	846.88
454.618	872.19
454.992	878.07
455.365	887.79
455.739	887.11
456.112	895.7
456.486	876.94
456.859	908.13
457.232	930.27
457.606	930.72
457.979	961.91
458.352	933.89
458.725	963.49
459.099	959.42
459.472	978.63
459.845	973.21
460.218	997.39
460.591	998.29
460.964	1012.08
461.337	1020.67
461.71	1008.24
462.083	1032.64
462.456	1055.92
462.829	1059.08
463.201	1058.4
463.574	1071.06
463.947	1094.34
464.32	1107.89
464.692	1117.39
465.065	1112.19
465.438	1144.73
465.81	1093.88
466.183	1168.46
466.555	1210.04
466.928	1199.42
467.3	1218.85
467.672	1237.61
468.045	1255.46
468.417	1247.55
468.789	1299.75
469.161	1274.22
469.534	1315.12
469.906	1335.69
470.278	1338.62
470.65	1382.69
471.022	1392.86
471.394	1407.55
471.766	1432.63
472.138	1435.57
472.51	1474.21
472.882	1551.5
473.253	1507.66
473.625	1579.97
473.997	1620.42
474.369	1636.47
474.74	1622.46
475.112	1666.3
475.484	1690.25
475.855	1758.27
476.227	1763.7
476.598	1830.81
476.97	1841.66
477.341	1940.64
477.713	1966.86
478.084	1986.29
478.455	2079.39
478.827	2101.09
479.198	2173.86
479.569	2168.43
479.94	2219.96
480.311	2322.1
480.682	2376.34
481.053	2414.98
481.424	2462.66
481.795	2545.6
482.166	2615.43
482.537	2656.78
482.908	2751.69
483.279	2779.94
483.65	2873.27
484.021	2979.26
484.391	2988.75
484.762	3074.85
485.133	3166.37
485.503	3159.59
485.874	3296.76
486.244	3369.98
486.615	3494.27
486.985	3540.37
487.356	3698.11
487.726	3731.55
488.097	3834.6
488.467	3884.77
488.837	3987.82
489.207	4065.33
489.578	4174.48
489.948	4244.76
490.318	4375.38
490.688	4463.51
491.058	4548.26
491.428	4626.9
491.798	4701.92
492.168	4880.68
492.538	4921.13
492.908	5025.08
493.278	5085.19
493.648	5142.14
494.017	5249.25
494.387	5361.12
494.757	5411.28
495.126	5509.59
495.496	5604.5
495.866	5635.23
496.235	5733.31
496.605	5911.84
496.974	5949.8
497.344	6037.71
497.713	6164.94
498.082	6191.83
498.452	6297.36
498.821	6366.29
499.19	6405.61
499.559	6463.01
499.928	6560.63
500.298	6657.35
500.667	6767.86
501.036	6831.59
501.405	6895.09
501.774	6922.88
502.143	6980.28
502.512	7065.03
502.88	7186.6
503.249	7193.61
503.618	7314.51
503.987	7304.12
504.356	7415.98
504.724	7445.36
505.093	7579.14
505.462	7584.79
505.83	7688.96
506.199	7733.94
506.567	7834.27
506.936	7879.02
507.304	8012.12
507.672	7977.54
508.041	8134.6
508.409	8185.67
508.777	8265.9
509.145	8355.39
509.514	8352.45
509.882	8498.89
510.25	8451.88
510.618	8520.13
510.986	8584.99
511.354	8651.2
511.722	8766.45
512.09	8923.28
512.458	8824.75
512.826	8889.61
513.193	8943.85
513.561	9013
513.929	9078.76
514.297	9142.26
514.664	9236.49
515.032	9286.89
515.4	9363.72
515.767	9358.07
516.135	9455.47
516.502	9344.97
516.869	9571.4
517.237	9626.77
517.604	9603.94
517.972	9663.83
518.339	9765.52
518.706	9787.89
519.073	9832.41
519.44	9922.58
519.808	9955.57
520.175	9936.36
520.542	10083.93
520.909	10186.3
521.276	10228.78
521.643	10333.19
522.009	10374.77
522.376	10455.45
522.743	10421.32
523.11	10546.97
523.477	10603.24
523.843	10622.67
524.21	10786.74
524.577	10836.68
524.943	10934.08
525.31	11001.87
525.676	11052.49
526.043	11134.52
526.409	11123
526.776	11292.94
527.142	11289.32
527.508	11402.09
527.874	11470.11
528.241	11563.21
528.607	11475.98
528.973	11681.85
529.339	11583.55
529.705	11855.86
530.071	11806.37
530.437	11907.38
530.803	11946.93
531.169	12059.92
531.535	12032.81
531.901	12063.31
532.267	12138.79
532.632	12225.12
532.998	12263.31
533.364	12299.46
533.73	12348.05
534.095	12460.14
534.461	12596.41
534.826	12605.9
535.192	12626.46
535.557	12790.53
535.923	12737.87
536.288	12749.17
536.653	12856.06
537.019	12790.53
537.384	12923.18
537.749	12967.7
538.114	12952.33
538.479	13064.87
538.845	13106
539.21	13207.01
539.575	13246.11
539.94	13256.05
540.305	13353.22
540.67	13365.43
541.034	13349.15
541.399	13498.76
541.764	13500.34
542.129	13583.72
542.494	13646.77
542.858	13731.52
543.223	13644.97
543.587	13792.08
543.952	13759.31
544.316	13839.54
544.681	13829.82
545.045	13984.17
545.41	14069.36
545.774	14126.76
546.138	14056.25
546.503	14239.53
546.867	14152.52
547.231	14392.29
547.595	14256.02
547.959	14359.07
548.324	14351.61
548.688	14494.66
549.052	14487.88
549.416	14586.86
549.779	14518.39
550.143	14598.16
550.507	14756.12
550.871	14785.95
551.235	14834.31
551.599	14795.9
551.962	14901.2
552.326	14927.42
552.689	15110.01
553.053	15047.64
553.417	15001.99
553.78	15235.88
554.143	15222.55
554.507	15267.3
554.87	15291.48
555.234	15369.44
555.597	15363.56
555.96	15413.06
556.323	15510.68
556.686	15566.72
557.05	15601.98
557.413	15722.88
557.776	15698.47
558.139	15868.18
558.502	15780.28
558.865	15859.15
559.228	15998.58
559.59	16119.93
559.953	16053.04
560.316	16199.48
560.679	16156.99
561.041	16257.78
561.404	16295.74
561.767	16423.88
562.129	16403.31
562.492	16602.18
562.854	16553.82
563.217	16571.44
563.579	16633.36
563.941	16807.82
564.304	16756.97
564.666	16956.74
565.028	16978.66
565.39	16933.69
565.753	17175.49
566.115	17156.74
566.477	17220.01
566.839	17126.68
567.201	17330.52
567.563	17396.51
567.925	17530.51
568.287	17560.57
568.648	17573.9
569.01	17691.87
569.372	17754.24
569.734	17688.48
570.095	17817.06
570.457	17955.81
570.819	17973.67
571.18	18099.09
571.542	18203.94
571.903	18224.73
572.265	18286.88
572.626	18379.08
572.987	18457.04
573.349	18516.7
573.71	18596.25
574.071	18664.5
574.432	18798.95
574.794	18982.68
575.155	18977.03
575.516	18939.97
575.877	19085.05
576.238	19227.19
576.599	19271.26
576.96	19422.89
577.32	19478.71
577.681	19682.1
578.042	19837.8
578.403	19793.96
578.763	20014.06
579.124	20095.42
579.485	20295.19
579.845	20343.77
580.206	20543.54
580.566	20628.96
580.927	20765.68
581.287	20958.9
581.648	21019.91
582.008	21336.97
582.368	21411.77
582.728	21578.32
583.089	21746.67
583.449	21886.11
583.809	22111.41
584.169	22246.55
584.529	22344.4
584.889	22740.55
585.249	22669.59
585.609	22894.44
585.969	23223.47
586.329	23354.77
586.688	23471.83
587.048	23755.89
587.408	23858.93
587.768	24118.14
588.127	24346.38
588.487	24479.71
588.846	25008.51
589.206	24839.25
589.565	25189.07
589.925	25576.4
590.284	25653.69
590.643	25855.04
591.003	25959.44
591.362	26341.36
591.721	26524.85
592.08	26676.49
592.44	26987.89
592.799	27180.43
593.158	27288
593.517	27492.29
593.876	27907.87
594.235	27939.28
594.593	28267.18
594.952	28465.82
595.311	28620.62
595.67	28844.57
596.029	29340.15
596.387	29520.03
596.746	29616.07
597.104	29697.2
597.463	30007.25
597.822	30181.25
598.18	30370.4
598.538	30622.82
598.897	30923.83
599.255	30940.1
599.613	31490.82
599.972	31403.82
600.33	31844.04
600.688	31712.97
601.046	31952.73
601.404	32365.83
601.762	32425.26
602.12	32671.81
602.478	32848.3
602.836	32984.8
603.194	32943.67
603.552	33235.19
603.91	33374.84
604.268	33754.72
604.625	33694.16
604.983	33932.34
605.341	33965.34
605.698	34163.07
606.056	34539.11
606.413	34465.66
606.771	34816.39
607.128	35043.5
607.485	34939.55
607.843	35041.47
608.2	35450.49
608.557	35461.57
608.914	35510.83
609.272	35784.27
609.629	36028.11
609.986	36194.43
610.343	36251.15
610.7	36532.05
611.057	36422.9
611.414	36574.08
611.771	36767.07
612.127	36986.95
612.484	37184.91
612.841	37287.96
613.198	37233.05
613.554	37452.48
613.911	37647.27
614.267	37766.37
614.624	37646.82
614.98	37937.21
615.337	38189.18
615.693	38197.99
616.05	38229.86
616.406	38433.92
616.762	38571.54
617.118	38472.11
617.475	38472.56
617.831	38648.83
618.187	38872.33
618.543	38863.29
618.899	39149.61
619.255	39075.48
619.611	39153.9
619.967	39265.99
620.323	39448.36
620.678	39336.27
621.034	39309.15
621.39	39246.55
621.746	39392.99
622.101	39788.46
622.457	39633.44
622.812	39776.03
623.168	39817.16
623.523	39984.84
623.879	40098.73
624.234	39863.26
624.589	40086.53
624.945	40041.56
625.3	40339.18
625.655	40275.23
626.01	40244.72
626.365	40279.52
626.72	40302.34
627.075	40334.21
627.43	40386.41
627.785	40395.68
628.14	40510.25
628.495	40509.12
628.85	40568.33
629.205	40430.48
629.559	40574.2
629.914	40545.73
630.269	40648.1
630.623	40381.66
630.978	40582.79
631.332	40623.47
631.687	40814.42
632.041	40507.08
632.396	40514.32
632.75	40639.74
633.104	40664.82
633.459	40456.69
633.813	40460.76
634.167	40493.53
634.521	40539.17
634.875	40735.33
635.229	40634.31
635.583	40351.83
635.937	40418.27
636.291	40475.67
636.645	40517.03
636.999	40436.8
637.352	40473.64
637.706	40277.03
638.06	40564.26
638.413	40516.58
638.767	40121.11
639.121	40566.07
639.474	40199.97
639.828	40232.06
640.181	40133.08
640.534	40415.11
640.888	40324.94
641.241	40111.39
641.594	40160.43
641.947	40299.18
642.301	40182.8
642.654	40113.2
643.007	40204.04
643.36	40201.33
643.713	40080.2
644.066	40290.59
644.419	39992.97
644.771	39805.18
645.124	39457.39
645.477	39349.15
645.83	39103.73
646.182	39027.8
646.535	38818.99
646.888	39108.25
647.24	39014.02
647.593	39048.37
647.945	38883.62
648.298	38743.97
648.65	38753.23
649.002	38837.07
649.355	38870.74
649.707	38779.22
650.059	38896.73
650.411	39397.74
650.763	39383.72
651.115	39809.7
651.467	39632.08
651.819	39630.5
652.171	39479.77
652.523	39523.38
652.875	39445.64
653.227	39243.16
653.578	39542.59
653.93	39565.41
654.282	39329.71
654.633	39176.95
654.985	39346.21
655.337	39394.12
655.688	39430.5
656.039	39657.62
656.391	39192.32
656.742	39308.47
657.094	39262.6
657.445	39479.99
657.796	39322.93
658.147	39232.54
658.498	39201.13
658.849	39291.3
659.2	39139.21
659.551	39058.08
659.902	39219.43
660.253	39272.54
660.604	39331.07
660.955	39063.73
661.306	39167.68
661.656	39261.47
662.007	39224.63
662.358	39189.15
662.708	39110.06
663.059	39073.22
663.409	38885.43
663.76	39157.06
664.11	39231.86
664.461	39194.58
664.811	39159.78
665.161	39189.38
665.511	39127.69
665.862	39105.77
666.212	39092.43
666.562	39045.88
666.912	39112.09
667.262	39071.42
667.612	39049.5
667.962	39172.43
668.312	38981.7
668.662	39208.36
669.011	39130.4
669.361	39028.25
669.711	39079.33
670.06	38881.14
670.41	38966.33
670.76	38875.49
671.109	39013.79
671.459	38837.52
671.808	38919.33
672.157	39011.98
672.507	38673.01
672.856	38663.97
673.205	38694.7
673.554	38776.28
673.904	38691.31
674.253	38978.09
674.602	38815.38
674.951	38278.67
675.3	38185.34
675.649	38760.46
675.998	38633.46
676.346	38685.44
676.695	38635.95
677.044	38390.98
677.393	38641.6
677.741	38589.17
678.09	38574.48
678.438	38551.88
678.787	38537.19
679.135	38482.73
679.484	38276.18
679.832	38477.31
680.181	38307.82
680.529	38376.52
680.877	38219.24
681.225	38266.47
681.573	38353.69
681.922	38119.8
682.27	38063.53
682.618	37989.64
682.966	37936.3
683.314	38008.39
683.661	37958.45
684.009	37743.54
684.357	37594.39
684.705	37577.67
685.053	37692.7
685.4	37566.82
685.748	37442.76
686.095	37391.91
686.443	37355.53
686.79	37238.02
687.138	37325.7
687.485	37264.01
687.832	37220.84
688.18	37203.67
688.527	37153.95
688.874	37029.44
689.221	36968.42
689.568	36734.98
689.915	36709.22
690.262	36757.8
690.609	36773.85
690.956	36499.96
691.303	36555.1
691.65	36329.79
691.997	36326.4
692.344	36253.86
692.69	36226.75
693.037	36231.49
693.383	35888.22
693.73	35979.07
694.077	35827.66
694.423	35769.13
694.769	35749.47
695.116	35599.42
695.462	35583.37
695.808	35336.6
696.155	35417.73
696.501	35281.69
696.847	35269.48
697.193	35010.28
697.539	35235.58
697.885	34863.84
698.231	34693
698.577	34787.01
698.923	34767.8
699.269	34516.06
699.614	34341.37
699.96	34138.21
700.306	34492.33
700.651	34299.34
700.997	34062.96
701.342	34104.99
701.688	34090.3
702.033	33853.47
702.379	33932.34
702.724	33869.52
703.069	33775.06
703.415	33372.58
703.76	33531.45
704.105	33359.02
704.45	33342.75
704.795	33231.57
705.14	33118.8
705.485	33241.96
705.83	33037.9
706.175	33077.45
706.52	33034.96
706.865	32812.6
707.209	32768.08
707.554	32764.46
707.899	32661.19
708.243	32475.21
708.588	32541.42
708.932	32341.42
709.277	32308.66
709.621	32487.63
709.966	32110.47
710.31	32253.06
710.654	31867.99
710.998	31973.75
711.342	31945.05
711.687	31930.81
712.031	31686.53
712.375	31693.08
712.719	31646.98
713.063	31616.47
713.407	31571.5
713.75	31566.08
714.094	31457.38
714.438	31299.87
714.782	31298.97
715.125	31242.92
715.469	31293.32
715.812	31156.37
716.156	30912.53
716.499	30968.58
716.843	31035.47
717.186	30786.66
717.53	30990.05
717.873	30974.23
718.216	30797.51
718.559	30713.22
718.902	30473.22
719.246	30590.06
719.589	30466.44
719.932	30399.55
720.275	30374.02
720.617	30276.39
720.96	30292.21
721.303	30304.87
721.646	30235.26
721.989	30001.6
722.331	30061.26
722.674	30046.57
723.016	30075.49
723.359	29885.22
723.701	30072.56
724.044	29976.97
724.386	29583.76
724.729	29948.94
725.071	29720.25
725.413	29698.56
725.755	29619.69
726.097	29496.98
726.439	29428.28
726.782	29471.44
727.124	29593.02
727.465	29308.74
727.807	29410.88
728.149	29338.34
728.491	29200.94
728.833	29295.18
729.175	29208.4
729.516	29231.45
729.858	29172.69
730.199	29117.78
730.541	28935.64
730.882	29040.04
731.224	29025.58
731.565	28727.51
731.906	28944.45
732.248	28815.87
732.589	28721.63
732.93	28582.43
733.271	28674.85
733.612	28680.5
733.953	28648.87
734.294	28629.88
734.635	28530.22
734.976	28576.78
735.317	28392.15
735.658	28447.51
735.999	28457.01
736.339	28332.94
736.68	28386.95
737.021	28268.08
737.361	28239.38
737.702	28372.49
738.042	28239.61
738.383	28127.52
738.723	28143.12
739.063	27996.45
739.404	28049.79
739.744	28025.15
740.084	27932.95
740.424	27954.19
740.764	27837.14
741.104	27954.65
741.444	27810.47
741.784	27754.2
742.124	27812.96
742.464	27758.72
742.804	27582.23
743.143	27480.08
743.483	27537.48
743.823	27385.62
744.162	27418.62
744.502	27485.96
744.841	27404.15
745.181	27379.29
745.52	27298.84
745.86	27348.33
746.199	27342.46
746.538	27279.86
746.877	27258.17
747.216	27240.99
747.556	27167.1
747.895	27094.33
748.234	26942.7
748.573	27003.71
748.911	26889.36
749.25	26956.48
749.589	26753.1
749.928	26786.99
750.267	26730.5
750.605	26717.84
750.944	26551.07
751.283	26546.77
751.621	26584.74
751.96	26537.28
752.298	26454.57
752.636	26561.24
752.975	26381.35
753.313	26271.75
753.651	26402.37
753.989	26262.94
754.327	26126.22
754.666	26076.5
755.004	26123.96
755.342	26084.64
755.679	26121.47
756.017	25966.22
756.355	25870.41
756.693	25889.84
757.031	25877.64
757.368	25694.59
757.706	25693.01
