Data from hue_70_FLMS001491_46.txt Node
Date: Mon Feb 06 15:20:58 GMT 2017
User: dcchb
Spectrometer: FLMS00149
Trigger mode: 0
Integration Time (sec): 2.000000E-2
Scans to average: 10
Electric dark correction enabled: true
Nonlinearity correction enabled: false
Boxcar width: 0
XAxis mode: Wavelengths
Number of Pixels in Spectrum: 2048
>>>>>Begin Spectral Data<<<<<
341.393	-30.14
341.776	-30.14
342.16	-30.14
342.543	-65.17
342.927	-51.61
343.31	-74.43
343.693	-75.34
344.077	-68.56
344.46	-59.74
344.843	-43.47
345.226	-36.47
345.61	-43.7
345.993	0.14
346.376	-20.88
346.759	9.18
347.142	39.24
347.525	33.59
347.908	61.61
348.291	77.65
348.674	86.69
349.057	114.49
349.44	102.51
349.823	126.69
350.206	144.54
350.588	206.69
350.971	206.92
351.354	203.53
351.737	215.73
352.119	269.74
352.502	257.99
352.884	277.42
353.267	285.56
353.65	280.36
354.032	309.51
354.414	292.79
354.797	318.55
355.179	309.74
355.562	307.25
355.944	323.52
356.326	322.84
356.709	324.2
357.091	342.96
357.473	330.08
357.855	329.17
358.238	331.66
358.62	339.79
359.002	341.6
359.384	327.59
359.766	323.52
360.148	324.65
360.53	333.69
360.912	328.49
361.294	324.43
361.676	305.67
362.057	326.23
362.439	331.88
362.821	332.34
363.203	322.17
363.584	315.39
363.966	316.97
364.348	315.61
364.729	310.64
365.111	316.74
365.493	327.36
365.874	312.45
366.256	309.29
366.637	303.86
367.019	307.7
367.4	290.08
367.781	324.2
368.163	314.26
368.544	319
368.925	302.28
369.306	311.09
369.688	292.79
370.069	293.01
370.45	297.08
370.831	306.8
371.212	306.12
371.593	321.94
371.974	282.85
372.355	283.98
372.736	297.76
373.117	288.72
373.498	308.61
373.879	308.38
374.26	302.96
374.641	313.58
375.021	297.99
375.402	306.35
375.783	303.64
376.163	312.45
376.544	328.04
376.925	308.38
377.305	321.26
377.686	315.16
378.066	319.23
378.447	315.39
378.827	330.98
379.208	316.07
379.588	348.15
379.968	316.07
380.349	328.72
380.729	322.39
381.109	338.89
381.489	336.4
381.87	340.7
382.25	321.26
382.63	327.59
383.01	337.76
383.39	335.05
383.77	352.45
384.15	332.79
384.53	336.4
384.91	334.6
385.29	341.6
385.67	337.53
386.049	329.85
386.429	344.09
386.809	327.36
387.189	351.77
387.568	331.43
387.948	365.1
388.328	325.1
388.707	347.25
389.087	351.32
389.466	354.26
389.846	353.13
390.225	344.76
390.605	349.96
390.984	336.18
391.363	347.48
391.743	357.87
392.122	362.62
392.501	359.45
392.881	356.74
393.26	364.2
393.639	369.17
394.018	347.48
394.397	364.2
394.776	376.85
395.155	369.17
395.534	362.39
395.913	362.17
396.292	351.54
396.671	382.96
397.05	358.55
397.429	387.7
397.808	357.42
398.186	375.27
398.565	357.42
398.944	356.97
399.323	388.15
399.701	386.12
400.08	377.76
400.458	378.21
400.837	370.53
401.215	390.41
401.594	389.51
401.972	383.18
402.351	383.63
402.729	367.59
403.107	368.49
403.486	408.72
403.864	405.55
404.242	407.59
404.62	386.12
404.999	373.24
405.377	392.9
405.755	405.1
406.133	396.29
406.511	396.97
406.889	406.91
407.267	413.24
407.645	416.63
408.023	386.8
408.401	424.99
408.779	420.02
409.156	426.57
409.534	427.7
409.912	430.86
410.29	430.86
410.667	418.66
411.045	408.94
411.422	432.9
411.8	432.45
412.178	433.58
412.555	450.52
412.933	447.14
413.31	435.16
413.687	433.35
414.065	436.29
414.442	427.25
414.819	438.1
415.197	457.53
415.574	460.02
415.951	460.47
416.328	436.97
416.705	467.47
417.082	455.5
417.46	467.47
417.837	473.8
418.214	487.81
418.591	472.22
418.967	479.68
419.344	480.35
419.721	484.87
420.098	468.6
420.475	501.15
420.852	472.9
421.228	481.71
421.605	509.73
421.982	490.52
422.358	498.21
422.735	492.11
423.111	494.37
423.488	530.3
423.864	532.33
424.241	523.29
424.617	538.21
424.994	518.77
425.37	520.35
425.746	535.95
426.123	547.92
426.499	551.77
426.875	559.9
427.251	551.09
427.627	555.38
428.003	551.99
428.379	567.58
428.756	537.98
429.132	542.27
429.507	556.96
429.883	561.03
430.259	576.4
430.635	580.24
431.011	584.53
431.387	598.77
431.763	607.58
432.138	602.16
432.514	573.69
432.89	606
433.265	626.57
433.641	620.01
434.016	618.88
434.392	614.14
434.767	638.54
435.143	639.67
435.518	630.63
435.894	657.3
436.269	629.5
436.644	645.77
437.02	682.84
437.395	643.06
437.77	672.44
438.145	682.61
438.52	660.69
438.895	675.15
439.271	695.26
439.646	698.2
440.021	682.84
440.395	678.09
440.77	705.89
441.145	717.64
441.52	682.16
441.895	722.61
442.27	710.86
442.645	701.37
443.019	752.66
443.394	715.6
443.769	713.12
444.143	725.32
444.518	751.08
444.892	742.04
445.267	747.01
445.641	745.43
446.016	757.64
446.39	766.45
446.764	752.66
447.139	762.16
447.513	787.47
447.887	772.55
448.262	769.84
448.636	773.45
449.01	768.48
449.384	787.47
449.758	789.72
450.132	810.06
450.506	792.89
450.88	819.78
451.254	803.51
451.628	825.66
452.002	821.36
452.376	832.89
452.75	834.7
453.123	857.07
453.497	863.4
453.871	872.21
454.244	866.33
454.618	900.91
454.992	875.15
455.365	884.19
455.739	888.93
456.112	920.34
456.486	933.45
456.859	935.26
457.232	970.96
457.606	968.25
457.979	992.66
458.352	979.1
458.725	994.47
459.099	989.72
459.472	1010.96
459.845	999.21
460.218	1001.02
460.591	1035.59
460.964	1021.13
461.337	1075.37
461.71	1085.54
462.083	1078.08
462.456	1096.38
462.829	1101.58
463.201	1137.06
463.574	1129.38
463.947	1145.2
464.32	1189.26
464.692	1187
465.065	1175.93
465.438	1190.62
465.81	1217.28
466.183	1250.73
466.555	1262.03
466.928	1273.33
467.3	1282.59
467.672	1282.59
468.045	1325.98
468.417	1333.44
468.789	1360.78
469.161	1409.14
469.534	1447.56
469.906	1427.67
470.278	1459.54
470.65	1464.74
471.022	1517.16
471.394	1556.48
471.766	1537.28
472.138	1573.66
472.51	1630.61
472.882	1685.29
473.253	1704.96
473.625	1731.62
473.997	1748.8
474.369	1783.82
474.74	1812.52
475.112	1873.09
475.484	1915.8
475.855	2000.77
476.227	2004.38
476.598	2020.65
476.97	2091.39
477.341	2153.3
477.713	2215
478.084	2268.1
478.455	2339.29
478.827	2411.83
479.198	2488.66
479.569	2479.85
479.94	2568.89
480.311	2643.69
480.682	2750.8
481.053	2851.37
481.424	2920.97
481.795	2967.07
482.166	3081.42
482.537	3117.12
482.908	3253.39
483.279	3292.26
483.65	3461.75
484.021	3534.74
484.391	3619.26
484.762	3681.85
485.133	3780.61
485.503	3904.9
485.874	4019.92
486.244	4107.6
486.615	4250.65
486.985	4344.66
487.356	4511.21
487.726	4556.41
488.097	4748.26
488.467	4837.08
488.837	4962.95
489.207	5097.41
489.578	5225.09
489.948	5385.08
490.318	5479.32
490.688	5626.21
491.058	5795.47
491.428	5977.16
491.798	6029.59
492.168	6207.21
492.538	6305.74
492.908	6422.57
493.278	6546.41
493.648	6682.45
494.017	6872.73
494.387	7012.16
494.757	7116.34
495.126	7279.27
495.496	7376.22
495.866	7526.95
496.235	7710.67
496.605	7803.33
496.974	7906.15
497.344	8101.85
497.713	8179.14
498.082	8363.76
498.452	8520.6
498.821	8584.55
499.19	8665.68
499.559	8877.87
499.928	9041.49
500.298	9095.04
500.667	9248.26
501.036	9367.35
501.405	9418.88
501.774	9604.63
502.143	9706.1
502.512	9809.83
502.88	9995.81
503.249	10009.14
503.618	10156.94
503.987	10297.95
504.356	10396.03
504.724	10538.62
505.093	10624.49
505.462	10818.16
505.83	10825.85
506.199	10998.5
506.567	11138.15
506.936	11189.45
507.304	11342.67
507.672	11461.76
508.041	11533.4
508.409	11742.21
508.777	11743.79
509.145	11941.52
509.514	11976.55
509.882	12155.53
510.25	12165.02
510.618	12312.13
510.986	12370.21
511.354	12505.35
511.722	12653.37
512.09	12836.64
512.458	12782.18
512.826	12975.39
513.193	13028.27
513.561	13067.82
513.929	13166.57
514.297	13305.33
514.664	13430.75
515.032	13393.91
515.4	13570.18
515.767	13697.86
516.135	13817.18
516.502	13753.45
516.869	14030.51
517.237	14040.45
517.604	14054.23
517.972	14207.68
518.339	14288.35
518.706	14356.6
519.073	14460.33
519.44	14537.16
519.808	14665.97
520.175	14642.92
520.542	14854.67
520.909	14923.36
521.276	14946.64
521.643	15122.91
522.009	15249.91
522.376	15268.44
522.743	15407.65
523.11	15421.2
523.477	15651.26
523.843	15727.64
524.21	15849.44
524.577	15934.41
524.943	15997.01
525.31	16071.58
525.676	16306.38
526.043	16256.44
526.409	16354.29
526.776	16519.93
527.142	16554.73
527.508	16663.43
527.874	16698.23
528.241	16724.22
528.607	16822.07
528.973	16992.01
529.339	16925.35
529.705	17090.54
530.071	17196.75
530.437	17340.7
530.803	17375.96
531.169	17416.63
531.535	17330.76
531.901	17464.54
532.267	17509.96
532.632	17640.58
532.998	17566.68
533.364	17643.75
533.73	17757.87
534.095	17881.7
534.461	17917.64
534.826	17907.24
535.192	17977.07
535.557	17955.38
535.923	17958.77
536.288	18050.74
536.653	18051.19
537.019	18058.88
537.384	18059.78
537.749	18050.74
538.114	18191.75
538.479	18141.13
538.845	18235.37
539.21	18155.37
539.575	18274.46
539.94	18250.06
540.305	18318.53
540.67	18308.59
541.034	18307
541.399	18364.4
541.764	18440.11
542.129	18517.17
542.494	18527.56
542.858	18498.86
543.223	18555.59
543.587	18584.74
543.952	18519.43
544.316	18621.57
544.681	18535.25
545.045	18625.41
545.41	18666.32
545.774	18680.33
546.138	18724.62
546.503	18647.33
546.867	18667.45
547.231	18784.96
547.595	18810.95
547.959	18831.96
548.324	18772.53
548.688	18791.74
549.052	18828.12
549.416	18876.26
549.779	18731.85
550.143	18857.95
550.507	19031.51
550.871	19022.92
551.235	18885.97
551.599	19128.9
551.962	19052.07
552.326	19088.45
552.689	19104.95
553.053	19135.68
553.417	19074.89
553.78	19308.11
554.143	19103.59
554.507	19120.99
554.87	19231.5
555.234	19311.95
555.597	19187.89
555.96	19330.25
556.323	19364.38
556.686	19413.19
557.05	19582.68
557.413	19451.61
557.776	19521.21
558.139	19727.08
558.502	19580.87
558.865	19652.51
559.228	19692.73
559.59	19758.49
559.953	19754.88
560.316	19965.27
560.679	19803.46
561.041	20024.93
561.404	20019.05
561.767	20142.21
562.129	20012.27
562.492	20206.62
562.854	20232.6
563.217	20073.74
563.579	20218.37
563.941	20358.7
564.304	20372.49
564.666	20454.97
565.028	20483.9
565.39	20544.23
565.753	20631.46
566.115	20655.64
566.477	20706.94
566.839	20716.21
567.201	20855.64
567.563	20944.68
567.925	20927.73
568.287	20908.52
568.648	20931.34
569.01	21034.39
569.372	21139.47
569.734	21109.87
570.095	21294.5
570.457	21308.51
570.819	21309.86
571.18	21322.52
571.542	21418.79
571.903	21466.24
572.265	21651.55
572.626	21570.42
572.987	21549.86
573.349	21593.7
573.71	21641.83
574.071	21749.17
574.432	21775.39
574.794	21983.52
575.155	21805.44
575.516	21760.92
575.877	21849.96
576.238	21905.55
576.599	21972.22
576.96	22012.67
577.32	22102.16
577.681	22159.11
578.042	22074.82
578.403	22192.55
578.763	22101.93
579.124	22089.05
579.485	22347.12
579.845	22311.42
580.206	22265.32
580.566	22288.59
580.927	22255.38
581.287	22294.24
581.648	22240.01
582.008	22500.34
582.368	22254.47
582.728	22424.41
583.089	22255.6
583.449	22327.69
583.809	22327.01
584.169	22452.66
584.529	22271.42
584.889	22471.87
585.249	22341.7
585.609	22247.47
585.969	22307.58
586.329	22316.39
586.688	22362.72
587.048	22388.93
587.408	22402.26
587.768	22279.56
588.127	22287.46
588.487	22352.32
588.846	22369.27
589.206	22246.34
589.565	22249.27
589.925	22355.71
590.284	22273
590.643	22325.43
591.003	22393.45
591.362	22498.53
591.721	22369.5
592.08	22310.06
592.44	22455.82
592.799	22478.42
593.158	22405.65
593.517	22350.29
593.876	22337.86
594.235	22359.78
594.593	22348.48
594.952	22365.65
595.311	22270.29
595.67	22299.22
596.029	22471.19
596.387	22480.68
596.746	22517.74
597.104	22321.81
597.463	22375.15
597.822	22500.34
598.18	22419.44
598.538	22355.94
598.897	22502.37
599.255	22326.33
599.613	22706.21
599.972	22471.19
600.33	22500.11
600.688	22402.72
601.046	22578.3
601.404	22542.15
601.762	22506.67
602.12	22602.71
602.478	22568.59
602.836	22599.1
603.194	22584.41
603.552	22607
603.91	22534.01
604.268	22650.17
604.625	22532.66
604.983	22621.69
605.341	22591.41
605.698	22694.91
606.056	22683.84
606.413	22651.98
606.771	22808.36
607.128	22809.03
607.485	22622.82
607.843	22751.18
608.2	22865.3
608.557	22866.21
608.914	22864.17
609.272	22992.53
609.629	22965.87
609.986	23057.61
610.343	22957.05
610.7	23192.53
611.057	23027.56
611.414	23054
611.771	23141.23
612.127	23295.12
612.484	23191.62
612.841	23287.66
613.198	23224.39
613.554	23204.95
613.911	23393.65
614.267	23385.74
614.624	23305.29
614.98	23369.92
615.337	23535.12
615.693	23401.79
616.05	23449.24
616.406	23540.54
616.762	23465.74
617.118	23447.89
617.475	23485.85
617.831	23579.63
618.187	23536.02
618.543	23645.4
618.899	23704.6
619.255	23764.71
619.611	23622.34
619.967	23864.37
620.323	23782.79
620.678	23631.61
621.034	23580.31
621.39	23586.19
621.746	23656.24
622.101	23823.24
622.457	23769.46
622.812	23865.05
623.168	23768.33
623.523	23803.58
623.879	23935.11
624.234	23749.12
624.589	23828.44
624.945	23849.91
625.3	23915.44
625.655	23876.12
626.01	23919.06
626.365	23815.56
626.72	23958.16
627.075	23827.76
627.43	23944.82
627.785	23940.08
628.14	23931.72
628.495	23932.39
628.85	23931.94
629.205	23828.67
629.559	24025.95
629.914	23853.3
630.269	23843.36
630.623	23779.85
630.978	23758.39
631.332	23758.84
631.687	23884.26
632.041	23807.2
632.396	23863.47
632.75	23635.9
633.104	23782.11
633.459	23660.31
633.813	23716.13
634.167	23778.95
634.521	23668.45
634.875	23688.56
635.229	23590.48
635.583	23518.17
635.937	23405.18
636.291	23616.92
636.645	23602.68
636.999	23559.3
637.352	23560.65
637.706	23493.31
638.06	23574.89
638.413	23464.16
638.767	23287.66
639.121	23337.38
639.474	23182.81
639.828	23232.07
640.181	23290.15
640.534	23394.55
640.888	23206.54
641.241	23260.32
641.594	23193.43
641.947	23260.09
642.301	23242.02
642.654	23247.44
643.007	23272.3
643.36	23121.57
643.713	23202.24
644.066	23219.19
644.419	23077.95
644.771	22897.17
645.124	22835.47
645.477	22734.91
645.83	22538.98
646.182	22516.84
646.535	22375.15
646.888	22449.95
647.24	22300.8
647.593	22449.72
647.945	22470.74
648.298	22310.74
648.65	22263.28
649.002	22219.22
649.355	22357.97
649.707	22357.75
650.059	22422.38
650.411	22750.5
650.763	22672.54
651.115	22896.94
651.467	22827.11
651.819	22794.34
652.171	22816.49
652.523	22668.92
652.875	22747.11
653.227	22654.01
653.578	22806.1
653.93	22778.3
654.282	22624.63
654.633	22674.35
654.985	22645.42
655.337	22837.05
655.688	22727.23
656.039	22845.64
656.391	22656.95
656.742	22731.97
657.094	22689.04
657.445	22769.26
657.796	22706.66
658.147	22629.83
658.498	22728.81
658.849	22654.91
659.2	22733.78
659.551	22683.61
659.902	22731.29
660.253	22756.61
660.604	22740.11
660.955	22657.85
661.306	22742.82
661.656	22724.52
662.007	22756.61
662.358	22598.19
662.708	22665.76
663.059	22691.52
663.409	22648.59
663.76	22727.68
664.11	22722.93
664.461	22740.56
664.811	22733.78
665.161	22724.29
665.511	22674.35
665.862	22696.95
666.212	22811.07
666.562	22809.26
666.912	22791.41
667.262	22752.09
667.612	22683.39
667.962	22742.37
668.312	22682.93
668.662	22867.11
669.011	22696.27
669.361	22654.69
669.711	22633.44
670.06	22708.24
670.41	22600.68
670.76	22612.88
671.109	22662.37
671.459	22673.9
671.808	22601.81
672.157	22657.4
672.507	22549.38
672.856	22522.49
673.205	22664.63
673.554	22670.96
673.904	22550.96
674.253	22637.06
674.602	22476.39
674.951	22183.74
675.3	22083.85
675.649	22463.51
675.998	22380.12
676.346	22477.52
676.695	22490.4
677.044	22247.01
677.393	22355.26
677.741	22356.84
678.09	22245.66
678.438	22287.69
678.787	22275.04
679.135	22216.05
679.484	22128.15
679.832	22332.66
680.181	22162.5
680.529	22214.47
680.877	22158.65
681.225	22159.11
681.573	22130.18
681.922	22022.61
682.27	21958.21
682.618	22054.48
682.966	21952.11
683.314	21922.5
683.661	21895.84
684.009	21749.17
684.357	21716.41
684.705	21708.72
685.053	21696.52
685.4	21651.78
685.748	21533.13
686.095	21511.21
686.443	21415.62
686.79	21431.67
687.138	21479.8
687.485	21412.23
687.832	21402.74
688.18	21437.32
688.527	21264.21
688.874	21276.64
689.221	21148.74
689.568	21144.44
689.915	21162.3
690.262	21052.47
690.609	20940.16
690.956	20893.6
691.303	20870.1
691.65	20878.24
691.997	20709.2
692.344	20549.66
692.69	20672.82
693.037	20598.92
693.383	20336.1
693.73	20473.73
694.077	20441.41
694.423	20323.9
694.769	20280.96
695.116	20178.82
695.462	20210.68
695.808	20105.38
696.155	20128.2
696.501	19975.21
696.847	20007.98
697.193	19821.09
697.539	19847.75
697.885	19742.45
698.231	19669.68
698.577	19622.45
698.923	19569.12
699.269	19559.85
699.614	19407.09
699.96	19418.39
700.306	19394.66
700.651	19272.85
700.997	19241.9
701.342	19191.73
701.688	19078.74
702.033	19110.15
702.379	19044.84
702.724	18942.92
703.069	18998.74
703.415	18674.68
703.76	18781.12
704.105	18815.01
704.45	18681.01
704.795	18635.36
705.14	18480.11
705.485	18542.25
705.83	18408.7
706.175	18524.17
706.52	18379.09
706.865	18278.53
707.209	18223.62
707.554	18169.83
707.899	18258.87
708.243	18118.99
708.588	18077.18
708.932	17902.04
709.277	17957.86
709.621	17964.64
709.966	17856.85
710.31	17907.24
710.654	17761.71
710.998	17806.23
711.342	17790.86
711.687	17770.75
712.031	17625.89
712.375	17454.37
712.719	17633.58
713.063	17510.19
713.407	17515.39
713.75	17442.17
714.094	17467.7
714.438	17434.71
714.782	17400.81
715.125	17245.79
715.469	17308.39
715.812	17171.89
716.156	17103.87
716.499	17080.6
716.843	17159.69
717.186	17156.3
717.53	17112.01
717.873	17212.34
718.216	16995.4
718.559	16987.27
718.902	16875.4
719.246	16906.82
719.589	16904.56
719.932	16719.93
720.275	16751.57
720.617	16801.51
720.96	16722.87
721.303	16734.39
721.646	16744.11
721.989	16686.48
722.331	16778.68
722.674	16662.75
723.016	16697.33
723.359	16622.76
723.701	16690.32
724.044	16465.25
724.386	16492.81
724.729	16510.44
725.071	16453.27
725.413	16513.38
725.755	16406.94
726.097	16377.11
726.439	16343.89
726.782	16321.52
727.124	16388.86
727.465	16354.51
727.807	16312.71
728.149	16281.75
728.491	16274.74
728.833	16300.73
729.175	16245.14
729.516	16183.9
729.858	16168.76
730.199	16180.51
730.541	16196.78
730.882	16166.04
731.224	16149.32
731.565	16004.01
731.906	16159.49
732.248	16123.11
732.589	16129.21
732.93	15964.69
733.271	16059.83
733.612	16160.85
733.953	16078.36
734.294	15998.82
734.635	16027.29
734.976	16051.92
735.317	16005.37
735.658	15993.39
735.999	16087.18
736.339	16010.34
736.68	16020.06
737.021	15995.65
737.361	15955.88
737.702	16058.02
738.042	15963.34
738.383	15971.7
738.723	15999.27
739.063	15882.44
739.404	16047.85
739.744	15921.98
740.084	15943.22
740.424	15899.38
740.764	15910.68
741.104	16004.69
741.444	15923.11
741.784	15974.86
742.124	15937.12
742.464	16003.11
742.804	15976.9
743.143	15916.11
743.483	15987.52
743.823	15901.64
744.162	16023.67
744.502	16007.18
744.841	15907.29
745.181	16088.76
745.52	16097.12
745.86	16075.2
746.199	16036.33
746.538	16130.79
746.877	16199.72
747.216	16154.74
747.556	16145.03
747.895	16206.49
748.234	16232.48
748.573	16311.58
748.911	16260.73
749.25	16376.21
749.589	16338.47
749.928	16414.17
750.267	16468.18
750.605	16429.31
750.944	16489.88
751.283	16526.03
751.621	16716.99
751.96	16590.21
752.298	16648.52
752.636	16743.2
752.975	16732.81
753.313	16808.96
753.651	17009.41
753.989	16913.37
754.327	17067.49
754.666	17072.23
755.004	17163.31
755.342	17278.33
755.679	17305.9
756.017	17318.33
756.355	17395.84
756.693	17507.48
