Data from hue_210_FLMS001491_00013.txt Node
Date: Tue Feb 07 16:40:49 GMT 2017
User: dcchb
Spectrometer: FLMS00149
Trigger mode: 0
Integration Time (sec): 2.000000E-2
Scans to average: 10
Electric dark correction enabled: true
Nonlinearity correction enabled: false
Boxcar width: 0
XAxis mode: Wavelengths
Number of Pixels in Spectrum: 2048
>>>>>Begin Spectral Data<<<<<
341.393	-0.47
341.776	-0.47
342.16	-0.47
342.543	-47.92
342.927	-75.49
343.31	-71.65
343.693	-88.15
344.077	-66.45
344.46	-77.98
344.843	-68.94
345.226	-32.1
345.61	-42.5
345.993	13.32
346.376	13.09
346.759	-1.14
347.142	33.21
347.525	25.07
347.908	50.61
348.291	80.89
348.674	103.26
349.057	129.47
349.44	130.83
349.823	162.02
350.206	167.44
350.588	188.91
350.971	219.64
351.354	204.73
351.737	254.89
352.119	254.89
352.502	249.92
352.884	277.49
353.267	289.47
353.65	316.36
354.032	285.4
354.414	303.25
354.797	310.03
355.179	310.26
355.562	318.62
355.944	317.04
356.326	323.37
356.709	344.16
357.091	343.48
357.473	323.82
357.855	347.32
358.238	347.1
358.62	352.97
359.002	341.45
359.384	348.68
359.766	357.26
360.148	329.47
360.53	340.77
360.912	320.88
361.294	339.41
361.676	341.9
362.057	314.1
362.439	312.52
362.821	327.43
363.203	315.01
363.584	333.99
363.966	331.73
364.348	317.04
364.729	323.14
365.111	323.37
365.493	318.4
365.874	318.62
366.256	336.25
366.637	311.39
367.019	313.88
367.4	311.39
367.781	312.97
368.163	314.78
368.544	318.85
368.925	330.15
369.306	308.45
369.688	325.4
370.069	307.1
370.45	310.94
370.831	315.68
371.212	312.75
371.593	298.28
371.974	322.46
372.355	329.24
372.736	327.89
373.117	293.76
373.498	326.08
373.879	321.33
374.26	310.94
374.641	312.07
375.021	313.88
375.402	305.74
375.783	307.77
376.163	320.66
376.544	327.21
376.925	323.37
377.305	320.43
377.686	345.74
378.066	341.9
378.447	329.02
378.827	328.34
379.208	339.19
379.588	322.01
379.968	330.37
380.349	357.94
380.729	335.57
381.109	344.61
381.489	331.5
381.87	325.4
382.25	358.17
382.63	342.58
383.01	347.55
383.39	342.8
383.77	356.36
384.15	347.32
384.53	357.49
384.91	358.62
385.29	339.19
385.67	369.47
386.049	332.18
386.429	345.74
386.809	352.52
387.189	352.74
387.568	352.52
387.948	379.41
388.328	371.28
388.707	370.82
389.087	371.95
389.466	381.67
389.846	357.26
390.225	373.99
390.605	372.86
390.984	369.02
391.363	377.38
391.743	371.5
392.122	369.92
392.501	380.77
392.881	380.31
393.26	386.87
393.639	379.64
394.018	383.93
394.397	406.98
394.776	402.01
395.155	369.02
395.534	384.83
395.913	396.36
396.292	415.12
396.671	396.81
397.05	409.69
397.429	407.88
397.808	416.7
398.186	410.82
398.565	407.43
398.944	394.78
399.323	401.33
399.701	406.98
400.08	402.24
400.458	421.22
400.837	412.4
401.215	416.47
401.594	401.56
401.972	422.8
402.351	440.2
402.729	409.69
403.107	443.14
403.486	428
403.864	444.72
404.242	436.36
404.62	451.05
404.999	439.97
405.377	481.56
405.755	468.22
406.133	479.52
406.511	478.84
406.889	477.26
407.267	486.53
407.645	484.04
408.023	503.48
408.401	521.33
408.779	513.87
409.156	506.64
409.534	533.53
409.912	536.24
410.29	523.81
410.667	556.13
411.045	554.1
411.422	547.32
411.8	558.62
412.178	588.67
412.555	614.21
412.933	598.39
413.31	578.73
413.687	617.37
414.065	615.56
414.442	640.65
414.819	635
415.197	631.38
415.574	644.71
415.951	666.41
416.328	667.09
416.705	659.4
417.082	665.28
417.46	674.77
417.837	677.03
418.214	693.07
418.591	718.16
418.967	748.89
419.344	721.55
419.721	747.54
420.098	764.49
420.475	755.45
420.852	766.97
421.228	800.87
421.605	811.26
421.982	809.91
422.358	827.08
422.735	822.56
423.111	846.07
423.488	858.27
423.864	870.02
424.241	886.52
424.617	907.53
424.994	929
425.37	926.29
425.746	940.98
426.123	1011.03
426.499	988.21
426.875	996.12
427.251	1007.42
427.627	1023.69
428.003	1016.46
428.379	1059.62
428.756	1077.92
429.132	1074.31
429.507	1078.6
429.883	1107.53
430.259	1116.79
430.635	1138.49
431.011	1135.32
431.387	1179.16
431.763	1157.47
432.138	1171.93
432.514	1221.42
432.89	1200.86
433.265	1247.64
433.641	1295.32
434.016	1279.5
434.392	1291.93
434.767	1335.09
435.143	1378.03
435.518	1387.52
435.894	1396.33
436.269	1416.9
436.644	1453.73
437.02	1475.65
437.395	1463
437.77	1500.51
438.145	1550
438.52	1578.7
438.895	1605.59
439.271	1614.63
439.646	1643.78
440.021	1668.64
440.395	1683.56
440.77	1665.25
441.145	1703.44
441.52	1766.04
441.895	1759.26
442.27	1753.16
442.645	1815.08
443.019	1829.54
443.394	1826.38
443.769	1846.49
444.143	1834.29
444.518	1881.07
444.892	1909.77
445.267	1912.93
445.641	1933.95
446.016	1965.36
446.39	1978.01
446.764	1990.44
447.139	1993.83
447.513	2022.08
447.887	2052.36
448.262	2027.28
448.636	2033.6
449.01	2084.68
449.384	2099.82
449.758	2113.6
450.132	2108.86
450.506	2155.41
450.88	2154.73
451.254	2181.85
451.628	2189.76
452.002	2236.54
452.376	2263.2
452.75	2256.2
453.123	2286.03
453.497	2323.54
453.871	2323.99
454.244	2385.01
454.618	2386.82
454.992	2428.85
455.365	2404.89
455.739	2495.97
456.112	2493.93
456.486	2519.24
456.859	2539.81
457.232	2579.13
457.606	2596.3
457.979	2605.57
458.352	2682.63
458.725	2686.92
459.099	2736.64
459.472	2727.82
459.845	2793.58
460.218	2798.1
460.591	2827.93
460.964	2845.11
461.337	2926.24
461.71	2914.49
462.083	2963.52
462.456	2955.39
462.829	3007.36
463.201	3067.02
463.574	3100.92
463.947	3110.64
464.32	3157.87
464.692	3182.28
465.065	3191.77
465.438	3246.23
465.81	3286.45
466.183	3281.03
466.555	3401.48
466.928	3420.23
467.3	3424.53
467.672	3453.45
468.045	3553.34
468.417	3548.37
468.789	3610.06
469.161	3665.43
469.534	3676.5
469.906	3711.3
470.278	3788.81
470.65	3789.49
471.022	3866.32
471.394	3970.5
471.766	4012.08
472.138	4017.28
472.51	4093.89
472.882	4173.89
473.253	4225.19
473.625	4248.69
473.997	4299.76
474.369	4364.84
474.74	4391.51
475.112	4451.85
475.484	4495.46
475.855	4582.92
476.227	4607.55
476.598	4758.73
476.97	4779.3
477.341	4834.66
477.713	4960.99
478.084	4960.76
478.455	5047.99
478.827	5134.77
479.198	5268.55
479.569	5211.6
479.94	5363.69
480.311	5382.9
480.682	5508.99
481.053	5611.59
481.424	5668.54
481.795	5741.53
482.166	5818.82
482.537	5832.15
482.908	6016.1
483.279	6022.65
483.65	6148.07
484.021	6266.71
484.391	6364.34
484.762	6386.03
485.133	6344.45
485.503	6430.78
485.874	6542.41
486.244	6608.85
486.615	6720.26
486.985	6819.02
487.356	6874.83
487.726	6962.97
488.097	7025.56
488.467	7062.85
488.837	7199.8
489.207	7250.64
489.578	7409.96
489.948	7369.96
490.318	7528.15
490.688	7535.61
491.058	7586
491.428	7728.6
491.798	7771.98
492.168	7910.06
492.538	7935.6
492.908	7975.6
493.278	8077.97
493.648	8141.69
494.017	8174.23
494.387	8238.41
494.757	8247.68
495.126	8329.71
495.496	8404.51
495.866	8383.49
496.235	8482.47
496.605	8528.12
496.974	8579.65
497.344	8593.21
497.713	8652.41
498.082	8707.78
498.452	8751.39
498.821	8825.97
499.19	8828.68
499.559	8888.57
499.928	8901.9
500.298	8901.45
500.667	9013.99
501.036	8959.52
501.405	9059.86
501.774	9030.71
502.143	9158.84
502.512	9119.75
502.88	9237.03
503.249	9103.02
503.618	9166.98
503.987	9144.38
504.356	9270.25
504.724	9292.17
505.093	9315.45
505.462	9341.21
505.83	9335.79
506.199	9401.55
506.567	9527.87
506.936	9469.57
507.304	9541.66
507.672	9529.9
508.041	9566.74
508.409	9634.53
508.777	9633.86
509.145	9700.75
509.514	9652.84
509.882	9716.79
510.25	9628.66
510.618	9759.96
510.986	9708.43
511.354	9776.68
511.722	9840.86
512.09	9879.5
512.458	9889.44
512.826	9969.89
513.193	9874.75
513.561	9933.74
513.929	10014.86
514.297	9933.06
514.664	10025.03
515.032	9970.35
515.4	10021.42
515.767	10018.93
516.135	10054.86
516.502	10039.72
516.869	10147.52
517.237	10069.55
517.604	10075.43
517.972	10063.68
518.339	10049.67
518.706	10080.62
519.073	10097.57
519.44	10115.65
519.808	10187.74
520.175	10218.7
520.542	10253.05
520.909	10255.31
521.276	10162.2
521.643	10257.8
522.009	10206.5
522.376	10282.65
522.743	10271.35
523.11	10348.87
523.477	10345.25
523.843	10342.09
524.21	10398.36
524.577	10406.72
524.943	10350.67
525.31	10427.96
525.676	10442.65
526.043	10380.96
526.409	10442.2
526.776	10483.55
527.142	10461.63
527.508	10465.25
527.874	10500.95
528.241	10444.01
528.607	10406.94
528.973	10482.65
529.339	10460.28
529.705	10531.01
530.071	10490.56
530.437	10528.75
530.803	10430.9
531.169	10479.71
531.535	10415.76
531.901	10422.99
532.267	10458.69
532.632	10373.05
532.998	10348.19
533.364	10481.74
533.73	10361.97
534.095	10425.93
534.461	10390.9
534.826	10317.23
535.192	10356.1
535.557	10367.62
535.923	10334.4
536.288	10323.78
536.653	10318.81
537.019	10189.77
537.384	10198.59
537.749	10183.9
538.114	10161.75
538.479	10112.94
538.845	10098.93
539.21	10075.65
539.575	10046.73
539.94	9976.9
540.305	9933.06
540.67	9872.04
541.034	9996.33
541.399	9973.06
541.764	9883.79
542.129	9907.07
542.494	9830.69
542.858	9903.45
543.223	9759.96
543.587	9840.41
543.952	9668.43
544.316	9682.22
544.681	9639.96
545.045	9630.02
545.41	9711.37
545.774	9621.2
546.138	9619.17
546.503	9594.99
546.867	9525.16
547.231	9499.62
547.595	9488.32
547.959	9483.58
548.324	9398.83
548.688	9414.65
549.052	9427.08
549.416	9388.44
549.779	9356.12
550.143	9311.61
550.507	9286.97
550.871	9302.11
551.235	9143.93
551.599	9265.05
551.962	9211.04
552.326	9201.55
552.689	9107.77
553.053	9070.93
553.417	9045.85
553.78	9147.54
554.143	9018.51
554.507	9004.27
554.87	9035.45
555.234	9055.34
555.597	8936.25
555.96	8958.39
556.323	8957.04
556.686	8906.87
557.05	8927.21
557.413	8936.25
557.776	8928.79
558.139	8898.06
558.502	8939.19
558.865	8904.84
559.228	8905.51
559.59	8885.85
559.953	8880.88
560.316	8964.5
560.679	8882.92
561.041	8874.33
561.404	8880.88
561.767	8882.01
562.129	8871.62
562.492	8906.42
562.854	8858.96
563.217	8849.7
563.579	8830.71
563.941	8821.67
564.304	8861.9
564.666	8903.71
565.028	8894.67
565.39	8916.81
565.753	8933.76
566.115	8936.02
566.477	8902.12
566.839	8901.45
567.201	8959.52
567.563	8971.05
567.925	8983.7
568.287	9008.79
568.648	8970.82
569.01	8991.16
569.372	9075
569.734	9025.29
570.095	9099.86
570.457	9031.39
570.819	9043.36
571.18	9036.81
571.542	9008.34
571.903	9133.98
572.265	9155.9
572.626	9102.8
572.987	9093.76
573.349	9122.68
573.71	9166.07
574.071	9171.5
574.432	9189.57
574.794	9244.26
575.155	9165.85
575.516	9178.28
575.877	9200.65
576.238	9192.96
576.599	9243.36
576.96	9207.65
577.32	9227.09
577.681	9230.25
578.042	9270.48
578.403	9279.06
578.763	9249.01
579.124	9220.31
579.485	9255.34
579.845	9285.39
580.206	9317.03
580.566	9332.62
580.927	9281.55
581.287	9378.5
581.648	9318.61
582.008	9321.32
582.368	9350.25
582.728	9371.49
583.089	9382.11
583.449	9365.16
583.809	9317.93
584.169	9396.8
584.529	9398.61
584.889	9377.59
585.249	9397.93
585.609	9357.03
585.969	9467.31
586.329	9402.68
586.688	9431.38
587.048	9418.95
587.408	9397.03
587.768	9383.92
588.127	9405.39
588.487	9407.2
588.846	9520.87
589.206	9409
589.565	9418.95
589.925	9482.22
590.284	9438.61
590.643	9489.91
591.003	9501.88
591.362	9495.33
591.721	9479.28
592.08	9422.34
592.44	9569
592.799	9445.61
593.158	9521.32
593.517	9458.72
593.876	9452.62
594.235	9482
594.593	9443.13
594.952	9522.9
595.311	9440.42
595.67	9409.46
596.029	9471.38
596.387	9532.16
596.746	9498.49
597.104	9509.79
597.463	9442
597.822	9533.52
598.18	9511.37
598.538	9547.31
598.897	9573.75
599.255	9507.31
599.613	9545.27
599.972	9523.8
600.33	9529.68
600.688	9478.38
601.046	9618.26
601.404	9619.62
601.762	9517.7
602.12	9543.24
602.478	9565.61
602.836	9571.49
603.194	9527.42
603.552	9521.77
603.91	9520.19
604.268	9537.36
604.625	9458.27
604.983	9521.09
605.341	9543.01
605.698	9527.64
606.056	9552.05
606.413	9540.53
606.771	9576.68
607.128	9627.76
607.485	9535.78
607.843	9562.9
608.2	9647.87
608.557	9732.16
608.914	9595.67
609.272	9600.64
609.629	9663.46
609.986	9757.92
610.343	9623.46
610.7	9690.13
611.057	9651.26
611.414	9622.33
611.771	9707.98
612.127	9685.61
612.484	9707.53
612.841	9750.69
613.198	9703.46
613.554	9689.9
613.911	9673.63
614.267	9735.55
614.624	9714.76
614.98	9726.06
615.337	9760.41
615.693	9802.44
616.05	9720.18
616.406	9739.62
616.762	9732.84
617.118	9696.23
617.475	9746.17
617.831	9761.99
618.187	9815.1
618.543	9771.48
618.899	9835.21
619.255	9846.28
619.611	9778.49
619.967	9870.01
620.323	9896
620.678	9858.94
621.034	9801.54
621.39	9824.36
621.746	9805.6
622.101	9964.02
622.457	9740.29
622.812	9837.02
623.168	9782.78
623.523	9879.95
623.879	9882.66
624.234	9857.81
624.589	9790.01
624.945	9818.03
625.3	9865.26
625.655	9789.33
626.01	9844.25
626.365	9843.34
626.72	9820.74
627.075	9812.61
627.43	9873.85
627.785	9780.07
628.14	9804.93
628.495	9834.76
628.85	9826.39
629.205	9754.53
629.559	9809.45
629.914	9798.82
630.269	9723.57
630.623	9811.93
630.978	9764.7
631.332	9804.02
631.687	9737.58
632.041	9765.15
632.396	9728.54
632.75	9742.55
633.104	9698.94
633.459	9667.75
633.813	9664.82
634.167	9701.2
634.521	9630.24
634.875	9696
635.229	9628.89
635.583	9583.91
635.937	9597.93
636.291	9641.99
636.645	9567.87
636.999	9561.54
637.352	9566.29
637.706	9554.99
638.06	9510.92
638.413	9499.62
638.767	9489.23
639.121	9561.32
639.474	9420.98
639.828	9512.96
640.181	9460.53
640.534	9559.51
640.888	9458.95
641.241	9371.26
641.594	9505.27
641.947	9440.64
642.301	9494.43
642.654	9409.91
643.007	9394.99
643.36	9411.49
643.713	9379.63
644.066	9449.23
644.419	9342.79
644.771	9368.55
645.124	9255.56
645.477	9219.86
645.83	9077.26
646.182	9117.71
646.535	9100.09
646.888	9138.5
647.24	9076.36
647.593	9133.53
647.945	9069.13
648.298	9071.16
648.65	9060.76
649.002	9017.83
649.355	9052.86
649.707	9073.87
650.059	9111.38
650.411	9198.39
650.763	9243.58
651.115	9336.01
651.467	9324.03
651.819	9236.81
652.171	9311.38
652.523	9187.31
652.875	9288.1
653.227	9182.57
653.578	9380.3
653.93	9329.01
654.282	9263.47
654.633	9204.04
654.985	9301.21
655.337	9302.34
655.688	9328.33
656.039	9346.86
656.391	9206.07
656.742	9307.99
657.094	9315.22
657.445	9340.31
657.796	9316.35
658.147	9267.09
658.498	9338.72
658.849	9335.33
659.2	9290.14
659.551	9278.84
659.902	9306.18
660.253	9334.2
660.604	9319.74
660.955	9270.7
661.306	9318.61
661.656	9268.67
662.007	9337.59
662.358	9234.55
662.708	9292.62
663.059	9300.98
663.409	9207.43
663.76	9330.81
664.11	9262.12
664.461	9329.91
664.811	9337.59
665.161	9333.53
665.511	9270.02
665.862	9346.41
666.212	9379.4
666.562	9325.84
666.912	9297.82
667.262	9338.72
667.612	9333.75
667.962	9330.59
668.312	9364.94
668.662	9407.42
669.011	9251.04
669.361	9283.36
669.711	9240.42
670.06	9250.36
670.41	9276.13
670.76	9264.38
671.109	9223.25
671.459	9252.85
671.808	9253.98
672.157	9329.91
672.507	9195.22
672.856	9168.11
673.205	9244.71
673.554	9276.35
673.904	9189.12
674.253	9308.89
674.602	9211.27
674.951	9061.44
675.3	9083.36
675.649	9199.97
675.998	9147.32
676.346	9216.01
676.695	9180.31
677.044	9190.03
677.393	9158.84
677.741	9138.5
678.09	9142.8
678.438	9131.5
678.787	9163.13
679.135	9094.66
679.484	9007.21
679.832	9034.78
680.181	8975.34
680.529	8977.38
680.877	9021.9
681.225	8997.94
681.573	9012.86
681.922	8957.04
682.27	8887.89
682.618	8964.5
682.966	8892.41
683.314	8914.55
683.661	8896.02
684.009	8832.52
684.357	8851.96
684.705	8781
685.053	8832.07
685.4	8818.96
685.748	8810.38
686.095	8777.38
686.443	8722.24
686.79	8690.6
687.138	8747.78
687.485	8730.15
687.832	8620.78
688.18	8675.92
688.527	8614.22
688.874	8601.79
689.221	8558.18
689.568	8526.09
689.915	8509.37
690.262	8535.35
690.609	8504.17
690.956	8547.56
691.303	8452.87
691.65	8397.73
691.997	8446.54
692.344	8348.47
692.69	8300.33
693.037	8275.02
693.383	8255.14
693.73	8317.51
694.077	8173.78
694.423	8195.02
694.769	8164.97
695.116	8152.77
695.462	8085.42
695.808	8094.69
696.155	8056.5
696.501	8030.96
696.847	7991.41
697.193	7953.22
697.539	7983.28
697.885	7904.64
698.231	7908.7
698.577	7898.31
698.923	7809.27
699.269	7809.27
699.614	7749.61
699.96	7704.64
700.306	7693.57
700.651	7724.75
700.997	7655.6
701.342	7690.18
701.688	7604.76
702.033	7606.11
702.379	7557.08
702.724	7531.77
703.069	7556.17
703.415	7390.3
703.76	7426.23
704.105	7485.21
704.45	7437.3
704.795	7381.71
705.14	7350.98
705.485	7356.18
705.83	7289.06
706.175	7311.43
706.52	7375.61
706.865	7262.17
707.209	7236.41
707.554	7212.23
707.899	7222.85
708.243	7179.91
708.588	7156.63
708.932	7120.93
709.277	7158.89
709.621	7136.75
709.966	7077.99
710.31	7089.29
710.654	7023.76
710.998	7040.25
711.342	7075.73
711.687	7059.69
712.031	6994.6
712.375	6931.1
712.719	7002.74
713.063	6952.35
713.407	6956.19
713.75	6887.71
714.094	6854.95
714.438	6894.95
714.782	6838.22
715.125	6827.15
715.469	6844.1
715.812	6863.53
716.156	6798
716.499	6823.54
716.843	6836.19
717.186	6754.16
717.53	6742.41
717.873	6821.5
718.216	6784.89
718.559	6744.44
718.902	6685.46
719.246	6778.79
719.589	6631.22
719.932	6675.06
720.275	6650.66
720.617	6630.55
720.96	6630.09
721.303	6686.59
721.646	6636.87
721.989	6647.27
722.331	6639.59
722.674	6611.11
723.016	6626.03
723.359	6577.44
723.701	6620.15
724.044	6549.64
724.386	6534.73
724.729	6573.37
725.071	6546.48
725.413	6555.07
725.755	6611.34
726.097	6560.94
726.439	6562.07
726.782	6527.05
727.124	6516.65
727.465	6574.73
727.807	6543.77
728.149	6531.57
728.491	6552.36
728.833	6542.86
729.175	6525.01
729.516	6516.88
729.858	6511
730.199	6517.78
730.541	6500.15
730.882	6540.15
731.224	6532.24
731.565	6528.63
731.906	6447.5
732.248	6485.01
732.589	6488.85
732.93	6478.46
733.271	6493.37
733.612	6513.26
733.953	6475.52
734.294	6512.58
734.635	6474.84
734.976	6505.13
735.317	6491.11
735.658	6453.6
735.999	6486.82
736.339	6505.13
736.68	6480.04
737.021	6498.57
737.361	6539.25
737.702	6516.88
738.042	6458.57
738.383	6512.13
738.723	6536.76
739.063	6557.55
739.404	6508.29
739.744	6480.04
740.084	6539.47
740.424	6541.51
740.764	6574.05
741.104	6607.72
741.444	6639.13
741.784	6563.66
742.124	6586.03
742.464	6653.6
742.804	6690.21
743.143	6701.28
743.483	6659.02
743.823	6679.13
744.162	6747.61
744.502	6740.6
744.841	6761.16
745.181	6804.1
745.52	6832.57
745.86	6866.25
746.199	6909.18
746.538	6933.14
746.877	6973.59
747.216	6978.56
747.556	7047.94
747.895	7049.07
748.234	7127.03
748.573	7200.25
748.911	7190.76
749.25	7239.12
749.589	7303.3
749.928	7388.72
750.267	7453.35
750.605	7482.73
750.944	7589.39
751.283	7587.81
751.621	7748.26
751.96	7756.39
752.298	7873.9
752.636	7974.92
752.975	8069.6
753.313	8136.95
753.651	8221.92
753.989	8315.02
754.327	8427.56
754.666	8582.13
755.004	8718.85
755.342	8853.99
755.679	8916.59
756.017	9027.55
756.355	9186.41
756.693	9281.1
757.031	9496.69
757.368	9460.53
757.706	9656.68
758.044	9840.63
758.381	9973.51
758.719	10180.74
759.056	10310.9
759.394	10477.68
759.731	10588.63
760.068	10739.36
760.405	10874.73
760.743	11071.33
761.08	11267.26
761.417	11440.59
761.754	11601.49
762.091	11756.06
762.428	11902.72
762.765	12076.73
763.102	12258.65
763.438	12455.25
763.775	12573.89
764.112	12718.52
764.449	12972.3
764.785	13161
765.122	13250.26
765.458	13345.62
765.795	13551.72
766.131	13691.6
766.467	13757.14
766.804	14012.5
767.14	14112.38
767.476	14373.85
767.812	14434.63
