Data from hue_22_FLMS001491_00065.txt Node
Date: Tue Feb 07 17:10:29 GMT 2017
User: dcchb
Spectrometer: FLMS00149
Trigger mode: 0
Integration Time (sec): 2.000000E-2
Scans to average: 10
Electric dark correction enabled: true
Nonlinearity correction enabled: false
Boxcar width: 0
XAxis mode: Wavelengths
Number of Pixels in Spectrum: 2048
>>>>>Begin Spectral Data<<<<<
341.393	0.34
341.776	0.34
342.16	0.34
342.543	-54.12
342.927	-51.86
343.31	-64.97
343.693	-85.08
344.077	-63.61
344.46	-59.09
344.843	-55.25
345.226	-40.56
345.61	-39.66
345.993	-12.32
346.376	-8.47
346.759	11.64
347.142	18.19
347.525	44.41
347.908	60.68
348.291	86.66
348.674	105.42
349.057	102.03
349.44	121.47
349.823	146.55
350.206	173.44
350.588	185.42
350.971	215.02
351.354	221.8
351.737	260.67
352.119	249.37
352.502	251.41
352.884	287.11
353.267	286.66
353.65	289.37
354.032	297.96
354.414	303.83
354.797	306.55
355.179	327.11
355.562	330.27
355.944	335.02
356.326	360.1
356.709	338.86
357.091	343.15
357.473	351.52
357.855	348.13
358.238	367.56
358.62	347.22
359.002	334.79
359.384	351.52
359.766	353.1
360.148	322.59
360.53	336.83
360.912	328.92
361.294	323.95
361.676	347
362.057	346.77
362.439	334.12
362.821	339.99
363.203	338.64
363.584	344.74
363.966	332.53
364.348	325.98
364.729	325.08
365.111	321.01
365.493	330.05
365.874	311.52
366.256	323.95
366.637	312.87
367.019	309.03
367.4	308.13
367.781	317.62
368.163	321.91
368.544	330.05
368.925	326.21
369.306	349.71
369.688	310.16
370.069	307.22
370.45	311.29
370.831	316.26
371.212	336.6
371.593	318.3
371.974	334.34
372.355	306.77
372.736	311.97
373.117	331.18
373.498	335.25
373.879	346.77
374.26	331.4
374.641	336.15
375.021	321.46
375.402	315.81
375.783	341.35
376.163	346.54
376.544	359.2
376.925	337.05
377.305	345.41
377.686	327.11
378.066	339.09
378.447	357.62
378.827	342.25
379.208	345.19
379.588	344.06
379.968	335.25
380.349	362.14
380.729	350.84
381.109	353.1
381.489	335.47
381.87	323.27
382.25	357.17
382.63	349.26
383.01	364.85
383.39	379.76
383.77	343.83
384.15	348.8
384.53	343.38
384.91	348.13
385.29	331.63
385.67	367.33
386.049	367.56
386.429	359.65
386.809	387
387.189	362.82
387.568	350.61
387.948	372.98
388.328	364.62
388.707	365.98
389.087	375.7
389.466	353.32
389.846	382.48
390.225	383.83
390.605	404.17
390.984	362.36
391.363	387.9
391.743	373.44
392.122	386.09
392.501	372.76
392.881	387.22
393.26	406.66
393.639	372.53
394.018	395.58
394.397	397.84
394.776	393.77
395.155	397.16
395.534	375.47
395.913	414.11
396.292	406.43
396.671	421.34
397.05	387
397.429	397.84
397.808	418.18
398.186	395.81
398.565	413.66
398.944	394.9
399.323	404.4
399.701	403.27
400.08	409.14
400.458	439.65
400.837	422.47
401.215	420.67
401.594	423.83
401.972	423.83
402.351	435.58
402.729	433.32
403.107	438.52
403.486	436.94
403.864	436.03
404.242	452.53
404.62	450.04
404.999	432.42
405.377	453.43
405.755	446.65
406.133	452.08
406.511	455.02
406.889	454.34
407.267	466.32
407.645	445.75
408.023	438.97
408.401	474
408.779	467.45
409.156	484.85
409.534	467.22
409.912	471.06
410.29	487.33
410.667	482.36
411.045	489.14
411.422	476.71
411.8	497.28
412.178	484.17
412.555	496.82
412.933	500.44
413.31	522.13
413.687	478.74
414.065	486.2
414.442	506.99
414.819	529.59
415.197	523.04
415.574	494.34
415.951	547.22
416.328	534.34
416.705	527.1
417.082	527.56
417.46	526.88
417.837	546.99
418.214	559.65
418.591	546.31
418.967	544.96
419.344	548.35
419.721	544.05
420.098	565.52
420.475	564.62
420.852	570.72
421.228	576.37
421.605	564.62
421.982	570.49
422.358	577.95
422.735	579.76
423.111	570.27
423.488	591.06
423.864	601.23
424.241	603.94
424.617	593.09
424.994	631.73
425.37	612.3
425.746	605.52
426.123	616.14
426.499	617.5
426.875	608.46
427.251	650.27
427.627	659.53
428.003	643.26
428.379	631.28
428.756	637.84
429.132	665.41
429.507	664.95
429.883	669.47
430.259	681.9
430.635	690.49
431.011	665.63
431.387	693.2
431.763	691.62
432.138	698.63
432.514	736.14
432.89	719.42
433.265	731.17
433.641	711.28
434.016	744.27
434.392	747.89
434.767	761.45
435.143	777.27
435.518	758.29
435.894	774.33
436.269	747.21
436.644	782.01
437.02	802.35
437.395	822.24
437.77	795.8
438.145	778.85
438.52	820.2
438.895	830.6
439.271	825.63
439.646	845.29
440.021	847.32
440.395	846.64
440.77	856.14
441.145	844.61
441.52	852.52
441.895	842.58
442.27	831.73
442.645	845.29
443.019	871.95
443.394	887.77
443.769	868.34
444.143	859.98
444.518	906.98
444.892	883.93
445.267	902.69
445.641	894.55
446.016	905.17
446.39	912.63
446.764	934.1
447.139	923.48
447.513	935.91
447.887	939.98
448.262	918.51
448.636	935.91
449.01	952.4
449.384	948.34
449.758	948.79
450.132	955.57
450.506	995.12
450.88	989.92
451.254	986.3
451.628	1002.57
452.002	1016.58
452.376	1001.89
452.75	1038.5
453.123	1027.66
453.497	1038.96
453.871	1025.85
454.244	1059.07
454.618	1070.82
454.992	1090.48
455.365	1082.34
455.739	1107.2
456.112	1118.73
456.486	1134.55
456.859	1150.37
457.232	1138.39
457.606	1154.43
457.979	1175.45
458.352	1169.8
458.725	1173.64
459.099	1190.59
459.472	1192.85
459.845	1227.88
460.218	1243.02
460.591	1257.71
460.964	1272.62
461.337	1280.31
461.71	1294.99
462.083	1323.02
462.456	1306.97
462.829	1312.85
463.201	1348.33
463.574	1349.91
463.947	1362.56
464.32	1419.06
464.692	1395.1
465.065	1371.15
465.438	1440.3
465.81	1437.36
466.183	1465.61
466.555	1473.29
466.928	1515.78
467.3	1527.53
467.672	1551.26
468.045	1567.53
468.417	1610.47
468.789	1564.14
469.161	1608.21
469.534	1639.62
469.906	1662.22
470.278	1689.33
470.65	1686.85
471.022	1735.43
471.394	1778.15
471.766	1789.9
472.138	1813.4
472.51	1827.18
472.882	1830.57
473.253	1872.61
473.625	1928.65
473.997	1972.26
474.369	1967.52
474.74	1992.83
475.112	2018.82
475.484	2054.75
475.855	2113.28
476.227	2130
476.598	2135.88
476.97	2217.68
477.341	2264.46
477.713	2282.31
478.084	2287.96
478.455	2381.29
478.827	2398.47
479.198	2494.96
479.569	2499.26
479.94	2591.23
480.311	2568.86
480.682	2637.56
481.053	2671.68
481.424	2770.21
481.795	2797.1
482.166	2848.17
482.537	2870.09
482.908	2932.47
483.279	2970.88
483.65	3047.26
484.021	3069.64
484.391	3122.29
484.762	3160.93
485.133	3214.49
485.503	3267.15
485.874	3322.51
486.244	3358.89
486.615	3420.36
486.985	3480.25
487.356	3562.51
487.726	3625.78
488.097	3643.18
488.467	3708.72
488.837	3813.35
489.207	3820.58
489.578	3908.03
489.948	3942.16
490.318	4001.14
490.688	4030.29
491.058	4092.89
491.428	4126.78
491.798	4211.98
492.168	4292.66
492.538	4336.27
492.908	4373.11
493.278	4420.56
493.648	4430.96
494.017	4502.37
494.387	4577.39
494.757	4585.76
495.126	4665.3
495.496	4681.8
495.866	4727.45
496.235	4805.18
496.605	4849.03
496.974	4886.31
497.344	4905.52
497.713	4911.62
498.082	5005.63
498.452	5019.87
498.821	5058.74
499.19	5095.8
499.559	5150.26
499.928	5168.34
500.298	5171.5
500.667	5225.06
501.036	5260.31
501.405	5299.86
501.774	5315.45
502.143	5323.36
502.512	5369.46
502.88	5431.16
503.249	5446.98
503.618	5432.74
503.987	5555.9
504.356	5586.18
504.724	5595.45
505.093	5637.7
505.462	5647.42
505.83	5682.45
506.199	5743.69
506.567	5748.66
506.936	5728.55
507.304	5823.91
507.672	5819.4
508.041	5870.92
508.409	5906.17
508.777	5973.97
509.145	5998.83
509.514	5994.98
509.882	6050.58
510.25	6032.72
510.618	6111.14
510.986	6152.72
511.354	6149.78
511.722	6216.9
512.09	6254.86
512.458	6261.19
512.826	6329.89
513.193	6378.25
513.561	6369.44
513.929	6363.11
514.297	6358.59
514.664	6428.87
515.032	6433.84
515.4	6482.88
515.767	6562.88
516.135	6550.45
516.502	6543.22
516.869	6641.75
517.237	6625.93
517.604	6634.74
517.972	6638.81
518.339	6739.82
518.706	6716.32
519.073	6750.67
519.44	6794.51
519.808	6875.86
520.175	6823.44
520.542	6935.3
520.909	6941.4
521.276	6975.3
521.643	6980.95
522.009	7060.49
522.376	7106.59
522.743	7127.38
523.11	7194.27
523.477	7278.11
523.843	7282.41
524.21	7335.51
524.577	7362.41
524.943	7446.92
525.31	7417.77
525.676	7503.42
526.043	7462.29
526.409	7600.37
526.776	7652.57
527.142	7620.03
527.508	7669.52
527.874	7714.26
528.241	7768.04
528.607	7767.82
528.973	7867.48
529.339	7875.16
529.705	7962.39
530.071	7996.51
530.437	8052.1
530.803	8046.46
531.169	8156.28
531.535	8144.76
531.901	8135.04
532.267	8212.55
532.632	8255.94
532.998	8240.35
533.364	8266.11
533.73	8359.22
534.095	8359.22
534.461	8431.98
534.826	8545.88
535.192	8422.94
535.557	8584.29
535.923	8601.69
536.288	8585.42
536.653	8582.71
537.019	8596.05
537.384	8647.57
537.749	8721.47
538.114	8707.45
538.479	8742.26
538.845	8873.55
539.21	8824.51
539.575	8908.81
539.94	8810.73
540.305	9021.57
540.67	8958.52
541.034	8988.8
541.399	9041.01
541.764	9102.92
542.129	9121.23
542.494	9119.87
542.858	9206.65
543.223	9215.69
543.587	9297.5
543.952	9296.82
544.316	9278.29
544.681	9348.79
545.045	9403.48
545.41	9448.23
545.774	9477.38
546.138	9525.51
546.503	9502.01
546.867	9550.37
547.231	9588.56
547.595	9601.89
547.959	9715.11
548.324	9702
548.688	9697.49
549.052	9782.45
549.416	9767.09
549.779	9831.49
550.143	9835.79
550.507	9894.77
550.871	9866.29
551.235	9828.1
551.599	9968.66
551.962	9995.1
552.326	10030.81
552.689	10112.62
553.053	10110.13
553.417	10099.73
553.78	10271.71
554.143	10202.78
554.507	10275.55
554.87	10310.58
555.234	10363
555.597	10261.09
555.96	10382.44
556.323	10414.3
556.686	10416.79
557.05	10479.39
557.413	10541.76
557.776	10532.49
558.139	10601.87
558.502	10657.23
558.865	10592.38
559.228	10763.22
559.59	10741.75
559.953	10798.02
560.316	10835.31
560.679	10788.3
561.041	10930.22
561.404	11043.66
561.767	11033.5
562.129	10949.88
562.492	11064.68
562.854	11086.38
563.217	11107.84
563.579	11140.16
563.941	11297.9
564.304	11316.2
564.666	11291.34
565.028	11310.78
565.39	11357.55
565.753	11403.2
566.115	11454.73
566.477	11588.73
566.839	11534.5
567.201	11604.33
567.563	11650.43
567.925	11743.08
568.287	11678.68
568.648	11686.13
569.01	11821.95
569.372	11885.9
569.734	11826.92
570.095	11971.55
570.457	11978.33
570.819	11984.43
571.18	12059.68
571.542	12165.22
571.903	12207.7
572.265	12259.23
572.626	12247.25
572.987	12288.83
573.349	12416.28
573.71	12390.07
574.071	12510.29
574.432	12555.49
574.794	12716.84
575.155	12660.12
575.516	12794.13
575.877	12834.8
576.238	12861.92
576.599	12963.39
576.96	13058.98
577.32	13104.63
577.681	13212.65
578.042	13306.88
578.403	13412.42
578.763	13459.42
579.124	13512.53
579.485	13712.07
579.845	13786.87
580.206	13920.88
580.566	14038.84
580.927	14187.99
581.287	14331.71
581.648	14385.72
582.008	14652.84
582.368	14798.37
582.728	14951.58
583.089	15015.54
583.449	15300.95
583.809	15366.94
584.169	15536.2
584.529	15798.34
584.889	16024.1
585.249	16084.21
585.609	16296.86
585.969	16623.18
586.329	16751.31
586.688	16990.4
587.048	17157.18
587.408	17431.52
587.768	17627.9
588.127	17928
588.487	18071.5
588.846	18497.48
589.206	18648.66
589.565	18875.32
589.925	19278.48
590.284	19555.08
590.643	19731.12
591.003	20048.63
591.362	20423.98
591.721	20698.78
592.08	20982.16
592.44	21277.07
592.799	21531.75
593.158	21853.32
593.517	22126.54
593.876	22516.81
594.235	22906.18
594.593	23212.38
594.952	23535.99
595.311	23783.89
595.67	24083.32
596.029	24598.11
596.387	24868.16
596.746	25247.36
597.104	25408.94
597.463	25713.56
597.822	26248.91
598.18	26445.75
598.538	26721.9
598.897	27157.37
599.255	27254.31
599.613	27902.2
599.972	28085.48
600.33	28563.2
600.688	28665.12
601.046	29182.4
601.404	29489.28
601.762	29678.65
602.12	30201.58
602.478	30353.89
602.836	30856.7
603.194	31008.11
603.552	31343.92
603.91	31461.88
604.268	31949.1
604.625	32130.57
604.983	32540.73
605.341	32484.46
605.698	33182.52
606.056	33336.19
606.413	33621.38
606.771	34002.38
607.128	34358.08
607.485	34358.76
607.843	34653.44
608.2	35014.33
608.557	35324.83
608.914	35436.02
609.272	35940.41
609.629	36281.42
609.986	36613.39
610.343	36581.75
610.7	36971.57
611.057	37286.59
611.414	37322.3
611.771	37629.41
612.127	37938.55
612.484	38077.98
612.841	38420.35
613.198	38477.97
613.554	38741.02
613.911	39064.85
614.267	39199.31
614.624	39304.39
614.98	39573.76
615.337	39916.58
615.693	40021.89
616.05	40021.21
616.406	40486.51
616.762	40530.8
617.118	40582.1
617.475	40840.4
617.831	41123.55
618.187	41255.53
618.543	41380.72
618.899	41871.33
619.255	41865.9
619.611	41936.86
619.967	42163.3
620.323	42358.77
620.678	42334.37
621.034	42447.58
621.39	42464.08
621.746	42694.58
622.101	43172.31
622.457	42875.14
622.812	43153.33
623.168	43381.12
623.523	43401.23
623.879	43585.41
624.234	43410.95
624.589	43553.77
624.945	43775.23
625.3	43882.8
625.655	43976.58
626.01	44013.87
626.365	44120.31
626.72	44034.89
627.075	44123.47
627.43	44122.57
627.785	44215.45
628.14	44521.65
628.495	44518.49
628.85	44477.14
629.205	44473.97
629.559	44629
629.914	44624.7
630.269	44731.82
630.623	44678.26
630.978	44591.93
631.332	44831.48
631.687	44988.31
632.041	44805.71
632.396	44927.97
632.75	44906.95
633.104	45139.27
633.459	44827.18
633.813	44917.8
634.167	45000.29
634.521	45114.86
634.875	45060.85
635.229	45023.11
635.583	45046.39
635.937	45077.35
636.291	44952.6
636.645	45092.71
636.999	45004.35
637.352	45110.57
637.706	44967.74
638.06	45210.45
638.413	44958.48
638.767	44872.83
639.121	44989.44
639.474	44691.82
639.828	44854.98
640.181	44930.68
640.534	44960.29
640.888	44834.19
641.241	44737.92
641.594	44891.59
641.947	44999.83
642.301	44924.36
642.654	44863.79
643.007	45179.26
643.36	44966.84
643.713	44784.25
644.066	45037.12
644.419	44745.83
644.771	44588.09
645.124	44179.06
645.477	44266.75
645.83	43879.19
646.182	43873.99
646.535	43815.46
646.888	43786.98
647.24	43543.37
647.593	43772.75
647.945	43834.89
648.298	43510.38
648.65	43574.11
649.002	43613.2
649.355	43663.6
649.707	43621.34
650.059	43834.67
650.411	44266.75
650.763	44316.69
651.115	44572.5
651.467	44542.22
651.819	44603.91
652.171	44407.08
652.523	44239.4
652.875	44324.6
653.227	44166.64
653.578	44527.98
653.93	44332.96
654.282	44404.6
654.633	44207.76
654.985	44336.35
655.337	44335.44
655.688	44394.43
656.039	44565.27
656.391	44107.65
656.742	44144.71
657.094	44341.09
657.445	44342.22
657.796	44216.8
658.147	44138.84
658.498	44176.35
658.849	44114.43
659.2	44193.53
659.551	44108.11
659.902	44083.02
660.253	44163.92
660.604	44305.84
660.955	44078.05
661.306	44199.4
661.656	44157.37
662.007	44143.81
662.358	44051.61
662.708	44188.1
663.059	44109.69
663.409	43786.08
663.76	44137.48
664.11	44142.23
664.461	44141.55
664.811	44068.56
665.161	44008.45
665.511	43930.94
665.862	43951.73
666.212	44110.59
666.562	44094.09
666.912	43987.66
667.262	44017.49
667.612	44062.01
667.962	44042.12
668.312	43964.38
668.662	44208.67
669.011	44053.87
669.361	43939.52
669.711	43941.33
670.06	43876.93
670.41	43894.55
670.76	43887.09
671.109	44018.16
671.459	43893.2
671.808	43833.54
672.157	44080.08
672.507	43749.25
672.856	43791.05
673.205	43901.78
673.554	43921.9
673.904	43771.62
674.253	43949.69
674.602	43776.82
674.951	43328.69
675.3	43173.22
675.649	43721.68
675.998	43687.78
676.346	43711.73
676.695	43720.09
677.044	43490.49
677.393	43652.52
677.741	43629.47
678.09	43483.04
678.438	43397.39
678.787	43557.61
679.135	43374.79
679.484	43262.93
679.832	43417.73
680.181	43083.95
680.529	43370.27
680.877	43282.36
681.225	43113.56
681.573	43443.49
681.922	43123.05
682.27	43042.6
682.618	43003.28
682.966	42831.98
683.314	42899.32
683.661	42695.26
684.009	42657.75
684.357	42683.06
684.705	42425.44
685.053	42616.39
685.4	42483.29
685.748	42436.74
686.095	42341.82
686.443	42179.79
686.79	42053.47
687.138	42256.86
687.485	42175.95
687.832	41989.29
688.18	42221.6
688.527	42034.49
688.874	41974.83
689.221	41884.66
689.568	41843.76
689.915	41694.38
690.262	41685.8
690.609	41467.5
690.956	41288.97
691.303	41436.54
691.65	41181.18
691.997	41178.92
692.344	41028.64
692.69	40784.8
693.037	40956.78
693.383	40536
693.73	40667.29
694.077	40437.24
694.423	40521.99
694.769	40469.11
695.116	40337.36
695.462	40195.21
695.808	40186.63
696.155	40268.88
696.501	39934.43
696.847	39917.93
697.193	39701.22
697.539	39866.41
697.885	39632.07
698.231	39451.51
698.577	39399.3
698.923	39403.6
699.269	39314.11
699.614	39093.1
699.96	39025.75
700.306	38908.92
700.651	38784.4
700.997	38673.9
701.342	38761.58
701.688	38559.78
702.033	38359.78
702.379	38484.75
702.724	38342.16
703.069	38455.6
703.415	37916.86
703.76	38008.38
704.105	37939.91
704.45	37941.94
704.795	37809.74
705.14	37602.51
705.485	37545.57
705.83	37517.09
706.175	37492.69
706.52	37494.49
706.865	37208.17
707.209	37154.62
707.554	37119.14
707.899	37102.19
708.243	37000.27
708.588	36865.36
708.932	36727.73
709.277	36735.87
709.621	36652.26
709.966	36470.34
710.31	36467.63
710.654	36240.97
710.998	36343.79
711.342	36269.22
711.687	36226.96
712.031	35942.9
712.375	35954.65
712.719	36053.18
713.063	35949
713.407	35955.55
713.75	35751.49
714.094	35511.04
714.438	35485.96
714.782	35559.86
715.125	35580.87
715.469	35418.62
715.812	35351.27
716.156	35190.83
716.499	35188.57
716.843	35298.62
717.186	35032.64
717.53	35174.56
717.873	35039.87
718.216	35089.36
718.559	34919.87
718.902	34678.52
719.246	34754
719.589	34655.02
719.932	34534.8
720.275	34537.74
720.617	34546.32
720.96	34493.22
721.303	34380.45
721.646	34363.05
721.989	34141.14
722.331	34359.89
722.674	34131.42
723.016	33998.32
723.359	34112.44
723.701	34020.91
724.044	33819.79
724.386	33659.57
724.729	33976.62
725.071	33757.87
725.413	33805.1
725.755	33537.54
726.097	33529.4
726.439	33454.83
726.782	33454.6
727.124	33687.36
727.465	33453.7
727.807	33471.1
728.149	33429.06
728.491	33198.34
728.833	33274.72
729.175	33081.05
729.516	33218.22
729.858	33016.87
730.199	33117.66
730.541	33053.71
730.882	32939.59
731.224	33046.7
731.565	32715.64
731.906	32814.62
732.248	32811
732.589	32554.74
732.93	32587.28
733.271	32658.01
733.612	32511.12
733.953	32543.89
734.294	32378.7
734.635	32244.46
734.976	32299.15
735.317	32235.42
735.658	32300.05
735.999	32328.3
736.339	32110.23
736.68	32194.52
737.021	32172.37
737.361	32016.22
737.702	32186.39
738.042	32015.54
738.383	31928.31
738.723	32117.23
739.063	32044.47
739.404	31869.78
739.744	31945.26
740.084	31794.53
740.424	31883.57
740.764	31740.52
741.104	31702.1
741.444	31604.25
741.784	31596.12
742.124	31585.72
742.464	31574.2
742.804	31384.6
743.143	31348.44
743.483	31324.71
743.823	31211.95
744.162	31213.98
744.502	31339.85
744.841	31158.16
745.181	31269.8
745.52	31105.74
745.86	31132.18
746.199	30980.54
746.538	31023.93
746.877	31052.63
747.216	31137.15
747.556	30871.17
747.895	30878.17
748.234	30707.1
748.573	30771.96
748.911	30760.89
749.25	30610.61
749.589	30665.75
749.928	30578.52
750.267	30689.48
750.605	30566.09
750.944	30499.65
751.283	30345.53
751.621	30416.26
751.96	30272.54
752.298	30265.98
752.636	30266.21
752.975	30127.68
753.313	29957.52
753.651	30195.03
753.989	29910.29
754.327	29869.16
754.666	29779.89
755.004	29804.53
755.342	29852.44
755.679	29698.54
756.017	29515.95
756.355	29735.15
756.693	29467.59
757.031	29597.53
757.368	29311.66
757.706	29344.2
758.044	29177.42
758.381	29349.62
758.719	29167.71
759.056	29166.58
759.394	29083.87
