Data from hue_50_FLMS001491_11.txt Node
Date: Mon Feb 06 15:09:39 GMT 2017
User: dcchb
Spectrometer: FLMS00149
Trigger mode: 0
Integration Time (sec): 2.000000E-2
Scans to average: 10
Electric dark correction enabled: true
Nonlinearity correction enabled: false
Boxcar width: 0
XAxis mode: Wavelengths
Number of Pixels in Spectrum: 2048
>>>>>Begin Spectral Data<<<<<
341.393	-5.85
341.776	-5.85
342.16	-5.85
342.543	-66.86
342.927	-74.77
343.31	-72.51
343.693	-81.33
344.077	-55.79
344.46	-80.42
344.843	-47.2
345.226	-42.23
345.61	-45.17
345.993	2.97
346.376	-6.3
346.759	1.61
347.142	36.19
347.525	27.6
347.908	58.56
348.291	87.71
348.674	98.56
349.057	117.77
349.44	122.28
349.823	134.94
350.206	162.51
350.588	202.96
350.971	202.73
351.354	231.43
351.737	240.25
352.119	266.91
352.502	263.75
352.884	276.18
353.267	278.44
353.65	283.18
354.032	292.68
354.414	303.07
354.797	320.47
355.179	329.51
355.562	338.55
355.944	344.2
356.326	332
356.709	342.84
357.091	321.15
357.473	340.13
357.855	347.14
358.238	328.61
358.62	350.08
359.002	342.62
359.384	344.2
359.766	327.7
360.148	324.99
360.53	361.83
360.912	346.23
361.294	335.84
361.676	340.81
362.057	340.13
362.439	332.22
362.821	317.76
363.203	338.1
363.584	329.51
363.966	327.25
364.348	335.84
364.729	325.9
365.111	307.82
365.493	318.44
365.874	321.15
366.256	322.28
366.637	303.75
367.019	317.53
367.4	337.87
367.781	324.54
368.163	301.49
368.544	315.73
368.925	300.81
369.306	333.35
369.688	320.7
370.069	293.35
370.45	296.97
370.831	320.25
371.212	320.25
371.593	334.48
371.974	327.03
372.355	305.33
372.736	316.63
373.117	317.99
373.498	328.83
373.879	330.87
374.26	317.76
374.641	299.91
375.021	331.32
375.402	325.67
375.783	317.76
376.163	320.25
376.544	320.92
376.925	342.39
377.305	339.45
377.686	324.09
378.066	322.05
378.447	322.28
378.827	323.18
379.208	341.04
379.588	341.71
379.968	337.42
380.349	341.94
380.729	343.75
381.109	332.67
381.489	332.45
381.87	332.45
382.25	317.31
382.63	351.66
383.01	334.26
383.39	346.91
383.77	364.31
384.15	340.81
384.53	334.48
384.91	353.47
385.29	351.21
385.67	339.45
386.049	348.27
386.429	346.91
386.809	354.6
387.189	348.27
387.568	337.42
387.948	363.63
388.328	336.74
388.707	366.8
389.087	355.73
389.466	337.65
389.846	354.6
390.225	355.05
390.605	352.79
390.984	356.18
391.363	365.89
391.743	365.22
392.122	353.24
392.501	353.92
392.881	381.04
393.26	372.22
393.639	378.55
394.018	377.65
394.397	371.09
394.776	380.58
395.155	392.79
395.534	361.83
395.913	397.53
396.292	369.06
396.671	360.7
397.05	367.25
397.429	356.63
397.808	371.77
398.186	369.96
398.565	371.09
398.944	377.42
399.323	388.72
399.701	374.03
400.08	390.53
400.458	376.52
400.837	378.32
401.215	396.18
401.594	378.55
401.972	378.32
402.351	387.36
402.729	387.81
403.107	367.02
403.486	395.95
403.864	410.86
404.242	390.53
404.62	387.81
404.999	384.65
405.377	430.53
405.755	395.05
406.133	422.62
406.511	414.25
406.889	406.57
407.267	416.74
407.645	407.25
408.023	381.04
408.401	406.12
408.779	396.18
409.156	429.85
409.534	417.64
409.912	412.22
410.29	411.99
410.667	411.32
411.045	421.26
411.422	450.86
411.8	425.1
412.178	438.21
412.555	432.79
412.933	447.7
413.31	437.76
413.687	451.99
414.065	438.21
414.442	448.6
414.819	455.38
415.197	452.9
415.574	468.49
415.951	468.26
416.328	461.03
416.705	461.94
417.082	455.61
417.46	477.98
417.837	474.14
418.214	449.28
418.591	460.58
418.967	455.84
419.344	470.75
419.721	492.44
420.098	502.16
420.475	508.04
420.852	490.64
421.228	483.86
421.605	484.76
421.982	489.05
422.358	491.99
422.735	482.05
423.111	514.82
423.488	529.73
423.864	519.56
424.241	511.2
424.617	512.33
424.994	514.37
425.37	507.36
425.746	508.94
426.123	524.08
426.499	533.57
426.875	532.9
427.251	499.9
427.627	530.64
428.003	533.35
428.379	548.71
428.756	555.04
429.132	534.03
429.507	560.01
429.883	560.92
430.259	556.85
430.635	578.77
431.011	561.6
431.387	571.54
431.763	575.83
432.138	588.26
432.514	576.51
432.89	586.68
433.265	594.81
433.641	607.02
434.016	592.56
434.392	597.07
434.767	609.96
435.143	616.74
435.518	614.25
435.894	620.12
436.269	637.98
436.644	630.29
437.02	619.45
437.395	640.92
437.77	635.72
438.145	640.24
438.52	650.41
438.895	646.79
439.271	657.19
439.646	645.44
440.021	656.73
440.395	673.68
440.77	652.44
441.145	684.98
441.52	691.54
441.895	667.13
442.27	682.72
442.645	684.53
443.019	689.73
443.394	695.15
443.769	680.91
444.143	675.72
444.518	728.82
444.892	709.16
445.267	705.55
445.641	715.04
446.016	742.38
446.39	741.48
446.764	727.92
447.139	720.46
447.513	732.66
447.887	722.5
448.262	732.89
448.636	748.94
449.01	732.21
449.384	748.48
449.758	765.66
450.132	779.67
450.506	757.3
450.88	764.3
451.254	771.31
451.628	784.19
452.002	790.74
452.376	762.27
452.75	796.39
453.123	789.16
453.497	813.79
453.871	783.74
454.244	825.77
454.618	824.41
454.992	847.46
455.365	833
455.739	840.23
456.112	869.84
456.486	851.08
456.859	873.9
457.232	883.62
457.606	881.36
457.979	877.07
458.352	918.2
458.725	888.14
459.099	914.13
459.472	911.19
459.845	932.43
460.218	949.16
460.591	935.82
460.964	943.51
461.337	972.21
461.71	976.5
462.083	1000.45
462.456	981.47
462.829	1012.88
463.201	1032.54
463.574	1020.79
463.947	1044.29
464.32	1072.09
464.692	1096.72
465.065	1088.81
465.438	1108.25
465.81	1131.52
466.183	1122.48
466.555	1130.39
466.928	1174.01
467.3	1166.78
467.672	1172.43
468.045	1227.79
468.417	1206.32
468.789	1250.16
469.161	1262.37
469.534	1252.65
469.906	1313.21
470.278	1338.98
470.65	1337.85
471.022	1378.07
471.394	1385.53
471.766	1421.23
472.138	1423.27
472.51	1465.3
472.882	1479.99
473.253	1554.34
473.625	1559.54
473.997	1591.17
474.369	1611.29
474.74	1641.34
475.112	1643.6
475.484	1723.15
475.855	1764.73
476.227	1846.53
476.598	1860.32
476.97	1896.7
477.341	1967.89
477.713	2016.7
478.084	2029.35
478.455	2091.27
478.827	2130.14
479.198	2217.37
479.569	2272.28
479.94	2328.1
480.311	2396.58
480.682	2460.08
481.053	2580.98
481.424	2604.03
481.795	2682.44
482.166	2785.27
482.537	2880.18
482.908	2967.41
483.279	2996.33
483.65	3078.82
484.021	3229.55
484.391	3341.18
484.762	3374.4
485.133	3452.82
485.503	3565.58
485.874	3671.57
486.244	3729.2
486.615	3901.62
486.985	3978.45
487.356	4077.44
487.726	4189.75
488.097	4305.23
488.467	4406.69
488.837	4578.89
489.207	4667.02
489.578	4799.68
489.948	4941.59
490.318	4986.34
490.688	5117.86
491.058	5300.68
491.428	5408.02
491.798	5517.62
492.168	5716.26
492.538	5793.55
492.908	5921
493.278	6011.85
493.648	6121.45
494.017	6286.42
494.387	6384.95
494.757	6556.69
495.126	6689.34
495.496	6758.27
495.866	6914.65
496.235	7102.89
496.605	7205.26
496.974	7247.97
497.344	7435.31
497.713	7515.76
498.082	7600.73
498.452	7856.09
498.821	7912.36
499.19	8002.98
499.559	8168.63
499.928	8257.89
500.298	8376.76
500.667	8518
501.036	8609.07
501.405	8698.78
501.774	8846.35
502.143	8971.09
502.512	9029.4
502.88	9194.59
503.249	9228.71
503.618	9378.09
503.987	9470.29
504.356	9600
504.724	9657.85
505.093	9835.25
505.462	9906.66
505.83	9977.84
506.199	10148.01
506.567	10257.61
506.936	10300.77
507.304	10503.93
507.672	10630.26
508.041	10685.4
508.409	10727.2
508.777	10819.4
509.145	10994.77
509.514	11048.33
509.882	11242.22
510.25	11236.57
510.618	11402.21
510.986	11398.15
511.354	11595.43
511.722	11713.62
512.09	11897.34
512.458	11822.99
512.826	11948.41
513.193	12096.43
513.561	12106.38
513.929	12250.33
514.297	12409.42
514.664	12448.97
515.032	12561.05
515.4	12602.18
515.767	12794.27
516.135	12876.3
516.502	12864.1
516.869	13126.91
517.237	13129.17
517.604	13068.61
517.972	13366
518.339	13415.49
518.706	13470.18
519.073	13608.03
519.44	13643.74
519.808	13931.64
520.175	13827.01
520.542	13992.43
520.909	14120.79
521.276	14172.31
521.643	14371.4
522.009	14363.27
522.376	14538.4
522.743	14640.32
523.11	14737.27
523.477	14871.95
523.843	14919.18
524.21	15156.69
524.577	15199.63
524.943	15295.67
525.31	15461.77
525.676	15575.66
526.043	15696.56
526.409	15737.47
526.776	15905.15
527.142	15892.04
527.508	16029.66
527.874	16230.79
528.241	16221.97
528.607	16235.99
528.973	16533.38
529.339	16539.03
529.705	16741.28
530.071	16773.82
530.437	16802.52
530.803	17053.37
531.169	17045.91
531.535	17125.23
531.901	17163.19
532.267	17260.37
532.632	17424.88
532.998	17459.23
533.364	17532.45
533.73	17646.8
534.095	17735.83
534.461	17868.26
534.826	17874.59
535.192	18027.12
535.557	18146.44
535.923	18132.88
536.288	18249.27
536.653	18258.08
537.019	18303.73
537.384	18434.8
537.749	18526.32
538.114	18516.38
538.479	18549.37
538.845	18568.58
539.21	18651.97
539.575	18801.57
539.94	18802.02
540.305	18956.82
540.67	18907.78
541.034	19027.1
541.399	19090.37
541.764	19156.36
542.129	19220.99
542.494	19372.4
542.858	19373.3
543.223	19313.87
543.587	19550.7
543.952	19583.69
544.316	19626.18
544.681	19516.13
545.045	19736.23
545.41	19867.53
545.774	19867.98
546.138	19992.72
546.503	20091.7
546.867	19971.48
547.231	20260.96
547.595	20182.32
547.959	20378.25
548.324	20362.43
548.688	20340.51
549.052	20468.42
549.416	20533.27
549.779	20432.71
550.143	20542.99
550.507	20716.55
550.871	20775.75
551.235	20800.39
551.599	21049.42
551.962	20961.29
552.326	21082.64
552.689	21172.8
553.053	21085.58
553.417	21290.09
553.78	21453.93
554.143	21391.1
554.507	21477.66
554.87	21592.91
555.234	21799.23
555.597	21708.38
555.96	21761.94
556.323	21901.83
556.686	21961.71
557.05	22093.46
557.413	22125.77
557.776	22191.76
558.139	22356.28
558.502	22418.42
558.865	22547.46
559.228	22592.43
559.59	22649.38
559.953	22652.99
560.316	22921.46
560.679	22973.66
561.041	23091.17
561.404	23150.83
561.767	23294.56
562.129	23281.45
562.492	23564.83
562.854	23543.82
563.217	23434.21
563.579	23477.38
563.941	23704.94
564.304	23847.76
564.666	24119.62
565.028	24022.45
565.39	24101.09
565.753	24191.26
566.115	24267.41
566.477	24460.85
566.839	24447.07
567.201	24829.21
567.563	24719.15
567.925	24982.87
568.287	24950.56
568.648	24981.07
569.01	25155.07
569.372	25294.28
569.734	25222.19
570.095	25471.22
570.457	25533.14
570.819	25600.71
571.18	25735.17
571.542	25734.94
571.903	25927.03
572.265	25931.32
572.626	25879.8
572.987	26098.33
573.349	26235.72
573.71	26325.21
574.071	26430.29
574.432	26479.56
574.794	26625.99
575.155	26739.44
575.516	26542.16
575.877	26728.37
576.238	26732.43
576.599	27105.76
576.96	26987.12
577.32	27130.16
577.681	27216.49
578.042	27401.34
578.403	27376.94
578.763	27408.12
579.124	27590.04
579.485	27691.05
579.845	27943.47
580.206	27769.02
580.566	27898.96
580.927	27964.26
581.287	28185.95
581.648	28177.37
582.008	28435.44
582.368	28386.17
582.728	28566.96
583.089	28540.97
583.449	28592.72
583.809	28767.63
584.169	28917.23
584.529	28971.7
584.889	29197.45
585.249	29088.75
585.609	29185.02
585.969	29306.83
586.329	29334.62
586.688	29479.71
587.048	29608.29
587.408	29693.94
587.768	29710.89
588.127	29825.46
588.487	29754.95
588.846	30113.81
589.206	30022.74
589.565	30052.8
589.925	30260.02
590.284	30341.15
590.643	30344.32
591.003	30586.79
591.362	30680.58
591.721	30707.24
592.08	30726.45
592.44	30960.12
592.799	31093.22
593.158	31090.28
593.517	31182.71
593.876	31376.6
594.235	31447.56
594.593	31396.49
594.952	31697.05
595.311	31535.7
595.67	31702.7
596.029	31888
596.387	32018.85
596.746	32142.91
597.104	32061.56
597.463	32051.84
597.822	32249.58
598.18	32337.26
598.538	32376.35
598.897	32680.98
599.255	32444.15
599.613	32943.57
599.972	32691.82
600.33	32841.65
600.688	32830.13
601.046	33090.46
601.404	33200.51
601.762	33173.62
602.12	33336.55
602.478	33488.64
602.836	33550.11
603.194	33377.46
603.552	33455.87
603.91	33488.87
604.268	33633.27
604.625	33570.9
604.983	33843.43
605.341	33608.41
605.698	34085.69
606.056	34062.18
606.413	34032.81
606.771	34213.37
607.128	34345.34
607.485	34210.88
607.843	34371.78
608.2	34600.7
608.557	34722.05
608.914	34670.53
609.272	34753.24
609.629	34861.26
609.986	35060.35
610.343	34903.97
610.7	35163.17
611.057	34985.32
611.414	35260.57
611.771	35353.22
612.127	35437.97
612.484	35482.49
612.841	35521.35
613.198	35412.2
613.554	35554.57
613.911	35754.34
614.267	35708.69
614.624	35791.18
614.98	35879.76
615.337	36076.59
615.693	36063.26
616.05	35997.05
616.406	36316.59
616.762	36104.62
617.118	36137.38
617.475	36200.88
617.831	36468.22
618.187	36424.83
618.543	36523.14
618.899	36697.59
619.255	36627.99
619.611	36637.71
619.967	36848.78
620.323	36803.35
620.678	36855.33
621.034	36816.91
621.39	36754.32
621.746	36796.35
622.101	37079.51
622.457	37020.07
622.812	37025.5
623.168	37099.39
623.523	37150.46
623.879	37264.13
624.234	37103.46
624.589	37345.94
624.945	37303.45
625.3	37321.76
625.655	37342.32
626.01	37484.47
626.365	37422.1
626.72	37514.97
627.075	37326.5
627.43	37401.08
627.785	37420.06
628.14	37333.96
628.495	37396.11
628.85	37578.7
629.205	37391.14
629.559	37703.44
629.914	37427.97
630.269	37584.8
630.623	37451.47
630.978	37311.82
631.332	37497.35
631.687	37696.89
632.041	37371.47
632.396	37524.01
632.75	37369.22
633.104	37385.94
633.459	37247.18
633.813	37185.49
634.167	37300.97
634.521	37356.56
634.875	37339.61
635.229	37093.74
635.583	37054.2
635.937	37222.55
636.291	37091.71
636.645	37151.37
636.999	37134.87
637.352	37175.32
637.706	37087.41
638.06	37289.44
638.413	37003.35
638.767	36981.88
639.121	37116.79
639.474	36933.52
639.828	37013.07
640.181	37025.27
640.534	36965.16
640.888	36865.27
641.241	36760.19
641.594	36860.98
641.947	36919.51
642.301	36788.44
642.654	36808.78
643.007	36867.31
643.36	36920.87
643.713	36713.87
644.066	36927.42
644.419	36687.65
644.771	36344.61
645.124	36101
645.477	36111.17
645.83	35770.16
646.182	35694
646.535	35579.66
646.888	35719.99
647.24	35491.52
647.593	35547.79
647.945	35564.29
648.298	35535.14
648.65	35440.23
649.002	35297.63
649.355	35610.84
649.707	35397.29
650.059	35496.5
650.411	35957.95
650.763	35930.38
651.115	36284.5
651.467	36229.81
651.819	36271.39
652.171	36233.43
652.523	36101.45
652.875	36024.84
653.227	35952.08
653.578	36241.56
653.93	36176.25
654.282	35892.64
654.633	35940.1
654.985	36058.06
655.337	35990.04
655.688	35943.94
656.039	36100.77
656.391	35694.23
656.742	35732.65
657.094	35863.49
657.445	35966.31
657.796	35948.69
658.147	35940.1
658.498	35720.67
658.849	35913.21
659.2	35848.58
659.551	35781.23
659.902	35804.51
660.253	35719.09
660.604	35888.35
660.955	35688.13
661.306	35893.1
661.656	35751.63
662.007	35689.94
662.358	35792.31
662.708	35674.12
663.059	35759.99
663.409	35530.85
663.76	35805.64
664.11	35740.56
664.461	35823.27
664.811	35748.92
665.161	35734
665.511	35585.76
665.862	35798.41
666.212	35824.62
666.562	35744.17
666.912	35684.06
667.262	35602.48
667.612	35530.85
667.962	35628.92
668.312	35569.49
668.662	35762.7
669.011	35624.63
669.361	35435.03
669.711	35517.06
670.06	35339.89
670.41	35384.41
670.76	35392.77
671.109	35411.53
671.459	35444.29
671.808	35443.39
672.157	35592.99
672.507	35254.69
672.856	35314.35
673.205	35340.57
673.554	35483.84
673.904	35256.5
674.253	35456.72
674.602	35339.44
674.951	34818.1
675.3	34556.18
675.649	35211.08
675.998	35268.93
676.346	35258.54
676.695	35364.52
677.044	35084.76
677.393	35078.43
677.741	35198.88
678.09	35035.27
678.438	35047.47
678.787	35164.3
679.135	35195.49
679.484	34826.91
679.832	34883.18
680.181	34821.71
680.529	34892.22
680.877	34716.4
681.225	34575.62
681.573	34928.15
681.922	34575.62
682.27	34626.46
682.618	34664.65
682.966	34611.55
683.314	34622.62
683.661	34491.78
684.009	34391.21
684.357	34248.62
684.705	34260.82
685.053	34186.7
685.4	34185.34
685.748	33993.26
686.095	34062.41
686.443	33924.11
686.79	33860.38
687.138	33839.36
687.485	33971.79
687.832	33775.19
688.18	33929.08
688.527	33662.19
688.874	33690.89
689.221	33580.61
689.568	33493.84
689.915	33322.99
690.262	33410
690.609	33237.57
690.956	33167.52
691.303	33228.53
691.65	32953.74
691.997	32970.46
692.344	32771.37
692.69	32791.48
693.037	32901.99
693.383	32578.83
693.73	32743.8
694.077	32475.78
694.423	32506.52
694.769	32514.43
695.116	32367.99
695.462	32337.26
695.808	32237.82
696.155	32299.07
696.501	32046.19
696.847	32030.15
697.193	31850.04
697.539	31916.7
697.885	31655.24
698.231	31593.55
698.577	31595.36
698.923	31619.99
699.269	31432.65
699.614	31120.79
699.96	31172.09
700.306	31259.09
700.651	31077.18
700.997	30973.9
701.342	30988.59
701.688	30827.01
702.033	30892.1
702.379	30872.89
702.724	30612.56
703.069	30679
703.415	30356.97
703.76	30406.01
704.105	30382.73
704.45	30225.67
704.795	30093.7
705.14	30089.63
705.485	30150.2
705.83	29963.99
706.175	30086.24
706.52	29905
706.865	29772.13
707.209	29883.76
707.554	29612.58
707.899	29730.09
708.243	29540.49
708.588	29592.92
708.932	29409.88
709.277	29318.58
709.621	29277.22
709.966	29197.23
710.31	29127.4
710.654	28908.19
710.998	28973.73
711.342	28975.76
711.687	28910
712.031	28717.01
712.375	28642.66
712.719	28714.75
713.063	28670.23
713.407	28731.25
713.75	28559.28
714.094	28538.49
714.438	28387.98
714.782	28501.2
715.125	28339.4
715.469	28284.71
715.812	28176.01
716.156	28054.88
716.499	28028.67
716.843	28023.47
717.186	27963.13
717.53	27997.48
717.873	28019.86
718.216	27832.52
718.559	27810.82
718.902	27568.57
719.246	27809.24
719.589	27611.28
719.932	27486.54
720.275	27564.73
720.617	27615.12
720.96	27416.93
721.303	27342.81
721.646	27415.8
721.989	27241.35
722.331	27418.06
722.674	27227.79
723.016	27212.42
723.359	27174.45
723.701	27236.37
724.044	26914.57
724.386	26928.59
724.729	27003.39
725.071	26974.91
725.413	26903.95
725.755	26838.42
726.097	26868.25
726.439	26642.94
726.782	26597.3
727.124	26892.43
727.465	26510.07
727.807	26565.88
728.149	26612.66
728.491	26493.57
728.833	26501.7
729.175	26364.76
729.516	26353.69
729.858	26240.24
730.199	26350.3
730.541	26228.27
730.882	26071.43
731.224	26337.64
731.565	26188.94
731.906	26175.39
732.248	26132.22
732.589	25887.71
732.93	25883.19
733.271	25964.77
733.612	25860.37
733.953	25959.57
734.294	25898.56
734.635	25759.35
734.976	25863.08
735.317	25647.26
735.658	25577.43
735.999	25685.68
736.339	25619.92
736.68	25704.21
737.021	25631.9
737.361	25461.51
737.702	25505.57
738.042	25435.29
738.383	25414.05
738.723	25417.89
739.063	25392.13
739.404	25414.28
739.744	25305.13
740.084	25185.35
740.424	25169.54
740.764	25168.18
741.104	25284.79
741.444	25158.46
741.784	25032.14
742.124	25041.63
742.464	25147.84
742.804	24908.98
743.143	24913.27
743.483	24940.84
743.823	24877.11
744.162	24752.37
744.502	24780.17
744.841	24768.64
745.181	24807.06
745.52	24691.58
745.86	24741.75
746.199	24669.44
746.538	24624.92
746.877	24561.19
747.216	24662.88
747.556	24565.71
747.895	24534.52
748.234	24443.45
748.573	24380.18
748.911	24340.18
749.25	24251.37
749.589	24234.19
749.928	24274.64
750.267	24266.51
750.605	24183.12
750.944	24022.22
751.283	23956.01
751.621	24109.45
751.96	23891.83
752.298	23906.52
752.636	23940.87
752.975	23604.61
753.313	23654.55
753.651	23847.08
753.989	23692.51
754.327	23602.12
754.666	23475.57
755.004	23455.91
755.342	23565.28
755.679	23473.76
756.017	23284.84
756.355	23422.92
756.693	23293.2
757.031	23198.29
