Data from hue_80_FLMS001491_92.txt Node
Date: Mon Feb 06 15:24:04 GMT 2017
User: dcchb
Spectrometer: FLMS00149
Trigger mode: 0
Integration Time (sec): 2.000000E-2
Scans to average: 10
Electric dark correction enabled: true
Nonlinearity correction enabled: false
Boxcar width: 0
XAxis mode: Wavelengths
Number of Pixels in Spectrum: 2048
>>>>>Begin Spectral Data<<<<<
341.393	-19.63
341.776	-19.63
342.16	-19.63
342.543	-69.35
342.927	-62.34
343.31	-60.54
343.693	-55.56
344.077	-93.98
344.46	-55.79
344.843	-53.53
345.226	-44.94
345.61	-52.17
345.993	-28.67
346.376	-17.15
346.759	-0.2
347.142	42.06
347.525	64.89
347.908	79.8
348.291	82.29
348.674	90.2
349.057	103.3
349.44	126.13
349.823	143.98
350.206	153.47
350.588	190.53
350.971	230.53
351.354	225.33
351.737	233.92
352.119	237.08
352.502	266.24
352.884	258.33
353.267	284.09
353.65	286.8
354.032	279.34
354.414	325.9
354.797	314.37
355.179	308.72
355.562	324.77
355.944	336.52
356.326	336.74
356.709	343.97
357.091	320.47
357.473	345.78
357.855	351.66
358.238	335.84
358.62	348.04
359.002	329.74
359.384	341.04
359.766	357.08
360.148	334.93
360.53	359.57
360.912	332.9
361.294	323.18
361.676	331.32
362.057	324.31
362.439	341.04
362.821	344.65
363.203	322.28
363.584	322.73
363.966	336.97
364.348	338.55
364.729	332.22
365.111	324.77
365.493	313.47
365.874	336.74
366.256	320.92
366.637	301.49
367.019	328.61
367.4	334.26
367.781	296.74
368.163	301.94
368.544	324.77
368.925	308.27
369.306	329.29
369.688	307.36
370.069	323.41
370.45	311.88
370.831	307.59
371.212	315.27
371.593	312.56
371.974	322.51
372.355	321.38
372.736	300.13
373.117	317.76
373.498	328.61
373.879	322.96
374.26	314.14
374.641	303.98
375.021	302.17
375.402	328.61
375.783	336.06
376.163	318.89
376.544	314.6
376.925	342.62
377.305	322.05
377.686	335.16
378.066	335.16
378.447	340.58
378.827	342.39
379.208	350.08
379.588	340.36
379.968	342.39
380.349	325.44
380.729	349.17
381.109	360.47
381.489	350.08
381.87	337.19
382.25	336.52
382.63	339
383.01	340.58
383.39	345.33
383.77	344.88
384.15	359.79
384.53	340.81
384.91	359.79
385.29	332.9
385.67	339.91
386.049	345.56
386.429	362.28
386.809	362.05
387.189	369.74
387.568	351.66
387.948	368.61
388.328	372.9
388.707	346.91
389.087	350.53
389.466	349.4
389.846	362.28
390.225	402.05
390.605	379.68
390.984	372.22
391.363	369.06
391.743	372.67
392.122	393.24
392.501	369.51
392.881	394.14
393.26	402.28
393.639	386.23
394.018	376.97
394.397	392.56
394.776	402.28
395.155	392.79
395.534	404.76
395.913	395.27
396.292	400.24
396.671	375.61
397.05	398.89
397.429	403.63
397.808	407.7
398.186	389.62
398.565	398.66
398.944	403.18
399.323	408.15
399.701	382.84
400.08	391.66
400.458	406.12
400.837	427.59
401.215	399.79
401.594	410.86
401.972	398.21
402.351	422.16
402.729	419.23
403.107	422.39
403.486	416.29
403.864	422.16
404.242	429.17
404.62	422.84
404.999	422.39
405.377	436.63
405.755	431.43
406.133	411.77
406.511	450.86
406.889	457.42
407.267	438.89
407.645	465.55
408.023	444.31
408.401	481.6
408.779	450.86
409.156	460.13
409.534	460.58
409.912	454.93
410.29	480.02
410.667	472.11
411.045	482.95
411.422	481.15
411.8	488.6
412.178	494.25
412.555	492.67
412.933	475.27
413.31	483.41
413.687	484.76
414.065	482.28
414.442	480.24
414.819	498.77
415.197	513.24
415.574	508.04
415.951	487.93
416.328	525.66
416.705	508.72
417.082	511.88
417.46	529.73
417.837	523.18
418.214	534.7
418.591	512.56
418.967	531.77
419.344	541.93
419.721	529.05
420.098	541.71
420.475	566.79
420.852	543.06
421.228	544.42
421.605	558.66
421.982	549.39
422.358	560.69
422.735	562.73
423.111	570.41
423.488	573.35
423.864	579.67
424.241	564.53
424.617	577.41
424.994	586.45
425.37	608.37
425.746	576.74
426.123	606.57
426.499	602.27
426.875	626
427.251	630.07
427.627	602.95
428.003	617.19
428.379	633.23
428.756	631.88
429.132	648.15
429.507	657.64
429.883	661.71
430.259	658.09
430.635	659.45
431.011	658.54
431.387	670.52
431.763	677.07
432.138	669.16
432.514	691.99
432.89	669.39
433.265	696.06
433.641	706
434.016	697.64
434.392	729.73
434.767	705.32
435.143	727.69
435.518	745.32
435.894	736.51
436.269	747.35
436.644	758.43
437.02	758.43
437.395	771.31
437.77	764.75
438.145	778.31
438.52	769.73
438.895	789.61
439.271	792.78
439.646	791.65
440.021	789.16
440.395	816.5
440.77	837.75
441.145	793.23
441.52	846.79
441.895	833.45
442.27	839.55
442.645	831.87
443.019	823.74
443.394	824.19
443.769	857.63
444.143	847.01
444.518	857.18
444.892	860.57
445.267	858.99
445.641	866.45
446.016	880.91
446.39	900.34
446.764	896.5
447.139	868.25
447.513	925.65
447.887	926.78
448.262	886.78
448.636	901.47
449.01	935.14
449.384	938.76
449.758	955.48
450.132	938.99
450.506	953.9
450.88	963.17
451.254	982.38
451.628	977.63
452.002	992.54
452.376	1007.23
452.75	1005.65
453.123	1011.75
453.497	1012.66
453.871	1037.52
454.244	1055.82
454.618	1043.39
454.992	1053.79
455.365	1063.05
455.739	1099.21
456.112	1106.89
456.486	1082.94
456.859	1110.73
457.232	1133.33
457.606	1109.15
457.979	1150.51
458.352	1188.02
458.725	1160.9
459.099	1205.87
459.472	1176.49
459.845	1235.48
460.218	1257.85
460.591	1239.32
460.964	1231.18
461.337	1272.54
461.71	1308.92
462.083	1294.68
462.456	1323.16
462.829	1350.5
463.201	1359.09
463.574	1368.58
463.947	1375.13
464.32	1401.35
464.692	1436.83
465.065	1418.07
465.438	1451.97
465.81	1487.45
466.183	1508.69
466.555	1547.56
466.928	1541.91
467.3	1550.95
467.672	1579.87
468.045	1613.09
468.417	1627.1
468.789	1635.69
469.161	1698.74
469.534	1719.53
469.906	1723.82
470.278	1769.25
470.65	1810.15
471.022	1827.78
471.394	1858.74
471.766	1886.76
472.138	1899.41
472.51	1964.95
472.882	2014.89
473.253	2022.57
473.625	2059.18
473.997	2124.27
474.369	2181.44
474.74	2206.3
475.112	2263.7
475.484	2298.05
475.855	2350.93
476.227	2422.34
476.598	2453.52
476.97	2458.95
477.341	2576.46
477.713	2627.08
478.084	2681.99
478.455	2785.94
478.827	2806.06
479.198	2980.29
479.569	2954.53
479.94	3062.32
480.311	3126.5
480.682	3221.19
481.053	3348.41
481.424	3444.23
481.795	3479.94
482.166	3553.38
482.537	3688.74
482.908	3812.58
483.279	3891.68
483.65	3959.25
484.021	4107.49
484.391	4132.35
484.762	4278.79
485.133	4403.53
485.503	4468.61
485.874	4638.55
486.244	4692.56
486.615	4869.28
486.985	4976.62
487.356	5131.19
487.726	5255.03
488.097	5396.95
488.467	5510.17
488.837	5631.52
489.207	5826.32
489.578	5958.74
489.948	6025.86
490.318	6142.47
490.688	6265.17
491.058	6430.14
491.428	6624.71
491.798	6684.37
492.168	6937.47
492.538	6981.77
492.908	7125.72
493.278	7296.11
493.648	7400.06
494.017	7591.69
494.387	7771.35
494.757	7873.04
495.126	7995.75
495.496	8144.67
495.866	8249.53
496.235	8446.81
496.605	8582.63
496.974	8696.75
497.344	8901.04
497.713	8948.72
498.082	9149.84
498.452	9253.8
498.821	9294.7
499.19	9436.84
499.559	9608.36
499.928	9727.91
500.298	9863.05
500.667	9958.18
501.036	9995.92
501.405	10173.55
501.774	10254.9
502.143	10460.77
502.512	10527.89
502.88	10676.13
503.249	10764.04
503.618	10861.66
503.987	10911.83
504.356	11060.08
504.724	11186.17
505.093	11276.34
505.462	11423.46
505.83	11460.07
506.199	11519.95
506.567	11808.31
506.936	11784.8
507.304	11987.06
507.672	12068.64
508.041	12057.34
508.409	12275.86
508.777	12387.95
509.145	12505.01
509.514	12419.14
509.882	12672.46
510.25	12654.84
510.618	12880.59
510.986	12853.93
511.354	13041.49
511.722	13134.82
512.09	13320.13
512.458	13214.6
512.826	13372.33
513.193	13463.4
513.561	13461.37
513.929	13641.7
514.297	13719.89
514.664	13814.58
515.032	13843.05
515.4	13975.03
515.767	13938.64
516.135	14053.44
516.502	14086.44
516.869	14306.32
517.237	14316.71
517.604	14326.88
517.972	14439.2
518.339	14590.15
518.706	14507.22
519.073	14577.05
519.44	14819.75
519.808	14900.2
520.175	14797.61
520.542	14977.71
520.909	15106.75
521.276	15079.86
521.643	15226.29
522.009	15243.47
522.376	15297.48
522.743	15477.81
523.11	15513.97
523.477	15734.53
523.843	15719.16
524.21	15814.53
524.577	15879.61
524.943	15885.94
525.31	16051.36
525.676	16206.16
526.043	16203.44
526.409	16214.29
526.776	16359.82
527.142	16375.19
527.508	16437.11
527.874	16597.33
528.241	16558.69
528.607	16595.07
528.973	16704.67
529.339	16590.55
529.705	16811.34
530.071	16874.39
530.437	16941.28
530.803	16882.52
531.169	16984.67
531.535	16944.22
531.901	17033.7
532.267	17137.66
532.632	17173.36
532.998	17201.84
533.364	17134.04
533.73	17154.15
534.095	17306.92
534.461	17304.21
534.826	17364.54
535.192	17306.24
535.557	17428.27
535.923	17430.3
536.288	17410.64
536.653	17322.28
537.019	17360.25
537.384	17400.47
537.749	17448.83
538.114	17400.93
538.479	17406.12
538.845	17461.94
539.21	17376.29
539.575	17480.47
539.94	17433.47
540.305	17510.75
540.67	17496.52
541.034	17487.48
541.399	17402.51
541.764	17499.91
542.129	17493.13
542.494	17521.15
542.858	17539.23
543.223	17556.4
543.587	17640.47
543.952	17520.7
544.316	17576.97
544.681	17455.61
545.045	17638.89
545.41	17511.21
545.774	17582.39
546.138	17576.52
546.503	17576.29
546.867	17514.14
547.231	17516.63
547.595	17586.23
547.959	17591.88
548.324	17529.28
548.688	17406.35
549.052	17542.39
549.416	17491.32
549.779	17498.1
550.143	17403.64
550.507	17524.31
550.871	17573.35
551.235	17566.12
551.599	17619.45
551.962	17517.76
552.326	17644.08
552.689	17619.45
553.053	17547.36
553.417	17548.72
553.78	17704.65
554.143	17568.38
554.507	17577.42
554.87	17651.99
555.234	17746.23
555.597	17550.3
555.96	17569.74
556.323	17665.55
556.686	17672.33
557.05	17815.38
557.413	17743.29
557.776	17703.97
558.139	17714.82
558.502	17763.18
558.865	17846.11
559.228	17870.52
559.59	17837.98
559.953	17857.19
560.316	18007.46
560.679	17864.42
561.041	18065.32
561.404	18110.29
561.767	18088.82
562.129	18025.99
562.492	18246.55
562.854	18185.54
563.217	18109.61
563.579	18189.38
563.941	18316.38
564.304	18364.07
564.666	18386.44
565.028	18449.94
565.39	18427.57
565.753	18430.73
566.115	18462.59
566.477	18558.18
566.839	18579.2
567.201	18602.25
567.563	18668.69
567.925	18701.23
568.287	18564.06
568.648	18722.02
569.01	18730.61
569.372	18868.46
569.734	18819.65
570.095	18900.32
570.457	18894.67
570.819	18944.16
571.18	18935.58
571.542	18992.75
571.903	19041.56
572.265	19094.67
572.626	18987.55
572.987	19095.35
573.349	19193.42
573.71	19181.44
574.071	19205.85
574.432	19231.16
574.794	19438.84
575.155	19233.42
575.516	19308.22
575.877	19368.56
576.238	19396.35
576.599	19373.53
576.96	19419.18
577.32	19347.54
577.681	19432.74
578.042	19519.74
578.403	19347.77
578.763	19427.54
579.124	19492.85
579.485	19558.84
579.845	19644.94
580.206	19547.08
580.566	19555.45
580.927	19471.61
581.287	19549.57
581.648	19452.17
582.008	19585.28
582.368	19446.07
582.728	19600.19
583.089	19599.96
583.449	19416.69
583.809	19495.79
584.169	19484.49
584.529	19504.37
584.889	19722.9
585.249	19502.34
585.609	19392.51
585.969	19604.71
586.329	19450.59
586.688	19607.87
587.048	19493.98
587.408	19442.23
587.768	19431.38
588.127	19458.5
588.487	19352.97
588.846	19549.12
589.206	19347.54
589.565	19389.57
589.925	19515.22
590.284	19381.21
590.643	19416.69
591.003	19479.52
591.362	19538.05
591.721	19429.57
592.08	19529.23
592.44	19495.11
592.799	19458.73
593.158	19366.98
593.517	19432.96
593.876	19476.35
594.235	19409.01
594.593	19346.19
594.952	19370.82
595.311	19386.41
595.67	19334.89
596.029	19464.15
596.387	19437.48
596.746	19469.57
597.104	19426.18
597.463	19359.52
597.822	19500.53
598.18	19319.07
598.538	19381.21
598.897	19420.99
599.255	19251.5
599.613	19507.09
599.972	19398.84
600.33	19503.24
600.688	19403.13
601.046	19427.77
601.404	19539.18
601.762	19513.19
602.12	19523.58
602.478	19542.57
602.836	19534.66
603.194	19351.84
603.552	19443.13
603.91	19406.75
604.268	19505.5
604.625	19398.84
604.983	19579.63
605.341	19409.46
605.698	19508.44
606.056	19495.11
606.413	19488.78
606.771	19599.51
607.128	19550.47
607.485	19484.04
607.843	19476.58
608.2	19566.97
608.557	19645.61
608.914	19636.57
609.272	19717.7
609.629	19738.94
609.986	19754.09
610.343	19692.39
610.7	19841.54
611.057	19861.2
611.414	19731.49
611.771	19816
612.127	19878.38
612.484	19840.86
612.841	19783.69
613.198	19779.17
613.554	19808.09
613.911	19944.81
614.267	19921.54
614.624	19886.74
614.98	19865.95
615.337	19960.41
615.693	19896.45
616.05	19856.91
616.406	20073.85
616.762	19998.6
617.118	20015.1
617.475	20018.26
617.831	19939.84
618.187	20103
618.543	19989.11
618.899	20224.13
619.255	20164.24
619.611	20241.08
619.967	20264.81
620.323	20338.02
620.678	20212.6
621.034	20127.18
621.39	20138.93
621.746	20212.15
622.101	20474.07
622.457	20185.26
622.812	20265.03
623.168	20267.07
623.523	20362.66
623.879	20340.28
624.234	20165.37
624.589	20269.78
624.945	20268.87
625.3	20330.34
625.655	20226.84
626.01	20286.73
626.365	20291.7
626.72	20237.24
627.075	20256.9
627.43	20150.23
627.785	20125.6
628.14	20198.14
628.495	20252.6
628.85	20237.01
629.205	20112.72
629.559	20203.79
629.914	20173.28
630.269	20146.17
630.623	20124.24
630.978	20122.44
631.332	20232.04
631.687	20201.3
632.041	20055.55
632.396	20184.13
632.75	20041.99
633.104	20094.42
633.459	19938.94
633.813	20018.26
634.167	19920.63
634.521	20018.94
634.875	20131.93
635.229	19992.72
635.583	19848.09
635.937	19852.61
636.291	19783.24
636.645	19869.56
636.999	19818.26
637.352	19861.2
637.706	19797.93
638.06	19768.55
638.413	19798.83
638.767	19770.58
639.121	19773.97
639.474	19629.12
639.828	19744.59
640.181	19615.33
640.534	19568.1
640.888	19603.13
641.241	19492.17
641.594	19577.59
641.947	19571.27
642.301	19572.39
642.654	19556.35
643.007	19564.49
643.36	19590.93
643.713	19553.41
644.066	19682
644.419	19424.38
644.771	19326.98
645.124	19198.39
645.477	19240.43
645.83	19034.56
646.182	18992.07
646.535	18931.28
646.888	18955.01
647.24	18765.41
647.593	18976.48
647.945	18884.5
648.298	18801.79
648.65	18766.54
649.002	18745.07
649.355	18735.35
649.707	18714.79
650.059	18933.99
650.411	19091.96
650.763	19080.2
651.115	19372.63
651.467	19136.47
651.819	19276.81
652.171	19207.88
652.523	19192.29
652.875	19182.35
653.227	18988.46
653.578	19286.75
653.93	19200.65
654.282	19312.06
654.633	19143.93
654.985	19190.26
655.337	19236.58
655.688	19211.27
656.039	19216.92
656.391	19041.11
656.742	19177.15
657.094	19078.4
657.445	19239.52
657.796	19205.85
658.147	19237.04
658.498	19202.01
658.849	19209.24
659.2	19117.49
659.551	19082.01
659.902	19265.74
660.253	19293.76
660.604	19250.6
660.955	19221.9
661.306	19168.79
661.656	19197.94
662.007	19215.34
662.358	19071.62
662.708	19228
663.059	19210.37
663.409	19126.76
663.76	19284.94
664.11	19298.73
664.461	19303.7
664.811	19221.44
665.161	19222.12
665.511	19192.52
665.862	19263.25
666.212	19302.57
666.562	19305.96
666.912	19237.26
667.262	19204.27
667.612	19174.67
667.962	19234.32
668.312	19266.41
668.662	19290.37
669.011	19209.69
669.361	19213.31
669.711	19177.15
670.06	19108.68
670.41	19163.59
670.76	19186.42
671.109	19232.97
671.459	19133.99
671.808	19186.19
672.157	19206.98
672.507	18997.27
672.856	19131.05
673.205	19175.12
673.554	19255.34
673.904	19079.75
674.253	19084.72
674.602	19096.25
674.951	18803.83
675.3	18809.7
675.649	18948
675.998	18907.33
676.346	18894.45
676.695	19008.57
677.044	18875.24
677.393	18895.58
677.741	18968.8
678.09	18836.6
678.438	18841.34
678.787	18842.92
679.135	18866.65
679.484	18693.1
679.832	18722.47
680.181	18646.54
680.529	18704.17
680.877	18658.29
681.225	18571.29
681.573	18781.68
681.922	18583.95
682.27	18523.38
682.618	18469.83
682.966	18457.17
683.314	18500.33
683.661	18428.47
684.009	18289.49
684.357	18304.63
684.705	18199.78
685.053	18280.9
685.4	18297.4
685.748	18174.69
686.095	18172.21
686.443	18011.98
686.79	18043.17
687.138	18084.52
687.485	18093.79
687.832	17936.73
688.18	18063.96
688.527	17949.84
688.874	17819.9
689.221	17914.81
689.568	17838.88
689.915	17734.25
690.262	17719.79
690.609	17620.13
690.956	17563.86
691.303	17566.8
691.65	17501.04
691.997	17510.98
692.344	17324.77
692.69	17322.51
693.037	17293.13
693.383	17145.57
693.73	17158.22
694.077	17081.84
694.423	17074.83
694.769	17010.65
695.116	16902.18
695.462	16905.12
695.808	16836.42
696.155	16948.06
696.501	16792.58
696.847	16721.4
697.193	16593.72
697.539	16666.03
697.885	16471.69
698.231	16452.48
698.577	16481.4
698.923	16394.85
699.269	16278.7
699.614	16183.11
699.96	16167.51
700.306	16132.03
700.651	16072.83
700.997	16051.36
701.342	15932.04
701.688	15965.94
702.033	15820.86
702.379	15793.74
702.724	15773.85
703.069	15764.36
703.415	15624.7
703.76	15675.32
704.105	15655.66
704.45	15570.92
704.795	15471.71
705.14	15299.96
705.485	15389.23
705.83	15311.94
706.175	15440.75
706.52	15338.83
706.865	15193.53
707.209	15186.97
707.554	15092.06
707.899	15215.22
708.243	15104.72
708.588	15019.29
708.932	14894.33
709.277	14963.02
709.621	14909.47
709.966	14725.52
710.31	14751.28
710.654	14704.27
710.998	14756.7
711.342	14743.6
711.687	14632.19
712.031	14605.75
712.375	14535.92
712.719	14558.29
713.063	14535.69
713.407	14469.48
713.75	14474.9
714.094	14425.64
714.438	14352.65
714.782	14426.99
715.125	14269.48
715.469	14382.02
715.812	14237.39
716.156	14258.18
716.499	14281.23
716.843	14220.9
717.186	14138.87
717.53	14093.89
717.873	14160.79
718.216	14175.93
718.559	14112.65
718.902	13988.36
719.246	14081.69
719.589	14000.11
719.932	13945.65
720.275	14005.31
720.617	14005.54
720.96	13897.97
721.303	13905.88
721.646	13945.2
721.989	13855.71
722.331	13892.54
722.674	13798.31
723.016	13883.51
723.359	13813.22
723.701	13811.19
724.044	13803.06
724.386	13725.54
724.729	13768.25
725.071	13633.79
725.413	13692.78
725.755	13680.57
726.097	13551.08
726.439	13558.32
726.782	13571.87
727.124	13657.97
727.465	13594.93
727.807	13610.97
728.149	13569.84
728.491	13520.35
728.833	13579.33
729.175	13613
729.516	13510.86
729.858	13538.43
730.199	13437.87
730.541	13453.46
730.882	13465.66
731.224	13513.12
731.565	13427.02
731.906	13520.58
732.248	13563.97
732.589	13434.48
732.93	13428.15
733.271	13479.45
733.612	13433.35
733.953	13429.51
734.294	13397.42
734.635	13359
734.976	13399.45
735.317	13473.35
735.658	13474.93
735.999	13405.78
736.339	13352.45
736.68	13443.52
737.021	13416.17
737.361	13317.42
737.702	13424.99
738.042	13370.52
738.383	13441.93
738.723	13385.66
739.063	13428.15
739.404	13409.17
739.744	13421.82
740.084	13327.36
740.424	13396.96
740.764	13398.09
741.104	13534.81
741.444	13420.69
741.784	13386.57
742.124	13507.7
742.464	13499.56
742.804	13481.71
743.143	13456.17
743.483	13681.93
743.823	13527.13
744.162	13527.58
744.502	13606.45
744.841	13562.84
745.181	13620.91
745.52	13608.26
745.86	13727.8
746.199	13751.08
746.538	13685.77
746.877	13830.85
747.216	13840.57
747.556	13839.21
747.895	13943.62
748.234	13994.91
748.573	14032.2
748.911	13976.84
749.25	14109.26
749.589	14135.25
749.928	14175.7
750.267	14271.07
750.605	14356.26
750.944	14427.45
751.283	14484.39
751.621	14519.42
751.96	14508.12
752.298	14627.89
752.636	14741.11
752.975	14810.49
753.313	14777.94
753.651	14992.63
753.989	15068.33
754.327	15147.65
754.666	15183.36
755.004	15333.64
755.342	15432.16
755.679	15565.04
756.017	15623.57
