Data from hue_200_FLMS001491_00099.txt Node
Date: Tue Feb 07 16:44:13 GMT 2017
User: dcchb
Spectrometer: FLMS00149
Trigger mode: 0
Integration Time (sec): 2.000000E-2
Scans to average: 10
Electric dark correction enabled: true
Nonlinearity correction enabled: false
Boxcar width: 0
XAxis mode: Wavelengths
Number of Pixels in Spectrum: 2048
>>>>>Begin Spectral Data<<<<<
341.393	-22.89
341.776	-22.89
342.16	-22.89
342.543	-50.69
342.927	-71.93
343.31	-53.18
343.693	-80.75
344.077	-51.37
344.46	-60.86
344.843	-44.36
345.226	-42.78
345.61	-11.6
345.993	-35.32
346.376	-14.99
346.759	19.36
347.142	25.47
347.525	38.12
347.908	59.14
348.291	59.59
348.674	88.06
349.057	105.46
349.44	128.74
349.823	161.06
350.206	166.48
350.588	174.61
350.971	202.86
351.354	224.78
351.737	242.41
352.119	252.58
352.502	248.96
352.884	280.37
353.267	289.64
353.65	288.51
354.032	295.74
354.414	284.89
354.797	299.58
355.179	330.32
355.562	310.88
355.944	333.93
356.326	310.2
356.709	317.66
357.091	347.49
357.473	323.08
357.855	337.32
358.238	323.54
358.62	317.44
359.002	342.97
359.384	355.63
359.766	337.77
360.148	341.39
360.53	338.68
360.912	320.82
361.294	333.71
361.676	320.6
362.057	350.65
362.439	322.41
362.821	349.75
363.203	331.67
363.584	342.07
363.966	325.34
364.348	326.47
364.729	325.34
365.111	321.5
365.493	318.34
365.874	321.73
366.256	297.77
366.637	310.66
367.019	313.59
367.4	313.14
367.781	310.66
368.163	312.01
368.544	302.75
368.925	308.62
369.306	311.33
369.688	300.26
370.069	326.02
370.45	308.4
370.831	316.08
371.212	302.29
371.593	298.9
371.974	305.91
372.355	326.93
372.736	322.63
373.117	309.75
373.498	305.01
373.879	331.9
374.26	302.52
374.641	309.07
375.021	312.01
375.402	313.37
375.783	318.34
376.163	328.73
376.544	323.54
376.925	325.12
377.305	322.18
377.686	311.33
378.066	324.89
378.447	315.85
378.827	319.47
379.208	331.45
379.588	304.55
379.968	313.37
380.349	342.52
380.729	319.47
381.109	324.89
381.489	342.97
381.87	330.32
382.25	321.73
382.63	334.16
383.01	360.82
383.39	345.46
383.77	323.31
384.15	343.88
384.53	342.75
384.91	352.46
385.29	341.39
385.67	335.74
386.049	345.46
386.429	356.08
386.809	340.94
387.189	353.14
387.568	359.69
387.948	345.91
388.328	357.89
388.707	366.02
389.087	361.28
389.466	352.46
389.846	369.86
390.225	360.37
390.605	366.7
390.984	356.98
391.363	372.35
391.743	353.37
392.122	352.69
392.501	361.05
392.881	381.61
393.26	365.57
393.639	374.16
394.018	352.01
394.397	374.16
394.776	381.84
395.155	375.51
395.534	368.06
395.913	368.51
396.292	383.42
396.671	381.84
397.05	387.49
397.429	392.01
397.808	386.13
398.186	401.73
398.565	423.65
398.944	381.84
399.323	413.93
399.701	390.88
400.08	396.76
400.458	405.79
400.837	396.53
401.215	428.39
401.594	418
401.972	448.96
402.351	410.77
402.729	450.31
403.107	435.4
403.486	410.54
403.864	429.3
404.242	432.91
404.62	430.2
404.999	429.75
405.377	443.53
405.755	433.14
406.133	457.32
406.511	457.77
406.889	475.62
407.267	465.45
407.645	477.43
408.023	483.53
408.401	524.89
408.779	499.13
409.156	507.49
409.534	519.01
409.912	515.85
410.29	530.76
410.667	519.01
411.045	539.58
411.422	549.29
411.8	560.37
412.178	551.33
412.555	554.94
412.933	580.71
413.31	582.74
413.687	593.81
414.065	603.76
414.442	608.5
414.819	618.67
415.197	651.89
415.574	639.23
415.951	671.55
416.328	661.61
416.705	657.99
417.082	679.01
417.46	681.72
417.837	680.36
418.214	682.62
418.591	706.8
418.967	718.78
419.344	739.34
419.721	754.49
420.098	744.32
420.475	789.29
420.852	756.07
421.228	784.32
421.605	791.32
421.982	801.04
422.358	825.44
422.735	852.56
423.111	868.38
423.488	869.96
423.864	911.32
424.241	924.42
424.617	911.54
424.994	930.07
425.37	953.12
425.746	962.16
426.123	963.07
426.499	979.56
426.875	987.47
427.251	1008.04
427.627	1015.04
428.003	1034.93
428.379	1040.35
428.756	1075.16
429.132	1073.35
429.507	1113.12
429.883	1100.01
430.259	1141.59
430.635	1133.23
431.011	1147.02
431.387	1172.55
431.763	1229.28
432.138	1202.38
432.514	1233.12
432.89	1235.83
433.265	1264.53
433.641	1300.23
434.016	1315.38
434.392	1361.02
434.767	1369.84
435.143	1398.54
435.518	1395.6
435.894	1425.88
436.269	1464.52
436.644	1501.36
437.02	1509.27
437.395	1508.82
437.77	1587.46
438.145	1603.73
438.52	1610.96
438.895	1636.04
439.271	1635.82
439.646	1693.44
440.021	1723.27
440.395	1747.23
440.77	1760.11
441.145	1770.73
441.52	1801.92
441.895	1829.03
442.27	1868.13
442.645	1879.2
443.019	1914.68
443.394	1892.53
443.769	1913.1
444.143	1924.62
444.518	1986.09
444.892	1967.56
445.267	1969.6
445.641	2010.05
446.016	2013.89
446.39	2038.97
446.764	2068.35
447.139	2069.93
447.513	2132.98
447.887	2102.92
448.262	2131.17
448.636	2172.08
449.01	2206.43
449.384	2188.57
449.758	2211.62
450.132	2240.32
450.506	2248.46
450.88	2268.57
451.254	2260.66
451.628	2314.22
452.002	2345.86
452.376	2332.3
452.75	2382.47
453.123	2393.99
453.497	2437.83
453.871	2466.08
454.244	2505.17
454.618	2501.56
454.992	2540.2
455.365	2551.95
455.739	2598.51
456.112	2637.6
456.486	2690.03
456.859	2710.82
457.232	2724.15
457.606	2724.6
457.979	2779.97
458.352	2799.63
458.725	2871.72
459.099	2857.48
459.472	2915.33
459.845	2919.63
460.218	2949.68
460.591	2999.17
460.964	2996.69
461.337	3101.77
461.71	3136.12
462.083	3155.33
462.456	3196
462.829	3210.01
463.201	3249.34
463.574	3270.8
463.947	3311.03
464.32	3382.89
464.692	3396.45
465.065	3417.24
465.438	3494.53
465.81	3521.19
466.183	3567.97
466.555	3607.74
466.928	3653.62
467.3	3667.63
467.672	3703.56
468.045	3766.38
468.417	3825.14
468.789	3851.58
469.161	3859.26
469.534	3937
469.906	4033.04
470.278	4020.84
470.65	4069.43
471.022	4185.58
471.394	4210.21
471.766	4224.45
472.138	4297.67
472.51	4374.96
472.882	4430.77
473.253	4500.83
473.625	4538.34
473.997	4637.77
474.369	4627.15
474.74	4752.35
475.112	4775.17
475.484	4873.02
475.855	4958.67
476.227	4975.17
476.598	5069.17
476.97	5120.25
477.341	5242.28
477.713	5321.37
478.084	5294.25
478.455	5452.44
478.827	5524.08
479.198	5661.7
479.569	5646.11
479.94	5774.92
480.311	5837.29
480.682	5973.11
481.053	6048.58
481.424	6185.98
481.795	6163.38
482.166	6245.41
482.537	6382.59
482.908	6455.35
483.279	6555.46
483.65	6596.14
484.021	6726.53
484.391	6824.16
484.762	6919.3
485.133	6893.31
485.503	6984.83
485.874	7081.1
486.244	7161.55
486.615	7301.66
486.985	7382.33
487.356	7468.89
487.726	7557.24
488.097	7677.24
488.467	7703.23
488.837	7853.73
489.207	7958.59
489.578	8023.67
489.948	8088.98
490.318	8201.75
490.688	8120.62
491.058	8335.76
491.428	8387.28
491.798	8438.13
492.168	8578.46
492.538	8603.09
492.908	8730.32
493.278	8796.31
493.648	8799.25
494.017	8960.82
494.387	8980.03
494.757	9017.77
495.126	9060.48
495.496	9058.9
495.866	9222.29
496.235	9179.8
496.605	9298.67
496.974	9341.83
497.344	9463.64
497.713	9371.21
498.082	9478.1
498.452	9502.28
498.821	9613.24
499.19	9537.08
499.559	9679.67
499.928	9675.16
500.298	9681.26
500.667	9803.51
501.036	9728.49
501.405	9844.42
501.774	9885.09
502.143	9876.05
502.512	9941.36
502.88	10011.42
503.249	9961.7
503.618	9970.74
503.987	10057.52
504.356	10113.79
504.724	10104.07
505.093	10184.52
505.462	10147.69
505.83	10094.58
506.199	10260
506.567	10347.23
506.936	10281.24
507.304	10358.08
507.672	10389.26
508.041	10380.9
508.409	10397.17
508.777	10459.54
509.145	10548.13
509.514	10556.71
509.882	10529.82
510.25	10486.43
510.618	10517.62
510.986	10585.87
511.354	10594.45
511.722	10654.79
512.09	10667.45
512.458	10626.09
512.826	10680.1
513.193	10710.83
513.561	10727.56
513.929	10742.02
514.297	10792.64
514.664	10817.27
515.032	10824.28
515.4	10877.16
515.767	10847.78
516.135	10898.63
516.502	10738.18
516.869	10862.47
517.237	10941.34
517.604	10784.5
517.972	10865.63
518.339	10963.26
518.706	10910.83
519.073	10888.46
519.44	10943.14
519.808	10968.68
520.175	10952.86
520.542	10986.53
520.909	10992.41
521.276	10897.95
521.643	11051.39
522.009	11036.7
522.376	11083.71
522.743	11011.62
523.11	11086.87
523.477	11109.47
523.843	11158.05
524.21	11207.32
524.577	11140.88
524.943	11145.85
525.31	11123.7
525.676	11194.66
526.043	11175
526.409	11216.36
526.776	11252.51
527.142	11204.61
527.508	11144.5
527.874	11240.54
528.241	11180.65
528.607	11177.26
528.973	11157.6
529.339	11194.21
529.705	11149.01
530.071	11235.11
530.437	11189.47
530.803	11188.56
531.169	11194.44
531.535	11108.11
531.901	11093.65
532.267	11013.88
532.632	11100.65
532.998	11066.08
533.364	10970.26
533.73	10975.23
534.095	10979.98
534.461	10938.17
534.826	11018.62
535.192	10876.03
535.557	10887.1
535.923	10827.22
536.288	10858.17
536.653	10750.83
537.019	10749.48
537.384	10650.27
537.749	10691.17
538.114	10651.85
538.479	10618.86
538.845	10570.5
539.21	10499.31
539.575	10463.61
539.94	10483.04
540.305	10448.02
540.67	10353.1
541.034	10296.83
541.399	10341.35
541.764	10240.56
542.129	10252.32
542.494	10186.1
542.858	10183.39
543.223	10030.63
543.587	10059.55
543.952	9984.3
544.316	10024.52
544.681	9868.6
545.045	9897.75
545.41	9873.79
545.774	9848.48
546.138	9877.86
546.503	9796.28
546.867	9721.48
547.231	9744.31
547.595	9652.56
547.959	9615.95
548.324	9587.93
548.688	9582.5
549.052	9525.78
549.416	9498.66
549.779	9379.8
550.143	9355.62
550.507	9407.14
550.871	9380.93
551.235	9330.76
551.599	9215.73
551.962	9230.42
552.326	9156.3
552.689	9122.85
553.053	9098.9
553.417	9088.96
553.78	9046.92
554.143	9015.51
554.507	9050.54
554.87	8959.02
555.234	8984.1
555.597	8907.04
555.96	8878.79
556.323	8879.02
556.686	8741.17
557.05	8826.36
557.413	8770.77
557.776	8754.5
558.139	8750.43
558.502	8691.68
558.865	8666.37
559.228	8763.77
559.59	8726.48
559.953	8642.19
560.316	8702.3
560.679	8655.97
561.041	8592.92
561.404	8693.71
561.767	8639.93
562.129	8561.06
562.492	8662.53
562.854	8568.29
563.217	8560.61
563.579	8524.9
563.941	8610.78
564.304	8602.19
564.666	8625.47
565.028	8562.64
565.39	8533.49
565.753	8541.63
566.115	8572.59
566.477	8633.6
566.839	8593.38
567.201	8576.43
567.563	8534.17
567.925	8607.61
568.287	8595.18
568.648	8600.61
569.01	8549.54
569.372	8616.43
569.734	8563.77
570.095	8555.18
570.457	8546.37
570.819	8596.77
571.18	8583.43
571.542	8563.77
571.903	8579.82
572.265	8554.05
572.626	8547.95
572.987	8585.92
573.349	8609.19
573.71	8642.41
574.071	8641.28
574.432	8588.63
574.794	8653.26
575.155	8646.93
575.516	8570.33
575.877	8548.86
576.238	8633.37
576.599	8614.62
576.96	8589.99
577.32	8530.55
577.681	8636.09
578.042	8613.49
578.403	8557.22
578.763	8603.77
579.124	8536.65
579.485	8533.94
579.845	8648.74
580.206	8603.32
580.566	8554.51
580.927	8586.82
581.287	8667.95
581.648	8625.01
582.008	8628.86
582.368	8610.32
582.728	8631.34
583.089	8566.03
583.449	8618.91
583.809	8576.2
584.169	8695.52
584.529	8560.83
584.889	8642.19
585.249	8647.84
585.609	8519.48
585.969	8601.51
586.329	8523.32
586.688	8568.74
587.048	8542.76
587.408	8462.98
587.768	8507.73
588.127	8536.2
588.487	8520.84
588.846	8578.91
589.206	8453.72
589.565	8494.4
589.925	8535.52
590.284	8492.81
590.643	8475.86
591.003	8484.45
591.362	8507.5
591.721	8497.56
592.08	8452.59
592.44	8485.58
592.799	8464.57
593.158	8509.99
593.517	8436.32
593.876	8385.92
594.235	8447.62
594.593	8446.49
594.952	8470.89
595.311	8412.36
595.67	8416.21
596.029	8435.41
596.387	8491.23
596.746	8458.01
597.104	8410.56
597.463	8397
597.822	8471.8
598.18	8439.03
598.538	8326.72
598.897	8422.53
599.255	8359.94
599.613	8425.7
599.972	8368.97
600.33	8418.69
600.688	8280.16
601.046	8319.48
601.404	8450.1
601.762	8362.87
602.12	8427.5
602.478	8395.19
602.836	8355.64
603.194	8348.41
603.552	8359.71
603.91	8350.9
604.268	8337.34
604.625	8321.52
604.983	8400.84
605.341	8284.91
605.698	8350.9
606.056	8358.35
606.413	8334.17
606.771	8370.56
607.128	8434.74
607.485	8335.76
607.843	8357.68
608.2	8391.8
608.557	8381.4
608.914	8346.38
609.272	8401.52
609.629	8426.15
609.986	8416.21
610.343	8453.94
610.7	8427.96
611.057	8427.5
611.414	8382.08
611.771	8411.91
612.127	8512.7
612.484	8458.46
612.841	8461.63
613.198	8390.9
613.554	8402.65
613.911	8539.59
614.267	8498.46
614.624	8440.84
614.98	8453.27
615.337	8509.08
615.693	8446.26
616.05	8460.05
616.406	8480.38
616.762	8455.98
617.118	8465.24
617.475	8479.93
617.831	8537.56
618.187	8501.17
618.543	8528.29
618.899	8534.62
619.255	8562.19
619.611	8524
619.967	8565.58
620.323	8588.86
620.678	8499.82
621.034	8503.21
621.39	8506.82
621.746	8551.57
622.101	8567.16
622.457	8503.21
622.812	8526.03
623.168	8502.3
623.523	8512.02
623.879	8562.64
624.234	8455.75
624.589	8485.58
624.945	8531.23
625.3	8484.45
625.655	8490.55
626.01	8553.83
626.365	8552.7
626.72	8486.94
627.075	8510.67
627.43	8462.53
627.785	8449.42
628.14	8483.1
628.495	8508.63
628.85	8502.08
629.205	8481.97
629.559	8473.83
629.914	8409.65
630.269	8520.16
630.623	8473.83
630.978	8498.69
631.332	8469.31
631.687	8451.01
632.041	8438.8
632.396	8407.84
632.75	8405.58
633.104	8361.29
633.459	8359.71
633.813	8329.43
634.167	8328.98
634.521	8344.34
634.875	8372.14
635.229	8329.2
635.583	8266.6
635.937	8309.99
636.291	8258.02
636.645	8235.19
636.999	8309.32
637.352	8277.45
637.706	8216.66
638.06	8260.96
638.413	8154.07
638.767	8201.52
639.121	8237.9
639.474	8194.06
639.828	8220.28
640.181	8200.17
640.534	8180.96
640.888	8125.82
641.241	8145.25
641.594	8203.1
641.947	8128.98
642.301	8086.72
642.654	8169.66
643.007	8154.29
643.36	8090.79
643.713	8084.24
644.066	8179.6
644.419	8120.39
644.771	8047.18
645.124	7990
645.477	7974.18
645.83	7964.69
646.182	7855.32
646.535	7853.28
646.888	7819.61
647.24	7817.12
647.593	7844.69
647.945	7869.55
648.298	7818.25
648.65	7859.84
649.002	7825.26
649.355	7838.59
649.707	7871.13
650.059	7872.26
650.411	7956.56
650.763	7960.17
651.115	8006.27
651.467	8016.67
651.819	8029.77
652.171	8022.32
652.523	7971.02
652.875	8003.33
653.227	7956.33
653.578	8046.27
653.93	8080.85
654.282	7986.61
654.633	8008.08
654.985	8006.05
655.337	8000.85
655.688	8040.4
656.039	8085.14
656.391	7996.56
656.742	8048.76
657.094	8057.34
657.445	8019.83
657.796	8051.02
658.147	8015.76
658.498	8030.23
658.849	8095.99
659.2	8003.56
659.551	8068.64
659.902	8060.28
660.253	8036.55
660.604	8058.93
660.955	8084.01
661.306	8028.19
661.656	8036.78
662.007	8093.5
662.358	8033.62
662.708	7996.1
663.059	8040.85
663.409	8071.13
663.76	8076.78
664.11	8121.3
664.461	8076.55
664.811	8121.3
665.161	8109.55
665.511	8140.05
665.862	8058.7
666.212	8179.83
666.562	8194.52
666.912	8085.37
667.262	8129.21
667.612	8076.78
667.962	8148.19
668.312	8064.35
668.662	8176.89
669.011	8156.1
669.361	8100.73
669.711	8157.68
670.06	8114.29
670.41	8086.27
670.76	8027.74
671.109	8079.94
671.459	8070.68
671.808	8045.14
672.157	8104.8
672.507	8053.95
672.856	8050.57
673.205	8004.69
673.554	8084.69
673.904	8046.27
674.253	8059.38
674.602	8058.25
674.951	7990.91
675.3	7878.59
675.649	8037.46
675.998	8000.17
676.346	8011.02
676.695	7973.96
677.044	7940.51
677.393	7970.34
677.741	7967.18
678.09	7958.36
678.438	7953.17
678.787	7945.71
679.135	7898.93
679.484	7873.17
679.832	7853.51
680.181	7824.58
680.529	7869.78
680.877	7837.46
681.225	7829.55
681.573	7894.86
681.922	7817.8
682.27	7785.49
682.618	7761.08
682.966	7796.11
683.314	7744.13
683.661	7721.31
684.009	7677.24
684.357	7623.68
684.705	7611.71
685.053	7634.3
685.4	7639.73
685.748	7646.28
686.095	7590.92
686.443	7556.34
686.79	7626.4
687.138	7553.4
687.485	7548.88
687.832	7544.59
688.18	7518.83
688.527	7498.49
688.874	7411.03
689.221	7442.9
689.568	7414.42
689.915	7372.84
690.262	7361.32
690.609	7338.72
690.956	7321.77
691.303	7341.88
691.65	7310.25
691.997	7266.18
692.344	7215.11
692.69	7232.06
693.037	7246.74
693.383	7112.06
693.73	7148.44
694.077	7112.96
694.423	7074.32
694.769	7129.91
695.116	7028.45
695.462	7016.02
695.808	7020.76
696.155	7020.31
696.501	6990.03
696.847	6939.63
697.193	6857.38
697.539	6937.15
697.885	6821.9
698.231	6796.59
698.577	6840.2
698.923	6755.23
699.269	6786.87
699.614	6684.73
699.96	6678.17
700.306	6665.29
700.651	6632.75
700.997	6623.26
701.342	6626.87
701.688	6592.07
702.033	6582.36
702.379	6566.31
702.724	6539.64
703.069	6534.22
703.415	6478.4
703.76	6456.03
704.105	6428.23
704.45	6414.68
704.795	6414.22
705.14	6354.79
705.485	6368.12
705.83	6330.61
706.175	6285.41
706.52	6315.7
706.865	6206.77
707.209	6274.79
707.554	6209.94
707.899	6215.59
708.243	6160.9
708.588	6190.05
708.932	6125.64
709.277	6100.33
709.621	6093.78
709.966	6123.38
710.31	6037.06
710.654	6059.43
710.998	6068.47
711.342	6061.46
711.687	6019.66
712.031	6026.66
712.375	5960
712.719	5964.52
713.063	5950.73
713.407	5952.09
713.75	5970.39
714.094	5925.88
714.438	5928.14
714.782	5844.75
715.125	5906.89
715.469	5916.61
715.812	5879.32
716.156	5877.97
716.499	5875.71
716.843	5863.96
717.186	5828.7
717.53	5853.11
717.873	5826.89
718.216	5870.74
718.559	5851.07
718.902	5777.63
719.246	5773.56
719.589	5762.04
719.932	5758.42
720.275	5731.53
720.617	5790.29
720.96	5717.29
721.303	5715.26
721.646	5745.09
721.989	5720.68
722.331	5756.39
722.674	5748.7
723.016	5701.47
723.359	5696.5
723.701	5708.03
724.044	5690.18
724.386	5611.31
724.729	5718.88
725.071	5682.72
725.413	5678.65
725.755	5677.29
726.097	5634.13
726.439	5609.95
726.782	5672.32
727.124	5635.71
727.465	5641.36
727.807	5646.11
728.149	5635.49
728.491	5646.56
728.833	5608.14
729.175	5639.78
729.516	5649.95
729.858	5627.13
730.199	5667.35
730.541	5588.03
730.882	5622.83
731.224	5615.83
731.565	5593.23
731.906	5641.81
732.248	5637.07
732.589	5599.33
732.93	5603.62
733.271	5666
733.612	5675.26
733.953	5624.41
734.294	5604.98
734.635	5673.9
734.976	5647.24
735.317	5634.36
735.658	5607.92
735.999	5662.15
736.339	5643.4
736.68	5670.29
737.021	5685.66
737.361	5666.45
737.702	5678.2
738.042	5689.5
738.383	5673
738.723	5700.8
739.063	5688.82
739.404	5755.03
739.744	5733.79
740.084	5760.68
740.424	5717.75
740.764	5784.41
741.104	5790.29
741.444	5766.33
741.784	5778.53
742.124	5836.84
742.464	5865.09
742.804	5886.55
743.143	5880.23
743.483	5876.16
743.823	5926.33
744.162	5919.55
744.502	5914.58
744.841	5912.32
745.181	6006.1
745.52	6083.84
745.86	6072.99
746.199	6110.73
746.538	6122.25
746.877	6209.03
747.216	6214.23
747.556	6206.09
747.895	6332.87
748.234	6314.57
748.573	6366.32
748.911	6457.61
749.25	6524.28
749.589	6548.23
749.928	6618.96
750.267	6711.39
750.605	6716.36
750.944	6808.34
751.283	6797.26
751.621	6961.78
751.96	7052.17
752.298	7095.11
752.636	7201.1
752.975	7234.09
753.313	7372.84
753.651	7512.5
753.989	7565.15
754.327	7690.35
754.666	7759.5
755.004	7917.01
755.342	8077.23
755.679	8211.01
756.017	8236.55
756.355	8434.74
756.693	8535.98
757.031	8738.68
757.368	8755.18
757.706	9009.64
758.044	9085.11
758.381	9272.68
758.719	9448.95
759.056	9589.96
759.394	9723.06
759.731	9862.49
760.068	10064.3
760.405	10193.11
760.743	10279.89
761.08	10554.91
761.417	10673.55
761.754	10932.98
762.091	11015.23
762.428	11219.07
762.765	11340.87
763.102	11533.41
763.438	11650.47
763.775	11847.53
764.112	11981.31
764.449	12244.81
764.785	12314.41
765.122	12450.9
765.458	12591.24
765.795	12811.57
766.131	12962.98
766.467	13171.33
766.804	13265.12
