Data from hue_90_FLMS001491_19.txt Node
Date: Mon Feb 06 15:24:46 GMT 2017
User: dcchb
Spectrometer: FLMS00149
Trigger mode: 0
Integration Time (sec): 2.000000E-2
Scans to average: 10
Electric dark correction enabled: true
Nonlinearity correction enabled: false
Boxcar width: 0
XAxis mode: Wavelengths
Number of Pixels in Spectrum: 2048
>>>>>Begin Spectral Data<<<<<
341.393	-6.69
341.776	-6.69
342.16	-6.69
342.543	-38.78
342.927	-54.15
343.31	-66.13
343.693	-97.09
344.077	-87.37
344.46	-58.22
344.843	-43.08
345.226	-53.47
345.61	-36.07
345.993	-3.76
346.376	-3.3
346.759	-3.53
347.142	29.24
347.525	45.51
347.908	68.78
348.291	69.69
348.674	112.62
349.057	126.18
349.44	127.54
349.823	161.66
350.206	175
350.588	212.51
350.971	212.51
351.354	217.93
351.737	234.88
352.119	248.21
352.502	271.49
352.884	278.27
353.267	302.22
353.65	282.56
354.032	304.71
354.414	287.53
354.797	297.48
355.179	301.55
355.562	318.27
355.944	340.41
356.326	354.88
356.709	332.05
357.091	329.34
357.473	329.12
357.855	335.44
358.238	347.87
358.62	324.14
359.002	334.09
359.384	345.61
359.766	355.78
360.148	339.28
360.53	321.88
360.912	366.85
361.294	328.21
361.676	327.08
362.057	332.05
362.439	329.34
362.821	343.35
363.203	339.96
363.584	324.14
363.966	295.22
364.348	321.88
364.729	325.95
365.111	334.77
365.493	309
365.874	320.98
366.256	304.94
366.637	323.24
367.019	307.42
367.4	315.56
367.781	327.76
368.163	321.43
368.544	300.42
368.925	312.62
369.306	333.86
369.688	307.65
370.069	319.85
370.45	299.74
370.831	309.91
371.212	301.09
371.593	306.74
371.974	305.84
372.355	323.01
372.736	309.23
373.117	314.2
373.498	302.22
373.879	310.81
374.26	312.39
374.641	312.39
375.021	325.27
375.402	301.55
375.783	304.94
376.163	310.13
376.544	314.2
376.925	332.05
377.305	321.66
377.686	313.07
378.066	334.09
378.447	311.49
378.827	330.7
379.208	340.87
379.588	326.18
379.968	342
380.349	334.09
380.729	337.03
381.109	310.36
381.489	341.09
381.87	327.76
382.25	330.25
382.63	328.66
383.01	332.51
383.39	333.64
383.77	339.96
384.15	336.12
384.53	330.7
384.91	340.41
385.29	335.9
385.67	360.98
386.049	343.35
386.429	334.77
386.809	349.68
387.189	357.59
387.568	364.82
387.948	344.71
388.328	354.43
388.707	349
389.087	371.15
389.466	361.66
389.846	356.46
390.225	361.43
390.605	353.97
390.984	367.76
391.363	359.17
391.743	356.01
392.122	355.33
392.501	376.12
392.881	388.55
393.26	372.5
393.639	363.69
394.018	393.75
394.397	392.62
394.776	382.67
395.155	382
395.534	375.44
395.913	393.97
396.292	399.62
396.671	381.54
397.05	379.28
397.429	388.1
397.808	382.45
398.186	366.4
398.565	398.04
398.944	353.07
399.323	385.16
399.701	359.4
400.08	365.05
400.458	390.36
400.837	410.7
401.215	398.27
401.594	411.37
401.972	416.12
402.351	407.08
402.729	417.47
403.107	418.15
403.486	409.57
403.864	406.85
404.242	411.37
404.62	406.85
404.999	419.28
405.377	403.92
405.755	407.98
406.133	410.92
406.511	405.72
406.889	414.99
407.267	429
407.645	416.57
408.023	427.87
408.401	434.65
408.779	445.04
409.156	447.3
409.534	430.58
409.912	431.94
410.29	445.27
410.667	456.8
411.045	454.99
411.422	438.27
411.8	445.5
412.178	465.84
412.555	470.13
412.933	448.43
413.31	461.32
413.687	448.21
414.065	486.17
414.442	486.63
414.819	492.73
415.197	496.57
415.574	484.59
415.951	485.95
416.328	487.08
416.705	483.91
417.082	508.55
417.46	490.92
417.837	487.76
418.214	500.86
418.591	511.94
418.967	517.13
419.344	527.53
419.721	517.36
420.098	504.93
420.475	519.85
420.852	532.73
421.228	525.49
421.605	527.08
421.982	536.79
422.358	521.43
422.735	527.98
423.111	554.87
423.488	539.73
423.864	549.45
424.241	557.81
424.617	553.74
424.994	558.94
425.37	551.48
425.746	555.32
426.123	549.9
426.499	561.43
426.875	563.91
427.251	607.98
427.627	574.08
428.003	564.59
428.379	578.15
428.756	580.86
429.132	604.36
429.507	595.1
429.883	628.32
430.259	610.24
430.635	609.79
431.011	608.43
431.387	637.81
431.763	610.46
432.138	621.31
432.514	650.69
432.89	632.84
433.265	668.99
433.641	662.67
434.016	669.22
434.392	668.09
434.767	658.15
435.143	689.78
435.518	697.69
435.894	680.29
436.269	710.8
436.644	700.63
437.02	683
437.395	694.76
437.77	734.3
438.145	708.31
438.52	721.87
438.895	724.36
439.271	738.6
439.646	754.87
440.021	750.57
440.395	746.51
440.77	762.78
441.145	777.69
441.52	732.95
441.895	776.34
442.27	752.38
442.645	758.03
443.019	795.54
443.394	795.77
443.769	807.52
444.143	793.74
444.518	816.11
444.892	800.29
445.267	802.78
445.641	835.09
446.016	825.15
446.39	819.95
446.764	805.04
447.139	825.37
447.513	836.67
447.887	828.99
448.262	841.19
448.636	846.84
449.01	828.76
449.384	855.2
449.758	863.34
450.132	888.2
450.506	887.29
450.88	864.02
451.254	874.41
451.628	883.23
452.002	904.69
452.376	926.61
452.75	928.42
453.123	897.69
453.497	926.16
453.871	973.17
454.244	953.28
454.618	958.25
454.992	989.66
455.365	972.49
455.739	979.95
456.112	987.63
456.486	1006.16
456.859	1008.65
457.232	1009.1
457.606	1039.15
457.979	1028.08
458.352	1071.02
458.725	1053.62
459.099	1079.15
459.472	1090
459.845	1088.87
460.218	1108.76
460.591	1118.93
460.964	1107.4
461.337	1156.44
461.71	1208.19
462.083	1196.44
462.456	1193.73
462.829	1217.23
463.201	1229.2
463.574	1253.16
463.947	1265.14
464.32	1279.37
464.692	1291.12
465.065	1289.77
465.438	1316.43
465.81	1317.56
466.183	1355.98
466.555	1374.06
466.928	1390.78
467.3	1396.21
467.672	1422.42
468.045	1463.1
468.417	1468.29
468.789	1476.66
469.161	1521.4
469.534	1565.02
469.906	1576.31
470.278	1576.09
470.65	1615.18
471.022	1640.72
471.394	1662.64
471.766	1696.09
472.138	1746.03
472.51	1774.95
472.882	1794.84
473.253	1820.83
473.625	1852.69
473.997	1888.62
474.369	1938.34
474.74	1986.7
475.112	2000.48
475.484	2070.09
475.855	2121.61
476.227	2144.21
476.598	2207.26
476.97	2274.83
477.341	2301.04
477.713	2373.81
478.084	2428.72
478.455	2495.84
478.827	2546.91
479.198	2658.32
479.569	2690.86
479.94	2738.09
480.311	2798.2
480.682	2882.49
481.053	2986.9
481.424	3068.7
481.795	3163.84
482.166	3178.53
482.537	3299.88
482.908	3412.65
483.279	3480.45
483.65	3536.94
484.021	3678.41
484.391	3726.54
484.762	3801.79
485.133	3895.58
485.503	4007.66
485.874	4169.24
486.244	4230.26
486.615	4322.68
486.985	4434.32
487.356	4559.06
487.726	4621.21
488.097	4779.62
488.467	4840.86
488.837	5040.86
489.207	5159.05
489.578	5200.63
489.948	5350.68
490.318	5454.86
490.688	5578.92
491.058	5662.99
491.428	5830.89
491.798	5896.2
492.168	6086.25
492.538	6194.05
492.908	6272.01
493.278	6457.54
493.648	6507.03
494.017	6626.8
494.387	6734.6
494.757	6825.67
495.126	6970.07
495.496	7068.6
495.866	7163.96
496.235	7257.75
496.605	7450.96
496.974	7525.99
497.344	7705.42
497.713	7763.95
498.082	7807.56
498.452	7963.49
498.821	8053.21
499.19	8078.97
499.559	8224.95
499.928	8370.03
500.298	8400.09
500.667	8511.27
501.036	8607.54
501.405	8688.9
501.774	8716.47
502.143	8837.82
502.512	8976.57
502.88	9025.84
503.249	9081.2
503.618	9218.37
503.987	9169.79
504.356	9280.07
504.724	9391.02
505.093	9407.3
505.462	9537.24
505.83	9592.83
506.199	9735.87
506.567	9837.57
506.936	9847.51
507.304	9908.3
507.672	9979.26
508.041	10037.33
508.409	10077.79
508.777	10205.24
509.145	10289.76
509.514	10293.15
509.882	10300.83
510.25	10349.87
510.618	10471.9
510.986	10531.11
511.354	10654.04
511.722	10661.95
512.09	10695.17
512.458	10762.74
512.826	10844.55
513.193	10847.94
513.561	10923.19
513.929	10996.63
514.297	10982.85
514.664	11036.86
515.032	11162.05
515.4	11090.19
515.767	11273.23
516.135	11169.51
516.502	11181.71
516.869	11335.38
517.237	11336.96
517.604	11294.03
517.972	11408.82
518.339	11458.31
518.706	11513.23
519.073	11454.02
519.44	11502.16
519.808	11604.53
520.175	11555.94
520.542	11722.49
520.909	11669.83
521.276	11663.05
521.643	11781.02
522.009	11747.35
522.376	11843.62
522.743	11856.72
523.11	11936.49
523.477	12077.28
523.843	12040.9
524.21	12092.2
524.577	12092.65
524.943	12128.81
525.31	12179.43
525.676	12201.12
526.043	12262.59
526.409	12313.66
526.776	12317.5
527.142	12330.16
527.508	12373.54
527.874	12371.28
528.241	12394.11
528.607	12447.89
528.973	12511.17
529.339	12401.57
529.705	12496.71
530.071	12536.48
530.437	12516.59
530.803	12513.88
531.169	12570.38
531.535	12503.71
531.901	12520.21
532.267	12489.02
532.632	12512.3
532.998	12540.55
533.364	12527.66
533.73	12552.98
534.095	12479.3
534.461	12530.38
534.826	12564.95
535.192	12502.13
535.557	12592.52
535.923	12571.51
536.288	12479.98
536.653	12494.9
537.019	12477.27
537.384	12451.51
537.749	12482.02
538.114	12459.42
538.479	12327.67
538.845	12400.66
539.21	12315.69
539.575	12356.6
539.94	12293.55
540.305	12343.71
540.67	12294.9
541.034	12279.54
541.399	12272.08
541.764	12237.05
542.129	12230.05
542.494	12202.25
542.858	12210.61
543.223	12163.61
543.587	12177.62
543.952	12065.98
544.316	12116.38
544.681	11989.37
545.045	11914.57
545.41	12037.28
545.774	12031.18
546.138	11943.05
546.503	11983.95
546.867	11890.39
547.231	11972.2
547.595	11971.3
547.959	11894.01
548.324	11832.99
548.688	11853.11
549.052	11785.54
549.416	11796.61
549.779	11712.32
550.143	11745.09
550.507	11749.61
550.871	11690.85
551.235	11697.86
551.599	11664.18
551.962	11711.87
552.326	11726.56
552.689	11663.73
553.053	11527.01
553.417	11550.06
553.78	11666.9
554.143	11544.64
554.507	11609.72
554.87	11468.03
555.234	11573.34
555.597	11472.33
555.96	11477.75
556.323	11556.39
556.686	11522.72
557.05	11509.84
557.413	11430.07
557.776	11559.78
558.139	11484.3
558.502	11512.55
558.865	11511.42
559.228	11540.8
559.59	11529.73
559.953	11454.02
560.316	11599.55
560.679	11466
561.041	11483.17
561.404	11562.94
561.767	11584.41
562.129	11503.96
562.492	11549.61
562.854	11564.98
563.217	11527.69
563.579	11497.64
563.941	11503.29
564.304	11516.39
564.666	11652.43
565.028	11616.95
565.39	11611.76
565.753	11747.57
566.115	11689.95
566.477	11676.84
566.839	11628.71
567.201	11691.98
567.563	11622.38
567.925	11705.99
568.287	11747.57
568.648	11749.83
569.01	11730.62
569.372	11811.75
569.734	11649.95
570.095	11751.19
570.457	11806.1
570.819	11837.06
571.18	11829.15
571.542	11846.1
571.903	11839.1
572.265	11887.23
572.626	11910.51
572.987	11877.51
573.349	11911.64
573.71	11920
574.071	11951.18
574.432	11961.8
574.794	12117.28
575.155	11998.19
575.516	12024.85
575.877	11941.47
576.238	11957.74
576.599	12051.29
576.96	11970.17
577.32	12021.01
577.681	12006.55
578.042	12060.56
578.403	12037.06
578.763	12034.57
579.124	12055.14
579.485	12082.7
579.845	12107.56
580.206	11971.52
580.566	11995.02
580.927	11981.69
581.287	12070.73
581.648	12005.19
582.008	12008.81
582.368	11937.85
582.728	12046.55
583.089	12056.72
583.449	12017.62
583.809	12104.17
584.169	12066.43
584.529	11992.76
584.889	12169.48
585.249	12069.37
585.609	12003.84
585.969	11978.07
586.329	11935.82
586.688	11952.76
587.048	12088.35
587.408	11923.84
587.768	11894.69
588.127	11895.82
588.487	11906.66
588.846	11986.44
589.206	11875.25
589.565	11854.46
589.925	11951.86
590.284	11867.34
590.643	11859.89
591.003	11960.45
591.362	11881.58
591.721	11920.45
592.08	11900.11
592.44	11958.19
592.799	11871.64
593.158	11842.26
593.517	11901.92
593.876	11901.01
594.235	11834.58
594.593	11867.34
594.952	11873.22
595.311	11813.33
595.67	11806.1
596.029	11853.78
596.387	11877.74
596.746	11891.3
597.104	11786.67
597.463	11786.22
597.822	11791.64
598.18	11728.82
598.538	11866.89
598.897	11816.27
599.255	11818.31
599.613	11952.31
599.972	11894.24
600.33	11830.06
600.688	11798.19
601.046	11843.39
601.404	11858.08
601.762	11877.29
602.12	11907.57
602.478	11780.79
602.836	11863.5
603.194	11802.71
603.552	11811.07
603.91	11763.84
604.268	11885.65
604.625	11771.3
604.983	11874.8
605.341	11805.2
605.698	11826.44
606.056	11810.4
606.413	11834.58
606.771	11877.96
607.128	11860.56
607.485	11817.63
607.843	11793
608.2	11921.58
608.557	11925.65
608.914	11868.93
609.272	11940.56
609.629	11912.54
609.986	11925.65
610.343	11890.39
610.7	12003.16
611.057	11965.42
611.414	12019.2
611.771	11984.18
612.127	12030.73
612.484	12040.45
612.841	12056.49
613.198	12049.94
613.554	12001.13
613.911	12010.84
614.267	12040.9
614.624	11994.35
614.98	12118.18
615.337	12001.8
615.693	12045.87
616.05	12118.64
616.406	12101.01
616.762	12021.01
617.118	12067.11
617.475	12105.53
617.831	12135.58
618.187	12123.61
618.543	12166.32
618.899	12132.65
619.255	12165.64
619.611	12227.11
619.967	12174
620.323	12219.42
620.678	12104.63
621.034	12145.53
621.39	12176.49
621.746	12076.15
622.101	12223.04
622.457	12119.09
622.812	12104.85
623.168	12168.58
623.523	12194.57
623.879	12261.46
624.234	12142.82
624.589	12139.43
624.945	12167
625.3	12221.68
625.655	12251.74
626.01	12229.37
626.365	12258.52
626.72	12164.06
627.075	12244.28
627.43	12235.02
627.785	12101.24
628.14	12148.47
628.495	12158.86
628.85	12106.43
629.205	12077.06
629.559	12148.92
629.914	12101.69
630.269	12151.18
630.623	12058.75
630.978	12074.12
631.332	12019.66
631.687	12044.29
632.041	12060.33
632.396	12041.8
632.75	11977.62
633.104	12041.12
633.459	11956.15
633.813	12009.26
634.167	11979.66
634.521	12021.01
634.875	11922.94
635.229	11960.9
635.583	11906.21
635.937	11884.97
636.291	11862.15
636.645	11881.58
636.999	11840.68
637.352	11804.52
637.706	11788.93
638.06	11841.13
638.413	11824.63
638.767	11804.97
639.121	11845.65
639.474	11728.59
639.828	11757.29
640.181	11837.97
640.534	11727.01
640.888	11737.86
641.241	11683.17
641.594	11743.05
641.947	11706.44
642.301	11762.26
642.654	11654.47
643.007	11729.72
643.36	11695.6
643.713	11705.09
644.066	11669.61
644.419	11637.52
644.771	11622.38
645.124	11486.11
645.477	11395.49
645.83	11336.28
646.182	11336.96
646.535	11219.9
646.888	11242.73
647.24	11255.61
647.593	11270.97
647.945	11294.7
648.298	11192.33
648.65	11163.63
649.002	11173.35
649.355	11170.64
649.707	11223.07
650.059	11273.01
650.411	11384.64
650.763	11422.84
651.115	11519.1
651.467	11551.87
651.819	11520.23
652.171	11465.77
652.523	11428.94
652.875	11454.25
653.227	11381.71
653.578	11554.13
653.93	11554.58
654.282	11446.34
654.633	11510.29
654.985	11496.73
655.337	11481.82
655.688	11458.77
656.039	11472.78
656.391	11429.61
656.742	11415.15
657.094	11452.89
657.445	11488.37
657.796	11453.57
658.147	11402.5
658.498	11443.4
658.849	11414.25
659.2	11440.69
659.551	11433.23
659.902	11477.3
660.253	11460.12
660.604	11524.75
660.955	11534.24
661.306	11544.64
661.656	11395.04
662.007	11503.06
662.358	11453.34
662.708	11518.88
663.059	11412.89
663.409	11398.2
663.76	11454.25
664.11	11458.54
664.461	11509.61
664.811	11525.21
665.161	11483.17
665.511	11481.82
665.862	11501.93
666.212	11515.04
666.562	11453.79
666.912	11541.25
667.262	11444.98
667.612	11482.04
667.962	11492.66
668.312	11496.96
668.662	11554.13
669.011	11518.88
669.361	11492.66
669.711	11510.29
670.06	11401.82
670.41	11448.37
670.76	11394.81
671.109	11483.17
671.459	11464.64
671.808	11461.48
672.157	11382.61
672.507	11374.25
672.856	11346
673.205	11328.37
673.554	11414.25
673.904	11413.34
674.253	11425.32
674.602	11421.25
674.951	11239.11
675.3	11165.67
675.649	11389.39
675.998	11307.81
676.346	11338.32
676.695	11422.61
677.044	11264.65
677.393	11353.01
677.741	11313.69
678.09	11234.14
678.438	11278.21
678.787	11232.33
679.135	11306
679.484	11258.32
679.832	11134.03
680.181	11159.11
680.529	11143.97
680.877	11117.98
681.225	11100.58
681.573	11130.64
681.922	11059.45
682.27	10994.37
682.618	11026.91
682.966	11026.01
683.314	11026.91
683.661	11023.98
684.009	10930.87
684.357	10997.08
684.705	10848.39
685.053	10899.91
685.4	10878.89
685.748	10825.34
686.095	10781.95
686.443	10748.73
686.79	10736.98
687.138	10784.89
687.485	10775.17
687.832	10734.72
688.18	10732.91
688.527	10679.8
688.874	10610.2
689.221	10615.62
689.568	10587.15
689.915	10605
690.262	10565.91
690.609	10552.12
690.956	10479.36
691.303	10433.93
691.65	10473.26
691.997	10353.26
692.344	10334.05
692.69	10277.1
693.037	10292.92
693.383	10241.62
693.73	10387.61
694.077	10139.93
694.423	10156.43
694.769	10112.59
695.116	10120.27
695.462	10074.4
695.808	9993.49
696.155	10016.54
696.501	9960.27
696.847	9978.81
697.193	9869.2
697.539	9969.77
697.885	9826.72
698.231	9792.14
698.577	9762.09
698.923	9783.33
699.269	9651.13
699.614	9613.84
699.96	9715.54
700.306	9634.18
700.651	9570.23
700.997	9536.78
701.342	9501.98
701.688	9486.16
702.033	9443.23
702.379	9442.77
702.724	9375.43
703.069	9429.67
703.415	9323.46
703.76	9272.38
704.105	9400.74
704.45	9250.24
704.795	9203.01
705.14	9199.39
705.485	9186.51
705.83	9102.44
706.175	9177.47
706.52	9029.9
706.865	9057.02
707.209	9029.9
707.554	8950.36
707.899	8994.88
708.243	8913.52
708.588	8960.08
708.932	8827.2
709.277	8792.17
709.621	8860.42
709.966	8843.69
710.31	8818.84
710.654	8719.86
710.998	8713.98
711.342	8705.84
711.687	8654.32
712.031	8602.8
712.375	8627.43
712.719	8713.3
713.063	8661.1
713.407	8674.88
713.75	8607.54
714.094	8595.79
714.438	8544.27
714.782	8587.2
715.125	8513.31
715.469	8532.52
715.812	8464.27
716.156	8454.33
716.499	8459.98
716.843	8444.38
717.186	8476.47
717.53	8390.15
717.873	8433.31
718.216	8397.15
718.559	8435.12
718.902	8324.39
719.246	8404.38
719.589	8308.11
719.932	8265.86
720.275	8362.12
720.617	8319.41
720.96	8309.02
721.303	8271.05
721.646	8296.14
721.989	8257.95
722.331	8210.49
722.674	8241.9
723.016	8279.64
723.359	8266.53
723.701	8242.35
724.044	8189.02
724.386	8178.4
724.729	8185.18
725.071	8177.27
725.413	8171.85
725.755	8132.98
726.097	8152.41
726.439	8146.76
726.782	8109.7
727.124	8116.03
727.465	8050.27
727.807	8064.73
728.149	8072.64
728.491	8052.53
728.833	8138.4
729.175	8075.13
729.516	8008.91
729.858	8071.74
730.199	8030.61
730.541	8071.28
730.882	8051.4
731.224	8089.36
731.565	8027.22
731.906	8059.53
732.248	8108.57
732.589	8035.13
732.93	7988.35
733.271	8032.64
733.612	8003.04
733.953	8035.35
734.294	8006.88
734.635	8008.24
734.976	8042.13
735.317	8005.52
735.658	8019.31
735.999	8057.73
736.339	8001.23
736.68	8027.22
737.021	8015.92
737.361	8003.26
737.702	8085.07
738.042	8075.35
738.383	8111.06
738.723	8060.89
739.063	8099.08
739.404	8130.49
739.744	8078.74
740.084	8132.07
740.424	8068.8
740.764	8025.64
741.104	8121.91
741.444	8117.84
741.784	8156.25
742.124	8158.74
742.464	8154.9
742.804	8153.54
743.143	8201.23
743.483	8231.05
743.823	8134.79
744.162	8173.2
744.502	8217.5
744.841	8244.61
745.181	8343.37
745.52	8284.39
745.86	8354.44
746.199	8351.73
746.538	8292.07
746.877	8420.2
747.216	8446.64
747.556	8497.04
747.895	8491.39
748.234	8548.33
748.573	8573.19
748.911	8646.41
749.25	8729.35
749.589	8697.48
749.928	8795.79
750.267	8854.54
750.605	8878.95
750.944	8956.01
751.283	8947.87
751.621	9106.29
751.96	9167.75
752.298	9249.11
752.636	9323.46
752.975	9396.9
753.313	9490.46
753.651	9638.48
753.989	9593.05
754.327	9771.35
754.666	9802.31
755.004	9962.99
755.342	10026.71
755.679	10138.12
756.017	10174.96
756.355	10360.94
756.693	10473.71
757.031	10612.24
757.368	10648.62
757.706	10779.01
758.044	10862.4
758.381	11041.83
758.719	11174.25
759.056	11262.16
759.394	11321.14
759.731	11495.6
760.068	11676.39
760.405	11750.74
