Data from hue_350_FLMS001491_51.txt Node
Date: Mon Feb 06 15:38:12 GMT 2017
User: dcchb
Spectrometer: FLMS00149
Trigger mode: 0
Integration Time (sec): 2.000000E-2
Scans to average: 10
Electric dark correction enabled: true
Nonlinearity correction enabled: false
Boxcar width: 0
XAxis mode: Wavelengths
Number of Pixels in Spectrum: 2048
>>>>>Begin Spectral Data<<<<<
341.393	1.13
341.776	1.13
342.16	1.13
342.543	-84.97
342.927	-82.48
343.31	-57.17
343.693	-72.77
344.077	-64.18
344.46	-72.31
344.843	-42.26
345.226	-35.93
345.61	-47
345.993	-14.01
346.376	-13.56
346.759	13.56
347.142	23.05
347.525	33.67
347.908	62.6
348.291	70.73
348.674	84.29
349.057	131.3
349.44	130.84
349.823	138.53
350.206	162.93
350.588	183.27
350.971	217.85
351.354	198.86
351.737	240.22
352.119	247.9
352.502	244.97
352.884	271.18
353.267	257.62
353.65	268.02
354.032	291.74
354.414	302.36
354.797	299.2
355.179	314.34
355.562	337.84
355.944	335.36
356.326	340.78
356.709	331.74
357.091	324.74
357.473	345.08
357.855	339.2
358.238	348.69
358.62	328.8
359.002	313.44
359.384	335.81
359.766	338.52
360.148	311.63
360.53	319.54
360.912	330.16
361.294	316.83
361.676	309.14
362.057	324.29
362.439	335.36
362.821	311.63
363.203	322.03
363.584	321.12
363.966	312.76
364.348	304.4
364.729	306.43
365.111	328.13
365.493	289.26
365.874	318.64
366.256	303.27
366.637	315.7
367.019	296.72
367.4	317.51
367.781	299.2
368.163	308.24
368.544	320.22
368.925	308.92
369.306	305.08
369.688	312.31
370.069	302.14
370.45	296.72
370.831	298.07
371.212	284.29
371.593	307.56
371.974	300.56
372.355	293.33
372.736	322.03
373.117	291.07
373.498	317.05
373.879	321.35
374.26	324.74
374.641	326.09
375.021	314.57
375.402	313.21
375.783	316.83
376.163	327.22
376.544	299.65
376.925	324.29
377.305	325.87
377.686	326.55
378.066	317.28
378.447	326.09
378.827	316.83
379.208	333.1
379.588	313.21
379.968	309.82
380.349	333.1
380.729	326.55
381.109	315.25
381.489	332.87
381.87	318.64
382.25	333.1
382.63	332.19
383.01	321.57
383.39	332.87
383.77	329.48
384.15	327.67
384.53	324.74
384.91	341.01
385.29	332.65
385.67	321.12
386.049	336.71
386.429	338.52
386.809	338.97
387.189	340.78
387.568	351.4
387.948	352.53
388.328	356.6
388.707	342.36
389.087	359.31
389.466	342.36
389.846	330.39
390.225	339.88
390.605	351.18
390.984	342.59
391.363	346.66
391.743	343.95
392.122	363.15
392.501	358.41
392.881	331.06
393.26	352.53
393.639	357.28
394.018	344.62
394.397	346.21
394.776	346.88
395.155	381.01
395.534	361.8
395.913	362.48
396.292	366.77
396.671	374.45
397.05	390.27
397.429	349.6
397.808	348.01
398.186	362.48
398.565	371.29
398.944	372.42
399.323	372.65
399.701	381.23
400.08	375.81
400.458	376.49
400.837	376.71
401.215	387.79
401.594	364.28
401.972	404.51
402.351	383.49
402.729	379.43
403.107	371.29
403.486	370.61
403.864	383.72
404.242	379.65
404.62	396.37
404.999	396.6
405.377	406.32
405.755	402.02
406.133	383.27
406.511	415.36
406.889	412.87
407.267	373.55
407.645	395.47
408.023	409.25
408.401	394.11
408.779	408.58
409.156	413.77
409.534	425.75
409.912	411.97
410.29	418.07
410.667	439.76
411.045	409.03
411.422	444.73
411.8	435.69
412.178	432.98
412.555	446.09
412.933	443.6
413.31	453.77
413.687	445.86
414.065	447.45
414.442	465.98
414.819	448.58
415.197	467.11
415.574	480.44
415.951	474.79
416.328	462.59
416.705	460.1
417.082	480.67
417.46	469.82
417.837	498.29
418.214	470.95
418.591	478.63
418.967	490.61
419.344	485.41
419.721	501.91
420.098	478.41
420.475	514.11
420.852	507.78
421.228	504.85
421.605	511.85
421.982	503.94
422.358	521.57
422.735	526.77
423.111	543.94
423.488	549.14
423.864	558.86
424.241	543.94
424.617	547.1
424.994	546.65
425.37	562.47
425.746	544.39
426.123	550.49
426.499	562.25
426.875	569.48
427.251	548.46
427.627	567.89
428.003	567.22
428.379	578.29
428.756	586.65
429.132	595.46
429.507	562.25
429.883	604.05
430.259	617.84
430.635	616.25
431.011	592.75
431.387	605.18
431.763	642.92
432.138	612.64
432.514	650.15
432.89	625.97
433.265	628.91
433.641	630.72
434.016	664.62
434.392	653.54
434.767	661.68
435.143	653.99
435.518	663.49
435.894	696.48
436.269	673.65
436.644	676.82
437.02	697.83
437.395	682.47
437.77	694.67
438.145	707.78
438.52	699.19
438.895	699.64
439.271	708
439.646	710.72
440.021	715.69
440.395	726.53
440.77	724.5
441.145	739.42
441.52	726.53
441.895	723.37
442.27	754.33
442.645	760.66
443.019	769.25
443.394	766.08
443.769	762.24
444.143	732.41
444.518	780.09
444.892	768.79
445.267	769.92
445.641	792.75
446.016	779.64
446.39	789.81
446.764	796.59
447.139	806.08
447.513	794.1
447.887	782.35
448.262	809.92
448.636	801.56
449.01	779.64
449.384	806.31
449.758	798.4
450.132	804.05
450.506	802.92
450.88	840.2
451.254	807.21
451.628	825.06
452.002	841.56
452.376	828.45
452.75	842.24
453.123	845.63
453.497	858.96
453.871	886.98
454.244	906.87
454.618	900.99
454.992	897.6
455.365	911.61
455.739	905.29
456.112	937.83
456.486	913.42
456.859	905.74
457.232	936.25
457.606	926.3
457.979	940.77
458.352	959.3
458.725	964.49
459.099	976.7
459.472	984.15
459.845	1013.53
460.218	995
460.591	984.15
460.964	968.79
461.337	1022.12
461.71	1002.46
462.083	1044.27
462.456	1057.6
462.829	1054.21
463.201	1072.51
463.574	1069.35
463.947	1090.59
464.32	1083.59
464.692	1092.63
465.065	1089.91
465.438	1105.96
465.81	1118.16
466.183	1157.94
466.555	1177.14
466.928	1172.4
467.3	1176.01
467.672	1173.08
468.045	1204.94
468.417	1229.35
468.789	1210.59
469.161	1256.24
469.534	1249.91
469.906	1260.53
470.278	1276.58
470.65	1281.32
471.022	1338.27
471.394	1300.76
471.766	1319.51
472.138	1382.11
472.51	1360.87
472.882	1425.05
473.253	1410.13
473.625	1416.91
473.997	1472.05
474.369	1442.67
474.74	1485.16
475.112	1520.19
475.484	1545.95
475.855	1538.72
476.227	1562.67
476.598	1605.16
476.97	1620.52
477.341	1668.66
477.713	1661.88
478.084	1684.02
478.455	1720.41
478.827	1766.73
479.198	1799.95
479.569	1809.22
479.94	1797.92
480.311	1868.2
480.682	1931.47
481.053	1934.86
481.424	1967.63
481.795	1960.4
482.166	2008.76
482.537	2009.66
482.908	2078.36
483.279	2090.79
483.65	2174.41
484.021	2188.42
484.391	2210.34
484.762	2210.34
485.133	2256.89
485.503	2282.88
485.874	2316.78
486.244	2365.14
486.615	2392.71
486.985	2414.63
487.356	2512.93
487.726	2523.32
488.097	2561.06
488.467	2547.96
488.837	2599.25
489.207	2658.24
489.578	2667.73
489.948	2753.6
490.318	2745.24
490.688	2752.7
491.058	2795.18
491.428	2845.57
491.798	2824.78
492.168	2902.07
492.538	2940.94
492.908	2980.26
493.278	2997.44
493.648	2994.27
494.017	3061.61
494.387	3110.43
494.757	3084.44
495.126	3162.85
495.496	3163.08
495.866	3154.49
496.235	3235.4
496.605	3229.75
496.974	3247.6
497.344	3258.45
497.713	3297.77
498.082	3334.15
498.452	3335.96
498.821	3378.67
499.19	3402.17
499.559	3397.2
499.928	3473.81
500.298	3417.76
500.667	3472.23
501.036	3477.65
501.405	3546.8
501.774	3514.71
502.143	3580.7
502.512	3543.64
502.88	3564.65
503.249	3612.79
503.618	3642.84
503.987	3656.18
504.356	3641.49
504.724	3660.47
505.093	3697.3
505.462	3685.1
505.83	3726.91
506.199	3750.41
506.567	3801.03
506.936	3737.08
507.304	3794.7
507.672	3829.96
508.041	3825.44
508.409	3859.33
508.777	3861.37
509.145	3880.12
509.514	3882.38
509.882	3935.94
510.25	3935.94
510.618	3954.47
510.986	3955.6
511.354	3947.69
511.722	4023.4
512.09	4012.1
512.458	4017.97
512.826	4019.56
513.193	4055.26
513.561	4046
513.929	4102.27
514.297	4130.51
514.664	4116.5
515.032	4136.39
515.4	4185.43
515.767	4156.5
516.135	4149.04
516.502	4151.98
516.869	4224.52
517.237	4208.93
517.604	4187.23
517.972	4243.73
518.339	4262.94
518.706	4243.05
519.073	4269.27
519.44	4262.71
519.808	4314.91
520.175	4293.9
520.542	4345.65
520.909	4348.81
521.276	4353.78
521.643	4389.26
522.009	4403.27
522.376	4380.9
522.743	4441.69
523.11	4463.61
523.477	4497.96
523.843	4535.02
524.21	4538.86
524.577	4573.21
524.943	4546.32
525.31	4576.6
525.676	4652.76
526.043	4648.47
526.409	4657.96
526.776	4728.46
527.142	4732.98
527.508	4684.17
527.874	4783.83
528.241	4788.12
528.607	4747.9
528.973	4840.78
529.339	4869.93
529.705	4865.41
530.071	4906.09
530.437	4950.15
530.803	4944.73
531.169	4993.77
531.535	4953.32
531.901	4965.75
532.267	5040.32
532.632	5062.47
532.998	5027.89
533.364	5038.96
533.73	5083.03
534.095	5115.12
534.461	5102.46
534.826	5181.78
535.192	5181.56
535.557	5216.81
535.923	5193.54
536.288	5213.2
536.653	5246.64
537.019	5299.97
537.384	5274.21
537.749	5341.55
538.114	5251.84
538.479	5336.81
538.845	5349.01
539.21	5396.69
539.575	5397.6
539.94	5465.62
540.305	5431.5
540.67	5453.42
541.034	5475.11
541.399	5518.27
541.764	5504.49
542.129	5547.2
542.494	5563.24
542.858	5577.25
543.223	5609.57
543.587	5636.69
543.952	5708.55
544.316	5674.2
544.681	5684.14
545.045	5674.43
545.41	5678.27
545.774	5773.18
546.138	5721.88
546.503	5807.76
546.867	5806.4
547.231	5819.96
547.595	5890.47
547.959	5878.49
548.324	5908.32
548.688	5927.98
549.052	5906.06
549.416	5931.37
549.779	5967.53
550.143	6033.29
550.507	6044.59
550.871	6058.82
551.235	6050.24
551.599	6137.24
551.962	6112.38
552.326	6118.94
552.689	6190.35
553.053	6164.36
553.417	6187.63
553.78	6235.99
554.143	6150.12
554.507	6204.13
554.87	6315.31
555.234	6305.14
555.597	6269.44
555.96	6349.66
556.323	6366.84
556.686	6345.37
557.05	6399.61
557.413	6353.05
557.776	6422.43
558.139	6398.48
558.502	6445.93
558.865	6494.07
559.228	6479.38
559.59	6501.75
559.953	6556.66
560.316	6566.83
560.679	6614.97
561.041	6576.78
561.404	6642.76
561.767	6680.73
562.129	6675.08
562.492	6695.87
562.854	6652.48
563.217	6748.98
563.579	6742.42
563.941	6803.66
564.304	6833.72
564.666	6886.37
565.028	6863.1
565.39	6890.21
565.753	6891.57
566.115	6938.12
566.477	6953.04
566.839	6976.09
567.201	6997.1
567.563	7016.31
567.925	7061.51
568.287	7052.92
568.648	7129.3
569.01	7057.44
569.372	7162.07
569.734	7127.04
570.095	7212.01
570.457	7256.76
570.819	7323.65
571.18	7257.66
571.542	7308.96
571.903	7355.74
572.265	7430.77
572.626	7506.24
572.987	7415.4
573.349	7478.45
573.71	7527.49
574.071	7605
574.432	7721.15
574.794	7698.55
575.155	7745.79
575.516	7805.22
575.877	7910.07
576.238	7925.67
576.599	7962.5
576.96	8069.17
577.32	8097.41
577.681	8175.83
578.042	8251.76
578.403	8347.35
578.763	8392.32
579.124	8511.64
579.485	8657.4
579.845	8669.38
580.206	8803.16
580.566	8879.77
580.927	9006.54
581.287	9123.83
581.648	9196.37
582.008	9407.66
582.368	9426.87
582.728	9610.14
583.089	9816.69
583.449	9902.79
583.809	10129.23
584.169	10263.91
584.529	10401.76
584.889	10684.24
585.249	10766.04
585.609	10931.01
585.969	11174.62
586.329	11303.88
586.688	11591.33
587.048	11703.87
587.408	11913.59
587.768	12126.91
588.127	12421.59
588.487	12543.17
588.846	12860.9
589.206	13068.13
589.565	13290.5
589.925	13640.77
590.284	13819.75
590.643	14062.91
591.003	14313.97
591.362	14662.44
591.721	14904.92
592.08	15191.01
592.44	15477.79
592.799	15834.84
593.158	16006.58
593.517	16370.42
593.876	16618.09
594.235	16811.08
594.593	17127.01
594.952	17495.36
595.311	17738.06
595.67	18107.32
596.029	18432.28
596.387	18821.43
596.746	19129.67
597.104	19270.45
597.463	19564.68
597.822	20068.62
598.18	20139.81
598.538	20414.15
598.897	20838.32
599.255	20893.91
599.613	21593.78
599.972	21688.92
600.33	22085.97
600.688	22283.26
601.046	22668.33
601.404	23004.37
601.762	23155.78
602.12	23563.9
602.478	23789.88
602.836	24099.93
603.194	24290.66
603.552	24616.98
603.91	24846.13
604.268	25115.05
604.625	25316.62
604.983	25687.91
605.341	25958.64
605.698	26270.95
606.056	26632.07
606.413	26697.15
606.771	27099.17
607.128	27338.04
607.485	27446.28
607.843	27658.26
608.2	28048.53
608.557	28422.76
608.914	28382.3
609.272	28796.3
609.629	29032
609.986	29494.37
610.343	29387.02
610.7	29700.24
611.057	29908.59
611.414	30107
611.771	30298.64
612.127	30637.61
612.484	30707.67
612.841	31023.82
613.198	31230.82
613.554	31321.21
613.911	31649.11
614.267	31724.14
614.624	31853.17
614.98	32122.77
615.337	32271.69
615.693	32466.72
616.05	32492.93
616.406	32900.83
616.762	33008.62
617.118	33062.18
617.475	33263.53
617.831	33550.76
618.187	33528.84
618.543	33915.04
618.899	34102.61
619.255	34117.3
619.611	34126.79
619.967	34491.07
620.323	34480.68
620.678	34508.47
621.034	34607
621.39	34672.99
621.746	34767.45
622.101	35352.74
622.457	35147.32
622.812	35267.55
623.168	35362.69
623.523	35481.55
623.879	35668.89
624.234	35550.93
624.589	35659.85
624.945	35875.21
625.3	35991.82
625.655	36003.12
626.01	36044.25
626.365	36230.91
626.72	36243.79
627.075	36297.58
627.43	36265.26
627.785	36410.79
628.14	36426.39
628.495	36647.17
628.85	36550.45
629.205	36493.96
629.559	36819.6
629.914	36571.92
630.269	36830.67
630.623	36744.8
630.978	36724.68
631.332	37008.74
631.687	36998.58
632.041	36839.26
632.396	36977.11
632.75	37008.74
633.104	36979.37
633.459	36859.6
633.813	36919.48
634.167	36896.88
634.521	36926.49
634.875	36987.5
635.229	36879.71
635.583	36804.91
635.937	36933.04
636.291	36900.95
636.645	36994.51
636.999	36816.66
637.352	37157.89
637.706	36954.06
638.06	37095.75
638.413	37022.76
638.767	36938.46
639.121	36961.51
639.474	36940.95
639.828	36902.53
640.181	37073.6
640.534	36940.05
640.888	36867.51
641.241	36890.56
641.594	36867.73
641.947	37062.08
642.301	36926.71
642.654	36948.63
643.007	36895.98
643.36	36932.14
643.713	36839.26
644.066	36854.85
644.419	36716.32
644.771	36508.42
645.124	36178.94
645.477	36277.46
645.83	35903.24
646.182	35885.84
646.535	35791.15
646.888	35861.43
647.24	35548.22
647.593	35781.66
647.945	35800.87
648.298	35591.61
648.65	35661.44
649.002	35620.98
649.355	35638.61
649.707	35726.52
650.059	35668.44
650.411	36105.49
650.763	36208.31
651.115	36617.57
651.467	36432.71
651.819	36510
652.171	36374.18
652.523	36487.85
652.875	36425.26
653.227	36238.37
653.578	36436.33
653.93	36329.89
654.282	36306.16
654.633	36164.02
654.985	36219.39
655.337	36197.24
655.688	36254.64
656.039	36385.26
656.391	36088.32
656.742	36083.8
657.094	36114.53
657.445	36295.32
657.796	36175.09
658.147	36090.58
658.498	36180.07
658.849	36237.01
659.2	36164.7
659.551	35973.29
659.902	36185.26
660.253	36226.62
660.604	36160.86
660.955	36128.32
661.306	36078.37
661.656	36109.11
662.007	36003.35
662.358	35959.73
662.708	36011.26
663.059	36046.28
663.409	35865.72
663.76	36065.72
664.11	36081.99
664.461	36014.19
664.811	36045.38
665.161	35974.87
665.511	35909.34
665.862	35969.9
666.212	36016.45
666.562	36116.34
666.912	36130.35
667.262	35971.48
667.612	36011.71
667.962	35909.34
668.312	35987.08
668.662	36106.4
669.011	35940.07
669.361	35933.97
669.711	35942.11
670.06	35837.25
670.41	35796.12
670.76	35884.93
671.109	35921.54
671.459	35839.51
671.808	35832.05
672.157	35911.82
672.507	35705.5
672.856	35736.24
673.205	35750.25
673.554	35822.11
673.904	35725.84
674.253	35837.02
674.602	35753.86
674.951	35309.35
675.3	35122.24
675.649	35540.53
675.998	35604.04
676.346	35651.04
676.695	35822.11
677.044	35509.57
677.393	35426.87
677.741	35506.41
678.09	35455.11
678.438	35373.53
678.787	35524.04
679.135	35423.48
679.484	35205.18
679.832	35431.84
680.181	35197.72
680.529	35353.42
680.877	35318.85
681.225	35210.15
681.573	35245.85
681.922	34995.92
682.27	35009.02
682.618	35004.73
682.966	34921.57
683.314	34938.06
683.661	34886.99
684.009	34681.35
684.357	34544.85
684.705	34562.93
685.053	34742.82
685.4	34632.76
685.748	34405.42
686.095	34452.2
686.443	34252.88
686.79	34186.9
687.138	34384.18
687.485	34307.12
687.832	34235.48
688.18	34173.79
688.527	34040.01
688.874	34037.07
689.221	33909.84
689.568	33854.48
689.915	33837.98
690.262	33823.29
690.609	33693.58
690.956	33613.81
691.303	33538.55
691.65	33483.87
691.997	33431.66
692.344	33204.78
692.69	33215.62
693.037	33248.39
693.383	33057.66
693.73	33031.67
694.077	32881.4
694.423	32902.64
694.769	32903.99
695.116	32684.56
695.462	32570.44
695.808	32465.14
696.155	32538.13
696.501	32380.84
696.847	32175.65
697.193	32190.34
697.539	32176.33
697.885	31961.65
698.231	31831.71
698.577	31898.14
698.923	31830.8
699.269	31694.31
699.614	31567.31
699.96	31530.92
700.306	31596.01
700.651	31365.5
700.997	31230.82
701.342	31201.67
701.688	31176.81
702.033	31142.01
702.379	31049.58
702.724	30984.04
703.069	31068.34
703.415	30528.69
703.76	30658.85
704.105	30705.63
704.45	30652.3
704.795	30514.45
705.14	30514.45
705.485	30304.74
705.83	30372.08
706.175	30272.2
706.52	30170.51
706.865	30092.09
707.209	30145.87
707.554	29889.38
707.899	30047.12
708.243	29887.58
708.588	29761.7
708.932	29653.01
709.277	29576.17
709.621	29618.66
709.966	29517.87
710.31	29577.08
710.654	29281.26
710.998	29364.65
711.342	29345.22
711.687	29180.25
712.031	29088.95
712.375	28946.13
712.719	29059.8
713.063	28976.19
713.407	29194.03
713.75	28875.85
714.094	28831.11
714.438	28690.77
714.782	28794.72
715.125	28581.62
715.469	28629.76
715.812	28463.43
716.156	28376.2
716.499	28393.6
716.843	28391.8
717.186	28216.66
717.53	28398.58
717.873	28248.07
718.216	28137.57
718.559	28149.99
718.902	27962.43
719.246	27983.44
719.589	27992.71
719.932	27856.22
720.275	27746.16
720.617	27846.5
720.96	27764.69
721.303	27681.31
721.646	27608.09
721.989	27488.99
722.331	27620.06
722.674	27563.8
723.016	27509.56
723.359	27551.59
723.701	27513.85
724.044	27325.84
724.386	27130.13
724.729	27312.95
725.071	27231.6
725.413	27218.95
725.755	27215.33
726.097	27042.68
726.439	26919.29
726.782	27058.5
727.124	27027.31
727.465	26834.32
727.807	26875
728.149	26838.62
728.491	26738.28
728.833	26743.25
729.175	26727.43
729.516	26568.57
729.858	26583.71
730.199	26591.17
730.541	26545.29
730.882	26579.64
731.224	26635.68
731.565	26443.15
731.906	26432.3
732.248	26416.93
732.589	26244.28
732.93	26223.49
733.271	26191.18
733.612	26235.92
733.953	26294.22
734.294	26117.96
734.635	25962.48
734.976	26053.78
735.317	26004.97
735.658	25971.75
735.999	25887.68
736.339	25906.66
736.68	26002.71
737.021	25832.54
737.361	25786.21
737.702	25853.33
738.042	25878.64
738.383	25700.34
738.723	25787.8
739.063	25710.74
739.404	25687.69
739.744	25609.95
740.084	25553.9
740.424	25527.69
740.764	25530.18
741.104	25615.15
741.444	25415.38
741.784	25397.07
742.124	25367.24
742.464	25189.62
742.804	25178.32
743.143	25193.91
743.483	25212.9
743.823	25204.76
744.162	25031.66
744.502	25131.32
744.841	25022.17
745.181	25163.63
745.52	24897.2
745.86	24931.1
746.199	25003.86
746.538	24888.84
746.877	24901.72
747.216	24881.15
747.556	24756.64
747.895	24716.86
748.234	24719.8
748.573	24591.44
748.911	24675.06
749.25	24671.89
749.589	24599.13
749.928	24468.06
750.267	24465.12
750.605	24355.07
750.944	24401.62
751.283	24302.19
751.621	24392.35
751.96	24264.22
752.298	24231.91
752.636	24081.4
752.975	24150.55
753.313	23967.28
753.651	24100.61
753.989	24005.7
754.327	23861.29
754.666	23701.98
755.004	23873.27
755.342	23834.63
755.679	23736.55
756.017	23679.38
756.355	23720.51
756.693	23626.27
757.031	23675.54
757.368	23475.77
757.706	23461.08
758.044	23416.56
758.381	23381.31
758.719	23271.25
759.056	23339.05
759.394	23266.51
759.731	23126.17
760.068	23117.36
760.405	22989.23
760.743	23014.99
761.08	22912.84
