Data from hue_30_FLMS001491_52.txt Node
Date: Mon Feb 06 15:05:35 GMT 2017
User: dcchb
Spectrometer: FLMS00149
Trigger mode: 0
Integration Time (sec): 2.000000E-2
Scans to average: 10
Electric dark correction enabled: true
Nonlinearity correction enabled: false
Boxcar width: 0
XAxis mode: Wavelengths
Number of Pixels in Spectrum: 2048
>>>>>Begin Spectral Data<<<<<
341.393	1.16
341.776	1.16
342.16	1.16
342.543	-50.14
342.927	-57.6
343.31	-60.31
343.693	-72.96
344.077	-78.84
344.46	-65.96
344.843	-65.05
345.226	-32.29
345.61	-32.74
345.993	3.42
346.376	-3.59
346.759	12.68
347.142	39.12
347.525	34.6
347.908	57.88
348.291	75.05
348.674	94.72
349.057	94.26
349.44	125.67
349.823	159.8
350.206	152.34
350.588	205.9
350.971	213.36
351.354	224.88
351.737	233.47
352.119	246.35
352.502	271.43
352.884	291.55
353.267	297.42
353.65	294.03
354.032	307.36
354.414	309.62
354.797	321.38
355.179	329.96
355.562	341.04
355.944	340.36
356.326	322.51
356.709	334.03
357.091	328.83
357.473	340.36
357.855	350.53
358.238	361.83
358.62	329.96
359.002	372.9
359.384	361.6
359.766	331.32
360.148	341.49
360.53	340.13
360.912	351.43
361.294	343.97
361.676	348.27
362.057	350.08
362.439	325.67
362.821	326.12
363.203	333.58
363.584	320.7
363.966	333.58
364.348	345.56
364.729	351.21
365.111	324.54
365.493	313.24
365.874	327.7
366.256	304.65
366.637	328.38
367.019	322.05
367.4	313.69
367.781	292.9
368.163	310.75
368.544	310.98
368.925	307.36
369.306	326.35
369.688	334.48
370.069	312.56
370.45	324.77
370.831	321.83
371.212	338.32
371.593	339.91
371.974	314.37
372.355	321.38
372.736	326.8
373.117	319.57
373.498	344.2
373.879	317.76
374.26	332
374.641	344.65
375.021	298.78
375.402	315.95
375.783	313.92
376.163	328.16
376.544	334.71
376.925	329.74
377.305	330.64
377.686	342.17
378.066	321.15
378.447	342.62
378.827	333.13
379.208	335.16
379.588	318.89
379.968	331.77
380.349	322.73
380.729	339.45
381.109	332
381.489	354.37
381.87	353.01
382.25	344.2
382.63	350.75
383.01	367.7
383.39	336.97
383.77	342.17
384.15	344.65
384.53	347.36
384.91	349.4
385.29	341.49
385.67	361.15
386.049	337.65
386.429	366.35
386.809	353.92
387.189	357.76
387.568	364.54
387.948	363.41
388.328	342.39
388.707	358.89
389.087	376.06
389.466	347.59
389.846	388.49
390.225	359.57
390.605	364.09
390.984	388.49
391.363	375.16
391.743	366.35
392.122	388.04
392.501	368.61
392.881	379
393.26	352.34
393.639	365.89
394.018	373.8
394.397	374.48
394.776	365.89
395.155	384.88
395.534	376.97
395.913	374.03
396.292	371.32
396.671	398.89
397.05	393.24
397.429	384.42
397.808	399.57
398.186	400.92
398.565	406.8
398.944	401.37
399.323	396.18
399.701	392.33
400.08	416.97
400.458	418.77
400.837	397.31
401.215	402.96
401.594	411.54
401.972	401.6
402.351	420.81
402.729	405.22
403.107	397.53
403.486	404.09
403.864	397.76
404.242	410.64
404.62	394.82
404.999	423.52
405.377	420.81
405.755	400.24
406.133	417.19
406.511	415.61
406.889	437.08
407.267	431.43
407.645	418.1
408.023	416.97
408.401	418.1
408.779	447.25
409.156	428.27
409.534	434.14
409.912	455.84
410.29	451.09
410.667	465.1
411.045	458.55
411.422	452.22
411.8	458.55
412.178	457.87
412.555	449.06
412.933	460.58
413.31	472.56
413.687	474.14
414.065	482.05
414.442	491.09
414.819	481.82
415.197	491.77
415.574	468.26
415.951	481.37
416.328	484.54
416.705	488.15
417.082	497.19
417.46	495.16
417.837	480.47
418.214	515.04
418.591	498.55
418.967	504.42
419.344	500.13
419.721	504.87
420.098	519.34
420.475	520.24
420.852	534.93
421.228	540.13
421.605	536.96
421.982	535.16
422.358	522.05
422.735	533.57
423.111	534.93
423.488	530.18
423.864	533.35
424.241	526.79
424.617	533.12
424.994	542.16
425.37	562.5
425.746	549.62
426.123	564.31
426.499	552.33
426.875	565.44
427.251	560.24
427.627	571.99
428.003	556.17
428.379	562.5
428.756	575.38
429.132	588.94
429.507	588.71
429.883	593.68
430.259	593.46
430.635	617.64
431.011	619.22
431.387	626
431.763	642.5
432.138	632.78
432.514	647.02
432.89	658.99
433.265	647.24
433.641	651.99
434.016	663.51
434.392	653.8
434.767	660.8
435.143	651.08
435.518	685.43
435.894	671.65
436.269	671.65
436.644	674.59
437.02	682.95
437.395	683.4
437.77	714.36
438.145	732.66
438.52	699.9
438.895	715.72
439.271	692.89
439.646	720.69
440.021	729.73
440.395	728.82
440.77	710.07
441.145	707.81
441.52	731.99
441.895	756.84
442.27	759.1
442.645	719.56
443.019	779.67
443.394	754.81
443.769	759.1
444.143	750.52
444.518	753
444.892	783.06
445.267	798.88
445.641	777.63
446.016	796.62
446.39	796.62
446.764	787.35
447.139	785.77
447.513	805.2
447.887	806.56
448.262	819.67
448.636	797.3
449.01	835.26
449.384	817.63
449.758	830.97
450.132	827.58
450.506	838.88
450.88	833.45
451.254	840.23
451.628	854.24
452.002	860.12
452.376	885.43
452.75	868.03
453.123	868.48
453.497	879.78
453.871	892.21
454.244	890.63
454.618	885.2
454.992	914.35
455.365	931.3
455.739	931.3
456.112	940.12
456.486	937.63
456.859	977.63
457.232	947.35
457.606	971.75
457.979	995.71
458.352	994.13
458.725	1008.59
459.099	1003.39
459.472	1019.44
459.845	1028.48
460.218	1027.57
460.591	1062.83
460.964	1064.86
461.337	1086.1
461.71	1077.51
462.083	1112.32
462.456	1074.58
462.829	1115.25
463.201	1142.82
463.574	1114.8
463.947	1138.76
464.32	1132.43
464.692	1171.3
465.065	1185.08
465.438	1190.28
465.81	1223.95
466.183	1215.14
466.555	1235.25
466.928	1252.88
467.3	1263.05
467.672	1283.38
468.045	1320.45
468.417	1311.18
468.789	1302.82
469.161	1354.12
469.534	1344.17
469.906	1409.26
470.278	1408.58
470.65	1408.35
471.022	1458.07
471.394	1448.13
471.766	1477.73
472.138	1497.16
472.51	1533.77
472.882	1587.56
473.253	1573.77
473.625	1611.51
473.997	1638.4
474.369	1651.51
474.74	1633.88
475.112	1708.68
475.484	1737.61
475.855	1752.3
476.227	1799.3
476.598	1810.15
476.97	1858.74
477.341	1868.91
477.713	1907.1
478.084	1957.94
478.455	2009.47
478.827	2015.57
479.198	2086.98
479.569	2101.67
479.94	2147.32
480.311	2191.61
480.682	2267.99
481.053	2310.25
481.424	2372.4
481.795	2392.06
482.166	2413.52
482.537	2492.84
482.908	2535.55
483.279	2607.87
483.65	2627.3
484.021	2712.5
484.391	2747.07
484.762	2794.98
485.133	2814.87
485.503	2892.38
485.874	2969.44
486.244	3027.75
486.615	3043.34
486.985	3102.55
487.356	3204.92
487.726	3219.15
488.097	3305.25
488.467	3303.9
488.837	3401.29
489.207	3465.25
489.578	3506.6
489.948	3618.46
490.318	3628.86
490.688	3705.24
491.058	3759.93
491.428	3837.89
491.798	3909.53
492.168	3952.01
492.538	3993.82
492.908	4086.47
493.278	4120.15
493.648	4173.48
494.017	4275.4
494.387	4282.18
494.757	4306.58
495.126	4414.38
495.496	4436.3
495.866	4440.36
496.235	4548.61
496.605	4578.21
496.974	4599.46
497.344	4712.45
497.713	4750.19
498.082	4818.88
498.452	4863.4
498.821	4899.33
499.19	4864.76
499.559	4984.3
499.928	5056.84
500.298	5008.03
500.667	5115.6
501.036	5126.22
501.405	5221.81
501.774	5187.69
502.143	5259.32
502.512	5264.07
502.88	5344.07
503.249	5367.12
503.618	5408.02
503.987	5445.08
504.356	5493.9
504.724	5489.38
505.093	5576.6
505.462	5572.76
505.83	5634.23
506.199	5662.7
506.567	5699.54
506.936	5728.47
507.304	5782.02
507.672	5800.55
508.041	5822.7
508.409	5938.18
508.777	6002.13
509.145	6003.49
509.514	6007.33
509.882	6023.82
510.25	6063.6
510.618	6035.58
510.986	6137.04
511.354	6213.65
511.722	6222.24
512.09	6244.84
512.458	6240.77
512.826	6311.05
513.193	6355.34
513.561	6374.1
513.929	6375.91
514.297	6451.38
514.664	6505.62
515.032	6541.78
515.4	6519.86
515.767	6553.98
516.135	6573.87
516.502	6602.79
516.869	6672.17
517.237	6744.03
517.604	6699.74
517.972	6771.15
518.339	6804.6
518.706	6816.12
519.073	6815.67
519.44	6899.06
519.808	6915.33
520.175	6906.06
520.542	6988.09
520.909	7042.1
521.276	7043.01
521.643	7109.67
522.009	7111.25
522.376	7106.73
522.743	7187.41
523.11	7264.24
523.477	7319.16
523.843	7340.63
524.21	7418.36
524.577	7459.72
524.943	7484.58
525.31	7475.09
525.676	7589.89
526.043	7545.82
526.409	7644.8
526.776	7693.84
527.142	7749.88
527.508	7724.34
527.874	7835.75
528.241	7833.27
528.607	7828.3
528.973	7954.17
529.339	7960.27
529.705	7974.28
530.071	8077.78
530.437	8112.58
530.803	8175.86
531.169	8210.89
531.535	8179.47
531.901	8208.85
532.267	8272.13
532.632	8337.21
532.998	8327.49
533.364	8360.94
533.73	8402.75
534.095	8484.78
534.461	8516.87
534.826	8565.9
535.192	8520.03
535.557	8649.97
535.923	8637.32
536.288	8736.07
536.653	8747.14
537.019	8695.17
537.384	8819.91
537.749	8791.89
538.114	8827.37
538.479	8917.08
538.845	8895.39
539.21	8974.26
539.575	8997.98
539.94	9011.09
540.305	9076.85
540.67	9096.06
541.034	9037.98
541.399	9136.96
541.764	9159.79
542.129	9194.14
542.494	9203.63
542.858	9327.01
543.223	9289.5
543.587	9360.69
543.952	9383.96
544.316	9459.89
544.681	9389.84
545.045	9471.64
545.41	9541.47
545.774	9635.71
546.138	9635.03
546.503	9633.9
546.867	9641.13
547.231	9750.51
547.595	9816.95
547.959	9752.31
548.324	9760.9
548.688	9863.95
549.052	9838.41
549.416	9882.03
549.779	9881.58
550.143	9918.41
550.507	10050.84
550.871	10101.23
551.235	10075.02
551.599	10154.34
551.962	10183.49
552.326	10203.83
552.689	10236.6
553.053	10216.48
553.417	10286.31
553.78	10356.14
554.143	10345.07
554.507	10354.11
554.87	10369.25
555.234	10389.36
555.597	10470.94
555.96	10492.18
556.323	10514.33
556.686	10582.57
557.05	10604.5
557.413	10611.5
557.776	10659.86
558.139	10746.64
558.502	10721.1
558.865	10738.05
559.228	10891.04
559.59	10918.39
559.953	10870.48
560.316	11071.6
560.679	11019.17
561.041	11104.14
561.404	11050.13
561.767	11254.87
562.129	11101.66
562.492	11230.24
562.854	11198.15
563.217	11229.79
563.579	11250.35
563.941	11312.95
564.304	11340.3
564.666	11340.97
565.028	11400.41
565.39	11454.42
565.753	11480.63
566.115	11557.24
566.477	11653.96
566.839	11649.67
567.201	11697.35
567.563	11727.63
567.925	11777.12
568.287	11754.75
568.648	11831.36
569.01	11886.95
569.372	12068.86
569.734	11978.92
570.095	12100.95
570.457	12210.78
570.819	12183.21
571.18	12170.1
571.542	12223.89
571.903	12252.14
572.265	12364.9
572.626	12397.89
572.987	12489.19
573.349	12495.07
573.71	12578
574.071	12576.65
574.432	12754.5
574.794	12847.37
575.155	12891.67
575.516	12900.71
575.877	12975.73
576.238	13071.1
576.599	13111.1
576.96	13220.7
577.32	13346.34
577.681	13350.19
578.042	13511.99
578.403	13587.69
578.763	13657.3
579.124	13819.1
579.485	13994.01
579.845	14117.62
580.206	14160.79
580.566	14303.15
580.927	14401.01
581.287	14601.9
581.648	14626.08
582.008	14942.46
582.368	14986.98
582.728	15196.24
583.089	15233.3
583.449	15450.47
583.809	15502.22
584.169	15927.97
584.529	15904.69
584.889	16266.95
585.249	16293.61
585.609	16522.31
585.969	16767.95
586.329	16886.14
586.688	17252.46
587.048	17395.28
587.408	17615.61
587.768	17747.81
588.127	17995.71
588.487	18235.25
588.846	18585.53
589.206	18678.18
589.565	18903.49
589.925	19118.85
590.284	19467.31
590.643	19674.09
591.003	19894.19
591.362	20208.31
591.721	20395.2
592.08	20656.43
592.44	20861.63
592.799	21176.19
593.158	21450.54
593.517	21657.31
593.876	22003.97
594.235	22136.62
594.593	22357.86
594.952	22752.2
595.311	22984.96
595.67	23164.84
596.029	23583.59
596.387	23780.87
596.746	24126.4
597.104	24263.57
597.463	24400.74
597.822	24804.57
598.18	24947.39
598.538	25220.83
598.897	25637.77
599.255	25580.82
599.613	26091.09
599.972	26092.9
600.33	26538.54
600.688	26661.7
601.046	26937.4
601.404	27247.67
601.762	27451.96
602.12	27797.94
602.478	28002.68
602.836	28306.63
603.194	28373.75
603.552	28688.09
603.91	28703
604.268	29111.81
604.625	29187.51
604.983	29512.47
605.341	29564.9
605.698	29979.8
606.056	30083.53
606.413	30307.93
606.771	30515.84
607.128	30817.75
607.485	30736.85
607.843	30996.05
608.2	31325.08
608.557	31583.38
608.914	31613.21
609.272	31913.09
609.629	32088.68
609.986	32285.06
610.343	32390.14
610.7	32717.59
611.057	32835.55
611.414	32841.65
611.771	33086.39
612.127	33410.45
612.484	33347.17
612.841	33619.71
613.198	33670.56
613.554	33788.74
613.911	34183.54
614.267	34158.45
614.624	34292.23
614.98	34444.77
615.337	34619.91
615.693	34790.98
616.05	34913.46
616.406	35093.57
616.762	35047.69
617.118	35145.09
617.475	35349.38
617.831	35425.09
618.187	35642.93
618.543	35635.25
618.899	36122.24
619.255	36148.46
619.611	36101.45
619.967	36238.85
620.323	36454.66
620.678	36351.39
621.034	36228.68
621.39	36444.04
621.746	36529.69
622.101	37081.99
622.457	36762.23
622.812	36841.77
623.168	37104.36
623.523	37124.02
623.879	37132.84
624.234	37007.64
624.589	37225.04
624.945	37330.57
625.3	37276.11
625.655	37321.76
626.01	37639.26
626.365	37543.9
626.72	37523.11
627.075	37640.62
627.43	37585.48
627.785	37635.42
628.14	37745.48
628.495	37780.5
628.85	37789.77
629.205	37710.22
629.559	38117.9
629.914	37818.47
630.269	37880.84
630.623	37792.03
630.978	37843.55
631.332	38064.56
631.687	38044.45
632.041	37924.23
632.396	38024.79
632.75	38081.29
633.104	38055.75
633.459	37968.97
633.813	37902.99
634.167	38004.9
634.521	38004.9
634.875	38067.95
635.229	37933.72
635.583	37917.68
635.937	37980.27
636.291	37970.56
636.645	37934.85
636.999	37857.34
637.352	37932.14
637.706	37800.62
638.06	38008.07
638.413	37919.26
638.767	37793.38
639.121	37891.91
639.474	37777.57
639.828	37744.12
640.181	37745.7
640.534	37861.63
640.888	37864.57
641.241	37616.67
641.594	37800.16
641.947	37864.8
642.301	37693.05
642.654	37863.67
643.007	37734.18
643.36	37590.23
643.713	37662.54
644.066	37864.34
644.419	37466.84
644.771	37244.92
645.124	37005.38
645.477	36983.24
645.83	36675.67
646.182	36653.08
646.535	36468.45
646.888	36579.63
647.24	36418.96
647.593	36646.52
647.945	36577.6
648.298	36394.78
648.65	36384.16
649.002	36310.49
649.355	36349.58
649.707	36380.99
650.059	36482.01
650.411	36907.98
650.763	36993.63
651.115	37293.06
651.467	37291.03
651.819	37251.25
652.171	37148.66
652.523	37102.1
652.875	37074.76
653.227	36894.65
653.578	37171.03
653.93	37144.36
654.282	37015.78
654.633	36871.83
654.985	36911.37
655.337	37047.87
655.688	36998.83
656.039	37163.8
656.391	36812.17
656.742	36826.86
657.094	36946.63
657.445	37026.17
657.796	36917.93
658.147	36820.3
658.498	36867.76
658.849	36846.07
659.2	36806.74
659.551	36828.66
659.902	36944.14
660.253	36876.57
660.604	36771.94
660.955	36693.07
661.306	36820.76
661.656	36824.14
662.007	36738.72
662.358	36750.02
662.708	36648.56
663.059	36768.1
663.409	36488.79
663.76	36785.5
664.11	36775.56
664.461	36794.09
664.811	36816.24
665.161	36749.8
665.511	36566.3
665.862	36666.18
666.212	36774.65
666.562	36703.02
666.912	36671.38
667.262	36627.31
667.612	36679.06
667.962	36783.24
668.312	36756.58
668.662	36836.12
669.011	36611.49
669.361	36606.98
669.711	36648.78
670.06	36650.36
670.41	36517.03
670.76	36406.53
671.109	36780.76
671.459	36563.81
671.808	36512.97
672.157	36569.46
672.507	36373.99
672.856	36379.41
673.205	36389.81
673.554	36439.07
673.904	36495.11
674.253	36643.13
674.602	36428.9
674.951	35924.73
675.3	35767.9
675.649	36436.13
675.998	36287.66
676.346	36265.74
676.695	36400.65
677.044	36160.21
677.393	36071.85
677.741	36170.6
678.09	36146.65
678.438	36074.79
678.787	36145.52
679.135	36132.86
679.484	36007.22
679.832	36186.2
680.181	35762.03
680.529	35992.75
680.877	35812.87
681.225	35796.83
681.573	36075.69
681.922	35734.23
682.27	35642.03
682.618	35714.12
682.966	35609.94
683.314	35734.91
683.661	35659.88
684.009	35366.33
684.357	35443.16
684.705	35327.23
685.053	35497.17
685.4	35214.7
685.748	35117.97
686.095	35228.03
686.443	35004.31
686.79	34886.79
687.138	35119.56
687.485	34884.31
687.832	34718.21
688.18	34834.59
688.527	34664.65
688.874	34650.64
689.221	34584.43
689.568	34449.52
689.915	34449.29
690.262	34387.6
690.609	34274.16
690.956	34279.8
691.303	34163.88
691.65	34075.29
691.997	34124.78
692.344	33823.09
692.69	33778.58
693.037	33892.47
693.383	33508.07
693.73	33629.88
694.077	33416.1
694.423	33599.6
694.769	33346.27
695.116	33293.62
695.462	33285.71
695.808	33219.04
696.155	33084.13
696.501	32981.76
696.847	32946.05
697.193	32770.47
697.539	32712.39
697.885	32584.03
698.231	32461.32
698.577	32496.57
698.923	32693.63
699.269	32346.97
699.614	32194.21
699.96	32205.06
700.306	32101.33
700.651	32067.66
700.997	31835.8
701.342	31834.9
701.688	31807.78
702.033	31700.44
702.379	31573.89
702.724	31605.75
703.069	31677.39
703.415	31298.19
703.76	31403.95
704.105	31402.59
704.45	31191.75
704.795	31096.39
705.14	31043.96
705.485	30968.93
705.83	30894.36
706.175	30838.54
706.52	30693.46
706.865	30822.95
707.209	30670.18
707.554	30533.69
707.899	30481.94
708.243	30364.65
708.588	30413.92
708.932	30114.49
709.277	30020.26
709.621	30168.73
709.966	29864.55
710.31	30014.83
710.654	29795.63
710.998	29895.06
711.342	29893.48
711.687	29718.79
712.031	29589.31
712.375	29522.87
712.719	29469.99
713.063	29478.35
713.407	29479.25
713.75	29350.22
714.094	29399.93
714.438	29147.96
714.782	29261.18
715.125	29133.73
715.469	29183.44
715.812	28950.45
716.156	28913.84
716.499	28960.4
716.843	28917.91
717.186	28729.22
717.53	28866.39
717.873	28770.57
718.216	28764.47
718.559	28619.84
718.902	28372.16
719.246	28520.18
719.589	28359.51
719.932	28290.58
720.275	28287.19
720.617	28303.01
720.96	28127.65
721.303	28272.51
721.646	28230.7
721.989	28070.48
722.331	28113.41
722.674	28031.16
723.016	28044.49
723.359	27994.77
723.701	27926.53
724.044	27840.2
724.386	27739.19
724.729	27829.8
725.071	27633.43
725.413	27732.86
725.755	27792.52
726.097	27640.88
726.439	27582.58
726.782	27431.62
727.124	27686.31
727.465	27388.69
727.807	27424.84
728.149	27321.57
728.491	27282.93
728.833	27340.33
729.175	27325.64
729.516	27211.97
729.858	27139.43
730.199	27313.21
730.541	27041.13
730.882	27100.33
731.224	27114.34
731.565	26878.19
731.906	26890.62
732.248	26913.9
732.589	26714.35
732.93	26739.89
733.271	26704.41
733.612	26726.56
733.953	26629.84
734.294	26465.77
734.635	26542.16
734.976	26616.96
735.317	26456.96
735.658	26474.13
735.999	26334.93
736.339	26246.8
736.68	26423.97
737.021	26344.87
737.361	26178.77
737.702	26378.09
738.042	26139.68
738.383	26259.22
738.723	26228.27
739.063	26077.99
739.404	26208.83
739.744	25979.91
740.084	26011.1
740.424	26014.26
740.764	25908.05
741.104	25986.46
741.444	25878.22
741.784	25793.02
742.124	25822.4
742.464	25766.58
742.804	25800.03
743.143	25683.42
743.483	25651.56
743.823	25633.93
744.162	25600.03
744.502	25555.74
744.841	25487.72
745.181	25565.01
745.52	25416.54
745.86	25493.37
746.199	25397.33
746.538	25325.01
746.877	25410.43
747.216	25428.96
747.556	25296.76
747.895	25263.54
748.234	25212.25
748.573	25166.82
748.911	25162.98
749.25	25074.62
749.589	24960.5
749.928	24949.2
750.267	25028.97
750.605	24913.27
750.944	24988.75
751.283	24817.45
751.621	24924.12
751.96	24751.24
752.298	24704.92
752.636	24768.64
752.975	24496.33
753.313	24504.69
753.651	24655.43
753.989	24454.07
754.327	24507.41
754.666	24297.92
755.004	24365.49
755.342	24393.74
755.679	24289.56
756.017	24236.23
756.355	24077.59
756.693	24158.04
757.031	24186.96
757.368	24061.54
757.706	23973.86
758.044	23870.59
758.381	23830.36
758.719	23865.39
759.056	23738.39
759.394	23719.18
