Data from hue_320_FLMS001491_60.txt Node
Date: Mon Feb 06 15:47:24 GMT 2017
User: dcchb
Spectrometer: FLMS00149
Trigger mode: 0
Integration Time (sec): 2.000000E-2
Scans to average: 10
Electric dark correction enabled: true
Nonlinearity correction enabled: false
Boxcar width: 0
XAxis mode: Wavelengths
Number of Pixels in Spectrum: 2048
>>>>>Begin Spectral Data<<<<<
341.393	-20.35
341.776	-20.35
342.16	-20.35
342.543	-53.35
342.927	-87.02
343.31	-46.11
343.693	-91.76
344.077	-73.01
344.46	-50.18
344.843	-53.8
345.226	-49.73
345.61	-23.52
345.993	-25.55
346.376	-15.61
346.759	14.67
347.142	35.69
347.525	38.18
347.908	56.26
348.291	74.79
348.674	98.51
349.057	111.17
349.44	119.3
349.823	116.37
350.206	163.82
350.588	181
350.971	219.87
351.354	215.35
351.737	239.98
352.119	250.15
352.502	257.38
352.884	278.62
353.267	246.08
353.65	291.05
354.032	305.74
354.414	302.8
354.797	304.16
355.179	316.81
355.562	333.08
355.944	299.41
356.326	324.27
356.709	325.4
357.091	338.51
357.473	315.46
357.855	335.34
358.238	319.07
358.62	319.53
359.002	317.27
359.384	330.15
359.766	331.05
360.148	320.88
360.53	323.82
360.912	335.57
361.294	334.89
361.676	307.1
362.057	305.97
362.439	312.97
362.821	319.53
363.203	308.9
363.584	296.93
363.966	326.08
364.348	316.36
364.729	314.1
365.111	298.51
365.493	300.99
365.874	319.07
366.256	305.74
366.637	301.67
367.019	326.08
367.4	308
367.781	302.35
368.163	312.75
368.544	304.84
368.925	298.51
369.306	305.74
369.688	319.3
370.069	302.58
370.45	290.15
370.831	292.41
371.212	303.71
371.593	294.67
371.974	293.31
372.355	303.25
372.736	306.42
373.117	313.42
373.498	296.7
373.879	320.66
374.26	303.48
374.641	303.93
375.021	314.1
375.402	301.45
375.783	346.42
376.163	313.2
376.544	325.4
376.925	317.49
377.305	312.29
377.686	301.45
378.066	318.4
378.447	322.46
378.827	324.5
379.208	303.71
379.588	324.95
379.968	319.75
380.349	318.4
380.729	326.08
381.109	311.62
381.489	329.02
381.87	311.39
382.25	336.25
382.63	336.47
383.01	342.35
383.39	344.38
383.77	341.67
384.15	318.4
384.53	345.51
384.91	331.5
385.29	327.89
385.67	333.31
386.049	344.61
386.429	340.54
386.809	350.71
387.189	363.14
387.568	336.25
387.948	331.28
388.328	333.08
388.707	340.77
389.087	342.58
389.466	345.06
389.846	339.41
390.225	330.82
390.605	368.79
390.984	376.93
391.363	350.71
391.743	339.19
392.122	368.34
392.501	365.85
392.881	343.93
393.26	365.63
393.639	360.43
394.018	371.73
394.397	353.65
394.776	358.17
395.155	350.71
395.534	380.31
395.913	358.85
396.292	369.47
396.671	386.42
397.05	376.25
397.429	389.35
397.808	372.86
398.186	383.93
398.565	388.45
398.944	373.76
399.323	378.51
399.701	384.38
400.08	403.59
400.458	392.52
400.837	389.58
401.215	395.91
401.594	394.78
401.972	392.07
402.351	409.47
402.729	389.58
403.107	411.05
403.486	383.7
403.864	405.17
404.242	417.15
404.62	391.39
404.999	413.53
405.377	415.79
405.755	431.39
406.133	440.88
406.511	453.08
406.889	442.69
407.267	463.93
407.645	448.56
408.023	445.4
408.401	431.84
408.779	448.11
409.156	450.6
409.534	459.41
409.912	459.41
410.29	485.4
410.667	457.15
411.045	479.07
411.422	491.95
411.8	482.46
412.178	484.04
412.555	502.12
412.933	491.95
413.31	515.68
413.687	529.01
414.065	539.63
414.442	528.33
414.819	545.96
415.197	546.19
415.574	526.3
415.951	561.55
416.328	556.58
416.705	578.28
417.082	558.84
417.46	577.6
417.837	576.02
418.214	585.06
418.591	595
418.967	569.24
419.344	613.3
419.721	615.56
420.098	621.21
420.475	613.53
420.852	631.83
421.228	624.38
421.605	639.74
421.982	670.25
422.358	636.81
422.735	657.37
423.111	662.57
423.488	676.13
423.864	689.69
424.241	689.69
424.617	693.07
424.994	700.31
425.37	695.79
425.746	709.57
426.123	728.78
426.499	725.16
426.875	734.43
427.251	750.02
427.627	753.41
428.003	747.08
428.379	740.53
428.756	761.1
429.132	785.28
429.507	806.07
429.883	790.7
430.259	786.18
430.635	837.03
431.011	806.97
431.387	848.55
431.763	827.31
432.138	858.72
432.514	816.46
432.89	847.87
433.265	880.87
433.641	891.26
434.016	915.67
434.392	907.31
434.767	906.85
435.143	908.21
435.518	921.32
435.894	930.58
436.269	949.79
436.644	960.64
437.02	959.28
437.395	938.27
437.77	969.68
438.145	965.38
438.52	1021.2
438.895	997.47
439.271	1027.08
439.646	1035.66
440.021	1019.62
440.395	1024.14
440.77	1039.28
441.145	1034.53
441.52	1056
441.895	1073.4
442.27	1054.65
442.645	1067.98
443.019	1070.24
443.394	1080.18
443.769	1090.35
444.143	1071.6
444.518	1111.6
444.892	1078.6
445.267	1102.78
445.641	1107.75
446.016	1135.55
446.39	1139.84
446.764	1123.12
447.139	1128.54
447.513	1149.79
447.887	1124.7
448.262	1132.84
448.636	1150.69
449.01	1176.68
449.384	1157.24
449.758	1174.19
450.132	1165.15
450.506	1174.19
450.88	1147.98
451.254	1181.65
451.628	1209.9
452.002	1172.84
452.376	1200.18
452.75	1203.57
453.123	1236.79
453.497	1221.87
453.871	1216.68
454.244	1277.47
454.618	1267.07
454.992	1284.25
455.365	1264.59
455.739	1313.17
456.112	1309.78
456.486	1294.87
456.859	1319.5
457.232	1323.11
457.606	1328.54
457.979	1327.63
458.352	1336.45
458.725	1371.7
459.099	1375.54
459.472	1383.45
459.845	1394.07
460.218	1436.56
460.591	1402.66
460.964	1431.59
461.337	1457.57
461.71	1468.2
462.083	1492.15
462.456	1467.29
462.829	1449.21
463.201	1510.91
463.574	1498.7
463.947	1507.52
464.32	1514.07
464.692	1549.55
465.065	1550.91
465.438	1571.92
465.81	1584.58
466.183	1552.71
466.555	1605.37
466.928	1612.6
467.3	1628.19
467.672	1664.35
468.045	1677.23
468.417	1664.8
468.789	1661.41
469.161	1702.77
469.534	1688.08
469.906	1731.24
470.278	1765.14
470.65	1751.8
471.022	1765.59
471.394	1790.22
471.766	1829.09
472.138	1830.22
472.51	1847.39
472.882	1870.22
473.253	1917
473.625	1923.33
473.997	1944.79
474.369	1945.02
474.74	1946.38
475.112	1997.45
475.484	2026.37
475.855	2015.75
476.227	2047.62
476.598	2079.71
476.97	2128.29
477.341	2164
477.713	2176.2
478.084	2173.94
478.455	2230.66
478.827	2236.99
479.198	2280.38
479.569	2271.56
479.94	2347.27
480.311	2362.64
480.682	2369.19
481.053	2455.29
481.424	2448.06
481.795	2473.82
482.166	2509.98
482.537	2528.05
482.908	2565.12
483.279	2549.52
483.65	2562.4
484.021	2651.67
484.391	2686.24
484.762	2674.94
485.133	2704.32
485.503	2733.02
485.874	2754.26
486.244	2806.47
486.615	2856.86
486.985	2843.3
487.356	2945.45
487.726	2910.64
488.097	2947.03
488.467	2966.91
488.837	2979.12
489.207	3032
489.578	3056.85
489.948	3126.23
490.318	3159.45
490.688	3160.81
491.058	3164.87
491.428	3230.64
491.798	3222.27
492.168	3314.25
492.538	3286.68
492.908	3301.82
493.278	3300.69
493.648	3325.55
494.017	3438.09
494.387	3452.78
494.757	3439.67
495.126	3482.61
495.496	3498.65
495.866	3459.1
496.235	3536.16
496.605	3594.02
496.974	3603.96
497.344	3620
497.713	3590.63
498.082	3621.59
498.452	3663.84
498.821	3666.1
499.19	3690.28
499.559	3668.59
499.928	3768.7
500.298	3747.68
500.667	3794.46
501.036	3757.85
501.405	3773.22
501.774	3780
502.143	3814.12
502.512	3821.81
502.88	3873.33
503.249	3861.13
503.618	3872.43
503.987	3909.26
504.356	3905.87
504.724	3935.02
505.093	3970.5
505.462	3917.17
505.83	3938.41
506.199	4006.89
506.567	4001.91
506.936	4067.9
507.304	4082.36
507.672	4036.49
508.041	4059.77
508.409	4121.69
508.777	4115.13
509.145	4121.23
509.514	4125.98
509.882	4122.14
510.25	4163.94
510.618	4189.71
510.986	4188.8
511.354	4190.38
511.722	4220.67
512.09	4242.13
512.458	4249.59
512.826	4267.44
513.193	4265.18
513.561	4313.32
513.929	4292.75
514.297	4320.78
514.664	4402.58
515.032	4329.82
515.4	4374.79
515.767	4392.64
516.135	4384.73
516.502	4328.69
516.869	4462.47
517.237	4407.33
517.604	4446.42
517.972	4438.74
518.339	4467.21
518.706	4446.65
519.073	4481.22
519.44	4457.27
519.808	4531.39
520.175	4502.69
520.542	4570.94
520.909	4541.79
521.276	4584.05
521.643	4536.14
522.009	4610.26
522.376	4606.19
522.743	4635.8
523.11	4686.64
523.477	4751.05
523.843	4724.61
524.21	4734.32
524.577	4800.09
524.943	4811.61
525.31	4802.8
525.676	4872.63
526.043	4894.77
526.409	4836.92
526.776	4917.82
527.142	4968.67
527.508	4951.04
527.874	4984.26
528.241	5028.55
528.607	5023.13
528.973	5091.6
529.339	5054.99
529.705	5104.71
530.071	5117.59
530.437	5166.18
530.803	5185.84
531.169	5175.67
531.535	5239.17
531.901	5240.98
532.267	5246.4
532.632	5298.83
532.998	5287.53
533.364	5307.42
533.73	5324.14
534.095	5366.85
534.461	5391.93
534.826	5415.66
535.192	5431.26
535.557	5511.71
535.923	5472.16
536.288	5498.6
536.653	5449.33
537.019	5520.29
537.384	5531.59
537.749	5610.23
538.114	5577.24
538.479	5619.05
538.845	5662.66
539.21	5629.67
539.575	5693.4
539.94	5685.49
540.305	5775.2
540.67	5707.63
541.034	5750.57
541.399	5784.92
541.764	5780.4
542.129	5848.42
542.494	5863.56
542.858	5896.33
543.223	5857.46
543.587	5935.42
543.952	5920.06
544.316	5950.34
544.681	5952.15
545.045	6012.94
545.41	6064.23
545.774	6031.24
546.138	6090
546.503	6104.68
546.867	6093.61
547.231	6211.12
547.595	6186.04
547.959	6247.51
548.324	6210.22
548.688	6229.43
549.052	6254.06
549.416	6290.89
549.779	6259.03
550.143	6284.57
550.507	6363.89
550.871	6338.35
551.235	6410.89
551.599	6438.01
551.962	6449.08
552.326	6354.17
552.689	6478.69
553.053	6520.04
553.417	6463.77
553.78	6566.37
554.143	6609.53
554.507	6570.66
554.87	6504
555.234	6642.3
555.597	6614.73
555.96	6661.96
556.323	6638.23
556.686	6670.77
557.05	6703.99
557.413	6691.34
557.776	6749.19
558.139	6774.5
558.502	6821.05
558.865	6746.93
559.228	6845.91
559.59	6891.33
559.953	6837.55
560.316	6872.12
560.679	6933.36
561.041	6943.76
561.404	6986.92
561.767	7010.65
562.129	6973.14
562.492	7104.88
562.854	7049.52
563.217	7096.3
563.579	7127.03
563.941	7089.07
564.304	7172.45
564.666	7165.67
565.028	7240.25
565.39	7182.62
565.753	7285.67
566.115	7212.68
566.477	7329.74
566.839	7295.84
567.201	7327.48
567.563	7415.84
567.925	7401.37
568.287	7433.24
568.648	7446.34
569.01	7435.04
569.372	7569.73
569.734	7591.42
570.095	7580.13
570.457	7648.82
570.819	7613.57
571.18	7681.14
571.542	7782.61
571.903	7750.74
572.265	7819.89
572.626	7880.91
572.987	7929.27
573.349	7903.51
573.71	7961.81
574.071	7951.64
574.432	8041.36
574.794	8096.04
575.155	8133.33
575.516	8138.53
575.877	8261.01
576.238	8319.99
576.599	8387.11
576.96	8381.69
577.32	8493.55
577.681	8556.37
578.042	8701.45
578.403	8742.13
578.763	8822.13
579.124	8912.75
579.485	8966.76
579.845	9197.94
580.206	9171.04
580.566	9314.54
580.927	9420.98
581.287	9569.68
581.648	9711.14
582.008	9819.39
582.368	9899.61
582.728	10117.01
583.089	10169.89
583.449	10346.15
583.809	10493.04
584.169	10687.84
584.529	10847.38
584.889	11074.27
585.249	11236.98
585.609	11320.37
585.969	11620.47
586.329	11706.57
586.688	11976.85
587.048	12321.02
587.408	12464.52
587.768	12662.7
588.127	12811.4
588.487	13161.67
588.846	13387.2
589.206	13578.61
589.565	13871.26
589.925	14163.23
590.284	14394.86
590.643	14641.18
591.003	14949.2
591.362	15158.68
591.721	15513.93
592.08	15761.15
592.44	16037.3
592.799	16325.66
593.158	16575.6
593.517	16855.14
593.876	17105.98
594.235	17390.94
594.593	17693.53
594.952	18039.51
595.311	18295.32
595.67	18613.73
596.029	18966.04
596.387	19309.31
596.746	19625.46
597.104	19767.6
597.463	20072.9
597.822	20365.78
598.18	20636.96
598.538	20906.55
598.897	21340.22
599.255	21509.7
599.613	22025.4
599.972	22075.79
600.33	22500.86
600.688	22757.58
601.046	23012.94
601.404	23401.4
601.762	23629.65
602.12	24057.88
602.478	24216.07
602.836	24653.35
603.194	24630.98
603.552	25015.15
603.91	25185.54
604.268	25571.74
604.625	25803.15
604.983	26174.66
605.341	26209.92
605.698	26619.17
606.056	26806.51
606.413	27178.93
606.771	27467.06
607.128	27692.14
607.485	27688.75
607.843	28126.7
608.2	28300.48
608.557	28700.47
608.914	28745.9
609.272	29056.85
609.629	29322.15
609.986	29605.31
610.343	29665.19
610.7	30008.91
611.057	30299.98
611.414	30430.6
611.771	30609.35
612.127	30947.87
612.484	31097.93
612.841	31372.72
613.198	31430.8
613.554	31559.38
613.911	31987.17
614.267	32023.78
614.624	32077.11
614.98	32389.19
615.337	32566.14
615.693	32780.59
616.05	32823.3
616.406	33103.75
616.762	33164.09
617.118	33364.53
617.475	33409.73
617.831	33783.05
618.187	33915.25
618.543	34058.3
618.899	34312.53
619.255	34326.77
619.611	34450.15
619.967	34749.35
620.323	34745.29
620.678	34688.57
621.034	34795.46
621.39	35097.59
621.746	35119.51
622.101	35516.57
622.457	35259.62
622.812	35561.08
623.168	35746.62
623.523	35773.51
623.879	35990
624.234	35790.68
624.589	36012.6
624.945	36183.89
625.3	36241.97
625.655	36372.36
626.01	36366.04
626.365	36578.23
626.72	36552.7
627.075	36700.49
627.43	36705.24
627.785	36642.19
628.14	36665.91
628.495	36903.42
628.85	36840.37
629.205	36795.4
629.559	37084.21
629.914	36984.78
630.269	37087.37
630.623	37093.02
630.978	37005.79
631.332	37138.22
631.687	37376.4
632.041	37265.9
632.396	37308.16
632.75	37130.08
633.104	37314.26
633.459	37266.58
633.813	37235.84
634.167	37309.97
634.521	37194.71
634.875	37314.03
635.229	37406.69
635.583	37086.24
635.937	37258.67
636.291	37290.76
636.645	37295.73
636.999	37357.2
637.352	37407.59
637.706	37272.23
638.06	37296.41
638.413	37396.52
638.767	37321.94
639.121	37495.95
639.474	37091.21
639.828	37315.61
640.181	37335.28
640.534	37309.97
640.888	37344.77
641.241	37176.18
641.594	37282.4
641.947	37358.1
642.301	37274.71
642.654	37227.71
643.007	37443.3
643.36	37323.07
643.713	37291.21
644.066	37412.79
644.419	37172.79
644.771	36977.77
645.124	36709.08
645.477	36665.46
645.83	36488.52
646.182	36206.04
646.535	36142.99
646.888	36178.92
647.24	36052.82
647.593	36288.07
647.945	36197
648.298	36045.82
648.65	36024.8
649.002	35898.48
649.355	36153.39
649.707	36043.78
650.059	36177.79
650.411	36613.03
650.763	36733.94
651.115	36986.36
651.467	37034.49
651.819	36975.28
652.171	36935.51
652.523	36711.34
652.875	36805.12
653.227	36605.58
653.578	36949.52
653.93	36805.12
654.282	36703.88
654.633	36658.23
654.985	36641.06
655.337	36723.31
655.688	36737.32
656.039	36761.51
656.391	36418.46
656.742	36557.67
657.094	36691.22
657.445	36796.53
657.796	36599.93
658.147	36642.41
658.498	36635.18
658.849	36802.86
659.2	36692.35
659.551	36502.3
659.902	36653.03
660.253	36501.85
660.604	36622.3
660.955	36576.43
661.306	36678.12
661.656	36518.57
662.007	36611.45
662.358	36562.64
662.708	36530.78
663.059	36552.47
663.409	36385.24
663.76	36525.13
664.11	36486.26
664.461	36566.71
664.811	36489.87
665.161	36457.33
665.511	36535.97
665.862	36380.72
666.212	36463.89
666.562	36551.12
666.912	36335.3
667.262	36372.59
667.612	36375.98
667.962	36463.21
668.312	36332.14
668.662	36570.32
669.011	36375.3
669.361	36392.25
669.711	36373.72
670.06	36241.29
670.41	36311.12
670.76	36371.91
671.109	36322.65
671.459	36241.29
671.808	36292.36
672.157	36308.18
672.507	36175.08
672.856	36101.86
673.205	36252.82
673.554	36309.99
673.904	36171.24
674.253	36398.58
674.602	36229.09
674.951	35742.1
675.3	35507.3
675.649	36138.92
675.998	36087.17
676.346	36132.6
676.695	36201.52
677.044	35993.39
677.393	36041.3
677.741	36164.01
678.09	36037.91
678.438	35923.34
678.787	35897.12
679.135	35859.38
679.484	35703.68
679.832	35968.08
680.181	35708.88
680.529	35868.87
680.877	35684.47
681.225	35811.47
681.573	35886.5
681.922	35625.72
682.27	35444.25
682.618	35519.5
682.966	35393.63
683.314	35397.02
683.661	35382.56
684.009	35262.79
684.357	35063.02
684.705	35062.57
685.053	35060.08
685.4	35121.1
685.748	34902.57
686.095	34945.73
686.443	34837.49
686.79	34747.77
687.138	34892.85
687.485	34763.14
687.832	34729.24
688.18	34772.86
688.527	34451.51
688.874	34410.15
689.221	34391.17
689.568	34376.71
689.915	34290.61
690.262	34368.12
690.609	34195.7
690.956	34065.98
691.303	34136.26
691.65	33811.98
691.997	33927
692.344	33656.73
692.69	33703.51
693.037	33859.43
693.383	33489.05
693.73	33639.55
694.077	33528.6
694.423	33326.57
694.769	33183.07
695.116	33196.4
695.462	33162.73
695.808	33100.13
696.155	33195.5
696.501	32932.23
696.847	32949.18
697.193	32612.01
697.539	32770.2
697.885	32517.32
698.231	32495.4
698.577	32453.6
698.923	32398.91
699.269	32261.06
699.614	32068.75
699.96	32043.66
700.306	32054.06
700.651	31954.85
700.997	31838.02
701.342	31870.79
701.688	31905.36
702.033	31562.09
702.379	31572.26
702.724	31471.93
703.069	31618.59
703.415	31155.32
703.76	31302.44
704.105	31309.67
704.45	31071.03
704.795	31121.65
705.14	30918.04
705.485	30860.19
705.83	30844.6
706.175	30756.24
706.52	30767.76
706.865	30694.32
707.209	30673.98
707.554	30401.67
707.899	30504.27
708.243	30381.79
708.588	30343.37
708.932	30146.54
709.277	30211.62
709.621	30104.05
709.966	29978.41
710.31	30008.91
710.654	29807.79
710.998	29918.3
711.342	29750.84
711.687	29778.19
712.031	29662.48
712.375	29503.16
712.719	29554.91
713.063	29464.52
713.407	29588.59
713.75	29348.59
714.094	29477.18
714.438	29273.34
714.782	29210.29
715.125	29037.64
715.469	29185.21
715.812	28970.52
716.156	28769.17
716.499	28884.2
716.843	28878.77
717.186	28658.67
717.53	28965.33
717.873	28845.33
718.216	28724.2
718.559	28610.08
718.902	28531.89
719.246	28406.02
719.589	28458.67
719.932	28286.93
720.275	28423.42
720.617	28308.17
720.96	28217.32
721.303	28272.24
721.646	28146.82
721.989	28084.22
722.331	28135.97
722.674	27955.41
723.016	27967.84
723.359	28091
723.701	27986.82
724.044	27820.5
724.386	27758.13
724.729	27789.54
725.071	27714.51
725.413	27764.91
725.755	27680.84
726.097	27529.88
726.439	27472.71
726.782	27452.6
727.124	27616.21
727.465	27318.36
727.807	27381.41
728.149	27230.23
728.491	27274.52
728.833	27327.18
729.175	27230.68
729.516	27200.63
729.858	27128.31
730.199	27184.81
730.541	26955.21
730.882	27029.78
731.224	27082.66
731.565	27009.22
731.906	26867.53
732.248	26844.48
732.589	26693.52
732.93	26777.81
733.271	26779.85
733.612	26736.91
733.953	26669.57
734.294	26516.12
734.635	26616.91
734.976	26553.86
735.317	26417.37
735.658	26402.23
735.999	26411.27
736.339	26300.09
736.68	26394.55
737.021	26317.03
737.361	26147.32
737.702	26279.07
738.042	26264.83
738.383	26111.16
738.723	26169.92
739.063	26112.29
739.404	26162.24
739.744	26144.16
740.084	25922.02
740.424	25920.21
740.764	25859.42
741.104	26034.78
741.444	25879.98
741.784	25828.46
742.124	25885.86
742.464	25744.62
742.804	25702.81
743.143	25802.47
743.483	25748.01
743.823	25541.01
744.162	25512.31
744.502	25495.36
744.841	25508.24
745.181	25528.35
745.52	25371.52
745.86	25439.54
746.199	25435.7
746.538	25297.85
746.877	25369.49
747.216	25315.25
747.556	25291.75
747.895	25213.79
748.234	25044.07
748.573	25164.07
748.911	24988.03
749.25	25087.69
749.589	24870.29
749.928	24909.61
750.267	24907.13
750.605	24809.73
750.944	24809.73
751.283	24692.9
751.621	24848.82
751.96	24685.21
752.298	24579.68
752.636	24699.45
752.975	24515.27
753.313	24408.16
753.651	24414.49
753.989	24373.36
754.327	24286.58
754.666	24167.49
755.004	24220.37
755.342	24241.16
755.679	24189.86
756.017	24009.75
756.355	24129.52
756.693	23983.54
757.031	23938.11
757.368	23846.14
757.706	23751.23
758.044	23710.77
758.381	23760.94
758.719	23638.91
759.056	23667.61
759.394	23561.85
759.731	23388.3
760.068	23373.83
760.405	23324.8
