Data from hue_34_FLMS001491_00040.txt Node
Date: Tue Feb 07 17:25:33 GMT 2017
User: dcchb
Spectrometer: FLMS00149
Trigger mode: 0
Integration Time (sec): 2.000000E-2
Scans to average: 10
Electric dark correction enabled: true
Nonlinearity correction enabled: false
Boxcar width: 0
XAxis mode: Wavelengths
Number of Pixels in Spectrum: 2048
>>>>>Begin Spectral Data<<<<<
341.393	-30.07
341.776	-30.07
342.16	-30.07
342.543	-30.52
342.927	-64.65
343.31	-65.55
343.693	-74.59
344.077	-68.26
344.46	-61.03
344.843	-65.32
345.226	-23.74
345.61	-43.4
345.993	-10.86
346.376	-6.57
346.759	3.38
347.142	11.51
347.525	50.15
347.908	65.75
348.291	78.4
348.674	95.12
349.057	115.01
349.44	130.15
349.823	146.65
350.206	174.67
350.588	202.69
350.971	200.21
351.354	236.82
351.737	253.76
352.119	246.99
352.502	270.26
352.884	273.43
353.267	302.58
353.65	286.76
354.032	302.8
354.414	303.03
354.797	306.87
355.179	346.42
355.562	330.15
355.944	341.9
356.326	329.02
356.709	325.4
357.091	332.41
357.473	329.92
357.855	316.59
358.238	329.92
358.62	355.68
359.002	339.19
359.384	347.32
359.766	350.03
360.148	356.59
360.53	344.61
360.912	338.96
361.294	334.21
361.676	322.69
362.057	347.77
362.439	345.29
362.821	329.02
363.203	326.98
363.584	336.93
363.966	327.66
364.348	325.63
364.729	333.76
365.111	322.92
365.493	332.18
365.874	307.32
366.256	313.42
366.637	331.95
367.019	307.32
367.4	317.27
367.781	319.75
368.163	307.1
368.544	313.88
368.925	304.16
369.306	313.88
369.688	339.64
370.069	303.48
370.45	310.26
370.831	307.55
371.212	304.16
371.593	314.55
371.974	308
372.355	306.42
372.736	326.76
373.117	328.56
373.498	328.79
373.879	337.38
374.26	297.15
374.641	305.51
375.021	325.18
375.402	343.93
375.783	334.21
376.163	345.29
376.544	325.63
376.925	326.08
377.305	328.79
377.686	347.1
378.066	327.21
378.447	347.32
378.827	336.7
379.208	326.3
379.588	341.9
379.968	328.34
380.349	323.14
380.729	336.7
381.109	338.96
381.489	331.05
381.87	321.56
382.25	343.25
382.63	345.06
383.01	369.92
383.39	341.67
383.77	338.73
384.15	349.13
384.53	344.16
384.91	361.33
385.29	352.07
385.67	336.02
386.049	337.38
386.429	350.49
386.809	352.52
387.189	345.74
387.568	361.11
387.948	357.94
388.328	339.19
388.707	353.42
389.087	369.47
389.466	366.3
389.846	359.52
390.225	379.41
390.605	355
390.984	378.73
391.363	381.9
391.743	358.17
392.122	356.13
392.501	379.64
392.881	382.12
393.26	370.15
393.639	360.88
394.018	351.62
394.397	376.02
394.776	381.22
395.155	388.9
395.534	371.28
395.913	383.93
396.292	379.18
396.671	381.22
397.05	363.82
397.429	388.45
397.808	378.73
398.186	384.83
398.565	388.68
398.944	391.39
399.323	398.39
399.701	392.07
400.08	392.29
400.458	384.16
400.837	376.47
401.215	398.62
401.594	409.47
401.972	383.93
402.351	396.59
402.729	376.02
403.107	415.79
403.486	403.82
403.864	403.82
404.242	402.24
404.62	402.91
404.999	422.12
405.377	398.39
405.755	418.28
406.133	424.61
406.511	411.95
406.889	431.84
407.267	407.21
407.645	431.61
408.023	424.61
408.401	443.82
408.779	415.57
409.156	440.88
409.534	423.93
409.912	433.87
410.29	441.33
410.667	449.92
411.045	452.86
411.422	465.28
411.8	451.05
412.178	459.41
412.555	467.77
412.933	450.14
413.31	461.22
413.687	472.52
414.065	454.66
414.442	504.15
414.819	467.32
415.197	473.65
415.574	468.9
415.951	469.8
416.328	485.85
416.705	482.23
417.082	460.31
417.46	479.97
417.837	500.76
418.214	511.38
418.591	486.3
418.967	495.57
419.344	480.88
419.721	502.12
420.098	513.19
420.475	519.07
420.852	527.2
421.228	523.36
421.605	527.88
421.982	520.42
422.358	533.76
422.735	516.58
423.111	533.98
423.488	521.55
423.864	528.79
424.241	551.16
424.617	534.66
424.994	543.02
425.37	536.02
425.746	566.75
426.123	544.15
426.499	551.38
426.875	565.85
427.251	565.17
427.627	560.65
428.003	568.11
428.379	569.91
428.756	581.44
429.132	565.62
429.507	577.82
429.883	595
430.259	592.06
430.635	587.09
431.011	589.35
431.387	608.78
431.763	597.94
432.138	625.96
432.514	616.47
432.89	640.42
433.265	634.77
433.641	622.12
434.016	641.78
434.392	650.59
434.767	672.96
435.143	658.5
435.518	666.41
435.894	675
436.269	644.49
436.644	662.34
437.02	677.93
437.395	661.44
437.77	678.61
438.145	695.11
438.52	686.75
438.895	705.73
439.271	726.52
439.646	706.86
440.021	725.84
440.395	708.67
440.77	738.5
441.145	706.41
441.52	740.98
441.895	729.23
442.27	757.93
442.645	742.11
443.019	747.76
443.394	744.37
443.769	747.54
444.143	747.76
444.518	757.48
444.892	741.21
445.267	769.01
445.641	782.11
446.016	775.11
446.39	769.23
446.764	780.53
447.139	778.72
447.513	803.35
447.887	810.13
448.262	803.81
448.636	769.46
449.01	798.16
449.384	829.34
449.758	813.75
450.132	825.95
450.506	819.85
450.88	830.47
451.254	830.25
451.628	829.79
452.002	849.68
452.376	861.88
452.75	852.39
453.123	871.83
453.497	858.27
453.871	880.19
454.244	917.93
454.618	882
454.992	894.65
455.365	887.19
455.739	949.34
456.112	923.13
456.486	924.48
456.859	917.93
457.232	964.71
457.606	951.15
457.979	966.29
458.352	978.27
458.725	987.98
459.099	975.33
459.472	1013.97
459.845	1021.88
460.218	1006.74
460.591	1022.78
460.964	1041.31
461.337	1070.24
461.71	1087.87
462.083	1115.21
462.456	1078.38
462.829	1100.3
463.201	1119.05
463.574	1136.68
463.947	1132.16
464.32	1152.95
464.692	1148.2
465.065	1164.48
465.438	1212.61
465.81	1212.61
466.183	1209.9
466.555	1226.17
466.928	1227.3
467.3	1250.12
467.672	1278.6
468.045	1314.3
468.417	1305.04
468.789	1328.09
469.161	1336
469.534	1379.61
469.906	1402.89
470.278	1397.24
470.65	1427.29
471.022	1435.65
471.394	1484.47
471.766	1484.69
472.138	1509.32
472.51	1532.6
472.882	1557.69
473.253	1592.49
473.625	1593.62
473.997	1684.69
474.369	1696.89
474.74	1672.26
475.112	1689.66
475.484	1754.06
475.855	1786.15
476.227	1822.99
476.598	1879.48
476.97	1900.73
477.341	1929.43
477.713	2002.19
478.084	1984.79
478.455	2063.43
478.827	2094.17
479.198	2136.2
479.569	2190.21
479.94	2290.55
480.311	2277.44
480.682	2357.21
481.053	2455.74
481.424	2487.15
481.795	2513.82
482.166	2587.49
482.537	2637.66
482.908	2700.48
483.279	2760.14
483.65	2812.79
484.021	2879.01
484.391	2968.5
484.762	2971.89
485.133	3089.4
485.503	3152.22
485.874	3201.94
486.244	3248.71
486.615	3389.5
486.985	3410.74
487.356	3492.32
487.726	3537.29
488.097	3681.02
488.467	3671.53
488.837	3827
489.207	3882.6
489.578	3966.44
489.948	4040.78
490.318	4109.93
490.688	4155.36
491.058	4284.62
491.428	4363.26
491.798	4424.5
492.168	4524.61
492.538	4590.6
492.908	4705.85
493.278	4739.97
493.648	4780.2
494.017	4896.58
494.387	4984.04
494.757	5055.22
495.126	5136.12
495.496	5142
495.866	5246.85
496.235	5359.39
496.605	5346.06
496.974	5447.07
497.344	5540.18
497.713	5561.2
498.082	5661.31
498.452	5698.37
498.821	5749.89
499.19	5787.63
499.559	5877.12
499.928	5932.71
500.298	5997.12
500.667	6072.59
501.036	6064.69
501.405	6195.76
501.774	6222.42
502.143	6287.73
502.512	6332.47
502.88	6410.89
503.249	6452.25
503.618	6493.6
503.987	6511.45
504.356	6596.87
504.724	6716.87
505.093	6700.37
505.462	6708.96
505.83	6763.2
506.199	6850.88
506.567	6949.41
506.936	6968.62
507.304	7067.6
507.672	7121.83
508.041	7090.19
508.409	7182.4
508.777	7286.8
509.145	7282.51
509.514	7319.34
509.882	7379.9
510.25	7341.94
510.618	7482.05
510.986	7450.19
511.354	7569.05
511.722	7669.61
512.09	7679.11
512.458	7721.82
512.826	7710.97
513.193	7799.55
513.561	7872.32
513.929	7929.04
514.297	7936.95
514.664	7970.85
515.032	8060.56
515.4	8082.71
515.767	8141.92
516.135	8208.58
516.502	8176.95
516.869	8261.01
517.237	8384.62
517.604	8283.16
517.972	8343.72
518.339	8423.49
518.706	8444.06
519.073	8514.34
519.44	8484.96
519.808	8587.33
520.175	8609.25
520.542	8664.16
520.909	8668.91
521.276	8701.9
521.643	8769.47
522.009	8832.97
522.376	8941.67
522.743	8905.51
523.11	9035.23
523.477	9100.99
523.843	9198.16
524.21	9215.34
524.577	9218.95
524.943	9331.04
525.31	9351.83
525.676	9446.07
526.043	9469.12
526.409	9461.43
526.776	9567.64
527.142	9624.82
527.508	9658.94
527.874	9799.05
528.241	9768.32
528.607	9842.66
528.973	9856.68
529.339	9959.5
529.705	10047.63
530.071	10070.68
530.437	10107.06
530.803	10123.11
531.169	10164.92
531.535	10191.13
531.901	10195.65
532.267	10244.91
532.632	10361.75
532.998	10354.97
533.364	10491.91
533.73	10526.49
534.095	10524.23
534.461	10587.05
534.826	10690.33
535.192	10640.38
535.557	10816.42
535.923	10748.18
536.288	10786.37
536.653	10892.58
537.019	10838.34
537.384	10921.28
537.749	10921.96
538.114	11007.83
538.479	10981.62
538.845	11090.77
539.21	11140.71
539.575	11189.3
539.94	11180.03
540.305	11361.95
540.67	11322.4
541.034	11359.91
541.399	11366.24
541.764	11412.34
542.129	11464.32
542.494	11493.24
542.858	11556.07
543.223	11515.16
543.587	11609.85
543.952	11679.68
544.316	11721.71
544.681	11789.73
545.045	11862.95
545.41	11887.81
545.774	11940.46
546.138	11960.35
546.503	11944.3
546.867	12064.53
547.231	12099.1
547.595	12194.69
547.959	12163.96
548.324	12183.85
548.688	12182.94
549.052	12265.88
549.416	12311.75
549.779	12407.34
550.143	12397.4
550.507	12422.26
550.871	12518.98
551.235	12592.42
551.599	12666.77
551.962	12660.22
552.326	12637.85
552.689	12754.9
553.053	12757.39
553.417	12768.69
553.78	12987.44
554.143	12879.87
554.507	12979.98
554.87	12947.67
555.234	13087.55
555.597	12963.26
555.96	13061.79
556.323	13113.99
556.686	13108.34
557.05	13238.73
557.413	13290.03
557.776	13316.92
558.139	13331.61
558.502	13361.67
558.865	13416.13
559.228	13489.12
559.59	13614.54
559.953	13505.85
560.316	13697.48
560.679	13700.87
561.041	13694.54
561.404	13846.18
561.767	13910.81
562.129	13865.38
562.492	13979.05
562.854	13967.98
563.217	13944.25
563.579	14124.81
563.941	14121.87
564.304	14164.36
564.666	14242.32
565.028	14296.79
565.39	14349.67
565.753	14419.72
566.115	14484.8
566.477	14428.31
566.839	14591.47
567.201	14629.88
567.563	14614.97
567.925	14720.73
568.287	14711.01
568.648	14699.71
569.01	14891.57
569.372	14886.83
569.734	14922.76
570.095	15054.05
570.457	15044.11
570.819	15134.28
571.18	15198.91
571.542	15236.42
571.903	15321.39
572.265	15387.15
572.626	15439.13
572.987	15562.51
573.349	15500.6
573.71	15697.88
574.071	15819.68
574.432	15808.38
574.794	15998.21
575.155	16099.9
575.516	16003.63
575.877	16149.17
576.238	16333.34
576.599	16473
576.96	16465.99
577.32	16555.93
577.681	16667.8
578.042	16760
578.403	16901.69
578.763	17010.61
579.124	17185.3
579.485	17376.03
579.845	17490.6
580.206	17642.23
580.566	17720.42
580.927	17951.83
581.287	18022.56
581.648	18163.35
582.008	18429.33
582.368	18573.51
582.728	18750
583.089	18768.76
583.449	19099.6
583.809	19169.65
584.169	19483.99
584.529	19588.4
584.889	19939.35
585.249	20039.91
585.609	20261.15
585.969	20600.35
586.329	20726.22
586.688	20988.59
587.048	21241.01
587.408	21416.6
587.768	21529.82
588.127	21720.54
588.487	22031.5
588.846	22401.43
589.206	22510.35
589.565	22813.85
589.925	23050.45
590.284	23275.31
590.643	23512.59
591.003	23773.37
591.362	24167.49
591.721	24442.96
592.08	24663.07
592.44	24917.52
592.799	25151.41
593.158	25293.78
593.517	25575.13
593.876	25895.12
594.235	26106.64
594.593	26365.62
594.952	26672.05
595.311	26858.26
595.67	27158.37
596.029	27504.8
596.387	27767.62
596.746	28068.63
597.104	28143.2
597.463	28333.7
597.822	28893.69
598.18	28879
598.538	29214.58
598.897	29464.75
599.255	29671.07
599.613	30140.44
599.972	30148.57
600.33	30513.76
600.688	30615.9
601.046	30929.12
601.404	31277.36
601.762	31286.62
602.12	31694.75
602.478	31775.42
602.836	32239.14
603.194	32166.37
603.552	32548.73
603.91	32552.12
604.268	32899.46
604.625	32955.5
604.983	33294.25
605.341	33333.12
605.698	33721.81
606.056	33892.43
606.413	34067.79
606.771	34335.13
607.128	34528.12
607.485	34443.6
607.843	34746.19
608.2	35088.55
608.557	35296.23
608.914	35250.13
609.272	35616
609.629	35819.61
609.986	36023.9
610.343	36026.16
610.7	36336.88
611.057	36410.1
611.414	36611.9
611.771	36605.35
612.127	36994.27
612.484	37060.71
612.841	37354.03
613.198	37230.87
613.554	37387.25
613.911	37689.62
614.267	37773.23
614.624	37854.36
614.98	37973.9
615.337	38350.84
615.693	38361.24
616.05	38397.62
616.406	38764.39
616.762	38718.06
617.118	38771.4
617.475	38757.84
617.831	39110.82
618.187	39093.87
618.543	39377.71
618.899	39440.08
619.255	39471.49
619.611	39613.86
619.967	39911.48
620.323	39938.37
620.678	39837.81
621.034	39855.89
621.39	39982.44
621.746	40041.64
622.101	40537.68
622.457	40164.13
622.812	40248.42
623.168	40444.57
623.523	40511.24
623.879	40599.37
624.234	40466.72
624.589	40535.19
624.945	40880.72
625.3	40751.68
625.655	40874.39
626.01	41016.08
626.365	40970.89
626.72	40890.44
627.075	41021.05
627.43	41025.12
627.785	40948.51
628.14	41124.78
628.495	41247.04
628.85	41174.95
629.205	41063.54
629.559	41377.88
629.914	41303.08
630.269	41312.8
630.623	41290.43
630.978	41212.46
631.332	41337.2
631.687	41592.79
632.041	41260.82
632.396	41613.35
632.75	41364.55
633.104	41360.93
633.459	41246.13
633.813	41335.17
634.167	41434.83
634.521	41448.16
634.875	41453.81
635.229	41402.74
635.583	41246.58
635.937	41279.58
636.291	41368.39
636.645	41220.14
636.999	41228.51
637.352	41466.69
637.706	41273.25
638.06	41256.98
638.413	41094.27
638.767	41087.49
639.121	41278.9
639.474	40988.74
639.828	41137.89
640.181	41122.07
640.534	41235.06
640.888	41060.83
641.241	40865.58
641.594	41187.6
641.947	41103.76
642.301	41002.3
642.654	41032.35
643.007	41050.21
643.36	40993.71
643.713	40882.3
644.066	41288.84
644.419	40802.75
644.771	40731.12
645.124	40386.95
645.477	40382.43
645.83	40175.2
646.182	39838.94
646.535	39775.66
646.888	39919.61
647.24	39722.11
647.593	39861.76
647.945	39909.9
648.298	39699.73
648.65	39572.96
649.002	39478.5
649.355	39595.78
649.707	39772.5
650.059	39967.07
650.411	40325.03
650.763	40199.83
651.115	40605.02
651.467	40595.08
651.819	40570.22
652.171	40549.65
652.523	40415.42
652.875	40415.87
653.227	40212.71
653.578	40620.39
653.93	40370.22
654.282	40251.36
654.633	40184.92
654.985	40193.05
655.337	40332.26
655.688	40395.99
656.039	40354.86
656.391	40160.74
656.742	40157.35
657.094	40155.31
657.445	40369.77
657.796	40278.7
658.147	40176.78
658.498	40237.8
658.849	40258.59
659.2	40134.75
659.551	40005.49
659.902	40182.66
660.253	40062.44
660.604	40159.61
660.955	39950.8
661.306	40254.97
661.656	40083.9
662.007	40082.77
662.358	40046.62
662.708	40268.76
663.059	40045.94
663.409	39784.25
663.76	40098.37
664.11	40035.32
664.461	40073.96
664.811	40063.79
665.161	40099.95
665.511	39938.6
665.862	39834.19
666.212	39948.77
666.562	40198.02
666.912	39938.37
667.262	39896.34
667.612	39895.89
667.962	40033.28
668.312	39901.76
668.662	40115.54
669.011	39988.09
669.361	39872.61
669.711	39865.6
670.06	39836.23
670.41	39836.23
670.76	39706.29
671.109	40030.35
671.459	39838.94
671.808	39694.54
672.157	39932.04
672.507	39398.05
672.856	39601.2
673.205	39781.31
673.554	39789.22
673.904	39704.48
674.253	39714.2
674.602	39602.79
674.951	39189.46
675.3	38908.12
675.649	39611.6
675.998	39539.29
676.346	39640.98
676.695	39718.26
677.044	39430.14
677.393	39540.19
677.741	39454.77
678.09	39489.34
678.438	39550.36
678.787	39442.34
679.135	39416.35
679.484	39213.42
679.832	39258.39
680.181	39087.09
680.529	39256.13
680.877	39046.87
681.225	38975.01
681.573	39284.6
681.922	38942.01
682.27	38947.44
682.618	38964.16
682.966	38887.32
683.314	38933.88
683.661	38719.42
684.009	38679.42
684.357	38563.94
684.705	38479.65
685.053	38558.97
685.4	38502.93
685.748	38222.26
686.095	38291.18
686.443	38250.96
686.79	38173.22
687.138	38327.79
687.485	38249.38
687.832	38193.56
688.18	38116.27
688.527	37914.02
688.874	38013
689.221	37884.19
689.568	37693.01
689.915	37482.84
690.262	37712.44
690.609	37509.96
690.956	37321.04
691.303	37415.73
691.65	37206.69
691.997	37241.27
692.344	36925.79
692.69	37046.92
693.037	37149.29
693.383	36659.13
693.73	36839.47
694.077	36552.92
694.423	36657.33
694.769	36611
695.116	36524
695.462	36510.66
695.808	36135.53
696.155	36330.33
696.501	36028.19
696.847	35980.73
697.193	35828.65
697.539	35937.57
697.885	35818.25
698.231	35594.98
698.577	35510.01
698.923	35479.96
699.269	35326.06
699.614	35191.15
699.96	35192.73
700.306	35291.94
700.651	35028.44
700.997	34929.24
701.342	34945.96
701.688	34814.66
702.033	34680.66
702.379	34636.14
702.724	34578.51
703.069	34636.14
703.415	34325.41
703.76	34279.99
704.105	34222.59
704.45	34228.01
704.795	34030.28
705.14	33950.96
705.485	33988.02
705.83	33830.06
706.175	33825.99
706.52	33751.19
706.865	33684.98
707.209	33578.09
707.554	33490.86
707.899	33515.71
708.243	33309.39
708.588	33228.49
708.932	33122.96
709.277	33076.18
709.621	33119.57
709.966	32831.44
710.31	32899.23
710.654	32593.71
710.998	32728.39
711.342	32676.87
711.687	32573.14
712.031	32422.86
712.375	32330.21
712.719	32395.52
713.063	32340.38
713.407	32457.89
713.75	32313.49
714.094	32364.78
714.438	32052.93
714.782	32053.15
715.125	32033.04
715.469	32033.27
715.812	31803.67
716.156	31748.98
716.499	31719.38
716.843	31718.93
717.186	31601.41
717.53	31673.73
717.873	31794.63
718.216	31400.52
718.559	31454.53
718.902	31196.45
719.246	31322.33
719.589	31305.83
719.932	31091.15
720.275	31104.7
720.617	31042.56
720.96	31067.87
721.303	31055.21
721.646	30874.2
721.989	30746.75
722.331	30975.89
722.674	30816.8
723.016	30885.73
723.359	30667.2
723.701	30765.5
724.044	30433.76
724.386	30418.4
724.729	30561.22
725.071	30303.37
725.413	30438.28
725.755	30389.47
726.097	30239.64
726.439	30045.98
726.782	30102.7
727.124	30350.83
727.465	30116.26
727.807	30079.87
728.149	30035.58
728.491	29923.49
728.833	30074.9
729.175	29884.62
729.516	29771.18
729.858	29761.69
730.199	29881.69
730.541	29724.18
730.882	29795.36
731.224	29733.67
731.565	29535.48
731.906	29516.72
732.248	29560.79
732.589	29331.87
732.93	29378.2
733.271	29357.41
733.612	29286.45
733.953	29419.78
734.294	29125.32
734.635	29175.26
734.976	29190.86
735.317	29137.98
735.658	28965.78
735.999	28973.91
736.339	29024.76
736.68	29000.81
737.021	29060.46
737.361	28766.69
737.702	29000.58
738.042	28872.9
738.383	28705.9
738.723	28860.47
739.063	28689.18
739.404	28674.71
739.744	28602.85
740.084	28400.37
740.424	28521.5
740.764	28535.73
741.104	28642.17
741.444	28490.99
741.784	28399.01
742.124	28289.41
742.464	28449.63
742.804	28240.15
743.143	28232.24
743.483	28246.93
743.823	28123.31
744.162	28091.22
744.502	28239.02
744.841	28026.37
745.181	28129.19
745.52	27982.98
745.86	28049.64
746.199	27884.45
746.538	28011.23
746.877	28037.21
747.216	27972.13
747.556	27785.02
747.895	27768.75
748.234	27621.63
748.573	27672.93
748.911	27618.47
749.25	27488.3
749.589	27418.25
749.928	27468.87
750.267	27424.58
750.605	27363.11
750.944	27350
751.283	27241.98
751.621	27189.33
751.96	27134.87
752.298	27076.11
752.636	27169.89
752.975	27026.39
753.313	27000.63
753.651	27022.33
753.989	26912.05
754.327	26984.81
754.666	26678.61
755.004	26698.27
755.342	26689.45
755.679	26787.3
756.017	26619.4
756.355	26566.74
756.693	26461.21
757.031	26510.25
757.368	26347.77
757.706	26307.99
758.044	26222.57
758.381	26308.45
