Data from hue_50_FLMS001491_47.txt Node
Date: Mon Feb 06 15:10:12 GMT 2017
User: dcchb
Spectrometer: FLMS00149
Trigger mode: 0
Integration Time (sec): 2.000000E-2
Scans to average: 10
Electric dark correction enabled: true
Nonlinearity correction enabled: false
Boxcar width: 0
XAxis mode: Wavelengths
Number of Pixels in Spectrum: 2048
>>>>>Begin Spectral Data<<<<<
341.393	-5.58
341.776	-5.58
342.16	-5.58
342.543	-85.8
342.927	-67.27
343.31	-56.88
343.693	-76.54
344.077	-71.34
344.46	-61.17
344.843	-60.04
345.226	-39.25
345.61	-38.57
345.993	10.24
346.376	-23.66
346.759	-6.26
347.142	26.28
347.525	47.75
347.908	63.35
348.291	68.09
348.674	92.72
349.057	125.27
349.44	138.6
349.823	159.61
350.206	146.28
350.588	209.78
350.971	206.39
351.354	213.85
351.737	227.86
352.119	254.3
352.502	236.45
352.884	271.02
353.267	263.34
353.65	289.78
354.032	297.01
354.414	310.34
354.797	311.7
355.179	324.81
355.562	325.26
355.944	332.72
356.326	340.4
356.709	326.16
357.091	334.3
357.473	340.4
357.855	349.89
358.238	322.77
358.62	352.38
359.002	328.88
359.384	340.17
359.766	337.01
360.148	347.63
360.53	343.11
360.912	327.29
361.294	331.14
361.676	342.21
362.057	348.08
362.439	323
362.821	331.36
363.203	318.93
363.584	338.37
363.966	316.9
364.348	304.47
364.729	334.75
365.111	321.87
365.493	329.33
365.874	339.95
366.256	312.6
366.637	310.8
367.019	299.5
367.4	316.22
367.781	327.52
368.163	322.32
368.544	304.92
368.925	298.59
369.306	327.52
369.688	323
370.069	316.45
370.45	310.57
370.831	327.75
371.212	299.72
371.593	306.73
371.974	299.72
372.355	314.19
372.736	327.75
373.117	299.27
373.498	320.06
373.879	323.23
374.26	299.05
374.641	302.66
375.021	334.53
375.402	332.49
375.783	306.5
376.163	317.8
376.544	310.34
376.925	324.58
377.305	327.29
377.686	324.81
378.066	309.22
378.447	319.38
378.827	332.49
379.208	315.77
379.588	354.41
379.968	304.02
380.349	350.34
380.729	344.47
381.109	329.33
381.489	330.46
381.87	323.68
382.25	350.8
382.63	328.42
383.01	326.62
383.39	339.95
383.77	340.4
384.15	337.01
384.53	339.5
384.91	341.76
385.29	343.11
385.67	344.47
386.049	342.21
386.429	369.78
386.809	349.67
387.189	340.4
387.568	357.35
387.948	340.17
388.328	345.82
388.707	351.93
389.087	351.25
389.466	367.97
389.846	353.06
390.225	375.2
390.605	363.68
390.984	362.77
391.363	359.16
391.743	356.67
392.122	353.73
392.501	365.71
392.881	343.56
393.26	390.12
393.639	368.2
394.018	386.5
394.397	368.87
394.776	367.07
395.155	359.61
395.534	380.63
395.913	365.48
396.292	375.2
396.671	373.85
397.05	372.49
397.429	373.17
397.808	366.16
398.186	373.17
398.565	372.94
398.944	378.14
399.323	388.53
399.701	366.39
400.08	396.67
400.458	369.33
400.837	384.92
401.215	397.8
401.594	379.5
401.972	380.85
402.351	393.73
402.729	378.37
403.107	401.19
403.486	399.83
403.864	391.02
404.242	399.83
404.62	383.11
404.999	377.01
405.377	408.42
405.755	408.42
406.133	412.26
406.511	415.65
406.889	413.39
407.267	412.04
407.645	406.84
408.023	398.48
408.401	404.13
408.779	420.17
409.156	407.29
409.534	431.92
409.912	430.12
410.29	426.73
410.667	433.51
411.045	426.95
411.422	439.83
411.8	436.44
412.178	443.45
412.555	428.53
412.933	435.77
413.31	447.06
413.687	437.12
414.065	451.58
414.442	434.41
414.819	455.65
415.197	469.66
415.574	460.4
415.951	452.71
416.328	453.39
416.705	451.36
417.082	477.57
417.46	458.59
417.837	477.12
418.214	490
418.591	465.14
418.967	463.56
419.344	485.03
419.721	480.06
420.098	490.23
420.475	495.65
420.852	496.78
421.228	494.75
421.605	486.84
421.982	492.71
422.358	512.15
422.735	493.16
423.111	479.15
423.488	506.72
423.864	504.69
424.241	501.07
424.617	517.57
424.994	506.27
425.37	508.98
425.746	515.09
426.123	525.25
426.499	528.19
426.875	520.96
427.251	522.54
427.627	546.04
428.003	557.8
428.379	545.14
428.756	554.86
429.132	562.32
429.507	576.33
429.883	576.55
430.259	560.06
430.635	587.4
431.011	588.98
431.387	577.23
431.763	570.45
432.138	604.57
432.514	586.95
432.89	573.61
433.265	600.51
433.641	603.22
434.016	604.57
434.392	596.21
434.767	625.36
435.143	602.09
435.518	622.88
435.894	646.16
436.269	632.14
436.644	656.78
437.02	652.48
437.395	646.83
437.77	654.52
438.145	665.82
438.52	626.95
438.895	627.62
439.271	655.65
439.646	670.34
440.021	704.91
440.395	676.44
440.77	672.37
441.145	678.47
441.52	716.89
441.895	692.48
442.27	685.93
442.645	714.4
443.019	699.26
443.394	686.83
443.769	691.13
444.143	699.26
444.518	714.4
444.892	725.02
445.267	721.86
445.641	723.89
446.016	729.09
446.39	720.73
446.764	725.02
447.139	721.63
447.513	736.55
447.887	711.46
448.262	758.92
448.636	744.91
449.01	730.67
449.384	766.83
449.758	773.61
450.132	758.69
450.506	781.29
450.88	765.47
451.254	797.79
451.628	760.73
452.002	792.59
452.376	795.53
452.75	785.59
453.123	822.2
453.497	831.69
453.871	838.92
454.244	820.39
454.618	820.16
454.992	855.87
455.365	849.54
455.739	851.57
456.112	877.79
456.486	851.8
456.859	879.37
457.232	882.99
457.606	894.28
457.979	898.35
458.352	931.57
458.725	922.08
459.099	926.6
459.472	958.01
459.845	977.9
460.218	957.79
460.591	965.92
460.964	949.65
461.337	1004.56
461.71	1011.12
462.083	1031
462.456	1036.43
462.829	1002.3
463.201	1044.34
463.574	1052.02
463.947	1076.43
464.32	1062.87
464.692	1102.87
465.065	1111.23
465.438	1109.42
465.81	1140.83
466.183	1160.72
466.555	1159.14
466.928	1192.13
467.3	1173.6
467.672	1202.07
468.045	1240.49
468.417	1235.29
468.789	1279.36
469.161	1262.64
469.534	1309.19
469.906	1343.76
470.278	1369.98
470.65	1357.1
471.022	1389.19
471.394	1423.54
471.766	1442.97
472.138	1443.65
472.51	1515.96
472.882	1525.68
473.253	1582.85
473.625	1596.41
473.997	1646.58
474.369	1650.42
474.74	1663.3
475.112	1733.58
475.484	1745.34
475.855	1795.28
476.227	1822.85
476.598	1913.01
476.97	1907.37
477.341	1983.75
477.713	2030.53
478.084	2068.94
478.455	2153.91
478.827	2205.21
479.198	2287.24
479.569	2316.17
479.94	2409.95
480.311	2426.9
480.682	2531.76
481.053	2577.18
481.424	2659.89
481.795	2734.46
482.166	2848.13
482.537	2911.41
482.908	2942.37
483.279	3038.86
483.65	3139.42
484.021	3218.07
484.391	3318.63
484.762	3352.75
485.133	3485.18
485.503	3572.86
485.874	3722.46
486.244	3733.53
486.615	3928.33
486.985	4012.85
487.356	4097.14
487.726	4165.38
488.097	4334.87
488.467	4426.62
488.837	4611.02
489.207	4679.72
489.578	4774.41
489.948	4867.97
490.318	5049.66
490.688	5136.43
491.058	5252.36
491.428	5428.63
491.798	5523.32
492.168	5681.28
492.538	5773.03
492.908	5900.93
493.278	6023.42
493.648	6088.27
494.017	6234.93
494.387	6366.23
494.757	6566.9
495.126	6684.41
495.496	6752.21
495.866	6876.5
496.235	7000.79
496.605	7127.11
496.974	7290.73
497.344	7359.88
497.713	7493.43
498.082	7650.72
498.452	7744.27
498.821	7851.62
499.19	7982.91
499.559	8071.95
499.928	8259.74
500.298	8353.75
500.667	8464.93
501.036	8524.82
501.405	8699.5
501.774	8746.28
502.143	8858.14
502.512	8985.37
502.88	9108.98
503.249	9172.48
503.618	9309.66
503.987	9414.51
504.356	9532.48
504.724	9584.23
505.093	9685.01
505.462	9809.76
505.83	9903.77
506.199	10035.74
506.567	10210.65
506.936	10215.62
507.304	10381.72
507.672	10507.36
508.041	10620.36
508.409	10679.79
508.777	10772.89
509.145	10930.63
509.514	10938.09
509.882	11138.53
510.25	11183.28
510.618	11336.04
510.986	11419.66
511.354	11507.34
511.722	11690.84
512.09	11786.88
512.458	11739.65
512.826	11903.26
513.193	12100.77
513.561	12027.1
513.929	12170.6
514.297	12239.3
514.664	12406.07
515.032	12439.97
515.4	12700.53
515.767	12679.29
516.135	12840.18
516.502	12737.14
516.869	12991.59
517.237	13049.9
517.604	13007.41
517.972	13199.27
518.339	13358.36
518.706	13401.98
519.073	13483.11
519.44	13690.11
519.808	13708.18
520.175	13709.31
520.542	13932.36
520.909	13982.53
521.276	14108.4
521.643	14269.53
522.009	14351.11
522.376	14479.46
522.743	14535.06
523.11	14661.83
523.477	14820.25
523.843	14818.89
524.21	15077.87
524.577	15195.6
524.943	15207.35
525.31	15333.9
525.676	15506.56
526.043	15579.1
526.409	15587.23
526.776	15709.49
527.142	15808.47
527.508	15906.09
527.874	16076.71
528.241	16153.54
528.607	16281.22
528.973	16452.07
529.339	16331.84
529.705	16536.13
530.071	16704.49
530.437	16791.04
530.803	16913.3
531.169	17031.26
531.535	16974.09
531.901	17001.66
532.267	17196.23
532.632	17304.25
532.998	17408.2
533.364	17432.61
533.73	17496.56
534.095	17681.64
534.461	17724.12
534.826	17771.81
535.192	17929.77
535.557	17988.98
535.923	17933.84
536.288	18044.57
536.653	18195.3
537.019	18180.61
537.384	18242.08
537.749	18400.04
538.114	18374.05
538.479	18557.77
538.845	18563.88
539.21	18513.93
539.575	18724.55
539.94	18664.21
540.305	18896.75
540.67	18849.52
541.034	18854.04
541.399	18959.12
541.764	19167.25
542.129	19098.78
542.494	19178.78
542.858	19281.82
543.223	19285.89
543.587	19414.7
543.952	19388.26
544.316	19466.68
544.681	19532.89
545.045	19567.01
545.41	19814.69
545.774	19821.92
546.138	19728.82
546.503	19853.33
546.867	19897.17
547.231	20228.01
547.595	20063.72
547.959	20203.83
548.324	20196.15
548.688	20176.04
549.052	20394.56
549.416	20410.83
549.779	20511.17
550.143	20578.74
550.507	20666.19
550.871	20753.2
551.235	20705.06
551.599	20912.52
551.962	20882.01
552.326	20937.37
552.689	21129.23
553.053	21126.97
553.417	21147.99
553.78	21405.38
554.143	21237.93
554.507	21349.79
554.87	21578.94
555.234	21722.66
555.597	21633.63
555.96	21763.34
556.323	21863.22
556.686	21816.22
557.05	21993.62
557.413	22013.05
557.776	22153.84
558.139	22280.39
558.502	22410.33
558.865	22385.24
559.228	22571.45
559.59	22627.27
559.953	22627.27
560.316	22860.94
560.679	22894.16
561.041	22929.19
561.404	23166.47
561.767	23262.74
562.129	23182.96
562.492	23376.41
562.854	23309.74
563.217	23432.9
563.579	23539.79
563.941	23691.65
564.304	23864.3
564.666	23854.36
565.028	23977.97
565.39	24008.7
565.753	24186.1
566.115	24214.8
566.477	24290.96
566.839	24363.27
567.201	24542.25
567.563	24555.81
567.925	24799.64
568.287	24772.53
568.648	24823.15
569.01	24988.34
569.372	25107.21
569.734	25122.8
570.095	25331.16
570.457	25332.51
570.819	25313.76
571.18	25443.47
571.542	25558.95
571.903	25648.66
572.265	25937.24
572.626	25914.42
572.987	25963.46
573.349	26057.46
573.71	26243
574.071	26243.9
574.432	26388.76
574.794	26485.7
575.155	26609.77
575.516	26532.71
575.877	26721.4
576.238	26730.89
576.599	26934.28
576.96	26996.65
577.32	27046.82
577.681	27178.11
578.042	27303.99
578.403	27282.74
578.763	27421.5
579.124	27530.87
579.485	27695.16
579.845	27863.29
580.206	27753.69
580.566	27887.47
580.927	28019.9
581.287	28107.81
581.648	28069.84
582.008	28389.15
582.368	28283.17
582.728	28437.74
583.089	28456.5
583.449	28568.58
583.809	28569.04
584.169	28727.9
584.529	28677.06
584.889	29014.9
585.249	28868.92
585.609	29029.14
585.969	29344.38
586.329	29220.09
586.688	29350.49
587.048	29451.5
587.408	29425.06
587.768	29496.92
588.127	29672.06
588.487	29719.29
588.846	30040.18
589.206	29774.43
589.565	29875.22
589.925	30327.86
590.284	30245.15
590.643	30323.34
591.003	30536.67
591.362	30649.43
591.721	30691.47
592.08	30809.88
592.44	30947.51
592.799	30937.34
593.158	31000.84
593.517	31128.74
593.876	31255.75
594.235	31192.47
594.593	31319.47
594.952	31449.19
595.311	31342.3
595.67	31543.2
596.029	31680.14
596.387	31925.56
596.746	31973.47
597.104	31933.47
597.463	32007.36
597.822	32206
598.18	32169.39
598.538	32177.98
598.897	32481.48
599.255	32224.99
599.613	32851.41
599.972	32503.4
600.33	32756.95
600.688	32669.95
601.046	33035.81
601.404	33043.72
601.762	32922.82
602.12	33168.92
602.478	33278.74
602.836	33296.37
603.194	33261.34
603.552	33422.92
603.91	33383.15
604.268	33661.78
604.625	33570.71
604.983	33786.98
605.341	33593.31
605.698	33970.02
606.056	33883.02
606.413	33838.95
606.771	34115.11
607.128	34201.66
607.485	34102.22
607.843	34045.96
608.2	34389.22
608.557	34547.64
608.914	34433.06
609.272	34630.8
609.629	34716.22
609.986	34668.76
610.343	34742.66
610.7	35065.59
611.057	34937.68
611.414	35049.54
611.771	35087.06
612.127	35132.71
612.484	35322.08
612.841	35426.26
613.198	35252.25
613.554	35353.49
613.911	35604.33
614.267	35580.38
614.624	35614.5
614.98	35590.55
615.337	35956.41
615.693	35889.3
616.05	35821.5
616.406	35954.61
616.762	35916.64
617.118	36090.65
617.475	35998.67
617.831	36183.3
618.187	36153.02
618.543	36251.32
618.899	36506.68
619.255	36447.02
619.611	36472.56
619.967	36561.14
620.323	36680.24
620.678	36619.9
621.034	36528.15
621.39	36636.62
621.746	36564.53
622.101	37035.03
622.457	36611.31
622.812	36832.32
623.168	36937.4
623.523	36902.6
623.879	37156.61
624.234	36857.86
624.589	37135.14
624.945	37020.34
625.3	37107.57
625.655	37141.24
626.01	37086.55
626.365	37191.86
626.72	37140.56
627.075	37183.95
627.43	37132.43
627.785	37205.65
628.14	37157.06
628.495	37243.39
628.85	37250.16
629.205	37155.03
629.559	37333.55
629.914	37113.9
630.269	37231.63
630.623	37088.13
630.978	37036.38
631.332	37201.13
631.687	37249.49
632.041	37200.45
632.396	37204.29
632.75	37113.45
633.104	37122.94
633.459	37083.62
633.813	37093.56
634.167	37108.93
634.521	36963.39
634.875	37097.17
635.229	37056.5
635.583	37011.53
635.937	37124.74
636.291	36963.39
636.645	36869.84
636.999	36795.71
637.352	36934.47
637.706	36745.09
638.06	36922.72
638.413	36985.31
638.767	36750.06
639.121	36852.21
639.474	36666.68
639.828	36759.33
640.181	36691.99
640.534	36697.86
640.888	36673.68
641.241	36570.41
641.594	36667.58
641.947	36644.53
642.301	36542.39
642.654	36668.48
643.007	36510.75
643.36	36478.43
643.713	36624.64
644.066	36652.21
644.419	36499.22
644.771	36153.7
645.124	35929.52
645.477	35749.19
645.83	35654.73
646.182	35381.97
646.535	35385.35
646.888	35586.93
647.24	35346.94
647.593	35500.83
647.945	35437.1
648.298	35237.56
648.65	35226.04
649.002	35067.62
649.355	35215.42
649.707	35239.6
650.059	35320.27
650.411	35712.58
650.763	35767.72
651.115	35969.97
651.467	35909.63
651.819	35958.9
652.171	35961.16
652.523	35891.1
652.875	35861.27
653.227	35707.83
653.578	36048.84
653.93	35830.77
654.282	35689.08
654.633	35652.01
654.985	35765.68
655.337	35820.82
655.688	35797.32
656.039	35921.84
656.391	35627.61
656.742	35641.39
657.094	35620.83
657.445	35866.7
657.796	35712.13
658.147	35449.99
658.498	35646.36
658.849	35695.18
659.2	35542.64
659.551	35472.13
659.902	35581.73
660.253	35636.65
660.604	35582.86
660.955	35446.6
661.306	35515.07
661.656	35487.73
662.007	35358.91
662.358	35303.1
662.708	35415.64
663.059	35484.11
663.409	35174.06
663.76	35453.83
664.11	35336.77
664.461	35454.05
664.811	35365.92
665.161	35392.59
665.511	35297.45
665.862	35444.11
666.212	35555.07
666.562	35386.94
666.912	35329.31
667.262	35415.86
667.612	35503.32
667.962	35413.38
668.312	35393.94
668.662	35499.7
669.011	35320.27
669.361	35275.75
669.711	35228.97
670.06	35252.48
670.41	35081.86
670.76	35110.56
671.109	35162.76
671.459	35128.41
671.808	35269.2
672.157	35239.6
672.507	35054.74
672.856	35078.7
673.205	35033.95
673.554	35177.45
673.904	35061.52
674.253	35348.29
674.602	35109.2
674.951	34574.53
675.3	34430.58
675.649	34901.75
675.998	34926.84
676.346	34925.25
676.695	35064.01
677.044	34781.75
677.393	34904.01
677.741	34836.67
678.09	34812.26
678.438	34704.24
678.787	34809.32
679.135	34711.02
679.484	34604.36
679.832	34626.5
680.181	34481.42
680.529	34600.52
680.877	34623.79
681.225	34500.63
681.573	34666.73
681.922	34364.14
682.27	34418.6
682.618	34319.39
682.966	34299.51
683.314	34345.38
683.661	34186.97
684.009	34035.11
684.357	33989.69
684.705	34024.49
685.053	34124.37
685.4	33898.39
685.748	33714.66
686.095	33850.93
686.443	33634.21
686.79	33550.83
687.138	33677.83
687.485	33566.87
687.832	33664.27
688.18	33544.27
688.527	33420.21
688.874	33471.51
689.221	33334.56
689.568	33197.62
689.915	33245.52
690.262	33165.53
690.609	33073.1
690.956	33085.75
691.303	32859.77
691.65	32749.49
691.997	32762.15
692.344	32557.18
692.69	32577.52
693.037	32608.03
693.383	32307.7
693.73	32438.54
694.077	32256.17
694.423	32308.6
694.769	32030.87
695.116	31964.88
695.462	32007.82
695.808	31994.48
696.155	32001.72
696.501	31647.37
696.847	31789.52
697.193	31549.75
697.539	31618.67
697.885	31435.18
698.231	31268.18
698.577	31312.92
698.923	31217.1
699.269	31071.8
699.614	30971.91
699.96	30855.53
700.306	30947.28
700.651	30780.28
700.997	30829.99
701.342	30688.3
701.688	30570.34
702.033	30560.62
702.379	30622.99
702.724	30389.55
703.069	30516.1
703.415	30190.24
703.76	30131.03
704.105	30241.31
704.45	30023.01
704.795	29745.73
705.14	29883.35
705.485	29831.6
705.83	29678.84
706.175	29718.84
706.52	29734.2
706.865	29567.88
707.209	29486.07
707.554	29273.88
707.899	29474.32
708.243	29248.57
708.588	29270.04
708.932	29109.81
709.277	29065.75
709.621	29068.23
709.966	28826.66
710.31	28954.79
710.654	28670.73
710.998	28822.14
711.342	28692.2
711.687	28626.66
712.031	28502.37
712.375	28446.55
712.719	28467.12
713.063	28394.58
713.407	28481.58
713.75	28327.91
714.094	28305.99
714.438	28127.92
714.782	28137.64
715.125	28056.96
715.469	28049.05
715.812	27752.34
716.156	27792.11
716.499	27872.11
716.843	27906.46
717.186	27661.94
717.53	27779.91
717.873	27819.68
718.216	27684.54
718.559	27703.3
718.902	27345.79
719.246	27475.73
719.589	27320.71
719.932	27296.3
720.275	27204.33
720.617	27289.52
720.96	27119.58
721.303	27231.9
721.646	27048.85
721.989	27106.48
722.331	27141.05
722.674	27038.46
723.016	27006.14
723.359	26915.3
723.701	26991
724.044	26744
724.386	26642.08
724.729	26874.84
725.071	26612.7
725.413	26705.36
725.755	26578.35
726.097	26637.79
726.439	26297.01
726.782	26388.53
727.124	26462.43
727.465	26526.6
727.807	26392.37
728.149	26250.68
728.491	26290.45
728.833	26260.17
729.175	26143.34
729.516	26175.65
729.858	26150.8
730.199	26224.01
730.541	26095.66
730.882	25988.31
731.224	26128.2
731.565	25954.64
731.906	25913.74
732.248	25963.23
732.589	25824.7
732.93	25753.52
733.271	25681.2
733.612	25698.6
733.953	25717.59
734.294	25735.44
734.635	25569.12
734.976	25662.67
735.317	25505.16
735.658	25573.41
735.999	25435.56
736.339	25489.34
736.68	25539.96
737.021	25391.04
737.361	25290.71
737.702	25472.62
738.042	25317.37
738.383	25271.04
738.723	25213.42
739.063	25136.58
739.404	25208.45
739.744	25132.07
740.084	25089.81
740.424	25038.28
740.764	24874.44
741.104	25020.43
741.444	24804.16
741.784	24883.94
742.124	24932.97
742.464	24812.75
742.804	24789.25
743.143	24724.17
743.483	24777.5
743.823	24567.11
744.162	24627.67
744.502	24622.93
744.841	24494.57
745.181	24639.42
745.52	24427
745.86	24437.62
746.199	24463.83
746.538	24468.58
746.877	24430.84
747.216	24350.62
747.556	24306.1
747.895	24307.91
748.234	24153.56
748.573	24156.95
748.911	24124.18
749.25	24101.58
749.589	24035.37
749.928	24048.25
750.267	24097.74
750.605	23984.52
750.944	23965.99
751.283	23746.11
751.621	23936.39
751.96	23773
752.298	23666.12
752.636	23762.61
752.975	23615.04
753.313	23449.4
753.651	23711.76
753.989	23508.61
754.327	23496.85
754.666	23267.03
755.004	23425.67
755.342	23394.71
755.679	23336.86
756.017	23255.05
756.355	23361.94
756.693	23232
757.031	23186.35
757.368	23098.22
