Data from hue_24_FLMS001491_00044.txt Node
Date: Tue Feb 07 17:12:19 GMT 2017
User: dcchb
Spectrometer: FLMS00149
Trigger mode: 0
Integration Time (sec): 2.000000E-2
Scans to average: 10
Electric dark correction enabled: true
Nonlinearity correction enabled: false
Boxcar width: 0
XAxis mode: Wavelengths
Number of Pixels in Spectrum: 2048
>>>>>Begin Spectral Data<<<<<
341.393	-7.15
341.776	-7.15
342.16	-7.15
342.543	-53.02
342.927	-63.64
343.31	-79.01
343.693	-60.25
344.077	-65.22
344.46	-70.87
344.843	-40.59
345.226	-32.91
345.61	-26.36
345.993	-35.85
346.376	-15.73
346.759	28.78
347.142	30.82
347.525	57.71
347.908	41.21
348.291	89.35
348.674	85.96
349.057	92.96
349.44	127.77
349.823	140.42
350.206	159.4
350.588	180.87
350.971	219.29
351.354	222.9
351.737	231.49
352.119	247.54
352.502	267.65
352.884	285.95
353.267	284.82
353.65	275.33
354.032	314.2
354.414	291.6
354.797	311.71
355.179	318.04
355.562	335.9
355.944	320.08
356.326	320.53
356.709	357.14
357.091	348.1
357.473	353.07
357.855	358.27
358.238	357.14
358.62	348.32
359.002	350.36
359.384	340.41
359.766	321.88
360.148	343.35
360.53	359.4
360.912	340.19
361.294	325.95
361.676	344.48
362.057	346.97
362.439	337.7
362.821	350.13
363.203	315.56
363.584	338.15
363.966	323.01
364.348	339.51
364.729	316.91
365.111	305.84
365.493	332.96
365.874	326.18
366.256	320.98
366.637	335.22
367.019	331.83
367.4	315.1
367.781	315.33
368.163	333.18
368.544	345.39
368.925	322.11
369.306	339.51
369.688	321.43
370.069	296.8
370.45	324.37
370.831	321.21
371.212	322.34
371.593	317.82
371.974	305.84
372.355	323.47
372.736	317.59
373.117	313.07
373.498	321.21
373.879	310.13
374.26	314.65
374.641	343.58
375.021	317.59
375.402	319.62
375.783	307.65
376.163	353.75
376.544	338.38
376.925	341.54
377.305	329.34
377.686	313.52
378.066	344.26
378.447	333.86
378.827	345.39
379.208	321.88
379.588	344.03
379.968	331.38
380.349	335.22
380.729	347.19
381.109	338.15
381.489	336.12
381.87	354.2
382.25	357.14
382.63	338.15
383.01	347.19
383.39	336.35
383.77	347.87
384.15	356.23
384.53	338.38
384.91	333.64
385.29	347.87
385.67	343.35
386.049	398.49
386.429	370.47
386.809	361.43
387.189	367.53
387.568	365.72
387.948	358.95
388.328	355.56
388.707	359.85
389.087	370.02
389.466	371.37
389.846	340.19
390.225	373.86
390.605	366.4
390.984	375.67
391.363	372.5
391.743	365.95
392.122	371.6
392.501	385.39
392.881	384.26
393.26	362.56
393.639	405.05
394.018	369.57
394.397	387.87
394.776	381.32
395.155	376.8
395.534	385.16
395.913	372.96
396.292	386.52
396.671	386.06
397.05	397.14
397.429	395.55
397.808	404.82
398.186	419.06
398.565	395.1
398.944	415.67
399.323	385.61
399.701	402.56
400.08	413.86
400.458	387.65
400.837	419.51
401.215	430.81
401.594	421.99
401.972	408.21
402.351	422.67
402.729	409.34
403.107	446.17
403.486	428.32
403.864	426.97
404.242	423.58
404.62	409.57
404.999	453.63
405.377	437.59
405.755	437.36
406.133	425.84
406.511	430.36
406.889	445.04
407.267	463.58
407.645	434.65
408.023	450.69
408.401	458.6
408.779	450.24
409.156	438.49
409.534	467.87
409.912	432.39
410.29	464.03
410.667	466.74
411.045	457.25
411.422	472.16
411.8	480.52
412.178	481.65
412.555	467.19
412.933	495.44
413.31	482.56
413.687	503.8
414.065	498.6
414.442	493.18
414.819	494.31
415.197	491.6
415.574	507.19
415.951	510.81
416.328	515.33
416.705	497.47
417.082	513.07
417.46	490.69
417.837	505.38
418.214	527.53
418.591	534.76
418.967	515.78
419.344	509.68
419.721	551.26
420.098	533.86
420.475	540.86
420.852	530.92
421.228	558.49
421.605	546.29
421.982	558.94
422.358	550.8
422.735	535.21
423.111	555.78
423.488	555.1
423.864	558.94
424.241	582.67
424.617	570.47
424.994	554.19
425.37	583.35
425.746	588.54
426.123	570.92
426.499	579.28
426.875	589.45
427.251	617.7
427.627	619.28
428.003	624.7
428.379	610.46
428.756	609.56
429.132	629.45
429.507	631.03
429.883	621.76
430.259	629.9
430.635	666.51
431.011	650.46
431.387	667.86
431.763	669.45
432.138	650.46
432.514	682.1
432.89	678.71
433.265	676.23
433.641	694.3
434.016	685.49
434.392	715.77
434.767	705.38
435.143	698.6
435.518	726.85
435.894	711.03
436.269	728.43
436.644	741.08
437.02	753.51
437.395	767.52
437.77	752.61
438.145	746.51
438.52	749.22
438.895	753.51
439.271	753.96
439.646	778.6
440.021	771.59
440.395	778.14
440.77	782.89
441.145	767.97
441.52	773.17
441.895	802.1
442.27	808.43
442.645	809.55
443.019	812.72
443.394	814.3
443.769	811.36
444.143	829.89
444.518	826.05
444.892	826.73
445.267	831.02
445.641	832.61
446.016	828.54
446.39	838.03
446.764	841.64
447.139	867.18
447.513	857.46
447.887	855.43
448.262	859.95
448.636	868.76
449.01	900.85
449.384	908.76
449.758	898.37
450.132	894.07
450.506	890.91
450.88	904.47
451.254	902.21
451.628	922.77
452.002	938.59
452.376	965.26
452.75	970.23
453.123	932.72
453.497	979.49
453.871	977.23
454.244	977.46
454.618	993.5
454.992	984.69
455.365	984.92
455.739	1023.11
456.112	1035.09
456.486	1025.37
456.859	1031.7
457.232	1050.9
457.606	1049.32
457.979	1068.08
458.352	1080.96
458.725	1088.87
459.099	1102.88
459.472	1131.13
459.845	1139.49
460.218	1138.13
460.591	1154.4
460.964	1165.93
461.337	1181.3
461.71	1209.09
462.083	1191.92
462.456	1209.32
462.829	1206.61
463.201	1228.53
463.574	1231.69
463.947	1223.56
464.32	1271.46
464.692	1287.28
465.065	1304.23
465.438	1307.4
465.81	1316.89
466.183	1337.9
466.555	1359.15
466.928	1355.53
467.3	1366.6
467.672	1423.55
468.045	1396.88
468.417	1453.83
468.789	1456.77
469.161	1450.44
469.534	1494.73
469.906	1525.69
470.278	1527.73
470.65	1564.11
471.022	1580.16
471.394	1604.79
471.766	1624.45
472.138	1630.32
472.51	1680.27
472.882	1697.89
473.253	1696.31
473.625	1736.54
473.997	1775.41
474.369	1790.32
474.74	1826.93
475.112	1845.46
475.484	1892.46
475.855	1936.31
476.227	1940.37
476.598	1976.76
476.97	2009.98
477.341	2049.75
477.713	2080.03
478.084	2130.65
478.455	2176.07
478.827	2211.55
479.198	2258.56
479.569	2248.61
479.94	2306.92
480.311	2358.21
480.682	2408.38
481.053	2477.31
481.424	2502.84
481.795	2548.72
482.166	2581.71
482.537	2609.51
482.908	2673.23
483.279	2704.87
483.65	2783.06
484.021	2831.87
484.391	2866.22
484.762	2912.1
485.133	2951.19
485.503	2983.28
485.874	3070.29
486.244	3113.45
486.615	3172.43
486.985	3213.33
487.356	3253.56
487.726	3275.93
488.097	3390.5
488.467	3417.85
488.837	3453.1
489.207	3500.33
489.578	3570.39
489.948	3618.52
490.318	3669.37
490.688	3679.76
491.058	3759.53
491.428	3857.16
491.798	3893.09
492.168	3937.83
492.538	3966.76
492.908	4060.99
493.278	4091.05
493.648	4103.25
494.017	4133.08
494.387	4185.06
494.757	4252.18
495.126	4239.52
495.496	4339.63
495.866	4286.75
496.235	4408.78
496.605	4443.36
496.974	4483.36
497.344	4523.58
497.713	4534.2
498.082	4642
498.452	4649.23
498.821	4659.17
499.19	4689
499.559	4745.27
499.928	4798.38
500.298	4794.08
500.667	4794.53
501.036	4889.45
501.405	4877.92
501.774	4936.23
502.143	4959.05
502.512	5030.69
502.88	5066.17
503.249	5087.86
503.618	5114.75
503.987	5109.55
504.356	5115.43
504.724	5151.14
505.093	5139.61
505.462	5239.04
505.83	5291.47
506.199	5231.81
506.567	5311.81
506.936	5327.85
507.304	5377.8
507.672	5419.6
508.041	5456.44
508.409	5455.76
508.777	5475.42
509.145	5504.12
509.514	5509.54
509.882	5576.44
510.25	5588.86
510.618	5639.03
510.986	5671.8
511.354	5679.26
511.722	5728.52
512.09	5773.27
512.458	5697.34
512.826	5830.89
513.193	5816.43
513.561	5846.71
513.929	5882.42
514.297	5935.07
514.664	5974.39
515.032	5983.2
515.4	6030.43
515.767	6016.65
516.135	6033.82
516.502	5982.3
516.869	6063.65
517.237	6057.33
517.604	6156.53
517.972	6149.53
518.339	6182.97
518.706	6195.63
519.073	6178.23
519.44	6241.5
519.808	6257.77
520.175	6285.12
520.542	6322.4
520.909	6369.63
521.276	6381.39
521.643	6446.02
522.009	6478.33
522.376	6523.76
522.743	6519.69
523.11	6603.98
523.477	6693.02
523.843	6658.44
524.21	6694.82
524.577	6766.91
524.943	6810.53
525.31	6830.87
525.676	6885.33
526.043	6915.38
526.409	6926.23
526.776	6985.21
527.142	6977.53
527.508	7076.06
527.874	7115.83
528.241	7124.87
528.607	7152.21
528.973	7210.74
529.339	7219.1
529.705	7287.12
530.071	7365.31
530.437	7366.9
530.803	7353.34
531.169	7485.76
531.535	7416.39
531.901	7439.66
532.267	7491.64
532.632	7521.24
532.998	7620.68
533.364	7611.86
533.73	7604.18
534.095	7702.26
534.461	7729.83
534.826	7760.56
535.192	7811.86
535.557	7815.92
535.923	7877.62
536.288	7915.13
536.653	7945.19
537.019	7902.93
537.384	7938.41
537.749	7990.38
538.114	8024.51
538.479	8051.17
538.845	8124.16
539.21	8098.85
539.575	8092.53
539.94	8131.62
540.305	8230.6
540.67	8203.94
541.034	8223.6
541.399	8273.09
541.764	8295.91
542.129	8366.42
542.494	8406.87
542.858	8380.2
543.223	8456.36
543.587	8494.32
543.952	8515.79
544.316	8511.05
544.681	8542.91
545.045	8627.88
545.41	8694.55
545.774	8591.27
546.138	8664.94
546.503	8743.36
546.867	8773.87
547.231	8826.97
547.595	8825.16
547.959	8877.14
548.324	8845.5
548.688	8866.74
549.052	8950.36
549.416	8964.59
549.779	8966.63
550.143	9080.75
550.507	9063.58
550.871	9196.23
551.235	9081.2
551.599	9103.57
551.962	9205.04
552.326	9161.65
552.689	9239.16
553.053	9276
553.417	9243.01
553.78	9393.51
554.143	9305.38
554.507	9383.57
554.87	9387.63
555.234	9460.63
555.597	9446.39
555.96	9534.75
556.323	9539.49
556.686	9537.69
557.05	9647.97
557.413	9628.76
557.776	9669.21
558.139	9737.68
558.502	9698.13
558.865	9746.95
559.228	9825.59
559.59	9914.4
559.953	9908.98
560.316	10043.89
560.679	10030.33
561.041	10024.91
561.404	10056.54
561.767	10111.46
562.129	10147.39
562.492	10139.71
562.854	10201.62
563.217	10139.48
563.579	10231.45
563.941	10180.16
564.304	10235.3
564.666	10311
565.028	10281.85
565.39	10351.9
565.753	10375.63
566.115	10534.95
566.477	10533.14
566.839	10525.68
567.201	10565.68
567.563	10591.44
567.925	10679.58
568.287	10783.3
568.648	10804.32
569.01	10794.38
569.372	10817.2
569.734	10905.56
570.095	10950.08
570.457	10996.63
570.819	10967.93
571.18	11070.98
571.542	11074.37
571.903	11220.13
572.265	11235.27
572.626	11284.08
572.987	11314.36
573.349	11296.28
573.71	11436.85
574.071	11386.23
574.432	11509.16
574.794	11576.05
575.155	11609.05
575.516	11671.87
575.877	11781.47
576.238	11870.51
576.599	11913.22
576.96	11998.19
577.32	12030.28
577.681	12093.1
578.042	12235.7
578.403	12326.77
578.763	12416.71
579.124	12396.14
579.485	12655.35
579.845	12734.89
580.206	12834.1
580.566	12898.05
580.927	13136.46
581.287	13230.25
581.648	13288.1
582.008	13430.92
582.368	13608.54
582.728	13805.15
583.089	13878.82
583.449	14051.92
583.809	14200.39
584.169	14484.22
584.529	14526.03
584.889	14872.46
585.249	14914.04
585.609	15090.99
585.969	15381.38
586.329	15546.57
586.688	15811.87
587.048	15970.51
587.408	16227.68
587.768	16356.49
588.127	16582.93
588.487	16836.03
588.846	17167.54
589.206	17271.5
589.565	17611.15
589.925	17944.47
590.284	18114.64
590.643	18348.75
591.003	18743.32
591.362	19095.85
591.721	19274.15
592.08	19578.33
592.44	19957.3
592.799	20176.5
593.158	20384.41
593.517	20790.72
593.876	21007.22
594.235	21293.08
594.593	21678.84
594.952	21968.32
595.311	22107.3
595.67	22525.37
596.029	22865.25
596.387	23180.27
596.746	23556.08
597.104	23768.05
597.463	24120.81
597.822	24438.99
598.18	24685.99
598.538	24955.59
598.897	25356.71
599.255	25502.47
599.613	26115.1
599.972	26231.26
600.33	26605.71
600.688	26759.16
601.046	27181.74
601.404	27551.68
601.762	27839.58
602.12	28183.75
602.478	28334.03
602.836	28698.99
603.194	28704.87
603.552	29180.11
603.91	29445.19
604.268	29879.3
604.625	29945.51
604.983	30322
605.341	30453.75
605.698	30818.71
606.056	31208.98
606.413	31384.34
606.771	31662.08
607.128	32085.12
607.485	32090.54
607.843	32331.21
608.2	32808.49
608.557	33029.05
608.914	33164.64
609.272	33545.19
609.629	33868.57
609.986	34091.17
610.343	34239.86
610.7	34593.07
611.057	34759.17
611.414	34903.8
611.771	35049.78
612.127	35395.31
612.484	35614.97
612.841	36000.72
613.198	35722.76
613.554	36044.56
613.911	36429.86
614.267	36428.73
614.624	36673.24
614.98	36927.48
615.337	37313
615.693	37294.92
616.05	37411.08
616.406	37740.11
616.762	37860.56
617.118	37924.29
617.475	38159.08
617.831	38510.94
618.187	38589.58
618.543	38675.9
618.899	39000.87
619.255	39124.25
619.611	39163.8
619.967	39498.26
620.323	39608.99
620.678	39599.72
621.034	39630.68
621.39	39763.56
621.746	39673.17
622.101	40243.77
622.457	40026.38
622.812	40223.43
623.168	40383.66
623.523	40478.57
623.879	40677.66
624.234	40412.81
624.589	40907.03
624.945	40818.9
625.3	40933.47
625.655	40954.26
626.01	41153.58
626.365	41199
626.72	41201.49
627.075	41250.3
627.43	41248.72
627.785	41391.54
628.14	41448.03
628.495	41583.62
628.85	41573.91
629.205	41508.82
629.559	41804.64
629.914	41587.69
630.269	41828.14
630.623	41543.85
630.978	41721.02
631.332	41892.32
631.687	42048.92
632.041	41981.81
632.396	41911.07
632.75	41981.81
633.104	42044.85
633.459	41934.8
633.813	42027
634.167	42058.19
634.521	42089.6
634.875	42060.22
635.229	42133.44
635.583	42079.43
635.937	42069.04
636.291	41905.65
636.645	41984.97
636.999	41977.74
637.352	42233.78
637.706	41855.26
638.06	42012.99
638.413	42121.24
638.767	42058.87
639.121	42142.93
639.474	41817.29
639.828	41987.46
640.181	41932.09
640.534	42076.27
640.888	41949.72
641.241	41899.1
641.594	41953.56
641.947	42008.92
642.301	41941.58
642.654	42054.57
643.007	41990.39
643.36	41959.66
643.713	41805.99
644.066	42028.13
644.419	41860
644.771	41635.37
645.124	41108.38
645.477	41304.54
645.83	40955.17
646.182	40841.27
646.535	40900.25
646.888	40930.08
647.24	40706.81
647.593	40906.35
647.945	40843.76
648.298	40666.36
648.65	40671.56
649.002	40547.49
649.355	40769.18
649.707	40640.15
650.059	40897.77
650.411	41382.05
650.763	41142.73
651.115	41816.61
651.467	41654.81
651.819	41583.62
652.171	41533.46
652.523	41459.33
652.875	41482.16
653.227	41313.57
653.578	41624.08
653.93	41457.3
654.282	41353.57
654.633	41265.44
654.985	41391.54
655.337	41398.77
655.688	41458.66
656.039	41454.81
656.391	41312.9
656.742	41327.81
657.094	41431.31
657.445	41523.51
657.796	41480.8
658.147	41339.34
658.498	41347.92
658.849	41325.78
659.2	41361.26
659.551	41109.06
659.902	41396.96
660.253	41233.35
660.604	41306.57
660.955	41142.05
661.306	41321.48
661.656	41250.75
662.007	41303.86
662.358	41307.47
662.708	41210.75
663.059	41139.12
663.409	41116.74
663.76	41319.45
664.11	41245.33
664.461	41380.24
664.811	41156.29
665.161	41257.98
665.511	41128.04
665.862	41100.47
666.212	41263.63
666.562	41358.77
666.912	41271.32
667.262	41017.76
667.612	41064.77
667.962	41180.24
668.312	41209.62
668.662	41314.03
669.011	41123.75
669.361	41015.5
669.711	41061.83
670.06	40930.31
670.41	40924.66
670.76	40933.25
671.109	41148.16
671.459	41017.76
671.808	40902.29
672.157	41055.05
672.507	40693.03
672.856	40733.25
673.205	40990.87
673.554	40973.47
673.904	40872.23
674.253	41175.95
674.602	40875.62
674.951	40329.19
675.3	40184.34
675.649	40806.24
675.998	40810.76
676.346	40943.19
676.695	40935.28
677.044	40638.11
677.393	40733.25
677.741	40736.41
678.09	40692.12
678.438	40486.7
678.787	40696.19
679.135	40528.96
679.484	40455.97
679.832	40391.11
680.181	40189.76
680.529	40292.13
680.877	40174.62
681.225	40229.08
681.573	40484.9
681.922	40039.71
682.27	40091.69
682.618	40063.66
682.966	40009.65
683.314	40084.91
683.661	40027.96
684.009	39740.73
684.357	39724.69
684.705	39767.85
685.053	39759.49
685.4	39658.03
685.748	39472.04
686.095	39548.88
686.443	39380.97
686.79	39418.03
687.138	39364.25
687.485	39515.66
687.832	39343.68
688.18	39249.67
688.527	39114.31
688.874	39096.23
689.221	39021.88
689.568	38942.79
689.915	38855.33
690.262	38900.53
690.609	38746.64
690.956	38585.06
691.303	38505.51
691.65	38369.92
691.997	38419.64
692.344	38113.43
692.69	38118.86
693.037	38133.32
693.383	37846.32
693.73	37978.97
694.077	37799.54
694.423	37813.78
694.769	37633.9
695.116	37561.36
695.462	37581.47
695.808	37522.71
696.155	37487.23
696.501	37150.29
696.847	37198.88
697.193	36964.54
697.539	37061.48
697.885	36828.95
698.231	36780.36
698.577	36834.6
698.923	36744.2
699.269	36668.05
699.614	36333.37
699.96	36315.97
700.306	36327.27
700.651	36252.24
700.997	36181.51
701.342	36087.27
701.688	36013.6
702.033	35823.55
702.379	35818.35
702.724	35779.26
703.069	35863.77
703.415	35413.62
703.76	35419.04
704.105	35498.13
704.45	35326.61
704.795	35169.78
705.14	35193.28
705.485	35053.17
705.83	34960.07
706.175	35017.24
706.52	34920.3
706.865	34792.84
707.209	34597.82
707.554	34467.88
707.899	34691.38
708.243	34462
708.588	34474.66
708.932	34158.51
709.277	34365.96
709.621	34277.83
709.966	33927.55
710.31	33932.3
710.654	33771.63
710.998	33727.11
711.342	33829.48
711.687	33768.91
712.031	33709.03
712.375	33532.76
712.719	33489.37
713.063	33514.01
713.407	33561.46
713.75	33351.98
714.094	33408.7
714.438	33158.31
714.782	33241.47
715.125	33055.71
715.469	33111.98
715.812	32878.77
716.156	32794.02
716.499	32800.8
716.843	32799.22
717.186	32636.51
717.53	32824.31
717.873	32702.05
718.216	32728.04
718.559	32553.81
718.902	32396.07
719.246	32400.81
719.589	32305.45
719.932	32215.28
720.275	32126.7
720.617	32187.26
720.96	32007.38
721.303	32112.91
721.646	32018.45
721.989	31839.47
722.331	31893.03
722.674	31889.19
723.016	31938.23
723.359	31823.88
723.701	31769.87
724.044	31606.49
724.386	31584.11
724.729	31644
725.071	31548.41
725.413	31539.82
725.755	31492.59
726.097	31335.76
726.439	31166.95
726.782	31247.4
727.124	31211.02
727.465	31239.26
727.807	31195.65
728.149	31079.49
728.491	31017.8
728.833	31013.51
729.175	31013.51
729.516	30787.52
729.858	30806.96
730.199	30847.41
730.541	30764.93
730.882	30736.23
731.224	30797.69
731.565	30449.23
731.906	30525.84
732.248	30578.72
732.589	30431.37
732.93	30366.52
733.271	30444.71
733.612	30363.58
733.953	30356.57
734.294	30286.29
734.635	30193.42
734.976	30307.76
735.317	30110.03
735.658	30045.62
735.999	30200.19
736.339	30062.35
736.68	30096.24
737.021	30046.75
737.361	29883.82
737.702	30029.13
738.042	29902.35
738.383	29865.97
738.723	29819.19
739.063	29647.67
739.404	29784.61
739.744	29686.08
740.084	29592.08
740.424	29556.37
740.764	29460.1
741.104	29581.45
741.444	29466.65
741.784	29266.66
742.124	29512.53
742.464	29383.49
742.804	29348.69
743.143	29355.47
743.483	29281.35
743.823	29019.89
744.162	29070.73
744.502	29211.97
744.841	29083.39
745.181	29198.41
745.52	29000
745.86	29128.81
746.199	28967.91
746.538	28999.1
746.877	28921.58
747.216	29076.38
747.556	28936.95
747.895	28913.45
748.234	28807.24
748.573	28821.47
748.911	28683.62
749.25	28625.55
749.589	28614.02
749.928	28616.06
750.267	28655.15
750.605	28597.75
750.944	28440.69
751.283	28444.53
751.621	28375.61
751.96	28233.01
752.298	28330.64
752.636	28282.28
752.975	28066.47
753.313	28089.74
753.651	28108.5
753.989	28029.4
754.327	27903.98
754.666	27847.71
755.004	27939.69
755.342	27928.62
755.679	27878.67
756.017	27742.18
756.355	27854.72
756.693	27655.63
757.031	27669.19
757.368	27562.75
757.706	27626.93
758.044	27351
758.381	27335.64
758.719	27340.61
759.056	27364.79
759.394	27186.26
759.731	26966.83
