Data from hue_290_FLMS001491_00014.txt Node
Date: Tue Feb 07 15:52:22 GMT 2017
User: dcchb
Spectrometer: FLMS00149
Trigger mode: 0
Integration Time (sec): 2.000000E-2
Scans to average: 10
Electric dark correction enabled: true
Nonlinearity correction enabled: false
Boxcar width: 0
XAxis mode: Wavelengths
Number of Pixels in Spectrum: 2048
>>>>>Begin Spectral Data<<<<<
341.393	-28.97
341.776	-28.97
342.16	-28.97
342.543	-49.31
342.927	-74.62
343.31	-72.36
343.693	-66.48
344.077	-49.53
344.46	-45.01
344.843	-53.83
345.226	-33.04
345.61	-27.16
345.993	-34.84
346.376	-9.31
346.759	3.8
347.142	31.6
347.525	49.45
347.908	57.58
348.291	56.91
348.674	84.48
349.057	107.75
349.44	108.2
349.823	150.91
350.206	152.72
350.588	188.2
350.971	199.05
351.354	211.7
351.737	227.97
352.119	232.95
352.502	242.66
352.884	261.19
353.267	255.09
353.65	296.45
354.032	296.45
354.414	308.42
354.797	311.81
355.179	321.76
355.562	315.2
355.944	329.21
356.326	327.86
356.709	337.35
357.091	325.82
357.473	335.09
357.855	345.26
358.238	331.47
358.62	320.4
359.002	334.64
359.384	347.52
359.766	318.59
360.148	328.76
360.53	350
360.912	348.42
361.294	338.03
361.676	318.37
362.057	334.19
362.439	312.94
362.821	318.37
363.203	334.19
363.584	315.66
363.966	319.72
364.348	305.94
364.729	309.1
365.111	321.08
365.493	311.36
365.874	303.9
366.256	304.13
366.637	345.26
367.019	318.59
367.4	311.36
367.781	313.62
368.163	295.77
368.544	316.11
368.925	318.14
369.306	328.76
369.688	299.16
370.069	299.38
370.45	311.36
370.831	279.72
371.212	305.26
371.593	313.85
371.974	311.14
372.355	337.35
372.736	315.88
373.117	330.34
373.498	319.72
373.879	300.29
374.26	320.85
374.641	303.23
375.021	318.82
375.402	290.12
375.783	297.58
376.163	322.44
376.544	326.73
376.925	322.21
377.305	321.53
377.686	322.44
378.066	321.31
378.447	301.87
378.827	325.37
379.208	333.28
379.588	340.06
379.968	319.95
380.349	310.46
380.729	326.05
381.109	324.92
381.489	329.44
381.87	326.95
382.25	307.75
382.63	328.76
383.01	328.99
383.39	326.5
383.77	370.8
384.15	353.39
384.53	344.13
384.91	338.71
385.29	359.72
385.67	327.41
386.049	347.97
386.429	347.29
386.809	341.64
387.189	358.82
387.568	371.02
387.948	351.59
388.328	355.43
388.707	353.85
389.087	347.29
389.466	345.49
389.846	365.82
390.225	361.76
390.605	374.86
390.984	360.63
391.363	362.89
391.743	361.53
392.122	367.18
392.501	358.59
392.881	382.09
393.26	368.08
393.639	378.48
394.018	354.07
394.397	379.16
394.776	371.02
395.155	356.56
395.534	382.09
395.913	363.34
396.292	365.37
396.671	388.65
397.05	384.81
397.429	390.91
397.808	402.88
398.186	379.16
398.565	389.33
398.944	386.16
399.323	387.29
399.701	421.19
400.08	399.95
400.458	407.63
400.837	411.25
401.215	425.71
401.594	403.34
401.972	426.39
402.351	411.92
402.729	416.67
403.107	418.03
403.486	416.67
403.864	445.14
404.242	425.03
404.62	428.42
404.999	437.46
405.377	442.88
405.755	437.01
406.133	458.25
406.511	427.97
406.889	466.84
407.267	463.9
407.645	473.39
408.023	474.07
408.401	456.89
408.779	465.26
409.156	477.91
409.534	477.01
409.912	486.72
410.29	507.97
410.667	503.9
411.045	496.22
411.422	521.98
411.8	519.27
412.178	539.38
412.555	539.6
412.933	547.97
413.31	553.84
413.687	569.43
414.065	536.21
414.442	563.33
414.819	586.83
415.197	578.7
415.574	574.41
415.951	594.29
416.328	608.98
416.705	597.91
417.082	625.25
417.46	632.71
417.837	633.16
418.214	648.08
418.591	661.18
418.967	661.64
419.344	661.86
419.721	663.22
420.098	666.83
420.475	681.97
420.852	660.51
421.228	678.36
421.605	711.13
421.982	698.02
422.358	727.85
422.735	709.32
423.111	718.58
423.488	731.01
423.864	761.52
424.241	761.97
424.617	782.08
424.994	774.4
425.37	792.25
425.746	778.69
426.123	823.21
426.499	812.14
426.875	806.04
427.251	863.89
427.627	838.81
428.003	871.8
428.379	843.33
428.756	860.05
429.132	872.48
429.507	903.89
429.883	922.87
430.259	940.27
430.635	927.39
431.011	938.46
431.387	948.63
431.763	979.14
432.138	982.98
432.514	994.51
432.89	988.18
433.265	999.71
433.641	1017.56
434.016	1026.37
434.392	1023.43
434.767	1034.73
435.143	1072.02
435.518	1084.9
435.894	1086.71
436.269	1093.26
436.644	1118.12
437.02	1126.48
437.395	1124.9
437.77	1153.6
438.145	1168.06
438.52	1140.49
438.895	1191.11
439.271	1174.62
439.646	1188.63
440.021	1208.97
440.395	1218.91
440.77	1220.72
441.145	1225.46
441.52	1266.59
441.895	1245.8
442.27	1252.35
442.645	1252.35
443.019	1267.04
443.394	1270.66
443.769	1262.98
444.143	1269.75
444.518	1306.82
444.892	1278.12
445.267	1306.36
445.641	1335.74
446.016	1331
446.39	1348.4
446.764	1339.58
447.139	1330.32
447.513	1345.91
447.887	1347.72
448.262	1350.88
448.636	1357.44
449.01	1377.32
449.384	1375.74
449.758	1385.23
450.132	1416.42
450.506	1368.51
450.88	1401.5
451.254	1420.71
451.628	1427.72
452.002	1438.11
452.376	1446.02
452.75	1446.47
453.123	1447.6
453.497	1469.07
453.871	1477.21
454.244	1508.84
454.618	1507.04
454.992	1511.78
455.365	1522.18
455.739	1559.24
456.112	1565.79
456.486	1579.58
456.859	1566.47
457.232	1592.23
457.606	1610.54
457.979	1638.78
458.352	1636.98
458.725	1625
459.099	1621.84
459.472	1635.62
459.845	1686.92
460.218	1681.95
460.591	1682.85
460.964	1705.68
461.337	1727.6
461.71	1743.41
462.083	1753.36
462.456	1782.96
462.829	1786.35
463.201	1785.67
463.574	1818.21
463.947	1820.47
464.32	1851.66
464.692	1833.36
465.065	1857.31
465.438	1882.39
465.81	1894.6
466.183	1916.52
466.555	1930.53
466.928	1950.41
467.3	1945.22
467.672	1967.14
468.045	1990.19
468.417	1999.68
468.789	1982.28
469.161	2044.65
469.534	2086.91
469.906	2086.91
470.278	2087.13
470.65	2119.68
471.022	2116.74
471.394	2185.66
471.766	2198.54
472.138	2220.46
472.51	2220.69
472.882	2250.75
473.253	2278.32
473.625	2294.36
473.997	2296.39
474.369	2331.87
474.74	2341.14
475.112	2387.69
475.484	2425.2
475.855	2402.38
476.227	2459.33
476.598	2498.87
476.97	2512.89
477.341	2547.24
477.713	2557.86
478.084	2577.07
478.455	2604.41
478.827	2609.15
479.198	2681.7
479.569	2674.01
479.94	2736.61
480.311	2753.33
480.682	2819.77
481.053	2869.49
481.424	2887.79
481.795	2898.64
482.166	2956.94
482.537	2944.06
482.908	2999.2
483.279	2987.68
483.65	3058.86
484.021	3133.89
484.391	3113.55
484.762	3166.65
485.133	3149.25
485.503	3151.97
485.874	3238.74
486.244	3276.93
486.615	3341.79
486.985	3326.42
487.356	3433.54
487.726	3399.87
488.097	3445.97
488.467	3435.8
488.837	3517.61
489.207	3523.71
489.578	3556.02
489.948	3597.15
490.318	3629.69
490.688	3606.19
491.058	3702.01
491.428	3684.61
491.798	3743.36
492.168	3802.57
492.538	3791.5
492.908	3827.2
493.278	3866.3
493.648	3853.19
494.017	3895
494.387	3951.94
494.757	3978.38
495.126	3989.23
495.496	4025.61
495.866	4037.37
496.235	4050.47
496.605	4066.52
496.974	4083.01
497.344	4099.51
497.713	4113.07
498.082	4102.22
498.452	4200.98
498.821	4183.58
499.19	4217.02
499.559	4201.43
499.928	4225.84
500.298	4277.81
500.667	4305.38
501.036	4233.07
501.405	4288.88
501.774	4312.61
502.143	4328.66
502.512	4325.72
502.88	4365.72
503.249	4390.8
503.618	4413.17
503.987	4407.07
504.356	4440.97
504.724	4455.89
505.093	4443
505.462	4457.24
505.83	4481.42
506.199	4492.49
506.567	4547.63
506.936	4525.71
507.304	4573.62
507.672	4562.32
508.041	4576.56
508.409	4602.77
508.777	4664.02
509.145	4615.66
509.514	4626.28
509.882	4714.18
510.25	4675.54
510.618	4683.22
510.986	4716.22
511.354	4752.38
511.722	4811.58
512.09	4814.29
512.458	4783.33
512.826	4816.1
513.193	4818.81
513.561	4840.28
513.929	4788.98
514.297	4869.89
514.664	4847.97
515.032	4857.01
515.4	4882.09
515.767	4918.7
516.135	4971.58
516.502	4892.94
516.869	4978.58
517.237	4982.88
517.604	4952.82
517.972	4957.34
518.339	4961.18
518.706	4955.99
519.073	5035.31
519.44	4976.32
519.808	5065.36
520.175	5073.95
520.542	5090.45
520.909	5098.81
521.276	5051.8
521.643	5096.55
522.009	5139.48
522.376	5164.34
522.743	5149.43
523.11	5260.38
523.477	5245.24
523.843	5268.52
524.21	5296.54
524.577	5334.73
524.943	5325.92
525.31	5354.62
525.676	5419.48
526.043	5415.18
526.409	5402.98
526.776	5485.24
527.142	5391.91
527.508	5488.17
527.874	5500.6
528.241	5552.81
528.607	5563.2
528.973	5591.9
529.339	5576.53
529.705	5580.38
530.071	5622.63
530.437	5628.51
530.803	5670.54
531.169	5680.71
531.535	5717.55
531.901	5682.52
532.267	5737.43
532.632	5728.39
532.998	5815.62
533.364	5845.23
533.73	5827.6
534.095	5864.21
534.461	5845
534.826	5885.9
535.192	5870.09
535.557	5937.88
535.923	5991.44
536.288	5957.54
536.653	6021.72
537.019	6005.9
537.384	6011.1
537.749	6018.56
538.114	5990.99
538.479	6061.04
538.845	5998.9
539.21	6040.48
539.575	6069.63
539.94	6129.06
540.305	6130.87
540.67	6124.32
541.034	6124.99
541.399	6139.46
541.764	6152.11
542.129	6167.48
542.494	6195.5
542.858	6226.01
543.223	6226.91
543.587	6264.2
543.952	6233.92
544.316	6265.56
544.681	6308.04
545.045	6347.14
545.41	6361.82
545.774	6365.67
546.138	6334.48
546.503	6398.43
546.867	6400.69
547.231	6426
547.595	6475.04
547.959	6463.74
548.324	6483.18
548.688	6442.05
549.052	6489.05
549.416	6488.6
549.779	6526.79
550.143	6532.44
550.507	6560.92
550.871	6566.11
551.235	6541.71
551.599	6596.62
551.962	6607.69
552.326	6581.93
552.689	6645.43
553.053	6569.73
553.417	6596.62
553.78	6689.05
554.143	6691.08
554.507	6738.99
554.87	6707.13
555.234	6776.28
555.597	6727.01
555.96	6690.4
556.323	6726.11
556.686	6736.28
557.05	6793.23
557.413	6840.23
557.776	6800.68
558.139	6885.88
558.502	6798.2
558.865	6889.49
559.228	6910.06
559.59	6914.8
559.953	6960
560.316	6969.49
560.679	7016.95
561.041	7061.69
561.404	7045.2
561.767	7062.37
562.129	7048.81
562.492	7087.45
562.854	7039.55
563.217	7061.92
563.579	7127.45
563.941	7150.73
564.304	7147.57
564.666	7123.84
565.028	7213.78
565.39	7239.54
565.753	7249.94
566.115	7273.21
566.477	7251.07
566.839	7315.02
567.201	7405.86
567.563	7312.08
567.925	7485.64
568.287	7439.76
568.648	7434.11
569.01	7496.48
569.372	7520.21
569.734	7481.34
570.095	7537.39
570.457	7637.27
570.819	7631.4
571.18	7642.02
571.542	7646.31
571.903	7723.82
572.265	7727.66
572.626	7750.04
572.987	7739.87
573.349	7836.14
573.71	7861.22
574.071	7882.69
574.432	8002.01
574.794	8003.59
575.155	7991.61
575.516	8042.91
575.877	8031.84
576.238	8023.93
576.599	8160.42
576.96	8213.75
577.32	8219.63
577.681	8357.7
578.042	8409.68
578.403	8439.28
578.763	8419.85
579.124	8458.49
579.485	8592.95
579.845	8664.14
580.206	8690.8
580.566	8768.09
580.927	8847.63
581.287	8894.86
581.648	8964.47
582.008	9057.12
582.368	9134.41
582.728	9194.07
583.089	9281.3
583.449	9348.41
583.809	9459.6
584.169	9534.17
584.529	9623.43
584.889	9813.03
585.249	9815.07
585.609	9883.99
585.969	10058
586.329	10137.77
586.688	10270.42
587.048	10402.17
587.408	10483.98
587.768	10547.93
588.127	10712.67
588.487	10777.08
588.846	11015.04
589.206	11066.79
589.565	11212.32
589.925	11442.37
590.284	11514.01
590.643	11690.27
591.003	11803.26
591.362	11987.89
591.721	12082.35
592.08	12189.02
592.44	12371.16
592.799	12447.77
593.158	12602.56
593.517	12688.89
593.876	12829.22
594.235	12977.02
594.593	13201.64
594.952	13366.84
595.311	13424.46
595.67	13548.75
596.029	13803.21
596.387	13867.16
596.746	14023.09
597.104	14131.11
597.463	14268.28
597.822	14428.05
598.18	14447.49
598.538	14597.99
598.897	14796.86
599.255	14746.69
599.613	15093.8
599.972	15104.65
600.33	15259.9
600.688	15357.29
601.046	15471.87
601.404	15683.84
601.762	15699.21
602.12	15967.9
602.478	16034.34
602.836	16114.79
603.194	16181
603.552	16166.54
603.91	16297.38
604.268	16443.37
604.625	16506.19
604.983	16677.94
605.341	16661.21
605.698	16834.09
606.056	16910.93
606.413	17030.02
606.771	17174.87
607.128	17213.74
607.485	17203.8
607.843	17357.92
608.2	17538.03
608.557	17735.31
608.914	17575.09
609.272	17718.59
609.629	17905.48
609.986	17985.47
610.343	17960.16
610.7	18194.28
611.057	18151.8
611.414	18199.71
611.771	18257.33
612.127	18409.42
612.484	18463.2
612.841	18596.3
613.198	18550.2
613.554	18600.15
613.911	18879.46
614.267	18822.74
614.624	18809.18
614.98	18989.97
615.337	19100.47
615.693	19035.16
616.05	19130.3
616.406	19222.73
616.762	19207.59
617.118	19234.71
617.475	19288.49
617.831	19423.4
618.187	19484.19
618.543	19500.24
618.899	19563.06
619.255	19490.29
619.611	19622.49
619.967	19682.83
620.323	19775.93
620.678	19746.56
621.034	19773.45
621.39	19805.31
621.746	19764.41
622.101	20066.1
622.457	19916.27
622.812	19985.87
623.168	20027.45
623.523	20074.68
623.879	20178.86
624.234	19948.81
624.589	20149.03
624.945	20211.63
625.3	20152.65
625.655	20187
626.01	20278.52
626.365	20267.9
626.72	20301.12
627.075	20195.58
627.43	20258.86
627.785	20247.79
628.14	20243.27
628.495	20368.24
628.85	20377.27
629.205	20216.15
629.559	20430.61
629.914	20365.07
630.269	20370.5
630.623	20406.88
630.978	20189.71
631.332	20464.96
631.687	20391.06
632.041	20389.25
632.396	20426.09
632.75	20360.55
633.104	20399.2
633.459	20231.06
633.813	20303.83
634.167	20325.52
634.521	20296.83
634.875	20276.49
635.229	20314.23
635.583	20280.33
635.937	20203.72
636.291	20259.54
636.645	20260.67
636.999	20077.85
637.352	20251.4
637.706	20203.49
638.06	20299.99
638.413	20124.17
638.767	20173.21
639.121	20167.79
639.474	20042.59
639.828	20055.93
640.181	20208.47
640.534	20160.78
640.888	19981.13
641.241	20019.77
641.594	20097.96
641.947	20147.9
642.301	20100.22
642.654	20072.65
643.007	20134.8
643.36	20084.4
643.713	20003.73
644.066	20150.16
644.419	19929.38
644.771	19852.09
645.124	19685.54
645.477	19608.48
645.83	19639.22
646.182	19518.54
646.535	19502.5
646.888	19512.21
647.24	19394.25
647.593	19447.58
647.945	19550.86
648.298	19368.49
648.65	19375.27
649.002	19382.95
649.355	19380.01
649.707	19459.56
650.059	19494.81
650.411	19833.33
650.763	19791.3
651.115	19907.46
651.467	19833.56
651.819	19911.07
652.171	19851.41
652.523	19826.78
652.875	19835.14
653.227	19756.5
653.578	19959.88
653.93	19910.39
654.282	19796.95
654.633	19711.76
654.985	19846.89
655.337	19827.23
655.688	19777.52
656.039	19915.59
656.391	19808.48
656.742	19847.57
657.094	19897.74
657.445	19914.91
657.796	19872.43
658.147	19786.78
658.498	19770.51
658.849	19911.98
659.2	19961.01
659.551	19852.77
659.902	19875.37
660.253	19844.63
660.604	19978.87
660.955	19850.51
661.306	19865.2
661.656	19791.98
662.007	19982.26
662.358	19859.55
662.708	19949.72
663.059	19858.19
663.409	19813.22
663.76	20021.35
664.11	19989.49
664.461	20041.69
664.811	19963.27
665.161	19860.68
665.511	20000.11
665.862	19973.67
666.212	19995.36
666.562	19965.99
666.912	19975.93
667.262	19940.45
667.612	20006.44
667.962	19920.79
668.312	19968.92
668.662	20003.27
669.011	20014.8
669.361	19927.57
669.711	19900.45
670.06	19792.88
670.41	19788.59
670.76	19829.49
671.109	19900.45
671.459	19916.72
671.808	19789.27
672.157	19905.42
672.507	19757.18
672.856	19828.36
673.205	19773.67
673.554	19935.03
673.904	19764.64
674.253	19849.38
674.602	19863.62
674.951	19532.1
675.3	19501.82
675.649	19673.79
675.998	19719.89
676.346	19683.73
676.695	19815.71
677.044	19595.37
677.393	19614.81
677.741	19714.02
678.09	19530.29
678.438	19470.86
678.787	19686.9
679.135	19608.03
679.484	19422.5
679.832	19498.88
680.181	19328.04
680.529	19427.7
680.877	19314.25
681.225	19401.48
681.573	19449.62
681.922	19240.13
682.27	19231.77
682.618	19278.09
682.966	19151.77
683.314	19260.24
683.661	19178.21
684.009	19162.39
684.357	19102.51
684.705	19090.08
685.053	19067.03
685.4	19079.46
685.748	18857.99
686.095	18910.65
686.443	18863.42
686.79	18724.21
687.138	18804.21
687.485	18877.88
687.832	18678.79
688.18	18818.45
688.527	18574.38
688.874	18679.24
689.221	18549.07
689.568	18509.08
689.915	18485.8
690.262	18460.04
690.609	18325.35
690.956	18305.69
691.303	18269.08
691.65	18179.82
691.997	18242.42
692.344	18066.6
692.69	18139.82
693.037	18015.98
693.383	17952.03
693.73	17996.09
694.077	17862.76
694.423	17851.01
694.769	17824.57
695.116	17870
695.462	17709.32
695.808	17757.68
696.155	17654.63
696.501	17549.55
696.847	17566.28
697.193	17383.46
697.539	17390.46
697.885	17213.29
698.231	17263.68
698.577	17241.54
698.923	17200.41
699.269	17093.52
699.614	17053.29
699.96	16907.31
700.306	16992.96
700.651	16783.47
700.997	16709.57
701.342	16672.74
701.688	16667.32
702.033	16616.92
702.379	16644.49
702.724	16617.6
703.069	16576.7
703.415	16398.85
703.76	16420.77
704.105	16351.62
704.45	16310.49
704.795	16171.51
705.14	16154.79
705.485	16095.13
705.83	16091.51
706.175	16107.56
706.52	16051.06
706.865	15957.5
707.209	16055.58
707.554	15923.15
707.899	15894.23
708.243	15815.36
708.588	15799.77
708.932	15731.07
709.277	15692.43
709.621	15668.02
709.966	15564.75
710.31	15560.9
710.654	15423.05
710.998	15480.68
711.342	15474.8
711.687	15405.88
712.031	15358.2
712.375	15260.12
712.719	15347.35
713.063	15299.89
713.407	15340.35
713.75	15159.79
714.094	15118.66
714.438	15130.41
714.782	15120.24
715.125	15013.12
715.469	15051.99
715.812	15070.75
716.156	14909.17
716.499	14932.67
716.843	14889.74
717.186	14830.3
717.53	14955.72
717.873	14924.08
718.216	14825.1
718.559	14774.03
718.902	14708.27
719.246	14708.5
719.589	14710.76
719.932	14744.2
720.275	14624.66
720.617	14612.68
720.96	14624.66
721.303	14608.16
721.646	14612.68
721.989	14546.02
722.331	14614.26
722.674	14512.57
723.016	14460.14
723.359	14494.04
723.701	14595.96
724.044	14434.15
724.386	14394.61
724.729	14364.78
725.071	14398.45
725.413	14389.86
725.755	14444.32
726.097	14299.02
726.439	14343.08
726.782	14329.75
727.124	14363.65
727.465	14273.93
727.807	14308.28
728.149	14222.63
728.491	14273.93
728.833	14311.45
729.175	14260.15
729.516	14205.01
729.858	14235.06
730.199	14174.05
730.541	14191
730.882	14184.22
731.224	14178.57
731.565	14119.81
731.906	14200.04
732.248	14233.71
732.589	14052.24
732.93	14061.96
733.271	14121.85
733.612	14107.38
733.953	14120.72
734.294	14078.23
734.635	14108.29
734.976	14125.91
735.317	14033.94
735.658	14073.49
735.999	14074.39
736.339	14063.54
736.68	14100.6
737.021	14045.24
737.361	13984.45
737.702	14090.89
738.042	14061.28
738.383	14082.75
738.723	14058.12
739.063	14080.49
739.404	13985.8
739.744	14108.29
740.084	14062.86
740.424	14074.62
740.764	14017.67
741.104	14171.11
741.444	14172.01
741.784	14161.85
742.124	14168.85
742.464	14179.47
742.804	14140.38
743.143	14122.3
743.483	14175.18
743.823	14109.42
744.162	14157.55
744.502	14182.18
744.841	14232.13
745.181	14278
745.52	14328.62
745.86	14332.69
746.199	14367.49
746.538	14409.07
746.877	14527.49
747.216	14507.82
747.556	14501.05
747.895	14584.43
748.234	14538.78
748.573	14632.34
748.911	14664.43
749.25	14789.4
749.589	14660.14
749.928	14812.22
750.267	14929.28
750.605	14904.65
750.944	15026
751.283	15055.38
751.621	15212.89
751.96	15179.67
752.298	15296.28
752.636	15407.01
752.975	15400.91
753.313	15519.1
753.651	15634.57
753.989	15691.07
754.327	15719.09
754.666	15836.83
755.004	15856.72
755.342	16064.39
755.679	16081.34
756.017	16114.79
756.355	16211.73
756.693	16463.25
757.031	16549.13
757.368	16523.59
757.706	16667.99
758.044	16711.16
758.381	16908.21
758.719	16913.64
759.056	17063.24
759.394	17188.88
759.731	17183.01
760.068	17349.11
