Data from hue_70_FLMS001491_1.txt Node
Date: Mon Feb 06 15:19:58 GMT 2017
User: dcchb
Spectrometer: FLMS00149
Trigger mode: 0
Integration Time (sec): 2.000000E-2
Scans to average: 10
Electric dark correction enabled: true
Nonlinearity correction enabled: false
Boxcar width: 0
XAxis mode: Wavelengths
Number of Pixels in Spectrum: 2048
>>>>>Begin Spectral Data<<<<<
341.393	-4.93
341.776	-4.93
342.16	-4.93
342.543	-63.46
342.927	-69.56
343.31	-50.8
343.693	-68.88
344.077	-66.62
344.46	-69.56
344.843	-61.2
345.226	-43.8
345.61	-17.58
345.993	-27.3
346.376	-16.68
346.759	6.14
347.142	38.01
347.525	26.93
347.908	46.37
348.291	77.55
348.674	102.86
349.057	124.56
349.44	130.66
349.823	144.9
350.206	161.85
350.588	187.61
350.971	217.44
351.354	219.7
351.737	219.7
352.119	238.91
352.502	254.5
352.884	276.65
353.267	285.01
353.65	306.47
354.032	290.88
354.414	290.43
354.797	323.88
355.179	324.1
355.562	332.69
355.944	315.51
356.326	335.17
356.709	325.91
357.091	356.42
357.473	344.21
357.855	325.91
358.238	341.5
358.62	367.49
359.002	327.49
359.384	353.93
359.766	343.31
360.148	341.05
360.53	338.11
360.912	360.94
361.294	327.04
361.676	352.8
362.057	330.66
362.439	318.68
362.821	330.66
363.203	331.79
363.584	320.49
363.966	332.69
364.348	332.24
364.729	327.72
365.111	294.5
365.493	329.98
365.874	314.38
366.256	307.15
366.637	333.37
367.019	319.13
367.4	310.99
367.781	314.16
368.163	310.09
368.544	302.63
368.925	303.54
369.306	311.67
369.688	303.99
370.069	310.09
370.45	317.55
370.831	320.94
371.212	307.6
371.593	334.5
371.974	319.36
372.355	315.51
372.736	312.12
373.117	297.66
373.498	343.08
373.879	332.01
374.26	303.76
374.641	327.04
375.021	339.47
375.402	323.2
375.783	307.38
376.163	301.96
376.544	328.85
376.925	319.58
377.305	320.03
377.686	344.89
378.066	336.08
378.447	338.56
378.827	329.3
379.208	330.88
379.588	317.32
379.968	332.69
380.349	335.85
380.729	342.18
381.109	354.38
381.489	356.87
381.87	338.79
382.25	347.38
382.63	336.3
383.01	355.29
383.39	334.95
383.77	342.86
384.15	353.48
384.53	346.47
384.91	342.18
385.29	356.42
385.67	344.67
386.049	341.73
386.429	325.01
386.809	330.2
387.189	333.59
387.568	334.5
387.948	345.57
388.328	357.1
388.707	356.42
389.087	365.46
389.466	341.95
389.846	373.37
390.225	368.39
390.605	348.06
390.984	343.99
391.363	361.16
391.743	361.16
392.122	360.71
392.501	366.36
392.881	369.75
393.26	385.57
393.639	379.24
394.018	362.29
394.397	364.55
394.776	383.76
395.155	373.14
395.534	373.14
395.913	387.15
396.292	385.34
396.671	374.95
397.05	383.76
397.429	372.24
397.808	405.91
398.186	388.28
398.565	355.74
398.944	369.3
399.323	374.04
399.701	413.82
400.08	396.19
400.458	398.45
400.837	384.21
401.215	378.11
401.594	368.17
401.972	381.5
402.351	397.32
402.729	395.96
403.107	420.6
403.486	395.29
403.864	407.04
404.242	389.64
404.62	399.81
404.999	400.71
405.377	413.59
405.755	393.93
406.133	392.8
406.511	437.32
406.889	424.44
407.267	422.86
407.645	420.82
408.023	421.27
408.401	436.64
408.779	420.6
409.156	427.15
409.534	430.99
409.912	440.93
410.29	431.9
410.667	442.06
411.045	459.69
411.422	439.35
411.8	432.12
412.178	452.01
412.555	443.87
412.933	468.05
413.31	467.6
413.687	463.08
414.065	469.41
414.442	482.29
414.819	470.99
415.197	466.47
415.574	479.13
415.951	474.61
416.328	487.94
416.705	479.58
417.082	456.53
417.46	503.31
417.837	489.52
418.214	490.2
418.591	481.84
418.967	513.93
419.344	490.88
419.721	509.86
420.098	501.95
420.475	501.5
420.852	507.83
421.228	534.27
421.605	513.93
421.982	525.23
422.358	540.82
422.735	539.69
423.111	533.36
423.488	525.68
423.864	534.49
424.241	542.63
424.617	538.33
424.994	540.82
425.37	536.3
425.746	538.56
426.123	540.82
426.499	550.99
426.875	574.49
427.251	571.55
427.627	544.66
428.003	570.2
428.379	571.78
428.756	581.27
429.132	564.55
429.507	597.54
429.883	602.06
430.259	593.93
430.635	607.94
431.011	604.55
431.387	614.04
431.763	605.22
432.138	626.01
432.514	634.6
432.89	616.3
433.265	638.44
433.641	640.7
434.016	639.57
434.392	634.83
434.767	663.98
435.143	650.42
435.518	666.92
435.894	642.06
436.269	700.59
436.644	673.92
437.02	680.93
437.395	678.89
437.77	682.74
438.145	708.95
438.52	712.57
438.895	717.09
439.271	716.86
439.646	701.94
440.021	720.7
440.395	734.49
440.77	710.08
441.145	757.99
441.52	744.88
441.895	732.68
442.27	737.2
442.645	734.71
443.019	751.66
443.394	769.97
443.769	748.27
444.143	765.67
444.518	762.73
444.892	776.97
445.267	773.13
445.641	779.46
446.016	775.16
446.39	794.37
446.764	799.12
447.139	801.15
447.513	798.67
447.887	815.39
448.262	794.37
448.636	804.77
449.01	838.21
449.384	847.48
449.758	810.64
450.132	820.59
450.506	847.25
450.88	850.64
451.254	830.08
451.628	866.46
452.002	878.89
452.376	886.12
452.75	872.56
453.123	871.43
453.497	903.97
453.871	892
454.244	910.07
454.618	914.14
454.992	922.05
455.365	911.2
455.739	948.27
456.112	940.36
456.486	965.21
456.859	984.42
457.232	993.01
457.606	972.22
457.979	997.76
458.352	1019.45
458.725	1041.37
459.099	1059.9
459.472	1055.61
459.845	1051.31
460.218	1080.24
460.591	1077.3
460.964	1087.92
461.337	1099.22
461.71	1103.74
462.083	1149.16
462.456	1152.1
462.829	1142.61
463.201	1167.47
463.574	1174.7
463.947	1199.11
464.32	1217.19
464.692	1205.43
465.065	1213.34
465.438	1263.74
465.81	1304.41
466.183	1295.38
466.555	1316.62
466.928	1332.21
467.3	1342.38
467.672	1357.52
468.045	1397.75
468.417	1404.53
468.789	1428.93
469.161	1423.96
469.534	1485.43
469.906	1492.43
470.278	1493.79
470.65	1532.88
471.022	1558.19
471.394	1621.69
471.766	1644.07
472.138	1641.81
472.51	1682.03
472.882	1707.79
473.253	1745.53
473.625	1797.74
473.997	1878.19
474.369	1857.62
474.74	1921.12
475.112	1941.23
475.484	2001.57
475.855	2022.14
476.227	2062.14
476.598	2145.52
476.97	2176.03
477.341	2237.5
477.713	2306.65
478.084	2336.7
478.455	2377.38
478.827	2493.31
479.198	2557.72
479.569	2579.18
479.94	2674.1
480.311	2755
480.682	2808.56
481.053	2914.09
481.424	3019.62
481.795	3028.89
482.166	3146.4
482.537	3247.64
482.908	3320.86
483.279	3357.24
483.65	3497.35
484.021	3598.14
484.391	3695.76
484.762	3811.92
485.133	3882.88
485.503	3965.36
485.874	4139.14
486.244	4172.14
486.615	4331.23
486.985	4432.69
487.356	4547.95
487.726	4628.17
488.097	4814.61
488.467	4888.5
488.837	5061.15
489.207	5170.75
489.578	5278.55
489.948	5430.86
490.318	5583.4
490.688	5612.1
491.058	5808.93
491.428	5891.41
491.798	6043.27
492.168	6259.76
492.538	6350.84
492.908	6518.06
493.278	6660.43
493.648	6737.04
494.017	6949.24
494.387	7035.56
494.757	7184.03
495.126	7363.92
495.496	7417.25
495.866	7605.49
496.235	7752.38
496.605	7861.98
496.974	7991.02
497.344	8118.47
497.713	8282.08
498.082	8400.05
498.452	8589.42
498.821	8700.15
499.19	8844.56
499.559	8959.35
499.928	9102.85
500.298	9208.39
500.667	9375.16
501.036	9426.24
501.405	9560.02
501.774	9682.05
502.143	9792.1
502.512	9884.75
502.88	10111.19
503.249	10120.91
503.618	10312.09
503.987	10421.46
504.356	10521.35
504.724	10660.33
505.093	10730.38
505.462	10878.17
505.83	11039.3
506.199	11094.67
506.567	11306.64
506.936	11420.53
507.304	11502.56
507.672	11599.74
508.041	11701.2
508.409	11777.13
508.777	11952.04
509.145	12055.32
509.514	12123.34
509.882	12311.36
510.25	12454.86
510.618	12515.42
510.986	12614.85
511.354	12657.79
511.722	12826.82
512.09	12947.95
512.458	12985.24
512.826	13136.42
513.193	13275.17
513.561	13296.42
513.929	13450.99
514.297	13567.37
514.664	13755.84
515.032	13768.72
515.4	13913.35
515.767	13833.35
516.135	14105.21
516.502	14023.18
516.869	14302.04
517.237	14333.22
517.604	14340.23
517.972	14495.71
518.339	14643.95
518.706	14652.31
519.073	14650.05
519.44	14821.12
519.808	14954
520.175	15048.91
520.542	15215.01
520.909	15295.69
521.276	15287.55
521.643	15396.25
522.009	15514.89
522.376	15683.7
522.743	15690.03
523.11	15922.11
523.477	15984.25
523.843	16043.01
524.21	16270.35
524.577	16222.67
524.943	16389.44
525.31	16446.62
525.676	16676.21
526.043	16692.48
526.409	16759.38
526.776	17049.54
527.142	16986.71
527.508	17021.29
527.874	17175.18
528.241	17191.45
528.607	17230.32
528.973	17487.72
529.339	17390.55
529.705	17637.32
530.071	17671.67
530.437	17703.53
530.803	17798.22
531.169	17828.5
531.535	17917.54
531.901	17832.12
532.267	17919.12
532.632	18069.17
532.998	18109.85
533.364	18186
533.73	18271.2
534.095	18276.17
534.461	18327.47
534.826	18423.74
535.192	18460.35
535.557	18522.95
535.923	18552.55
536.288	18642.49
536.653	18650.85
537.019	18547.8
537.384	18648.14
537.749	18631.87
538.114	18763.16
538.479	18644.52
538.845	18813.78
539.21	18762.71
539.575	18887.68
539.94	18802.94
540.305	18884.52
540.67	18903.5
541.034	18899.43
541.399	19074.8
541.764	19042.93
542.129	19074.57
542.494	19166.77
542.858	19043.61
543.223	19147.11
543.587	19357.73
543.952	19119.31
544.316	19282.47
544.681	19173.55
545.045	19195.02
545.41	19367.22
545.774	19326.77
546.138	19355.01
546.503	19290.16
546.867	19291.74
547.231	19489.93
547.595	19456.48
547.959	19525.18
548.324	19520.89
548.688	19533.77
549.052	19505.97
549.416	19531.05
549.779	19567.44
550.143	19586.42
550.507	19745.51
550.871	19638.4
551.235	19715.23
551.599	19723.37
551.962	19831.84
552.326	19788
552.689	19806.08
553.053	19816.02
553.417	19785.28
553.78	20033.64
554.143	19912.51
554.507	19915.45
554.87	20058.27
555.234	20044.71
555.597	19959.97
555.96	20063.7
556.323	20056.46
556.686	20058.5
557.05	20229.11
557.413	20283.8
557.776	20305.95
558.139	20335.1
558.502	20352.95
558.865	20462.1
559.228	20547.52
559.59	20596.34
559.953	20552.04
560.316	20698.03
560.679	20716.56
561.041	20859.83
561.404	20893.73
561.767	20967.63
562.129	20960.85
562.492	21110.22
562.854	21053.95
563.217	21082.88
563.579	21198.58
563.941	21120.62
564.304	21385.47
564.666	21410.78
565.028	21477.67
565.39	21474.96
565.753	21550.21
566.115	21661.85
566.477	21652.58
566.839	21687.16
567.201	21799.02
567.563	21855.74
567.925	21860.03
568.287	21949.52
568.648	21993.81
569.01	22112.68
569.372	22197.65
569.734	22109.29
570.095	22281.94
570.457	22328.72
570.819	22354.93
571.18	22397.42
571.542	22406.68
571.903	22521.48
572.265	22633.57
572.626	22688.71
572.987	22699.33
573.349	22692.55
573.71	22789.05
574.071	22862.72
574.432	22832.66
574.794	23038.76
575.155	22954.47
575.516	22846.9
575.877	22936.84
576.238	23083.5
576.599	23030.4
576.96	23134.12
577.32	23081.7
577.681	23173.67
578.042	23170.51
578.403	23183.84
578.763	23308.36
579.124	23368.92
579.485	23310.62
579.845	23485.53
580.206	23261.8
580.566	23441.01
580.927	23395.59
581.287	23437.17
581.648	23366.43
582.008	23470.16
582.368	23504.74
582.728	23550.16
583.089	23432.42
583.449	23331.41
583.809	23467.9
584.169	23519.88
584.529	23425.64
584.889	23560.1
585.249	23497.5
585.609	23470.84
585.969	23457.05
586.329	23405.3
586.688	23487.11
587.048	23416.15
587.408	23312.88
587.768	23488.01
588.127	23425.19
588.487	23391.07
588.846	23652.53
589.206	23359.65
589.565	23395.36
589.925	23512.42
590.284	23464.28
590.643	23429.48
591.003	23520.78
591.362	23566.43
591.721	23510.61
592.08	23517.16
592.44	23681.23
592.799	23535.92
593.158	23521.23
593.517	23471.29
593.876	23591.51
594.235	23585.64
594.593	23555.36
594.952	23541.12
595.311	23497.73
595.67	23526.43
596.029	23709.48
596.387	23613.21
596.746	23697.72
597.104	23522.36
597.463	23513.55
597.822	23647.56
598.18	23553.32
598.538	23582.7
598.897	23730.49
599.255	23480.33
599.613	23746.31
599.972	23666.09
600.33	23699.08
600.688	23713.09
601.046	23737.05
601.404	23847.1
601.762	23699.08
602.12	23848
602.478	23875.8
602.836	23865.63
603.194	23754.9
603.552	23832.86
603.91	23621.57
604.268	23855.69
604.625	23809.81
604.983	23858.62
605.341	23810.04
605.698	23855.46
606.056	23973.2
606.413	23928.23
606.771	24012.52
607.128	24036.47
607.485	23926.87
607.843	24008.45
608.2	24196.69
608.557	24251.61
608.914	24069.24
609.272	24169.8
609.629	24379.29
609.986	24349.68
610.343	24260.65
610.7	24427.42
611.057	24386.52
611.414	24358.95
611.771	24461.55
612.127	24555.55
612.484	24402.79
612.841	24596.01
613.198	24446.18
613.554	24574.99
613.911	24739.73
614.267	24659.73
614.624	24680.98
614.98	24659.06
615.337	24802.33
615.693	24698.83
616.05	24732.05
616.406	24773.63
616.762	24768.66
617.118	24784.02
617.475	24780.41
617.831	24892.95
618.187	24947.86
618.543	24894.3
618.899	25124.35
619.255	25025.83
619.611	24910.57
619.967	25148.99
620.323	25098.82
620.678	25114.86
621.034	24946.51
621.39	25111.47
621.746	25091.59
622.101	25311.92
622.457	25067.41
622.812	25092.26
623.168	25296.1
623.523	25252.26
623.879	25304.69
624.234	25127.97
624.589	25261.3
624.945	25224.46
625.3	25268.76
625.655	25303.56
626.01	25259.04
626.365	25333.84
626.72	25205.48
627.075	25233.73
627.43	25304.46
627.785	25240.06
628.14	25202.09
628.495	25283.22
628.85	25310.79
629.205	25261.98
629.559	25420.39
629.914	25245.03
630.269	25316.89
630.623	25235.09
630.978	25079.83
631.332	25308.98
631.687	25309.43
632.041	25099.72
632.396	25161.64
632.75	25156.44
633.104	25160.06
633.459	25052.49
633.813	25078.7
634.167	25123.68
634.521	25023.34
634.875	25114.18
635.229	25111.92
635.583	24882.55
635.937	24979.95
636.291	24990.8
636.645	24900.18
636.999	24757.36
637.352	24940.4
637.706	24848.2
638.06	24956.67
638.413	24848.43
638.767	24816.11
639.121	24935.43
639.474	24699.96
639.828	24697.47
640.181	24722.78
640.534	24727.98
640.888	24688.66
641.241	24566.63
641.594	24617.93
641.947	24713.52
642.301	24633.07
642.654	24658.38
643.007	24622.9
643.36	24528.66
643.713	24574.54
644.066	24546.06
644.419	24422.23
644.771	24237.6
645.124	24206.86
645.477	24137.94
645.83	24027.66
646.182	23929.36
646.535	23823.82
646.888	23855.01
647.24	23609.37
647.593	23880.09
647.945	23753.99
648.298	23661.12
648.65	23684.84
649.002	23617.95
649.355	23742.69
649.707	23652.08
650.059	23718.51
650.411	24019.75
650.763	24097.04
651.115	24397.82
651.467	24168.9
651.819	24179.97
652.171	24213.64
652.523	24130.03
652.875	24120.09
653.227	24046.19
653.578	24149.46
653.93	24183.14
654.282	23985.63
654.633	23988.34
654.985	24152.85
655.337	24018.39
655.688	24110.59
656.039	24206.86
656.391	24019.98
656.742	24005.06
657.094	24016.13
657.445	24022.46
657.796	24169.35
658.147	24068.34
658.498	23967.32
658.849	24032.63
659.2	24020.88
659.551	23913.09
659.902	24105.62
660.253	24062.01
660.604	24121.44
660.955	24036.02
661.306	24028.11
661.656	24037.38
662.007	24080.54
662.358	24121.44
662.708	23984.27
663.059	24002.12
663.409	23902.24
663.76	24106.08
664.11	24107.88
664.461	24076.7
664.811	24072.86
665.161	24055.91
665.511	23955.12
665.862	24064.49
666.212	24163.7
666.562	24083.02
666.912	24060.65
667.262	23964.84
667.612	24078.05
667.962	23991.95
668.312	23961.67
668.662	24175.9
669.011	24013.65
669.361	23921.45
669.711	23977.27
670.06	23987.66
670.41	23980.43
670.76	23878.74
671.109	24059.3
671.459	23990.37
671.808	23917.83
672.157	23922.35
672.507	23714.67
672.856	23831.05
673.205	23865.86
673.554	23880.09
673.904	23762.58
674.253	23969.36
674.602	23772.52
674.951	23626.77
675.3	23399.43
675.649	23823.82
675.998	23765.97
676.346	23732.3
676.695	23764.16
677.044	23533.66
677.393	23715.58
677.741	23598.52
678.09	23655.01
678.438	23506.99
678.787	23573.21
679.135	23589.25
679.484	23367.11
679.832	23511.97
680.181	23369.6
680.529	23394
680.877	23398.07
681.225	23335.7
681.573	23502.7
681.922	23354.68
682.27	23204.18
682.618	23236.04
682.966	23158.08
683.314	23150.17
683.661	23152.65
684.009	23032.21
684.357	23031.98
684.705	22890.06
685.053	23005.77
685.4	22920.57
685.748	22841.48
686.095	22786.34
686.443	22711.08
686.79	22755.6
687.138	22787.69
687.485	22688.71
687.832	22555.61
688.18	22592.44
688.527	22565.55
688.874	22566.45
689.221	22444.65
689.568	22361.71
689.915	22332.79
690.262	22350.42
690.609	22225.67
690.956	22222.28
691.303	22152.23
691.65	22021.61
691.997	22038.78
692.344	21831.11
692.69	21862.52
693.037	21871.56
693.383	21786.59
693.73	21752.24
694.077	21578.68
694.423	21550.89
694.769	21611.45
695.116	21519.48
695.462	21364
695.808	21330.78
696.155	21442.19
696.501	21192.03
696.847	21211.91
697.193	20955.65
697.539	21222.31
697.885	20929.21
698.231	20833.62
698.577	20851.47
698.923	20760.63
699.269	20803.56
699.614	20652.83
699.96	20519.73
700.306	20510.01
700.651	20447.19
700.997	20459.17
701.342	20495.1
701.688	20277.25
702.033	20268.89
702.379	20243.58
702.724	20103.24
703.069	20240.41
703.415	19929.24
703.76	19958.16
704.105	20029.8
704.45	19741.22
704.795	19810.14
705.14	19676.14
705.485	19685.85
705.83	19572.64
706.175	19685.4
706.52	19544.16
706.865	19365.41
707.209	19359.08
707.554	19289.25
707.899	19350.49
708.243	19285.64
708.588	19136.04
708.932	18985.98
709.277	19142.36
709.621	19057.85
709.966	18910.73
710.31	19009.94
710.654	18844.07
710.998	18836.16
711.342	18767.68
711.687	18774.92
712.031	18711.19
712.375	18578.54
712.719	18655.37
713.063	18625.54
713.407	18596.16
713.75	18564.98
714.094	18566.79
714.438	18443.85
714.782	18462.61
715.125	18405.21
715.469	18421.48
715.812	18404.53
716.156	18209.51
716.499	18314.14
716.843	18291.31
717.186	18152.11
717.53	18236.4
717.873	18214.93
718.216	18198.21
718.559	18074.82
718.902	18021.49
719.246	18080.24
719.589	17927.71
719.932	17892.91
720.275	17846.8
720.617	17794.38
720.96	17739.46
721.303	17921.15
721.646	17911.21
721.989	17778.78
722.331	17830.99
722.674	17811.55
723.016	17654.72
723.359	17658.34
723.701	17641.39
724.044	17680.93
724.386	17536.3
724.729	17607.04
725.071	17508.51
725.413	17541.05
725.755	17526.59
726.097	17365.01
726.439	17353.03
726.782	17363.88
727.124	17478.45
727.465	17394.39
727.807	17360.94
728.149	17391
728.491	17320.72
728.833	17281.85
729.175	17212.25
729.516	17192.58
729.858	17211.34
730.199	17300.38
730.541	17209.53
730.882	17240.04
731.224	17274.62
731.565	17157.78
731.906	17107.16
732.248	17203.88
732.589	17024.23
732.93	17058.58
733.271	17036.66
733.612	17096.54
733.953	17061.06
734.294	17033.04
734.635	16966.6
734.976	17041.4
735.317	16909.88
735.658	16957.34
735.999	17080.05
736.339	16971.12
736.68	16988.52
737.021	16922.54
737.361	16949.43
737.702	16985.13
738.042	16915.76
738.383	16942.87
738.723	16975.19
739.063	16976.77
739.404	16930.44
739.744	16888.19
740.084	16801.41
740.424	16896.32
740.764	16902.42
741.104	16922.76
741.444	16800.5
741.784	16861.29
742.124	16967.28
742.464	16842.09
742.804	16894.51
743.143	16842.54
743.483	16897.23
743.823	16778.81
744.162	16773.16
744.502	16913.95
744.841	16802.54
745.181	16957.34
745.52	16883.44
745.86	16958.69
746.199	17022.65
746.538	16896.55
746.877	17064.9
747.216	17133.6
747.556	16976.09
747.895	17045.92
748.234	17097.45
748.573	17188.74
748.911	17163.66
749.25	17153.72
749.589	17162.08
749.928	17231
750.267	17335.18
750.605	17397.33
750.944	17335.41
751.283	17393.71
751.621	17466.7
751.96	17405.46
752.298	17504.67
752.636	17550.77
752.975	17530.88
753.313	17650.65
753.651	17714.38
753.989	17706.47
754.327	17715.06
754.666	17793.92
755.004	17906.24
755.342	17979.46
755.679	18110.07
756.017	18027.59
756.355	18150.98
756.693	18173.58
