Data from hue_250_FLMS001491_00013.txt Node
Date: Tue Feb 07 16:00:36 GMT 2017
User: dcchb
Spectrometer: FLMS00149
Trigger mode: 0
Integration Time (sec): 2.000000E-2
Scans to average: 10
Electric dark correction enabled: true
Nonlinearity correction enabled: false
Boxcar width: 0
XAxis mode: Wavelengths
Number of Pixels in Spectrum: 2048
>>>>>Begin Spectral Data<<<<<
341.393	-10.65
341.776	-10.65
342.16	-10.65
342.543	-61.04
342.927	-68.05
343.31	-64.21
343.693	-67.37
344.077	-60.59
344.46	-63.76
344.843	-55.39
345.226	-59.69
345.61	-30.31
345.993	-16.52
346.376	-2.51
346.759	0.2
347.142	33.19
347.525	49.91
347.908	52.63
348.291	64.83
348.674	111.38
349.057	108.22
349.44	105.73
349.823	152.06
350.206	173.98
350.588	187.99
350.971	190.93
351.354	240.42
351.737	224.6
352.119	247.65
352.502	249.68
352.884	261.66
353.267	256.01
353.65	280.64
354.032	296.91
354.414	291.94
354.797	303.01
355.179	298.95
355.562	320.42
355.944	315.9
356.326	320.87
356.709	325.84
357.091	328.55
357.473	331.26
357.855	300.3
358.238	337.59
358.62	338.72
359.002	327.19
359.384	342.11
359.766	310.92
360.148	331.71
360.53	345.05
360.912	326.52
361.294	334.88
361.676	325.16
362.057	313.41
362.439	326.29
362.821	309.79
363.203	302.56
363.584	322
363.966	291.49
364.348	303.92
364.729	305.27
365.111	295.11
365.493	300.98
365.874	300.08
366.256	317.03
366.637	287.87
367.019	287.65
367.4	324.26
367.781	306.86
368.163	304.37
368.544	307.31
368.925	304.82
369.306	306.63
369.688	296.91
370.069	299.62
370.45	296.91
370.831	304.6
371.212	321.77
371.593	319.51
371.974	324.71
372.355	314.31
372.736	298.27
373.117	300.08
373.498	296.91
373.879	322.45
374.26	306.18
374.641	304.37
375.021	299.62
375.402	302.11
375.783	324.93
376.163	325.84
376.544	344.82
376.925	302.56
377.305	326.52
377.686	315.44
378.066	302.34
378.447	326.06
378.827	326.06
379.208	332.17
379.588	331.71
379.968	294.65
380.349	308.89
380.729	312.96
381.109	312.73
381.489	318.38
381.87	321.55
382.25	292.17
382.63	325.61
383.01	323.35
383.39	345.95
383.77	335.78
384.15	335.1
384.53	319.51
384.91	323.35
385.29	335.56
385.67	346.4
386.049	343.92
386.429	359.51
386.809	335.33
387.189	341.43
387.568	357.93
387.948	332.39
388.328	341.43
388.707	355.89
389.087	336.01
389.466	351.15
389.846	365.61
390.225	343.47
390.605	344.14
390.984	361.09
391.363	367.87
391.743	368.32
392.122	365.39
392.501	372.39
392.881	327.87
393.26	375.33
393.639	355.22
394.018	375.33
394.397	377.59
394.776	379.62
395.155	353.63
395.534	367.65
395.913	383.92
396.292	371.26
396.671	385.05
397.05	368.1
397.429	367.42
397.808	379.4
398.186	367.19
398.565	367.19
398.944	376.23
399.323	368.78
399.701	379.17
400.08	387.08
400.458	388.44
400.837	406.74
401.215	397.02
401.594	409.45
401.972	411.71
402.351	411.71
402.729	399.06
403.107	440.64
403.486	414.42
403.864	409.9
404.242	397.93
404.62	427.53
404.999	426.4
405.377	437.02
405.755	444.93
406.133	430.92
406.511	442.9
406.889	451.26
407.267	432.05
407.645	439.96
408.023	433.63
408.401	455.1
408.779	445.84
409.156	449.68
409.534	470.02
409.912	469.34
410.29	496.68
410.667	489.68
411.045	489
411.422	499.39
411.8	494.42
412.178	515.21
412.555	529
412.933	537.81
413.31	544.82
413.687	529.9
414.065	548.88
414.442	559.96
414.819	546.4
415.197	555.44
415.574	568.77
415.951	583.23
416.328	563.57
416.705	598.37
417.082	585.72
417.46	585.04
417.837	589.79
418.214	605.61
418.591	606.51
418.967	632.05
419.344	641.08
419.721	643.12
420.098	648.32
420.475	629.11
420.852	670.01
421.228	686.51
421.605	683.12
421.982	706.39
422.358	683.12
422.735	694.42
423.111	696.22
423.488	734.64
423.864	735.55
424.241	755.88
424.617	749.78
424.994	783
425.37	784.36
425.746	800.63
426.123	795.43
426.499	789.1
426.875	801.08
427.251	790.69
427.627	840.4
428.003	821.65
428.379	862.77
428.756	850.8
429.132	873.4
429.507	853.51
429.883	874.75
430.259	872.49
430.635	898.71
431.011	874.98
431.387	906.84
431.763	947.74
432.138	957.69
432.514	966.27
432.89	960.62
433.265	980.74
433.641	1004.24
434.016	1025.26
434.392	1044.24
434.767	1065.48
435.143	1034.07
435.518	1064.12
435.894	1095.76
436.269	1118.36
436.644	1117
437.02	1121.75
437.395	1142.77
437.77	1128.76
438.145	1165.14
438.52	1189.09
438.895	1212.6
439.271	1237.23
439.646	1238.81
440.021	1257.11
440.395	1248.3
440.77	1251.69
441.145	1275.19
441.52	1307.96
441.895	1284.91
442.27	1328.3
442.645	1334.85
443.019	1367.39
443.394	1383.21
443.769	1372.14
444.143	1362.2
444.518	1409.88
444.892	1411.91
445.267	1390.44
445.641	1412.82
446.016	1422.31
446.39	1446.71
446.764	1473.15
447.139	1466.83
447.513	1457.79
447.887	1482.42
448.262	1472.25
448.636	1493.49
449.01	1498.46
449.384	1537.11
449.758	1518.58
450.132	1559.03
450.506	1579.82
450.88	1564.9
451.254	1564.9
451.628	1607.39
452.002	1590.21
452.376	1604.22
452.75	1614.84
453.123	1618.91
453.497	1668.4
453.871	1652.13
454.244	1698.01
454.618	1717.21
454.992	1734.84
455.365	1716.31
455.739	1781.85
456.112	1798.12
456.486	1776.2
456.859	1824.1
457.232	1847.83
457.606	1851.9
457.979	1836.08
458.352	1914.5
458.725	1907.04
459.099	1953.59
459.472	1994.95
459.845	1988.62
460.218	1987.72
460.591	2009.41
460.964	2013.25
461.337	2040.37
461.71	2088.96
462.083	2100.48
462.456	2123.76
462.829	2126.47
463.201	2151.78
463.574	2152.91
463.947	2157.2
464.32	2239.46
464.692	2263.19
465.065	2266.8
465.438	2291.89
465.81	2327.82
466.183	2322.85
466.555	2402.85
466.928	2404.43
467.3	2389.06
467.672	2460.02
468.045	2473.81
468.417	2447.14
468.789	2511.09
469.161	2541.15
469.534	2570.53
469.906	2620.02
470.278	2612.78
470.65	2689.39
471.022	2718.09
471.394	2763.97
471.766	2765.77
472.138	2802.16
472.51	2878.54
472.882	2888.48
473.253	2880.12
473.625	2942.27
473.997	2954.92
474.369	3011.87
474.74	3035.15
475.112	3098.87
475.484	3112.88
475.855	3171.64
476.227	3220.45
476.598	3214.58
476.97	3291.64
477.341	3342.26
477.713	3378.87
478.084	3352.65
478.455	3494.34
478.827	3510.84
479.198	3612.08
479.569	3617.73
479.94	3683.49
480.311	3718.74
480.682	3732.53
481.053	3822.47
481.424	3903.82
481.795	3978.17
482.166	4007.1
482.537	3992.86
482.908	4115.34
483.279	4110.82
483.65	4236.02
484.021	4273.31
484.391	4329.35
484.762	4362.34
485.133	4331.38
485.503	4390.59
485.874	4523.92
486.244	4549.91
486.615	4630.58
486.985	4633.07
487.356	4734.76
487.726	4811.6
488.097	4867.64
488.467	4830.58
488.837	4938.15
489.207	4948.77
489.578	5045.04
489.948	5153.06
490.318	5154.86
490.688	5140.18
491.058	5236.22
491.428	5299.95
491.798	5289.78
492.168	5398.93
492.538	5407.51
492.908	5485.7
493.278	5494.74
493.648	5496.55
494.017	5590.56
494.387	5592.37
494.757	5684.34
495.126	5691.35
495.496	5720.95
495.866	5755.53
496.235	5835.3
496.605	5857.44
496.974	5901.74
497.344	5882.08
497.713	5959.82
498.082	5976.99
498.452	5988.06
498.821	6057.89
499.19	6049.53
499.559	6120.04
499.928	6056.76
500.298	6117.33
500.667	6190.54
501.036	6173.59
501.405	6201.39
501.774	6206.36
502.143	6316.19
502.512	6288.62
502.88	6354.83
503.249	6394.83
503.618	6416.75
503.987	6351.67
504.356	6421.72
504.724	6455.4
505.093	6451.55
505.462	6495.39
505.83	6531.1
506.199	6541.04
506.567	6621.49
506.936	6581.49
507.304	6691.55
507.672	6646.58
508.041	6707.82
508.409	6741.04
508.777	6764.54
509.145	6770.64
509.514	6790.75
509.882	6805.67
510.25	6809.06
510.618	6788.95
510.986	6811.77
511.354	6873.01
511.722	6889.96
512.09	7009.96
512.458	6914.82
512.826	6954.59
513.193	6950.75
513.561	7022.16
513.929	7002.95
514.297	7063.29
514.664	7122.95
515.032	7059.9
515.4	7110.75
515.767	7101.48
516.135	7186.9
516.502	7075.27
516.869	7149.61
517.237	7216.51
517.604	7174.47
517.972	7231.87
518.339	7228.26
518.706	7244.53
519.073	7264.19
519.44	7242.95
519.808	7295.83
520.175	7322.04
520.542	7343.28
520.909	7374.69
521.276	7338.08
521.643	7441.36
522.009	7447.46
522.376	7452.43
522.743	7441.58
523.11	7460.57
523.477	7453.34
523.843	7541.24
524.21	7553.67
524.577	7604.07
524.943	7634.35
525.31	7625.76
525.676	7707.11
526.043	7668.92
526.409	7680.22
526.776	7690.62
527.142	7715.7
527.508	7698.98
527.874	7758.64
528.241	7758.86
528.607	7771.07
528.973	7745.98
529.339	7767.68
529.705	7843.83
530.071	7820.33
530.437	7833.89
530.803	7876.6
531.169	7839.31
531.535	7894
531.901	7923.61
532.267	7848.8
532.632	7801.12
532.998	7837.05
533.364	7900.1
533.73	7903.94
534.095	7928.58
534.461	7824.17
534.826	7896.94
535.192	7873.89
535.557	7882.48
535.923	7919.99
536.288	7867.56
536.653	7863.04
537.019	7896.71
537.384	7849.48
537.749	7925.19
538.114	7877.5
538.479	7827.34
538.845	7896.49
539.21	7918.86
539.575	7863.72
539.94	7880.89
540.305	7887.67
540.67	7863.04
541.034	7790.28
541.399	7807.9
541.764	7798.86
542.129	7849.48
542.494	7810.39
542.858	7811.52
543.223	7793.21
543.587	7843.38
543.952	7819.88
544.316	7833.44
544.681	7753.89
545.045	7815.13
545.41	7804.06
545.774	7779.88
546.138	7823.72
546.503	7741.69
546.867	7748.24
547.231	7797.05
547.595	7709.83
547.959	7704.85
548.324	7689.26
548.688	7736.04
549.052	7738.3
549.416	7673.67
549.779	7711.41
550.143	7657.62
550.507	7720.22
550.871	7713.67
551.235	7663.27
551.599	7753.44
551.962	7705.76
552.326	7702.82
552.689	7689.71
553.053	7675.02
553.417	7682.48
553.78	7719.77
554.143	7687.91
554.507	7687.91
554.87	7674.35
555.234	7701.92
555.597	7678.19
555.96	7650.39
556.323	7639.77
556.686	7652.2
557.05	7712.76
557.413	7699.43
557.776	7675.93
558.139	7733.33
558.502	7648.58
558.865	7677.96
559.228	7727.9
559.59	7727.9
559.953	7756.83
560.316	7797.96
560.679	7846.55
561.041	7771.07
561.404	7785.98
561.767	7832.76
562.129	7807.9
562.492	7843.83
562.854	7761.8
563.217	7766.1
563.579	7853.55
563.941	7890.84
564.304	7875.7
564.666	7948.46
565.028	7898.07
565.39	7847.45
565.753	7958.41
566.115	7995.02
566.477	7980.1
566.839	7981
567.201	8072.53
567.563	8059.65
567.925	8041.57
568.287	8072.53
568.648	8045.64
569.01	8113.88
569.372	8183.94
569.734	8099.87
570.095	8164.05
570.457	8175.12
570.819	8206.76
571.18	8171.28
571.542	8155.46
571.903	8202.47
572.265	8190.72
572.626	8211.28
572.987	8298.96
573.349	8296.93
573.71	8302.58
574.071	8290.15
574.432	8302.8
574.794	8372.18
575.155	8443.82
575.516	8345.97
575.877	8420.54
576.238	8441.78
576.599	8458.51
576.96	8498.28
577.32	8496.7
577.681	8528.56
578.042	8502.35
578.403	8497.6
578.763	8591.16
579.124	8558.39
579.485	8636.81
579.845	8616.47
580.206	8614.43
580.566	8636.35
580.927	8651.27
581.287	8684.94
581.648	8640.2
582.008	8729.91
582.368	8716.13
582.728	8701.21
583.089	8771.27
583.449	8726.75
583.809	8764.04
584.169	8747.09
584.529	8786.18
584.889	8830.02
585.249	8779.63
585.609	8776.24
585.969	8811.04
586.329	8831.38
586.688	8866.41
587.048	8797.03
587.408	8767.2
587.768	8872.51
588.127	8915.44
588.487	8903.24
588.846	8877.03
589.206	8827.76
589.565	8854.2
589.925	8955.67
590.284	8986.4
590.643	8900.08
591.003	8926.52
591.362	8923.35
591.721	8924.03
592.08	9006.51
592.44	8964.48
592.799	9018.49
593.158	9023.01
593.517	9048.77
593.876	8981.43
594.235	9044.03
594.593	9037.25
594.952	8974.2
595.311	9002.22
595.67	9077.47
596.029	9041.09
596.387	9080.41
596.746	9129.22
597.104	9054.2
597.463	9085.16
597.822	9141.88
598.18	9120.64
598.538	9124.48
598.897	9095.1
599.255	9122.67
599.613	9177.58
599.972	9154.53
600.33	9236.34
600.688	9189.79
601.046	9119.51
601.404	9143.91
601.762	9208.32
602.12	9185.94
602.478	9196.79
602.836	9141.88
603.194	9187.75
603.552	9160.41
603.91	9176.68
604.268	9248.09
604.625	9224.36
604.983	9230.01
605.341	9208.54
605.698	9209.67
606.056	9240.86
606.413	9230.01
606.771	9232.05
607.128	9249.67
607.485	9231.59
607.843	9244.25
608.2	9294.87
608.557	9361.99
608.914	9230.69
609.272	9347.3
609.629	9317.69
609.986	9326.28
610.343	9260.29
610.7	9355.21
611.057	9395.88
611.414	9371.7
611.771	9407.63
612.127	9485.6
612.484	9519.95
612.841	9388.65
613.198	9407.86
613.554	9458.03
613.911	9375.09
614.267	9455.77
614.624	9375.77
614.98	9397.46
615.337	9450.34
615.693	9428.42
616.05	9471.81
616.406	9519.5
616.762	9463.23
617.118	9540.96
617.475	9443.79
617.831	9552.49
618.187	9467.52
618.543	9523.34
618.899	9614.63
619.255	9550.23
619.611	9598.36
619.967	9543
620.323	9570.79
620.678	9556.33
621.034	9510.68
621.39	9570.79
621.746	9543.68
622.101	9630
622.457	9535.99
622.812	9528.53
623.168	9557.23
623.523	9561.53
623.879	9567.4
624.234	9575.77
624.589	9585.71
624.945	9501.19
625.3	9609.44
625.655	9581.87
626.01	9586.39
626.365	9598.36
626.72	9573.28
627.075	9588.42
627.43	9535.99
627.785	9540.74
628.14	9534.41
628.495	9482.21
628.85	9537.57
629.205	9488.08
629.559	9517.01
629.914	9492.6
630.269	9510.68
630.623	9492.83
630.978	9473.62
631.332	9527.63
631.687	9519.72
632.041	9438.37
632.396	9485.6
632.75	9467.52
633.104	9449.44
633.459	9392.49
633.813	9427.75
634.167	9394.3
634.521	9313.17
634.875	9405.15
635.229	9356.11
635.583	9298.71
635.937	9368.09
636.291	9219.62
636.645	9366.51
636.999	9308.43
637.352	9373.74
637.706	9227.53
638.06	9334.87
638.413	9305.26
638.767	9205.61
639.121	9292.16
639.474	9220.75
639.828	9232.72
640.181	9248.09
640.534	9202.22
640.888	9194.08
641.241	9106.62
641.594	9184.36
641.947	9192.5
642.301	9178.71
642.654	9220.97
643.007	9245.15
643.36	9169.9
643.713	9153.63
644.066	9089.45
644.419	9176.68
644.771	9104.82
645.124	8972.39
645.477	8997.93
645.83	8849.23
646.182	8846.07
646.535	8893.07
646.888	8895.33
647.24	8827.31
647.593	8872.96
647.945	8835.67
648.298	8784.37
648.65	8780.53
649.002	8827.76
649.355	8846.97
649.707	8810.81
650.059	8849.68
650.411	8925.84
650.763	8964.93
651.115	9014.2
651.467	9082.22
651.819	9025.95
652.171	8968.32
652.523	8992.28
652.875	8962.45
653.227	8936.46
653.578	9040.86
653.93	9016.01
654.282	8924.48
654.633	8916.8
654.985	8936.01
655.337	8988.44
655.688	8999.06
656.039	9011.26
656.391	8960.41
656.742	8957.25
657.094	8942.79
657.445	8953.86
657.796	8931.04
658.147	8960.87
658.498	8943.92
658.849	8971.94
659.2	8942.56
659.551	8981.43
659.902	8984.82
660.253	8979.62
660.604	8945.05
660.955	8933.3
661.306	8969.45
661.656	8956.35
662.007	9019.62
662.358	8915.22
662.708	9034.31
663.059	8976.68
663.409	8875.22
663.76	9033.18
664.11	8971.04
664.461	8993.86
664.811	8943.69
665.161	8976.68
665.511	8933.97
665.862	8997.25
666.212	8982.79
666.562	8968.1
666.912	9006.06
667.262	8972.84
667.612	8945.5
667.962	8938.04
668.312	8946.4
668.662	9017.59
669.011	8975.78
669.361	8964.26
669.711	8929
670.06	8970.58
670.41	8964.93
670.76	8904.6
671.109	8874.54
671.459	8945.05
671.808	8937.36
672.157	8928.78
672.507	8901.43
672.856	8849.68
673.205	8951.37
673.554	8895.78
673.904	8856.46
674.253	8930.13
674.602	8890.81
674.951	8732.85
675.3	8704.38
675.649	8829.34
675.998	8846.97
676.346	8881.77
676.695	8900.75
677.044	8786.86
677.393	8787.09
677.741	8887.65
678.09	8703.25
678.438	8788.44
678.787	8792.73
679.135	8743.24
679.484	8728.1
679.832	8709.8
680.181	8652.17
680.529	8705.28
680.877	8626.64
681.225	8667.99
681.573	8703.02
681.922	8656.47
682.27	8635.68
682.618	8527.88
682.966	8608.33
683.314	8569.69
683.661	8562.68
684.009	8536.02
684.357	8525.4
684.705	8446.76
685.053	8480.43
685.4	8416.93
685.748	8417.38
686.095	8406.08
686.443	8397.49
686.79	8374.67
687.138	8383.71
687.485	8399.98
687.832	8364.72
688.18	8384.61
688.527	8292.64
688.874	8270.94
689.221	8279.53
689.568	8258.74
689.915	8270.26
690.262	8155.46
690.609	8196.14
690.956	8149.81
691.303	8147.1
691.65	8116.37
691.997	8132.19
692.344	8083.15
692.69	8039.99
693.037	7999.76
693.383	7973.55
693.73	7969.71
694.077	7848.8
694.423	7912.76
694.769	7883.83
695.116	7882.93
695.462	7931.06
695.808	7832.99
696.155	7843.16
696.501	7732.88
696.847	7775.36
697.193	7686.55
697.539	7724.74
697.885	7601.81
698.231	7590.05
698.577	7631.18
698.923	7566.55
699.269	7573.78
699.614	7555.93
699.96	7520.45
700.306	7459.66
700.651	7455.14
700.997	7426.9
701.342	7408.82
701.688	7418.99
702.033	7352.32
702.379	7299.21
702.724	7297.63
703.069	7333.79
703.415	7256.5
703.76	7238.2
704.105	7221.25
704.45	7175.6
704.795	7214.02
705.14	7112.1
705.485	7100.35
705.83	7054.93
706.175	7158.65
706.52	7084.53
706.865	7053.8
707.209	7036.4
707.554	7057.87
707.899	7036.4
708.243	6992.33
708.588	6966.12
708.932	6930.64
709.277	6934.48
709.621	6896.97
709.966	6892.22
710.31	6906.68
710.654	6825.1
710.998	6842.05
711.342	6813.58
711.687	6804.76
712.031	6763.18
712.375	6840.7
712.719	6777.42
713.063	6678.89
713.407	6782.62
713.75	6693.58
714.094	6696.29
714.438	6712.79
714.782	6693.36
715.125	6677.31
715.469	6676.18
715.812	6632.34
716.156	6618.1
716.499	6600.48
716.843	6636.18
717.186	6566.58
717.53	6589.18
717.873	6668.5
718.216	6567.03
718.559	6565.67
718.902	6461.72
719.246	6492
719.589	6524.77
719.932	6550.31
720.275	6453.36
720.617	6551.44
720.96	6455.62
721.303	6536.98
721.646	6474.15
721.989	6386.92
722.331	6461.04
722.674	6434.15
723.016	6434.15
723.359	6413.36
723.701	6471.21
724.044	6383.31
724.386	6338.56
724.729	6406.13
725.071	6349.64
725.413	6341.27
725.755	6343.31
726.097	6339.69
726.439	6289.75
726.782	6345.57
727.124	6344.44
727.465	6308.05
727.807	6317.77
728.149	6360.93
728.491	6289.3
728.833	6339.24
729.175	6256.08
729.516	6256.98
729.858	6334.72
730.199	6292.91
730.541	6342.18
730.882	6325
731.224	6350.54
731.565	6286.59
731.906	6272.12
732.248	6257.43
732.589	6250.43
732.93	6324.78
733.271	6232.58
733.612	6252.91
733.953	6309.41
734.294	6296.76
734.635	6258.11
734.976	6266.7
735.317	6250.88
735.658	6246.36
735.999	6255.85
736.339	6218.34
736.68	6263.76
737.021	6268.51
737.361	6259.69
737.702	6241.39
738.042	6249.52
738.383	6264.89
738.723	6252.69
739.063	6289.07
739.404	6307.6
739.744	6282.29
740.084	6260.6
740.424	6265.34
740.764	6299.47
741.104	6306.02
741.444	6336.08
741.784	6282.74
742.124	6349.41
742.464	6355.28
742.804	6382.4
743.143	6306.25
743.483	6336.08
743.823	6400.26
744.162	6416.3
744.502	6426.47
744.841	6416.75
745.181	6478.67
745.52	6402.52
745.86	6452.91
746.199	6506.92
746.538	6496.3
746.877	6607.48
747.216	6561.83
747.556	6589.63
747.895	6611.55
748.234	6639.35
748.573	6649.97
748.911	6770.19
749.25	6791.66
749.589	6807.02
749.928	6828.49
750.267	6943.74
750.605	6964.08
750.944	6950.98
751.283	7007.02
751.621	7135.83
751.96	7165.43
752.298	7237.97
752.636	7294.7
752.975	7284.75
753.313	7367.46
753.651	7447.23
753.989	7506.44
754.327	7596.61
754.666	7684.97
755.004	7719.77
755.342	7818.98
755.679	7885.19
756.017	7985.98
756.355	8106.43
756.693	8143.49
757.031	8294.22
757.368	8371.28
757.706	8383.25
758.044	8529.24
758.381	8665.51
758.719	8749.57
759.056	8824.6
759.394	8962.22
759.731	9005.38
760.068	9076.12
760.405	9181.65
760.743	9273.63
761.08	9353.17
761.417	9475.65
761.754	9580.28
762.091	9701.41
762.428	9782.31
762.765	9851.92
763.102	10055.3
763.438	10029.09
763.775	10122.64
764.112	10284.67
764.449	10362.19
764.785	10409.19
765.122	10568.51
765.458	10538.9
765.795	10696.64
766.131	10785.45
766.467	10911.1
766.804	10982.51
767.14	11037.87
767.476	11203.07
767.812	11209.85
768.148	11246.46
768.485	11314.93
768.821	11361.71
769.157	11444.87
769.492	11534.81
