Data from hue_40_FLMS001491_45.txt Node
Date: Mon Feb 06 15:07:57 GMT 2017
User: dcchb
Spectrometer: FLMS00149
Trigger mode: 0
Integration Time (sec): 2.000000E-2
Scans to average: 10
Electric dark correction enabled: true
Nonlinearity correction enabled: false
Boxcar width: 0
XAxis mode: Wavelengths
Number of Pixels in Spectrum: 2048
>>>>>Begin Spectral Data<<<<<
341.393	6.54
341.776	6.54
342.16	6.54
342.543	-59.9
342.927	-82.5
343.31	-66.23
343.693	-51.31
344.077	-57.41
344.46	-72.33
344.843	-56.28
345.226	-39.79
345.61	-28.26
345.993	-23.52
346.376	-0.69
346.759	18.74
347.142	31.4
347.525	38.18
347.908	50.83
348.291	60.1
348.674	88.12
349.057	108.46
349.44	135.58
349.823	141
350.206	158.17
350.588	203.82
350.971	206.99
351.354	229.81
351.737	251.5
352.119	253.54
352.502	259.64
352.884	284.5
353.267	286.98
353.65	293.31
354.032	290.83
354.414	321.56
354.797	316.14
355.179	322.69
355.562	328.79
355.944	330.37
356.326	334.44
356.709	339.19
357.091	327.89
357.473	347.32
357.855	349.81
358.238	340.32
358.62	330.82
359.002	356.13
359.384	342.12
359.766	338.73
360.148	336.47
360.53	320.88
360.912	357.94
361.294	332.63
361.676	335.34
362.057	338.28
362.439	326.3
362.821	323.37
363.203	326.98
363.584	325.18
363.966	331.28
364.348	324.72
364.729	323.59
365.111	307.32
365.493	337.38
365.874	317.49
366.256	311.62
366.637	320.66
367.019	327.43
367.4	328.56
367.781	316.81
368.163	314.33
368.544	329.69
368.925	312.29
369.306	338.73
369.688	322.92
370.069	301.9
370.45	320.2
370.831	315.91
371.212	316.59
371.593	327.66
371.974	314.33
372.355	314.78
372.736	319.98
373.117	340.09
373.498	333.08
373.879	319.98
374.26	319.3
374.641	332.86
375.021	311.39
375.402	326.3
375.783	336.47
376.163	329.69
376.544	328.11
376.925	320.2
377.305	329.47
377.686	343.03
378.066	337.6
378.447	307.77
378.827	338.06
379.208	336.47
379.588	321.56
379.968	367.66
380.349	321.56
380.729	330.37
381.109	338.96
381.489	348
381.87	338.28
382.25	364.72
382.63	347.1
383.01	345.06
383.39	341.22
383.77	369.02
384.15	351.62
384.53	364.95
384.91	343.93
385.29	344.84
385.67	350.03
386.049	344.38
386.429	348.23
386.809	362.01
387.189	340.32
387.568	355.46
387.948	358.62
388.328	353.65
388.707	370.15
389.087	387.09
389.466	350.03
389.846	341.9
390.225	383.93
390.605	377.83
390.984	385.06
391.363	370.15
391.743	374.67
392.122	365.85
392.501	339.19
392.881	357.72
393.26	359.07
393.639	359.3
394.018	376.93
394.397	344.38
394.776	385.29
395.155	390.26
395.534	382.8
395.913	392.29
396.292	377.6
396.671	373.54
397.05	375.34
397.429	380.54
397.808	396.81
398.186	389.81
398.565	415.79
398.944	384.38
399.323	395.68
399.701	408.79
400.08	372.41
400.458	371.28
400.837	405.62
401.215	388
401.594	388.22
401.972	397.94
402.351	411.05
402.729	408.79
403.107	401.56
403.486	430.48
403.864	395
404.242	413.76
404.62	404.5
404.999	406.98
405.377	400.65
405.755	439.07
406.133	434.1
406.511	442.91
406.889	431.16
407.267	428.22
407.645	421.67
408.023	426.87
408.401	426.87
408.779	442.46
409.156	460.54
409.534	452.18
409.912	448.11
410.29	461.89
410.667	453.31
411.045	458.5
411.422	455.12
411.8	460.99
412.178	468.45
412.555	468.22
412.933	463.02
413.31	457.15
413.687	470.03
414.065	496.02
414.442	471.39
414.819	472.06
415.197	491.95
415.574	486.75
415.951	487.66
416.328	513.64
416.705	504.83
417.082	503.93
417.46	504.15
417.837	485.4
418.214	495.11
418.591	503.93
418.967	507.32
419.344	504.38
419.721	500.31
420.098	530.59
420.475	521.55
420.852	524.72
421.228	542.57
421.605	526.07
421.982	525.62
422.358	517.03
422.735	541.67
423.111	562.91
423.488	561.78
423.864	539.63
424.241	567.43
424.617	555.9
424.994	549.12
425.37	562.68
425.746	553.19
426.123	565.85
426.499	563.36
426.875	552.06
427.251	571.04
427.627	595.45
428.003	572.17
428.379	580.54
428.756	602.46
429.132	585.28
429.507	599.97
429.883	597.94
430.259	599.29
430.635	618.5
431.011	623.92
431.387	616.69
431.763	628.67
432.138	658.27
432.514	655.79
432.89	649.46
433.265	651.72
433.641	636.58
434.016	656.69
434.392	659.4
434.767	670.48
435.143	674.54
435.518	665.05
435.894	716.35
436.269	671.83
436.644	691.95
437.02	706.18
437.395	705.5
437.77	694.2
438.145	722.68
438.52	730.81
438.895	723.58
439.271	706.18
439.646	733.75
440.021	746.41
440.395	752.96
440.77	728.33
441.145	750.25
441.52	752.73
441.895	765.84
442.27	752.06
442.645	762.9
443.019	766.97
443.394	769.91
443.769	794.77
444.143	769.01
444.518	752.96
444.892	766.29
445.267	784.82
445.641	794.77
446.016	810.36
446.39	809.23
446.764	817.59
447.139	816.24
447.513	816.46
447.887	802
448.262	798.83
448.636	806.52
449.01	829.79
449.384	845.39
449.758	825.5
450.132	855.1
450.506	843.81
450.88	843.58
451.254	853.52
451.628	886.06
452.002	885.61
452.376	882.9
452.75	889.68
453.123	870.02
453.497	895.78
453.871	930.36
454.244	922.22
454.618	918.83
454.992	925.39
455.365	927.42
455.739	952.73
456.112	964.25
456.486	941.2
456.859	958.15
457.232	992.28
457.606	976.68
457.979	1001.99
458.352	1006.51
458.725	1011.71
459.099	1054.42
459.472	1069.56
459.845	1067.75
460.218	1060.3
460.591	1069.34
460.964	1077.02
461.337	1119.73
461.71	1126.96
462.083	1154.31
462.456	1141.42
462.829	1155.21
463.201	1166.06
463.574	1208.77
463.947	1188.66
464.32	1193.63
464.692	1244.02
465.065	1185.94
465.438	1259.61
465.81	1266.17
466.183	1272.27
466.555	1286.51
466.928	1311.36
467.3	1319.73
467.672	1333.51
468.045	1380.74
468.417	1375.32
468.789	1390.46
469.161	1430.68
469.534	1425.26
469.906	1479.95
470.278	1478.82
470.65	1490.57
471.022	1546.84
471.394	1533.05
471.766	1575.09
472.138	1613.5
472.51	1639.72
472.882	1674.07
473.253	1710.68
473.625	1726.04
473.997	1779.83
474.369	1792.03
474.74	1840.16
475.112	1889.65
475.484	1917.22
475.855	1951.12
476.227	1977.11
476.598	2057.78
476.97	2083.55
477.341	2128.97
477.713	2227.05
478.084	2207.84
478.455	2307.95
478.827	2331.9
479.198	2395.86
479.569	2444.22
479.94	2528.28
480.311	2608.05
480.682	2638.56
481.053	2734.83
481.424	2816.63
481.795	2845.56
482.166	2905.22
482.537	3020.92
482.908	3093.46
483.279	3136.17
483.65	3199
484.021	3357.86
484.391	3420.23
484.762	3491.87
485.133	3549.27
485.503	3630.62
485.874	3784.07
486.244	3806.44
486.615	3905.87
486.985	4026.09
487.356	4158.52
487.726	4222.02
488.097	4342.7
488.467	4413.2
488.837	4580.2
489.207	4654.78
489.578	4708.79
489.948	4841.44
490.318	4958.5
490.688	5057.93
491.058	5141.32
491.428	5259.96
491.798	5400.52
492.168	5526.62
492.538	5612.27
492.908	5733.17
493.278	5841.87
493.648	5896.1
494.017	6033.05
494.387	6100.16
494.757	6246.6
495.126	6353.49
495.496	6404.34
495.866	6518.01
496.235	6637.33
496.605	6767.49
496.974	6846.59
497.344	6932.91
497.713	7018.11
498.082	7149.63
498.452	7215.16
498.821	7341.49
499.19	7390.3
499.559	7521.14
499.928	7678.88
500.298	7711.2
500.667	7865.77
501.036	7871.42
501.405	8063.73
501.774	8060.34
502.143	8148.7
502.512	8274.8
502.88	8348.92
503.249	8350.05
503.618	8499.2
503.987	8571.74
504.356	8661.45
504.724	8740.77
505.093	8737.38
505.462	8895.12
505.83	8928.79
506.199	9065.28
506.567	9243.81
506.936	9214.43
507.304	9326.52
507.672	9372.39
508.041	9467.99
508.409	9538.72
508.777	9685.83
509.145	9706.4
509.514	9778.26
509.882	9927.63
510.25	9919.05
510.618	10022.32
510.986	10072.72
511.354	10236.33
511.722	10291.01
512.09	10378.02
512.458	10376.66
512.826	10462.76
513.193	10544.12
513.561	10612.14
513.929	10622.08
514.297	10791.34
514.664	10904.78
515.032	10939.81
515.4	11011.22
515.767	11107.26
516.135	11099.36
516.502	11071.56
516.869	11294.83
517.237	11308.84
517.604	11356.98
517.972	11436.07
518.339	11507.25
518.706	11580.25
519.073	11629.06
519.44	11733.91
519.808	11746.8
520.175	11893.23
520.542	12006.68
520.909	12017.75
521.276	12045.54
521.643	12140.68
522.009	12215.03
522.376	12346.78
522.743	12412.09
523.11	12588.58
523.477	12668.81
523.843	12702.93
524.21	12810.5
524.577	12904.73
524.943	13002.13
525.31	13005.52
525.676	13175.46
526.043	13220.66
526.409	13294.1
526.776	13440.54
527.142	13417.03
527.508	13529.8
527.874	13573.19
528.241	13852.5
528.607	13803.69
528.973	13949.68
529.339	13914.65
529.705	14106.51
530.071	14183.34
530.437	14138.15
530.803	14299.95
531.169	14395.77
531.535	14370.91
531.901	14363.22
532.267	14540.62
532.632	14537
532.998	14680.73
533.364	14779.94
533.73	14723.21
534.095	14887.05
534.461	15032.58
534.826	15025.81
535.192	15098.57
535.557	15200.26
535.923	15233.26
536.288	15245.91
536.653	15329.3
537.019	15346.48
537.384	15423.54
537.749	15473.93
538.114	15503.31
538.479	15623.76
538.845	15690.42
539.21	15719.8
539.575	15694.49
539.94	15833.24
540.305	15883.64
540.67	15918.44
541.034	16077.53
541.399	16148.49
541.764	16134.7
542.129	16204.08
542.494	16225.1
542.858	16292.21
543.223	16348.03
543.587	16475.48
543.952	16435.26
544.316	16555.48
544.681	16537.63
545.045	16637.06
545.41	16738.98
545.774	16774.23
546.138	16738.08
546.503	16865.98
546.867	16912.99
547.231	17091.97
547.595	17058.75
547.959	17081.57
548.324	17173.55
548.688	17189.82
549.052	17197.5
549.416	17386.65
549.779	17365.18
550.143	17421
550.507	17584.38
550.871	17650.82
551.235	17522.01
551.599	17793.42
551.962	17747.54
552.326	17851.27
552.689	17941.44
553.053	17882.23
553.417	17953.41
553.78	18145.27
554.143	18016.01
554.507	18229.56
554.87	18219.17
555.234	18340.29
555.597	18336.9
555.96	18429.33
556.323	18549.78
556.686	18581.19
557.05	18675.43
557.413	18712.94
557.776	18775.54
558.139	18834.07
558.502	18935.31
558.865	18918.81
559.228	19184.79
559.59	19209.65
559.953	19207.16
560.316	19392.7
560.679	19387.72
561.041	19593.14
561.404	19573.26
561.767	19636.98
562.129	19606.7
562.492	19835.4
562.854	19717.21
563.217	19854.61
563.579	19857.77
563.941	19944.32
564.304	20081.04
564.666	20180.02
565.028	20225.67
565.39	20230.41
565.753	20375.04
566.115	20467.7
566.477	20587.92
566.839	20622.72
567.201	20667.01
567.563	20720.8
567.925	20961.69
568.287	20888.02
568.648	21038.08
569.01	21072.43
569.372	21269.26
569.734	21173.44
570.095	21430.83
570.457	21428.57
570.819	21600.1
571.18	21461.79
571.542	21660.21
571.903	21761.9
572.265	21828.11
572.626	22018.39
572.987	22050.25
573.349	22116.24
573.71	22166.86
574.071	22242.79
574.432	22371.83
574.794	22515.55
575.155	22571.14
575.516	22599.62
575.877	22761.42
576.238	22884.36
576.599	22995.99
576.96	23034.86
577.32	23108.3
577.681	23281.86
578.042	23406.83
578.403	23557.11
578.763	23548.29
579.124	23741.96
579.485	23842.3
579.845	24093.36
580.206	24068.73
580.566	24213.81
580.927	24281.38
581.287	24649.96
581.648	24594.82
582.008	24905.09
582.368	24867.81
582.728	25120.46
583.089	25347.34
583.449	25444.29
583.809	25572.65
584.169	25760.66
584.529	25851.06
584.889	26188.68
585.249	26223.25
585.609	26299.63
585.969	26634.77
586.329	26746.4
586.688	26972.61
587.048	27107.3
587.408	27232.26
587.768	27475.42
588.127	27592.48
588.487	27839.25
588.846	28089.19
589.206	28261.39
589.565	28290.32
589.925	28608.5
590.284	28773.01
590.643	29051.88
591.003	29254.13
591.362	29423.17
591.721	29584.07
592.08	29748.13
592.44	29982.47
592.799	30302.47
593.158	30371.39
593.517	30495.68
593.876	30795.56
594.235	30923.69
594.593	31106.06
594.952	31267.64
595.311	31340.63
595.67	31607.52
596.029	31951.01
596.387	32096.77
596.746	32527.04
597.104	32381.06
597.463	32474.16
597.822	32833.92
598.18	32946.46
598.538	32969.97
598.897	33324.53
599.255	33241.82
599.613	33906.66
599.972	33653.34
600.33	33960
600.688	34035.02
601.046	34360.66
601.404	34667.77
601.762	34616.93
602.12	34891.72
602.478	34983.25
602.836	35070.02
603.194	35098.05
603.552	35309.11
603.91	35414.2
604.268	35661.42
604.625	35713.62
604.983	35968.98
605.341	35971.92
605.698	36247.17
606.056	36328.07
606.413	36417.11
606.771	36799.7
607.128	36704.33
607.485	36805.12
607.843	37008.5
608.2	37062.06
608.557	37325.11
608.914	37263.64
609.272	37589.96
609.629	37695.49
609.986	37904.98
610.343	37848.03
610.7	38197.17
611.057	38236.04
611.414	38238.08
611.771	38488.24
612.127	38670.38
612.484	38616.37
612.841	38843.03
613.198	38820.66
613.554	38962.35
613.911	39120.54
614.267	39271.27
614.624	39279.63
614.98	39263.81
615.337	39547.65
615.693	39493.64
616.05	39664.25
616.406	39780.86
616.762	39816.57
617.118	39817.7
617.475	39924.59
617.831	40181.98
618.187	40199.15
618.543	40251.58
618.899	40466.49
619.255	40373.61
619.611	40461.75
619.967	40668.75
620.323	40708.52
620.678	40655.19
621.034	40678.92
621.39	40710.1
621.746	40544
622.101	41133.82
622.457	40933.6
622.812	41014.05
623.168	41112.35
623.523	41139.02
623.879	41267.6
624.234	41089.53
624.589	41240.26
624.945	41372.68
625.3	41279.8
625.655	41381.72
626.01	41415.39
626.365	41517.76
626.72	41445.45
627.075	41433.02
627.43	41611.55
627.785	41462.62
628.14	41600.7
628.495	41560.02
628.85	41590.08
629.205	41541.72
629.559	41720.92
629.914	41658.33
630.269	41818.77
630.623	41528.39
630.978	41674.6
631.332	41729.28
631.687	41715.95
632.041	41725.67
632.396	41669.4
632.75	41572.45
633.104	41635.05
633.459	41574.49
633.813	41580.59
634.167	41616.29
634.521	41384.21
634.875	41688.83
635.229	41490.19
635.583	41329.97
635.937	41278.9
636.291	41461.04
636.645	41420.82
636.999	41346.47
637.352	41602.06
637.706	41183.08
638.06	41353.93
638.413	41409.07
638.767	41194.83
639.121	41423.53
639.474	41066.93
639.828	41268.96
640.181	41267.83
640.534	41292.23
640.888	41111.45
641.241	40863.54
641.594	41102.63
641.947	41151.67
642.301	41049.75
642.654	41136.31
643.007	41043.88
643.36	41027.61
643.713	40950.32
644.066	41106.02
644.419	40890.21
644.771	40758.46
645.124	40285.93
645.477	40284.58
645.83	40094.07
646.182	39890.46
646.535	39711.03
646.888	39896.79
647.24	39723.24
647.593	39861.54
647.945	39826.06
648.298	39600.07
648.65	39655.21
649.002	39476.24
649.355	39590.58
649.707	39590.36
650.059	39719.62
650.411	40184.47
650.763	40172.26
651.115	40492.03
651.467	40386.95
651.819	40287.06
652.171	40344.69
652.523	40235.99
652.875	40140.17
653.227	40151.25
653.578	40277.34
653.93	40180.17
654.282	39981.76
654.633	40029.89
654.985	40123.22
655.337	40093.85
655.688	40106.73
656.039	40200.28
656.391	39866.73
656.742	40036.9
657.094	40022.44
657.445	40178.59
657.796	40014.98
658.147	40062.66
658.498	39888.88
658.849	40103.34
659.2	39917.58
659.551	39981.31
659.902	39856.11
660.253	39956.9
660.604	40007.52
660.955	39743.57
661.306	40030.35
661.656	39829.22
662.007	39899.95
662.358	39965.71
662.708	39861.54
663.059	39902.21
663.409	39587.19
663.76	39887.07
664.11	39824.25
664.461	39823.35
664.811	39876.68
665.161	39797.81
665.511	39786.28
665.862	39777.47
666.212	39876.9
666.562	39827.41
666.912	39746.74
667.262	39561.66
667.612	39658.15
667.962	39793.29
668.312	39685.27
668.662	39676.68
669.011	39532.73
669.361	39452.73
669.711	39523.01
670.06	39481.89
670.41	39431.94
670.76	39489.57
671.109	39635.33
671.459	39421.55
671.808	39575.22
672.157	39552.62
672.507	39325.96
672.856	39327.09
673.205	39363.47
673.554	39549.45
673.904	39299.29
674.253	39564.6
674.602	39413.19
674.951	38761.23
675.3	38699.76
675.649	39316.01
675.998	39250.71
676.346	39308.78
676.695	39187.88
677.044	38971.84
677.393	39139.3
677.741	39296.81
678.09	39145.17
678.438	39067.43
678.787	39145.85
679.135	39076.47
679.484	38792.86
679.832	38930.04
680.181	38794.67
680.529	38888.45
680.877	38780.21
681.225	38791.06
681.573	39016.14
681.922	38590.61
682.27	38605.75
682.618	38370.28
682.966	38458.86
683.314	38575.24
683.661	38459.54
684.009	38292.99
684.357	38229.26
684.705	38255.25
685.053	38175.71
685.4	38101.58
685.748	38084.63
686.095	38017.52
686.443	37982.26
686.79	37744.98
687.138	37907.01
687.485	37809.39
687.832	37634.48
688.18	37765.09
688.527	37503.86
688.874	37631.99
689.221	37424.31
689.568	37293.24
689.915	37307.93
690.262	37285.79
690.609	37171.66
690.956	37100.71
691.303	36950.65
691.65	36811.22
691.997	36854.38
692.344	36554.05
692.69	36638.8
693.037	36562.87
693.383	36302.53
693.73	36461.4
694.077	36217.34
694.423	36229.77
694.769	36114.97
695.116	36155.65
695.462	36012.82
695.808	35891.47
696.155	36045.14
696.501	35642.66
696.847	35669.1
697.193	35533.06
697.539	35609.45
697.885	35230.02
698.231	35166.97
698.577	35173.07
698.923	35182.56
699.269	35029.8
699.614	34875.91
699.96	34825.51
700.306	34690.37
700.651	34728.11
700.997	34556.14
701.342	34437.27
701.688	34450.38
702.033	34411.28
702.379	34289.03
702.724	34226.66
703.069	34220.1
703.415	33861.47
703.76	33934.69
704.105	33816.5
704.45	33864.41
704.795	33552.1
705.14	33539.67
705.485	33513
705.83	33253.35
706.175	33365.66
706.52	33353.23
706.865	33056.97
707.209	33134.26
707.554	33002.51
707.899	33058.55
708.243	32924.32
708.588	32897.2
708.932	32686.13
709.277	32584.67
709.621	32708.96
709.966	32521.62
710.31	32486.36
710.654	32354.39
710.998	32338.57
711.342	32246.82
711.687	32108.52
712.031	32160.27
712.375	31962.76
712.719	32027.84
713.063	31936.1
713.407	32054.74
713.75	31771.35
714.094	31809.09
714.438	31673.96
714.782	31817.45
715.125	31679.15
715.469	31559.61
715.812	31413.62
716.156	31236.68
716.499	31217.24
716.843	31357.58
717.186	31105.38
717.53	31287.3
717.873	31176.79
718.216	31150.13
718.559	30993.97
718.902	30843.02
719.246	30962.79
719.589	30776.35
719.932	30690.48
720.275	30707.65
720.617	30706.52
720.96	30468.56
721.303	30579.75
721.646	30645.51
721.989	30290.49
722.331	30528.45
722.674	30383.59
723.016	30405.97
723.359	30365.97
723.701	30334.1
724.044	29993.1
724.386	29995.58
724.729	30153.54
725.071	30053.88
725.413	29994.68
725.755	29936.83
726.097	29806.66
726.439	29735.93
726.782	29816.38
727.124	29774.34
727.465	29659.09
727.807	29580.45
728.149	29574.12
728.491	29542.26
728.833	29502.04
729.175	29445.09
729.516	29411.64
729.858	29302.49
730.199	29477.4
730.541	29340.46
730.882	29394.69
731.224	29384.75
731.565	29266.79
731.906	29057.07
732.248	29091.42
732.589	28955.38
732.93	28873.35
733.271	28830.64
733.612	28917.19
733.953	28839.23
734.294	28722.62
734.635	28758.78
734.976	28679.46
735.317	28697.54
735.658	28583.19
735.999	28654.37
736.339	28566.24
736.68	28545.9
737.021	28363.53
737.361	28343.42
737.702	28550.87
738.042	28434.27
738.383	28344.55
738.723	28305.23
739.063	28267.27
739.404	28244.21
739.744	28131.68
740.084	28157.89
740.424	28140.04
740.764	27932.36
741.104	28104.33
741.444	27845.36
741.784	27938.23
742.124	27909.08
742.464	27887.84
742.804	27864.34
743.143	27760.39
743.483	27752.25
743.823	27688.07
744.162	27549.32
744.502	27621.18
744.841	27478.13
745.181	27604.68
745.52	27473.39
745.86	27443.11
746.199	27404.24
746.538	27353.16
746.877	27424.35
747.216	27295.09
747.556	27263.45
747.895	27207.18
748.234	27070.46
748.573	27058.03
748.911	27091.7
749.25	26962.44
749.589	26814.2
749.928	26851.26
750.267	26781.43
750.605	26709.34
750.944	26774.88
751.283	26738.27
751.621	26724.25
751.96	26454.88
752.298	26530.59
752.636	26563.58
752.975	26386.64
753.313	26226.41
753.651	26446.97
753.989	26234.32
754.327	26216.47
754.666	26107.55
755.004	26139.64
755.342	26132.41
755.679	26159.75
756.017	25936.25
756.355	25992.75
756.693	25783.26
757.031	25884.28
757.368	25789.59
