Data from hue_260_FLMS001491_00034.txt Node
Date: Tue Feb 07 15:58:54 GMT 2017
User: dcchb
Spectrometer: FLMS00149
Trigger mode: 0
Integration Time (sec): 2.000000E-2
Scans to average: 10
Electric dark correction enabled: true
Nonlinearity correction enabled: false
Boxcar width: 0
XAxis mode: Wavelengths
Number of Pixels in Spectrum: 2048
>>>>>Begin Spectral Data<<<<<
341.393	-10.31
341.776	-10.31
342.16	-10.31
342.543	-59.57
342.927	-59.12
343.31	-58.67
343.693	-79.01
344.077	-62.74
344.46	-75.17
344.843	-73.36
345.226	-48.73
345.61	-27.03
345.993	-14.6
346.376	-22.06
346.759	9.12
347.142	40.99
347.525	49.35
347.908	61.78
348.291	80.53
348.674	96.13
349.057	123.47
349.44	147.65
349.823	129.8
350.206	158.27
350.588	188.78
350.971	205.96
351.354	232.4
351.737	236.46
352.119	255.67
352.502	254.32
352.884	254.09
353.267	287.08
353.65	279.63
354.032	284.82
354.414	306.74
354.797	306.29
355.179	293.64
355.562	306.74
355.944	318.04
356.326	305.16
356.709	326.4
357.091	313.75
357.473	325.5
357.855	317.36
358.238	342.22
358.62	327.53
359.002	332.51
359.384	332.28
359.766	326.63
360.148	335.44
360.53	354.65
360.912	339.51
361.294	339.28
361.676	310.59
362.057	327.08
362.439	328.44
362.821	324.6
363.203	328.44
363.584	312.39
363.966	321.66
364.348	294.09
364.729	317.36
365.111	310.13
365.493	306.07
365.874	304.94
366.256	320.3
366.637	310.81
367.019	300.64
367.4	332.73
367.781	302.68
368.163	323.47
368.544	306.97
368.925	300.19
369.306	293.41
369.688	316.46
370.069	330.92
370.45	287.99
370.831	321.21
371.212	307.2
371.593	302.68
371.974	317.36
372.355	311.04
372.736	290.02
373.117	296.8
373.498	308.33
373.879	328.21
374.26	327.31
374.641	311.49
375.021	303.81
375.402	297.03
375.783	319.62
376.163	327.53
376.544	290.25
376.925	319.4
377.305	307.42
377.686	307.87
378.066	318.49
378.447	336.12
378.827	308.1
379.208	328.66
379.588	313.3
379.968	325.05
380.349	332.28
380.729	320.98
381.109	327.53
381.489	326.4
381.87	339.28
382.25	335.9
382.63	339.96
383.01	326.18
383.39	341.54
383.77	323.01
384.15	331.6
384.53	358.04
384.91	327.53
385.29	339.06
385.67	354.88
386.049	335.67
386.429	346.52
386.809	356.23
387.189	369.79
387.568	353.97
387.948	352.17
388.328	371.6
388.707	370.02
389.087	337.93
389.466	372.5
389.846	374.54
390.225	372.05
390.605	374.76
390.984	351.94
391.363	364.59
391.743	365.72
392.122	363.01
392.501	374.54
392.881	358.04
393.26	377.25
393.639	365.27
394.018	363.24
394.397	376.8
394.776	391.94
395.155	379.06
395.534	383.8
395.913	397.36
396.292	398.94
396.671	399.85
397.05	381.54
397.429	377.48
397.808	398.94
398.186	387.19
398.565	397.81
398.944	398.94
399.323	389.45
399.701	405.5
400.08	406.18
400.458	406.85
400.837	417.93
401.215	388.55
401.594	401.88
401.972	430.81
402.351	426.74
402.729	421.54
403.107	408.44
403.486	416.12
403.864	428.55
404.242	414.31
404.62	419.28
404.999	451.15
405.377	426.97
405.755	447.08
406.133	418.83
406.511	456.12
406.889	445.95
407.267	467.64
407.645	482.56
408.023	450.92
408.401	478.94
408.779	471.03
409.156	509
409.534	496.12
409.912	460.41
410.29	495.89
410.667	504.03
411.045	519.39
411.422	520.75
411.8	535.21
412.178	536.12
412.555	539.51
412.933	546.29
413.31	553.97
413.687	552.16
414.065	583.12
414.442	582.67
414.819	556
415.197	570.92
415.574	608.66
415.951	598.94
416.328	615.44
416.705	606.4
417.082	607.98
417.46	631.93
417.837	628.99
418.214	622.44
418.591	642.1
418.967	619.73
419.344	647.3
419.721	665.15
420.098	668.32
420.475	680.97
420.852	702.44
421.228	706.51
421.605	721.42
421.982	701.31
422.358	719.16
422.735	729.11
423.111	723.68
423.488	734.3
423.864	763
424.241	765.94
424.617	787.86
424.994	780.86
425.37	798.93
425.746	808.2
426.123	816.56
426.499	832.83
426.875	860.18
427.251	865.15
427.627	849.55
428.003	863.11
428.379	874.64
428.756	908.08
429.132	879.16
429.507	930.68
429.883	927.52
430.259	940.62
430.635	941.75
431.011	937.24
431.387	968.65
431.763	962.32
432.138	991.47
432.514	988.53
432.89	989.89
433.265	1053.16
433.641	1040.28
434.016	1050.68
434.392	1066.5
434.767	1088.64
435.143	1115.31
435.518	1119.15
435.894	1121.19
436.269	1169.77
436.644	1179.49
437.02	1181.52
437.395	1190.56
437.77	1249.09
438.145	1233.27
438.52	1250.9
438.895	1255.19
439.271	1292.25
439.646	1310.11
440.021	1332.48
440.395	1336.32
440.77	1345.36
441.145	1351.69
441.52	1360.05
441.895	1391.23
442.27	1381.74
442.645	1394.85
443.019	1426.71
443.394	1428.52
443.769	1469.88
444.143	1432.59
444.518	1485.7
444.892	1481.18
445.267	1480.72
445.641	1475.53
446.016	1499.93
446.39	1508.75
446.764	1511.91
447.139	1511.01
447.513	1566.6
447.887	1532.02
448.262	1539.25
448.636	1561.17
449.01	1590.33
449.384	1587.39
449.758	1603.21
450.132	1632.58
450.506	1624.9
450.88	1648.63
451.254	1669.19
451.628	1694.05
452.002	1695.18
452.376	1713.26
452.75	1709.87
453.123	1725.01
453.497	1734.28
453.871	1772.69
454.244	1803.88
454.618	1806.82
454.992	1859.92
455.365	1830.09
455.739	1909.87
456.112	1883.43
456.486	1926.36
456.859	1890.43
457.232	1938.34
457.606	1945.8
457.979	1936.08
458.352	1986.93
458.725	2036.42
459.099	1993.7
459.472	2032.8
459.845	2085.23
460.218	2059.01
460.591	2132.91
460.964	2128.62
461.337	2147.6
461.71	2179.46
462.083	2172.01
462.456	2207.94
462.829	2202.51
463.201	2255.17
463.574	2267.37
463.947	2314.83
464.32	2308.95
464.692	2345.11
465.065	2387.59
465.438	2398.67
465.81	2419.23
466.183	2423.3
466.555	2499.91
466.928	2509.4
467.3	2525.67
467.672	2536.06
468.045	2592.78
468.417	2586.23
468.789	2619.22
469.161	2642.95
469.534	2698.54
469.906	2750.52
470.278	2757.3
470.65	2761.59
471.022	2786.68
471.394	2848.15
471.766	2915.26
472.138	2914.81
472.51	2944.87
472.882	2996.39
473.253	3020.34
473.625	3044.07
473.997	3126.56
474.369	3109.83
474.74	3156.39
475.112	3207.68
475.484	3216.72
475.855	3318.19
476.227	3335.14
476.598	3396.38
476.97	3391.41
477.341	3486.32
477.713	3515.02
478.084	3550.27
478.455	3599.76
478.827	3637.96
479.198	3749.36
479.569	3781.91
479.94	3839.31
480.311	3854.45
480.682	3919.76
481.053	3984.61
481.424	4062.35
481.795	4084.95
482.166	4139.86
482.537	4173.76
482.908	4224.15
483.279	4268.45
483.65	4310.93
484.021	4414.21
484.391	4426.86
484.762	4496.24
485.133	4540.76
485.503	4583.47
485.874	4630.92
486.244	4690.13
486.615	4722.45
486.985	4766.29
487.356	4862.33
487.726	4918.15
488.097	4976.68
488.467	5005.6
488.837	5048.31
489.207	5147.52
489.578	5192.94
489.948	5229.78
490.318	5263.22
490.688	5296.67
491.058	5370.57
491.428	5433.61
491.798	5468.42
492.168	5544.8
492.538	5533.95
492.908	5611.91
493.278	5668.86
493.648	5646.04
494.017	5680.16
494.387	5844
494.757	5830.44
495.126	5834.96
495.496	5853.72
495.866	5891.68
496.235	5957.89
496.605	5984.79
496.974	6044.45
497.344	6048.06
497.713	6073.6
498.082	6067.72
498.452	6140.71
498.821	6201.96
499.19	6203.31
499.559	6198.57
499.928	6275.4
500.298	6259.36
500.667	6364.89
501.036	6326.7
501.405	6352.46
501.774	6359.47
502.143	6419.13
502.512	6386.81
502.88	6410.09
503.249	6453.25
503.618	6490.31
503.987	6512.91
504.356	6496.41
504.724	6566.92
505.093	6590.87
505.462	6560.82
505.83	6623.64
506.199	6630.87
506.567	6713.35
506.936	6701.6
507.304	6759.46
507.672	6754.94
508.041	6779.12
508.409	6842.16
508.777	6815.5
509.145	6833.35
509.514	6903.18
509.882	6901.82
510.25	6855.5
510.618	6930.3
510.986	6937.53
511.354	6955.83
511.722	6988.15
512.09	7048.94
512.458	6997.41
512.826	7002.84
513.193	7029.96
513.561	7067.47
513.929	7148.37
514.297	7204.42
514.664	7176.85
515.032	7166
515.4	7201.25
515.767	7246.22
516.135	7151.54
516.502	7144.98
516.869	7247.58
517.237	7297.29
517.604	7234.92
517.972	7207.8
518.339	7278.76
518.706	7311.76
519.073	7250.74
519.44	7335.26
519.808	7363.28
520.175	7320.57
520.542	7433.34
520.909	7399.66
521.276	7397.18
521.643	7483.05
522.009	7455.03
522.376	7465.88
522.743	7491.64
523.11	7503.84
523.477	7574.35
523.843	7552.88
524.21	7625.87
524.577	7622.48
524.943	7636.27
525.31	7646.44
525.676	7723.5
526.043	7709.49
526.409	7682.37
526.776	7763.72
527.142	7709.03
527.508	7737.06
527.874	7715.81
528.241	7806.43
528.607	7759.2
528.973	7790.16
529.339	7790.61
529.705	7811.18
530.071	7871.06
530.437	7897.05
530.803	7904.74
531.169	7926.43
531.535	7892.98
531.901	7855.25
532.267	7883.95
532.632	7909.03
532.998	7919.42
533.364	7932.08
533.73	7925.75
534.095	7940.44
534.461	7914
534.826	7981.57
535.192	7929.59
535.557	7955.36
535.923	7940.89
536.288	7928.92
536.653	7907.9
537.019	7904.06
537.384	7855.92
537.749	7902.93
538.114	7910.61
538.479	7917.62
538.845	7896.15
539.21	7886.43
539.575	7904.74
539.94	7906.32
540.305	7950.84
540.67	7858.86
541.034	7880.78
541.399	7947.9
541.764	7912.87
542.129	7921.23
542.494	7904.28
542.858	7862.02
543.223	7824.74
543.587	7848.01
543.952	7873.1
544.316	7806.89
544.681	7805.76
545.045	7799.65
545.41	7904.51
545.774	7836.04
546.138	7818.18
546.503	7839.88
546.867	7828.81
547.231	7940.21
547.595	7833.1
547.959	7844.4
548.324	7792.87
548.688	7815.47
549.052	7810.95
549.416	7819.99
549.779	7810.05
550.143	7837.17
550.507	7816.83
550.871	7796.49
551.235	7733.67
551.599	7805.53
551.962	7816.38
552.326	7758.98
552.689	7702.93
553.053	7809.14
553.417	7828.35
553.78	7818.41
554.143	7770.05
554.507	7782.25
554.87	7784.96
555.234	7828.81
555.597	7766.43
555.96	7783.38
556.323	7798.07
556.686	7895.7
557.05	7800.78
557.413	7840.1
557.776	7802.59
558.139	7830.16
558.502	7846.43
558.865	7790.84
559.228	7868.58
559.59	7862.25
559.953	7863.15
560.316	7922.81
560.679	7920.1
561.041	7964.85
561.404	7975.92
561.767	7993.55
562.129	7952.87
562.492	8044.39
562.854	8020.44
563.217	7978.41
563.579	7992.87
563.941	8066.77
564.304	8073.77
564.666	8114.45
565.028	8110.15
565.39	8114
565.753	8135.24
566.115	8146.99
566.477	8166.88
566.839	8182.24
567.201	8294.33
567.563	8254.56
567.925	8230.15
568.287	8318.28
568.648	8343.59
569.01	8354.89
569.372	8386.76
569.734	8276.93
570.095	8351.05
570.457	8371.39
570.819	8464.49
571.18	8463.14
571.542	8455.68
571.903	8431.5
572.265	8483.7
572.626	8537.49
572.987	8531.61
573.349	8576.36
573.71	8565.51
574.071	8572.06
574.432	8645.96
574.794	8650.48
575.155	8618.39
575.516	8608.45
575.877	8660.87
576.238	8718.27
576.599	8764.37
576.96	8696.58
577.32	8739.74
577.681	8794.43
578.042	8787.2
578.403	8819.06
578.763	8837.59
579.124	8883.69
579.485	8839.63
579.845	8865.16
580.206	8878.04
580.566	8942
580.927	8953.07
581.287	8921.21
581.648	8961.88
582.008	9055.21
582.368	8997.14
582.728	8974.99
583.089	9046.63
583.449	9059.51
583.809	9081.65
584.169	9084.37
584.529	9101.99
584.889	9115.1
585.249	9047.53
585.609	9106.29
585.969	9125.72
586.329	9119.84
586.688	9147.87
587.048	9105.83
587.408	9078.72
587.768	9186.96
588.127	9123.01
588.487	9088.21
588.846	9221.99
589.206	9205.72
589.565	9191.03
589.925	9265.15
590.284	9215.44
590.643	9332.95
591.003	9347.41
591.362	9386.28
591.721	9341.08
592.08	9319.61
592.44	9306.73
592.799	9304.02
593.158	9377.92
593.517	9411.36
593.876	9324.13
594.235	9384.02
594.593	9289.11
594.952	9371.82
595.311	9398.03
595.67	9339.05
596.029	9456.33
596.387	9428.31
596.746	9447.97
597.104	9390.35
597.463	9392.38
597.822	9487.74
598.18	9464.24
598.538	9374.53
598.897	9400.29
599.255	9452.72
599.613	9572.94
599.972	9502.21
600.33	9513.73
600.688	9523.22
601.046	9540.4
601.404	9505.82
601.762	9501.76
602.12	9565.48
602.478	9547.4
602.836	9561.87
603.194	9563.45
603.552	9471.47
603.91	9595.99
604.268	9543.56
604.625	9530.46
604.983	9595.99
605.341	9482.32
605.698	9546.27
606.056	9582.21
606.413	9511.25
606.771	9582.66
607.128	9630.57
607.485	9587.86
607.843	9541.98
608.2	9651.58
608.557	9624.92
608.914	9600.28
609.272	9652.26
609.629	9694.75
609.986	9655.42
610.343	9705.82
610.7	9692.26
611.057	9739.94
611.414	9709.89
611.771	9721.86
612.127	9747.85
612.484	9789.21
612.841	9831.01
613.198	9757.57
613.554	9680.06
613.911	9773.84
614.267	9859.03
614.624	9745.82
614.98	9802.54
615.337	9794.63
615.693	9762.31
616.05	9825.36
616.406	9821.07
616.762	9802.99
617.118	9877.34
617.475	9793.73
617.831	9868.53
618.187	9837.11
618.543	9877.34
618.899	9897
619.255	9872.14
619.611	9934.29
619.967	9969.09
620.323	9917.11
620.678	9887.28
621.034	9939.71
621.39	9929.77
621.746	9931.58
622.101	10006.15
622.457	9948.3
622.812	9902.2
623.168	9959.14
623.523	9941.07
623.879	9920.73
624.234	9918.92
624.589	9921.86
624.945	9918.24
625.3	9953.72
625.655	9962.08
626.01	9934.51
626.365	9887.96
626.72	9906.94
627.075	9979.03
627.43	9920.05
627.785	9845.25
628.14	9859.71
628.495	9869.43
628.85	9880.73
629.205	9843.67
629.559	9926.83
629.914	9858.58
630.269	9916.43
630.623	9826.04
630.978	9842.31
631.332	9816.55
631.687	9770
632.041	9772.26
632.396	9802.76
632.75	9844.8
633.104	9802.09
633.459	9714.41
633.813	9746.5
634.167	9705.14
634.521	9655.65
634.875	9700.62
635.229	9793.95
635.583	9719.15
635.937	9644.35
636.291	9704.01
636.645	9657.68
636.999	9640.96
637.352	9610.91
637.706	9629.89
638.06	9623.56
638.413	9592.37
638.767	9562.55
639.121	9544.92
639.474	9487.97
639.828	9543.56
640.181	9514.86
640.534	9584.01
640.888	9539.04
641.241	9479.61
641.594	9521.19
641.947	9493.17
642.301	9493.85
642.654	9557.8
643.007	9447.07
643.36	9544.69
643.713	9467.86
644.066	9497.91
644.419	9451.81
644.771	9361.19
645.124	9290.46
645.477	9266.73
645.83	9208.43
646.182	9160.75
646.535	9204.14
646.888	9171.14
647.24	9090.24
647.593	9217.7
647.945	9109.9
648.298	9064.71
648.65	9071.26
649.002	9007.53
649.355	9149
649.707	9159.62
650.059	9182.22
650.411	9228.54
650.763	9243.46
651.115	9331.82
651.467	9402.55
651.819	9252.72
652.171	9196.23
652.523	9285.49
652.875	9275.1
653.227	9258.6
653.578	9434.19
653.93	9317.13
654.282	9273.51
654.633	9256.34
654.985	9280.97
655.337	9290.46
655.688	9322.78
656.039	9368.43
656.391	9260.63
656.742	9317.81
657.094	9273.06
657.445	9293.85
657.796	9291.14
658.147	9217.24
658.498	9298.82
658.849	9300.86
659.2	9255.66
659.551	9222.44
659.902	9205.94
660.253	9249.79
660.604	9339.05
660.955	9329.33
661.306	9294.53
661.656	9321.2
662.007	9319.84
662.358	9320.52
662.708	9276.45
663.059	9309.22
663.409	9318.03
663.76	9323.23
664.11	9291.82
664.461	9222.67
664.811	9330.23
665.161	9264.93
665.511	9311.7
665.862	9287.98
666.212	9301.76
666.562	9303.79
666.912	9334.75
667.262	9306.28
667.612	9327.98
667.962	9336.11
668.312	9236.68
668.662	9285.94
669.011	9298.6
669.361	9319.16
669.711	9256.56
670.06	9201.65
670.41	9188.77
670.76	9258.15
671.109	9230.58
671.459	9225.15
671.808	9268.54
672.157	9235.77
672.507	9160.52
672.856	9206.62
673.205	9148.09
673.554	9153.74
673.904	9149.22
674.253	9148.32
674.602	9132.5
674.951	9068.55
675.3	9013.18
675.649	9162.56
675.998	9156.23
676.346	9143.57
676.695	9124.59
677.044	9100.41
677.393	9219.05
677.741	9118.04
678.09	9104.48
678.438	9046.63
678.787	9048.21
679.135	9078.26
679.484	8943.35
679.832	9019.06
680.181	8981.32
680.529	8986.29
680.877	8945.16
681.225	8943.8
681.573	9003.46
681.922	8937.7
682.27	8918.04
682.618	8842.34
682.966	8844.82
683.314	8890.25
683.661	8853.86
684.009	8798.5
684.357	8766.18
684.705	8766.41
685.053	8795.11
685.4	8731.15
685.748	8721.44
686.095	8742.91
686.443	8724.38
686.79	8661.33
687.138	8689.12
687.485	8692.29
687.832	8631.72
688.18	8604.38
688.527	8546.3
688.874	8588.56
689.221	8575.9
689.568	8584.72
689.915	8587.66
690.262	8498.84
690.609	8422.01
690.956	8423.82
691.303	8426.53
691.65	8416.59
691.997	8352.86
692.344	8325.74
692.69	8394.89
693.037	8337.94
693.383	8237.16
693.73	8212.3
694.077	8152.41
694.423	8245.52
694.769	8139.31
695.116	8151.96
695.462	8164.84
695.808	8083.94
696.155	8076.48
696.501	8006.2
696.847	8010.04
697.193	7972.08
697.539	7944.51
697.885	7868.8
698.231	7883.49
698.577	7930.72
698.923	7820.22
699.269	7805.3
699.614	7729.83
699.96	7677.85
700.306	7779.99
700.651	7702.26
700.997	7659.32
701.342	7696.38
701.688	7655.93
702.033	7621.13
702.379	7625.65
702.724	7586.55
703.069	7578.19
703.415	7504.52
703.76	7485.76
704.105	7481.24
704.45	7472.43
704.795	7421.58
705.14	7431.3
705.485	7378.87
705.83	7370.51
706.175	7339.1
706.52	7363.96
706.865	7327.58
707.209	7264.98
707.554	7224.53
707.899	7215.49
708.243	7224.98
708.588	7193.34
708.932	7110.18
709.277	7130.74
709.621	7176.85
709.966	7085.55
710.31	7027.24
710.654	7038.32
710.998	7028.83
711.342	7092.1
711.687	7027.24
712.031	6947.02
712.375	6926.23
712.719	6957.64
713.063	6939.34
713.407	6952.9
713.75	6894.14
714.094	6916.29
714.438	6840.81
714.782	6873.8
715.125	6865.44
715.469	6841.71
715.812	6858.21
716.156	6782.05
716.499	6800.13
716.843	6830.64
717.186	6778.21
717.53	6789.51
717.873	6845.33
718.216	6820.24
718.559	6752.9
718.902	6713.58
719.246	6753.35
719.589	6657.76
719.932	6673.13
720.275	6688.95
720.617	6713.81
720.96	6660.93
721.303	6740.7
721.646	6681.27
721.989	6642.4
722.331	6642.85
722.674	6622.28
723.016	6591.32
723.359	6602.85
723.701	6603.3
724.044	6610.76
724.386	6606.24
724.729	6601.04
725.071	6556.75
725.413	6613.24
725.755	6551.1
726.097	6551.1
726.439	6507.94
726.782	6515.85
727.124	6587.03
727.465	6524.66
727.807	6561.27
728.149	6525.34
728.491	6510.87
728.833	6537.31
729.175	6531.66
729.516	6502.74
729.858	6478.11
730.199	6472.68
730.541	6499.57
730.882	6497.99
731.224	6440.37
731.565	6509.52
731.906	6526.01
732.248	6507.71
732.589	6488.95
732.93	6470.42
733.271	6504.32
733.612	6539.12
733.953	6490.54
734.294	6503.19
734.635	6437.88
734.976	6494.15
735.317	6449.18
735.658	6459.58
735.999	6496.19
736.339	6508.61
736.68	6506.35
737.021	6495.06
737.361	6461.16
737.702	6427.94
738.042	6500.93
738.383	6439.46
738.723	6528.27
739.063	6495.51
739.404	6507.26
739.744	6524.88
740.084	6506.58
740.424	6467.94
740.764	6487.15
741.104	6536.64
741.444	6562.62
741.784	6502.51
742.124	6575.05
742.464	6546.58
742.804	6591.55
743.143	6555.17
743.483	6596.52
743.823	6593.81
744.162	6617.31
744.502	6649.85
744.841	6651.44
745.181	6663.86
745.52	6707.03
745.86	6716.52
746.199	6676.75
746.538	6709.74
746.877	6810.53
747.216	6844.65
747.556	6880.36
747.895	6907.25
748.234	6932.33
748.573	6912.45
748.911	6962.61
749.25	7029.73
749.589	7027.02
749.928	7105.43
750.267	7136.85
750.605	7155.83
750.944	7221.14
751.283	7220.91
751.621	7348.59
751.96	7365.99
752.298	7448.93
752.636	7522.37
752.975	7622.03
753.313	7600.11
753.651	7772.99
753.989	7788.13
754.327	7817.05
754.666	7870.61
755.004	8001.23
755.342	8123.94
755.679	8187.67
756.017	8259.53
756.355	8399.41
756.693	8464.49
757.031	8558.05
757.368	8648.67
757.706	8731.83
758.044	8828.55
758.381	8970.02
758.719	9096.57
759.056	9184.02
759.394	9261.76
759.731	9404.13
760.068	9479.16
760.405	9632.83
760.743	9756.21
761.08	9905.81
761.417	9965.92
761.754	10106.26
762.091	10212.47
762.428	10309.87
762.765	10438.91
763.102	10619.01
763.438	10696.3
763.775	10783.53
764.112	10891.55
764.449	11063.75
764.785	11074.14
765.122	11172.22
765.458	11297.41
765.795	11447.24
766.131	11560.68
766.467	11663.05
766.804	11814.92
767.14	11904.4
767.476	11906.89
767.812	11947.57
768.148	12162.7
768.485	12236.37
768.821	12259.88
769.157	12398.4
