Data from hue_36_FLMS001491_00012.txt Node
Date: Tue Feb 07 17:29:27 GMT 2017
User: dcchb
Spectrometer: FLMS00149
Trigger mode: 0
Integration Time (sec): 2.000000E-2
Scans to average: 10
Electric dark correction enabled: true
Nonlinearity correction enabled: false
Boxcar width: 0
XAxis mode: Wavelengths
Number of Pixels in Spectrum: 2048
>>>>>Begin Spectral Data<<<<<
341.393	-24.84
341.776	-24.84
342.16	-24.84
342.543	-77.27
342.927	-81.57
343.31	-84.96
343.693	-83.37
344.077	-67.55
344.46	-64.39
344.843	-54.22
345.226	-35.24
345.61	-23.71
345.993	-30.27
346.376	-8.35
346.759	15.38
347.142	25.78
347.525	38.66
347.908	75.72
348.291	65.32
348.674	106.23
349.057	124.98
349.44	119.78
349.823	135.6
350.206	181.03
350.588	195.94
350.971	226.45
351.354	232.78
351.737	230.97
352.119	241.14
352.502	264.41
352.884	291.31
353.267	289.95
353.65	274.58
354.032	302.83
354.414	309.61
354.797	326.11
355.179	332.43
355.562	320.46
355.944	323.17
356.326	319.33
356.709	341.02
357.091	344.19
357.473	355.71
357.855	350.97
358.238	353.9
358.62	354.36
359.002	360.91
359.384	342.15
359.766	341.47
360.148	311.64
360.53	332.89
360.912	338.99
361.294	315.26
361.676	319.55
362.057	335.15
362.439	328.82
362.821	324.75
363.203	316.39
363.584	331.98
363.966	338.08
364.348	328.82
364.729	327.69
365.111	327.92
365.493	305.32
365.874	323.85
366.256	342.6
366.637	317.97
367.019	320.91
367.4	314.58
367.781	305.09
368.163	302.15
368.544	300.12
368.925	314.81
369.306	335.6
369.688	332.66
370.069	321.59
370.45	308.48
370.831	307.8
371.212	307.58
371.593	325.66
371.974	316.84
372.355	321.14
372.736	320.68
373.117	324.3
373.498	302.15
373.879	304.19
374.26	322.04
374.641	306.22
375.021	326.79
375.402	310.29
375.783	317.29
376.163	317.52
376.544	305.77
376.925	312.77
377.305	333.34
377.686	314.58
378.066	305.99
378.447	329.5
378.827	325.43
379.208	312.32
379.588	321.36
379.968	338.54
380.349	329.5
380.729	343.96
381.109	339.89
381.489	340.12
381.87	357.52
382.25	337.41
382.63	347.12
383.01	327.24
383.39	344.86
383.77	329.95
384.15	319.78
384.53	311.64
384.91	334.47
385.29	342.15
385.67	334.92
386.049	336.5
386.429	344.86
386.809	351.87
387.189	342.6
387.568	342.15
387.948	340.34
388.328	350.29
388.707	345.77
389.087	363.85
389.466	329.5
389.846	341.93
390.225	356.16
390.605	371.3
390.984	362.26
391.363	337.18
391.743	346.45
392.122	356.61
392.501	364.98
392.881	357.29
393.26	375.15
393.639	359.1
394.018	374.02
394.397	392.55
394.776	396.84
395.155	380.8
395.534	377.18
395.913	360.68
396.292	384.41
396.671	396.39
397.05	382.38
397.429	390.06
397.808	385.09
398.186	380.8
398.565	372.89
398.944	374.47
399.323	364.3
399.701	400.46
400.08	383.28
400.458	361.36
400.837	407.01
401.215	394.13
401.594	371.53
401.972	399.1
402.351	376.5
402.729	399.33
403.107	393
403.486	401.81
403.864	411.75
404.242	398.65
404.62	403.17
404.999	403.39
405.377	419.44
405.755	406.11
406.133	410.85
406.511	415.14
406.889	403.62
407.267	442.71
407.645	420.57
408.023	445.2
408.401	402.94
408.779	430.96
409.156	424.18
409.534	414.47
409.912	429.61
410.29	450.4
410.667	451.08
411.045	443.17
411.422	437.74
411.8	457.4
412.178	461.24
412.555	465.76
412.933	446.56
413.31	451.75
413.687	480.91
414.065	438.65
414.442	459.44
414.819	474.35
415.197	480.68
415.574	499.66
415.951	461.92
416.328	454.24
416.705	465.54
417.082	478.65
417.46	489.72
417.837	477.06
418.214	510.28
418.591	471.41
418.967	510.28
419.344	506.67
419.721	514.8
420.098	480.45
420.475	500.79
420.852	526.55
421.228	508.48
421.605	514.35
421.982	534.92
422.358	501.92
422.735	526.55
423.111	514.58
423.488	530.17
423.864	530.17
424.241	547.12
424.617	528.59
424.994	545.31
425.37	538.31
425.746	546.21
426.123	545.31
426.499	540.56
426.875	555.25
427.251	558.87
427.627	553.22
428.003	571.3
428.379	587.12
428.756	586.21
429.132	562.26
429.507	583.05
429.883	580.34
430.259	589.15
430.635	595.93
431.011	607
431.387	627.79
431.763	628.92
432.138	611.98
432.514	627.79
432.89	600.9
433.265	642.03
433.641	638.42
434.016	638.64
434.392	631.41
434.767	655.36
435.143	652.65
435.518	671.63
435.894	664.86
436.269	663.27
436.644	675.02
437.02	663.05
437.395	672.54
437.77	688.81
438.145	697.4
438.52	685.87
438.895	687.68
439.271	690.62
439.646	691.3
440.021	706.44
440.395	716.83
440.77	705.08
441.145	723.61
441.52	737.4
441.895	711.18
442.27	747.34
442.645	728.36
443.019	734.68
443.394	769.26
443.769	741.69
444.143	743.95
444.518	728.81
444.892	759.09
445.267	763.84
445.641	754.12
446.016	760.9
446.39	780.56
446.764	794.8
447.139	794.34
447.513	768.36
447.887	796.38
448.262	782.59
448.636	796.83
449.01	785.76
449.384	787.79
449.758	821.91
450.132	833.66
450.506	815.13
450.88	819.88
451.254	826.21
451.628	824.17
452.002	832.76
452.376	857.62
452.75	832.31
453.123	850.39
453.497	849.26
453.871	854.23
454.244	872.76
454.618	889.03
454.992	901.23
455.365	923.83
455.739	901.69
456.112	897.84
456.486	956.83
456.859	936.94
457.232	964.28
457.606	969.71
457.979	970.61
458.352	977.16
458.725	992.3
459.099	984.17
459.472	1015.81
459.845	1024.17
460.218	998.18
460.591	1032.98
460.964	1016.94
461.337	1049.03
461.71	1088.12
462.083	1085.86
462.456	1084.96
462.829	1097.84
463.201	1119.98
463.574	1113.21
463.947	1131.74
464.32	1133.77
464.692	1162.47
465.065	1177.38
465.438	1186.42
465.81	1184.84
466.183	1208.8
466.555	1236.37
466.928	1256.48
467.3	1257.38
467.672	1291.05
468.045	1301.45
468.417	1282.24
468.789	1322.92
469.161	1335.12
469.534	1350.26
469.906	1373.99
470.278	1394.55
470.65	1419.41
471.022	1458.28
471.394	1496.25
471.766	1516.13
472.138	1536.7
472.51	1578.05
472.882	1594.1
473.253	1615.34
473.625	1620.99
473.997	1687.88
474.369	1679.29
474.74	1711.38
475.112	1746.63
475.484	1829.34
475.855	1839.97
476.227	1843.36
476.598	1949.79
476.97	1956.35
477.341	2003.35
477.713	2071.6
478.084	2081.77
478.455	2179.17
478.827	2165.38
479.198	2268.66
479.569	2299.61
479.94	2390.91
480.311	2426.39
480.682	2486.73
481.053	2544.81
481.424	2603.34
481.795	2684.69
482.166	2714.75
482.537	2767.17
482.908	2895.31
483.279	2948.64
483.65	3001.97
484.021	3088.97
484.391	3167.84
484.762	3235.86
485.133	3282.87
485.503	3360.38
485.874	3486.7
486.244	3576.64
486.615	3645.57
486.985	3738.45
487.356	3822.96
487.726	3921.04
488.097	4026.12
488.467	4055.95
488.837	4215.04
489.207	4264.99
489.578	4448.03
489.948	4496.17
490.318	4568.48
490.688	4659.1
491.058	4741.13
491.428	4868.36
491.798	4948.81
492.168	5069.49
492.538	5131.63
492.908	5216.37
493.278	5364.84
493.648	5433.54
494.017	5478.29
494.387	5601.22
494.757	5705.17
495.126	5819.07
495.496	5908.56
495.866	5986.52
496.235	6050.7
496.605	6144.26
496.974	6222.9
497.344	6335.44
497.713	6388.77
498.082	6460.41
498.452	6547.86
498.821	6655.66
499.19	6699.05
499.559	6856.56
499.928	6897.01
500.298	6940.62
500.667	7086.61
501.036	7137
501.405	7149.43
501.774	7227.39
502.143	7303.55
502.512	7381.97
502.88	7560.04
503.249	7566.37
503.618	7562.75
503.987	7734.73
504.356	7746.48
504.724	7831.45
505.093	7903.99
505.462	7945.12
505.83	8025.57
506.199	8117.54
506.567	8153.47
506.936	8263.53
507.304	8319.8
507.672	8432.33
508.041	8450.87
508.409	8553.69
508.777	8514.59
509.145	8673.23
509.514	8676.85
509.882	8760.69
510.25	8796.84
510.618	8821.7
510.986	8903.28
511.354	9061.7
511.722	9111.64
512.09	9199.55
512.458	9176.04
512.826	9284.06
513.193	9360.45
513.561	9424.17
513.929	9403.38
514.297	9511.85
514.664	9631.85
515.032	9614.9
515.4	9718.4
515.767	9750.72
516.135	9867.55
516.502	9824.61
516.869	9902.58
517.237	9941.45
517.604	10006.76
517.972	10158.17
518.339	10148.67
518.706	10150.03
519.073	10333.53
519.44	10286.3
519.808	10386.41
520.175	10309.57
520.542	10542.56
520.909	10627.76
521.276	10544.82
521.643	10641.09
522.009	10774.42
522.376	10746.4
522.743	10795.44
523.11	10955.21
523.477	11040.18
523.843	11137.35
524.21	11220.51
524.577	11327.17
524.943	11298.7
525.31	11341.41
525.676	11531.91
526.043	11532.14
526.409	11578.24
526.776	11688.75
527.142	11788.63
527.508	11793.38
527.874	11954.05
528.241	11978.46
528.607	12000.15
528.973	12092.35
529.339	12067.72
529.705	12218.9
530.071	12349.29
530.437	12410.54
530.803	12441.04
531.169	12554.26
531.535	12479.23
531.901	12619.57
532.267	12627.03
532.632	12708.83
532.998	12762.16
533.364	12827.02
533.73	12978.66
534.095	13020.91
534.461	13021.59
534.826	13017.52
535.192	13157.86
535.557	13298.65
535.923	13215.94
536.288	13304.52
536.653	13360.79
537.019	13386.78
537.384	13457.97
537.749	13455.48
538.114	13547.91
538.479	13668.13
538.845	13692.08
539.21	13631.07
539.575	13764.17
539.94	13709.03
540.305	13880.78
540.67	13852.76
541.034	13892.76
541.399	13967.78
541.764	14032.64
542.129	14116.48
542.494	14145.86
542.858	14203.93
543.223	14242.8
543.587	14303.37
543.952	14270.83
544.316	14422.01
544.681	14349.24
545.045	14571.38
545.41	14615.45
545.774	14587.43
546.138	14623.13
546.503	14741.32
546.867	14743.36
547.231	14894.99
547.595	14886.18
547.959	14972.05
548.324	15036.68
548.688	14983.12
549.052	15025.38
549.416	15102.67
549.779	15059.05
550.143	15180.18
550.507	15318.03
550.871	15336.56
551.235	15363.9
551.599	15526.61
551.962	15546.27
552.326	15481.41
552.689	15666.27
553.053	15592.37
553.417	15635.31
553.78	15898.81
554.143	15775.19
554.507	15890.9
554.87	15971.57
555.234	16049.54
555.597	15990.78
555.96	16024.45
556.323	16099.7
556.686	16154.84
557.05	16300.15
557.413	16348.96
557.776	16285.24
558.139	16493.37
558.502	16459.92
558.865	16555.51
559.228	16637.99
559.59	16699.46
559.953	16711.89
560.316	16849.74
560.679	16811.32
561.041	16993.01
561.404	16999.12
561.767	17151.88
562.129	17015.84
562.492	17099.9
562.854	17223.52
563.217	17247.92
563.579	17299.9
563.941	17378.09
564.304	17477.07
564.666	17615.37
565.028	17627.57
565.39	17598.42
565.753	17780.56
566.115	17696.5
566.477	17890.84
566.839	17924.06
567.201	18026.66
567.563	18043.83
567.925	18170.38
568.287	18256.03
568.648	18280.44
569.01	18371.96
569.372	18486.53
569.734	18416.48
570.095	18566.53
570.457	18629.58
570.819	18693.99
571.18	18825.06
571.542	18848.11
571.903	18906.64
572.265	19029.57
572.626	19052.62
572.987	19168.78
573.349	19209.68
573.71	19382.78
574.071	19484.93
574.432	19533.51
574.794	19666.16
575.155	19667.52
575.516	19626.39
575.877	19800.17
576.238	19924.24
576.599	20072.48
576.96	20191.57
577.32	20232.7
577.681	20438.8
578.042	20576.87
578.403	20585.01
578.763	20733.48
579.124	20905.23
579.485	21027.94
579.845	21191.1
580.206	21300.92
580.566	21470.86
580.927	21630.63
581.287	21765.09
581.648	21778.65
582.008	21975.71
582.368	22104.07
582.728	22500.21
583.089	22460.44
583.449	22662.24
583.809	22870.6
584.169	23118.5
584.529	23210.7
584.889	23447.08
585.249	23591.94
585.609	23602.33
585.969	24013.62
586.329	24064.69
586.688	24239.38
587.048	24443.44
587.408	24614.96
587.768	24883.65
588.127	25108.28
588.487	25170.43
588.846	25599.57
589.206	25651.32
589.565	25941.48
589.925	26122.04
590.284	26274.13
590.643	26625.98
591.003	26847.9
591.362	27112.07
591.721	27176.47
592.08	27470.03
592.44	27746.4
592.799	28032.95
593.158	28164.92
593.517	28338.93
593.876	28642.65
594.235	28725.13
594.593	28963.55
594.952	29307.72
595.311	29385.68
595.67	29642.4
596.029	29896.63
596.387	30166.9
596.746	30377.52
597.104	30401.25
597.463	30619.77
597.822	30937.96
598.18	31076.26
598.538	31240.55
598.897	31673.31
599.255	31425.18
599.613	32229.68
599.972	32074.43
600.33	32396.68
600.688	32365.72
601.046	32724.8
601.404	33007.51
601.762	33172.93
602.12	33358.01
602.478	33651.11
602.836	33718.22
603.194	33737.21
603.552	33948.5
603.91	33999.12
604.268	34327.93
604.625	34329.73
604.983	34671.42
605.341	34566.34
605.698	34826.67
606.056	35197.96
606.413	35143.27
606.771	35470.72
607.128	35529.93
607.485	35508.91
607.843	35741.67
608.2	35960.88
608.557	36189.8
608.914	36211.94
609.272	36464.37
609.629	36611.03
609.986	36782.32
610.343	36865.49
610.7	37173.95
611.057	37300.28
611.414	37262.76
611.771	37349.77
612.127	37670.89
612.484	37756.54
612.841	37967.6
613.198	37916.53
613.554	37972.12
613.911	38226.81
614.267	38330.08
614.624	38411.66
614.98	38578.66
615.337	38870.4
615.693	38768.49
616.05	38842.61
616.406	39104.3
616.762	39151.3
617.118	39114.92
617.475	39122.6
617.831	39331.41
618.187	39442.37
618.543	39528.69
618.899	39752.19
619.255	39826.76
619.611	39735.01
619.967	39968.23
620.323	40105.4
620.678	40129.13
621.034	40009.13
621.39	40052.75
621.746	40005.97
622.101	40537.71
622.457	40313.76
622.812	40461.1
623.168	40577.25
623.523	40548.78
623.879	40833.74
624.234	40626.97
624.589	40781.31
624.945	40772.95
625.3	40834.87
625.655	40948.32
626.01	40850.24
626.365	40939.73
626.72	41044.36
627.075	40949.67
627.43	40987.64
627.785	41101.76
628.14	41060.86
628.495	41184.47
628.85	41220.85
629.205	41036
629.559	41423.78
629.914	41153.51
630.269	41281.41
630.623	41091.82
630.978	41076.22
631.332	41382.88
631.687	41421.98
632.041	41105.37
632.396	41295.88
632.75	41249.33
633.104	41398.25
633.459	41105.15
633.813	41108.99
634.167	41144.24
634.521	41260.62
634.875	41331.36
635.229	41391.92
635.583	41067.41
635.937	41203.45
636.291	41154.86
636.645	41228.53
636.999	40981.08
637.352	41238.93
637.706	41033.96
638.06	41282.09
638.413	41166.16
638.767	41105.83
639.121	41144.92
639.474	40804.59
639.828	40919.39
640.181	40920.75
640.534	41044.36
640.888	40836
641.241	40713.97
641.594	40927.53
641.947	41030.8
642.301	40853.63
642.654	40966.17
643.007	40915.1
643.36	40877.36
643.713	40794.42
644.066	40988.09
644.419	40727.3
644.771	40381.78
645.124	40110.6
645.477	40102.24
645.83	39876.93
646.182	39733.21
646.535	39580.89
646.888	39643.04
647.24	39499.99
647.593	39895.69
647.945	39723.72
648.298	39510.16
648.65	39402.14
649.002	39290.05
649.355	39609.14
649.707	39337.28
650.059	39690.27
650.411	40076.93
650.763	40156.7
651.115	40555.11
651.467	40412.06
651.819	40392.85
652.171	40333.42
652.523	40186.53
652.875	40221.1
653.227	40111.95
653.578	40280.08
653.93	40256.13
654.282	40028.11
654.633	40097.72
654.985	40143.14
655.337	40052.52
655.688	40080.99
656.039	40263.59
656.391	39861.56
656.742	40059.3
657.094	40020.66
657.445	40053.88
657.796	39896.59
658.147	40004.84
658.498	39957.83
658.849	40007.78
659.2	39898.85
659.551	39923.71
659.902	39917.38
660.253	39867.89
660.604	40032.86
660.955	39715.13
661.306	39970.94
661.656	39997.83
662.007	39848.23
662.358	39841
662.708	39807.33
663.059	39909.93
663.409	39719.65
663.76	40043.03
664.11	39864.95
664.461	39919.87
664.811	39878.06
665.161	39844.16
665.511	39695.24
665.862	39740.44
666.212	39951.28
666.562	39919.42
666.912	39763.26
667.262	39721.68
667.612	39698.41
667.962	39911.51
668.312	39682.36
668.662	40032.63
669.011	39719.2
669.361	39796.71
669.711	39667.45
670.06	39623.61
670.41	39605.98
670.76	39672.87
671.109	39712.64
671.459	39495.7
671.808	39572.08
672.157	39643.72
672.507	39579.54
672.856	39521.23
673.205	39453.89
673.554	39582.93
673.904	39454.8
674.253	39686.65
674.602	39548.58
674.951	38897.52
675.3	38872.21
675.649	39530.27
675.998	39430.84
676.346	39549.93
676.695	39591.52
677.044	39153.33
677.393	39475.13
677.741	39303.16
678.09	39234.24
678.438	39192.2
678.787	39445.76
679.135	39275.37
679.484	39094.58
679.832	39197.4
680.181	39092.09
680.529	39156.72
680.877	38967.58
681.225	39008.93
681.573	39170.51
681.922	38916.05
682.27	38653.91
682.618	38964.87
682.966	38725.78
683.314	38739.56
683.661	38638.09
684.009	38469.74
684.357	38501.37
684.705	38387.25
685.053	38410.98
685.4	38325.79
685.748	38200.59
686.095	38262.06
686.443	37992.91
686.79	37993.14
687.138	38124.66
687.485	38054.83
687.832	37966.7
688.18	38023.2
688.527	37741.62
688.874	37774.39
689.221	37665.24
689.568	37508.63
689.915	37394.51
690.262	37481.97
690.609	37400.16
690.956	37220.96
691.303	37248.3
691.65	37215.08
691.997	37212.14
692.344	36927.86
692.69	36943.22
693.037	36880.63
693.383	36670.24
693.73	36721.99
694.077	36557.47
694.423	36505.27
694.769	36376.91
695.116	36311.38
695.462	36256.46
695.808	36204.49
696.155	36244.03
696.501	35904.38
696.847	35837.26
697.193	35750.71
697.539	35879.07
697.885	35586.65
698.231	35449.93
698.577	35467.1
698.923	35384.39
699.269	35289.26
699.614	35136.04
699.96	35063.5
700.306	35117.06
700.651	34935.37
700.997	34923.84
701.342	34690.85
701.688	34764.3
702.033	34528.37
702.379	34675.94
702.724	34516.39
703.069	34661.93
703.415	34172.9
703.76	34233.24
704.105	34188.49
704.45	34122.73
704.795	33967.71
705.14	33899.24
705.485	33814.04
705.83	33747.6
706.175	33846.58
706.52	33645.91
706.865	33557.32
707.209	33433.03
707.554	33361.85
707.899	33441.39
708.243	33186.03
708.588	33121.86
708.932	32971.35
709.277	32907.85
709.621	33087.96
709.966	32786.5
710.31	32784.91
710.654	32533.17
710.998	32537.46
711.342	32697.69
711.687	32518.26
712.031	32375.21
712.375	32252.5
712.719	32414.53
713.063	32209.34
713.407	32336.79
713.75	32099.74
714.094	32090.92
714.438	31906.97
714.782	32022.22
715.125	31905.39
715.469	31989
715.812	31727.77
716.156	31603.25
716.499	31669.69
716.843	31683.02
717.186	31519.19
717.53	31705.4
717.873	31523.25
718.216	31421.79
718.559	31326.2
718.902	31097.95
719.246	31231.28
719.589	31081.23
719.932	30937.51
720.275	31045.75
720.617	31026.54
720.96	30890.28
721.303	30910.16
721.646	30881.91
721.989	30619.77
722.331	30809.37
722.674	30710.39
723.016	30641.24
723.359	30761.01
723.701	30638.98
724.044	30598.76
724.386	30333.68
724.729	30475.6
725.071	30481.92
725.413	30439.67
725.755	30416.62
726.097	30149.73
726.439	30140.69
726.782	30145.89
727.124	30263.17
727.465	30021.82
727.807	30016.63
728.149	30029.51
728.491	29891.43
728.833	29880.36
729.175	29894.37
729.516	29740.93
729.858	29668.84
730.199	29722.4
730.541	29666.8
730.882	29609.63
731.224	29774.6
731.565	29475.4
731.906	29449.86
732.248	29459.8
732.589	29353.59
732.93	29207.61
733.271	29220.71
733.612	29332.58
733.953	29307.94
734.294	29156.31
734.635	29036.54
734.976	29248.51
735.317	28998.12
735.658	28917.67
735.999	28959.93
736.339	28802.19
736.68	28988.63
737.021	28881.06
737.361	28671.35
737.702	28888.07
738.042	28732.37
738.383	28700.28
738.723	28774.17
739.063	28732.59
739.404	28746.15
739.744	28595.19
740.084	28526.5
740.424	28591.35
740.764	28404.24
741.104	28509.77
741.444	28322.43
741.784	28293.73
742.124	28378.93
742.464	28361.98
742.804	28207.63
743.143	28196.33
743.483	28204.24
743.823	28090.8
744.162	28001.99
744.502	27983.69
744.841	27874.31
745.181	28019.39
745.52	27812.62
745.86	27943.69
746.199	27887.19
746.538	27799.28
746.877	27769.91
747.216	27735.33
747.556	27710.02
747.895	27769.91
748.234	27535.79
748.573	27536.92
748.911	27549.12
749.25	27456.69
749.589	27420.54
749.928	27480.65
750.267	27521.78
750.605	27351.61
750.944	27235
751.283	27132.63
751.621	27383.25
751.96	27067.78
752.298	27132.41
752.636	27115.46
752.975	26998.4
753.313	26870.95
753.651	27021.9
753.989	26855.58
754.327	26833.43
754.666	26637.05
755.004	26676.15
755.342	26772.19
755.679	26576.72
756.017	26561.58
756.355	26560.45
756.693	26279.1
757.031	26379.66
757.368	26255.82
