Data from hue_280_FLMS001491_00022.txt Node
Date: Tue Feb 07 15:55:02 GMT 2017
User: dcchb
Spectrometer: FLMS00149
Trigger mode: 0
Integration Time (sec): 2.000000E-2
Scans to average: 10
Electric dark correction enabled: true
Nonlinearity correction enabled: false
Boxcar width: 0
XAxis mode: Wavelengths
Number of Pixels in Spectrum: 2048
>>>>>Begin Spectral Data<<<<<
341.393	2.66
341.776	2.66
342.16	2.66
342.543	-51.13
342.927	-78.92
343.31	-73.73
343.693	-56.78
344.077	-54.07
344.46	-64.46
344.843	-59.04
345.226	-34.18
345.61	-33.28
345.993	-18.36
346.376	-12.03
346.759	16.89
347.142	31.81
347.525	54.18
347.908	52.15
348.291	54.41
348.674	102.31
349.057	94.18
349.44	120.17
349.823	149.32
350.206	160.62
350.588	164.01
350.971	194.06
351.354	203.1
351.737	213.27
352.119	232.71
352.502	246.04
352.884	259.37
353.267	274.06
353.65	277.68
354.032	286.72
354.414	293.5
354.797	298.01
355.179	317.9
355.562	313.38
355.944	325.81
356.326	317
356.709	338.69
357.091	322.65
357.473	317.9
357.855	319.03
358.238	315.19
358.62	317.45
359.002	320.16
359.384	317.45
359.766	332.82
360.148	320.61
360.53	334.4
360.912	318.35
361.294	318.81
361.676	326.26
362.057	298.01
362.439	305.47
362.821	316.55
363.203	303.44
363.584	307.51
363.966	307.96
364.348	326.26
364.729	319.71
365.111	299.82
365.493	314.29
365.874	333.27
366.256	315.87
366.637	295.08
367.019	299.37
367.4	309.09
367.781	310.22
368.163	289.88
368.544	286.72
368.925	295.08
369.306	302.99
369.688	280.84
370.069	298.47
370.45	298.47
370.831	300.95
371.212	290.11
371.593	296.21
371.974	295.53
372.355	298.47
372.736	329.88
373.117	312.48
373.498	318.35
373.879	300.95
374.26	307.51
374.641	301.86
375.021	302.76
375.402	311.57
375.783	327.39
376.163	316.77
376.544	335.08
376.925	324.91
377.305	301.86
377.686	319.26
378.066	321.07
378.447	332.14
378.827	323.78
379.208	324.45
379.588	333.49
379.968	331.01
380.349	343.66
380.729	318.13
381.109	345.25
381.489	324.45
381.87	325.58
382.25	321.52
382.63	317
383.01	326.26
383.39	352.25
383.77	337.79
384.15	321.74
384.53	346.83
384.91	360.39
385.29	324.91
385.67	343.21
386.049	328.3
386.429	345.25
386.809	345.92
387.189	340.5
387.568	352.48
387.948	345.02
388.328	345.47
388.707	343.44
389.087	373.04
389.466	357.9
389.846	350.67
390.225	369.2
390.605	366.49
390.984	374.17
391.363	352.93
391.743	368.97
392.122	352.7
392.501	365.81
392.881	385.7
393.26	369.88
393.639	372.59
394.018	356.77
394.397	387.05
394.776	373.49
395.155	383.89
395.534	387.96
395.913	406.03
396.292	395.19
396.671	406.49
397.05	402.87
397.429	382.98
397.808	386.83
398.186	399.26
398.565	401.74
398.944	387.05
399.323	418.69
399.701	410.1
400.08	398.13
400.458	412.14
400.837	413.04
401.215	414.62
401.594	406.94
401.972	418.69
402.351	437.67
402.729	411.91
403.107	405.13
403.486	433.6
403.864	438.58
404.242	428.63
404.62	450.33
404.999	449.88
405.377	446.26
405.755	457.56
406.133	460.95
406.511	484.22
406.889	466.82
407.267	494.39
407.645	487.39
408.023	479.93
408.401	480.83
408.779	498.46
409.156	503.43
409.534	498.91
409.912	507.5
410.29	506.6
410.667	499.14
411.045	521.29
411.422	518.57
411.8	534.84
412.178	535.75
412.555	534.39
412.933	543.88
413.31	551.57
413.687	577.33
414.065	558.8
414.442	587.05
414.819	587.27
415.197	593.83
415.574	602.64
415.951	604
416.328	608.97
416.705	612.58
417.082	639.93
417.46	641.51
417.837	655.52
418.214	629.31
418.591	639.25
418.967	656.2
419.344	668.4
419.721	670.66
420.098	674.95
420.475	688.06
420.852	685.8
421.228	696.65
421.605	721.05
421.982	710.66
422.358	735.97
422.735	742.07
423.111	734.61
423.488	771.9
423.864	752.92
424.241	772.58
424.617	790.88
424.994	791.11
425.37	777.32
425.746	782.52
426.123	824.1
426.499	823.42
426.875	823.2
427.251	863.2
427.627	869.98
428.003	886.25
428.379	887.6
428.756	887.15
429.132	907.49
429.507	911.78
429.883	939.81
430.259	942.07
430.635	931.67
431.011	957.21
431.387	969.18
431.763	982.97
432.138	994.04
432.514	980.03
432.89	1014.38
433.265	1015.51
433.641	1041.27
434.016	1043.08
434.392	1070.88
434.767	1113.81
435.143	1109.74
435.518	1107.26
435.894	1142.29
436.269	1169.63
436.644	1155.39
437.02	1160.36
437.395	1174.38
437.77	1194.04
438.145	1212.12
438.52	1209.86
438.895	1224.54
439.271	1228.84
439.646	1269.29
440.021	1279.46
440.395	1276.75
440.77	1285.11
441.145	1315.16
441.52	1358.1
441.895	1337.31
442.27	1351.32
442.645	1350.42
443.019	1325.56
443.394	1358.55
443.769	1359
444.143	1379.57
444.518	1411.43
444.892	1391.55
445.267	1407.14
445.641	1410.53
446.016	1444.43
446.39	1399.68
446.764	1429.06
447.139	1422.73
447.513	1449.62
447.887	1462.5
448.262	1477.87
448.636	1466.35
449.01	1501.6
449.384	1492.56
449.758	1493.01
450.132	1512.22
450.506	1507.02
450.88	1545.89
451.254	1540.02
451.628	1563.97
452.002	1564.87
452.376	1565.55
452.75	1575.27
453.123	1607.36
453.497	1626.79
453.871	1588.83
454.244	1627.25
454.618	1641.48
454.992	1646.68
455.365	1682.84
455.739	1701.14
456.112	1715.83
456.486	1704.98
456.859	1737.07
457.232	1786.11
457.606	1786.11
457.979	1798.54
458.352	1787.02
458.725	1816.17
459.099	1848.71
459.472	1860.69
459.845	1881.25
460.218	1892.1
460.591	1909.5
460.964	1878.99
461.337	1954.47
461.71	1975.48
462.083	1978.87
462.456	1958.54
462.829	1947.91
463.201	1980.68
463.574	2004.18
463.947	2045.77
464.32	2081.47
464.692	2094.58
465.065	2090.74
465.438	2110.62
465.81	2154.92
466.183	2140.68
466.555	2177.29
466.928	2201.02
467.3	2212.09
467.672	2243.27
468.045	2278.98
468.417	2271.75
468.789	2312.88
469.161	2345.42
469.534	2361.24
469.906	2369.82
470.278	2403.27
470.65	2398.75
471.022	2467.45
471.394	2502.7
471.766	2463.83
472.138	2520.1
472.51	2556.03
472.882	2591.74
473.253	2631.29
473.625	2636.71
473.997	2673.77
474.369	2656.14
474.74	2695.01
475.112	2775.24
475.484	2789.25
475.855	2815.91
476.227	2817.95
476.598	2907.21
476.97	2947.89
477.341	2990.37
477.713	2986.31
478.084	3033.76
478.455	3075.34
478.827	3110.6
479.198	3167.09
479.569	3196.02
479.94	3215.9
480.311	3259.07
480.682	3300.87
481.053	3346.97
481.424	3414.32
481.795	3454.32
482.166	3434.43
482.537	3520.98
482.908	3538.61
483.279	3601.66
483.65	3629.23
484.021	3697.93
484.391	3708.32
484.762	3706.74
485.133	3761.88
485.503	3800.97
485.874	3858.15
486.244	3911.93
486.615	3950.35
486.985	3965.71
487.356	4014.98
487.726	4007.3
488.097	4111.25
488.467	4127.29
488.837	4190.79
489.207	4198.03
489.578	4277.35
489.948	4293.62
490.318	4378.59
490.688	4319.15
491.058	4440.96
491.428	4443.44
491.798	4462.65
492.168	4557.11
492.538	4494.97
492.908	4603.21
493.278	4639.82
493.648	4651.35
494.017	4683.89
494.387	4742.64
494.757	4796.65
495.126	4838.91
495.496	4838.01
495.866	4831.68
496.235	4864.67
496.605	4919.14
496.974	4880.49
497.344	4984.45
497.713	4994.39
498.082	4981.96
498.452	5038
498.821	5026.7
499.19	5069.41
499.559	5145.57
499.928	5094.05
500.298	5109.19
500.667	5143.99
501.036	5120.49
501.405	5209.98
501.774	5202.74
502.143	5266.7
502.512	5287.49
502.88	5320.03
503.249	5301.27
503.618	5337.43
503.987	5407.26
504.356	5407.48
504.724	5405.45
505.093	5414.72
505.462	5453.13
505.83	5432.12
506.199	5539.68
506.567	5541.49
506.936	5483.64
507.304	5547.37
507.672	5569.74
508.041	5618.55
508.409	5566.12
508.777	5614.26
509.145	5684.77
509.514	5625.78
509.882	5661.94
510.25	5673.01
510.618	5719.12
510.986	5721.37
511.354	5764.76
511.722	5802.28
512.09	5802.5
512.458	5837.3
512.826	5870.52
513.193	5850.19
513.561	5864.87
513.929	5867.13
514.297	5957.75
514.664	5931.09
515.032	5923.18
515.4	5998.2
515.767	5988.94
516.135	5986.68
516.502	5978.54
516.869	6005.21
517.237	6057.19
517.604	5984.19
517.972	6052.21
518.339	6152.32
518.706	6055.83
519.073	6137.18
519.44	6121.59
519.808	6188.48
520.175	6172.44
520.542	6204.53
520.909	6260.34
521.276	6264.19
521.643	6279.33
522.009	6365.43
522.376	6314.13
522.743	6370.85
523.11	6411.3
523.477	6389.83
523.843	6399.1
524.21	6486.1
524.577	6456.27
524.943	6507.57
525.31	6521.58
525.676	6526.33
526.043	6528.81
526.409	6596.83
526.776	6696.26
527.142	6564.52
527.508	6725.42
527.874	6695.36
528.241	6726.77
528.607	6789.37
528.973	6830.72
529.339	6777.39
529.705	6860.33
530.071	6886.54
530.437	6885.19
530.803	6928.57
531.169	6946.65
531.535	6896.03
531.901	6978.29
532.267	6929.93
532.632	7000.66
532.998	7010.15
533.364	7016.26
533.73	7062.13
534.095	7078.4
534.461	7057.84
534.826	7088.34
535.192	7131.73
535.557	7149.59
535.923	7162.92
536.288	7168.34
536.653	7169.02
537.019	7180.32
537.384	7214.9
537.749	7302.12
538.114	7296.02
538.479	7258.06
538.845	7277.27
539.21	7288.57
539.575	7303.93
539.94	7321.56
540.305	7375.79
540.67	7403.59
541.034	7381.44
541.399	7399.75
541.764	7318.4
542.129	7433.19
542.494	7444.04
542.858	7485.62
543.223	7488.33
543.587	7482.01
543.952	7558.84
544.316	7495.11
544.681	7468.9
545.045	7517.94
545.41	7611.72
545.774	7607.43
546.138	7575.56
546.503	7597.48
546.867	7594.09
547.231	7611.95
547.595	7638.61
547.959	7705.73
548.324	7656.92
548.688	7620.99
549.052	7709.12
549.416	7730.14
549.779	7730.36
550.143	7648.1
550.507	7783.92
550.871	7734.66
551.235	7785.73
551.599	7779.85
551.962	7769.91
552.326	7840.87
552.689	7830.02
553.053	7840.64
553.417	7769
553.78	7889.45
554.143	7827.99
554.507	7930.58
554.87	7866.86
555.234	7953.63
555.597	7914.09
555.96	7962.45
556.323	8003.8
556.686	8033.4
557.05	7989.79
557.413	8033.86
557.776	8072.27
558.139	8095.78
558.502	8103.91
558.865	8067.08
559.228	8168.77
559.59	8186.17
559.953	8238.14
560.316	8237.69
560.679	8215.09
561.041	8254.64
561.404	8331.7
561.767	8327.41
562.129	8310.01
562.492	8323.34
562.854	8426.16
563.217	8382.77
563.579	8421.42
563.941	8479.27
564.304	8437.01
564.666	8511.58
565.028	8596.33
565.39	8578.25
565.753	8602.43
566.115	8648.76
566.477	8686.95
566.839	8714.29
567.201	8712.48
567.563	8711.35
567.925	8756.32
568.287	8763.1
568.648	8835.64
569.01	8873.38
569.372	8882.2
569.734	8875.19
570.095	8901.86
570.457	8953.38
570.819	8980.5
571.18	8930.56
571.542	9067.5
571.903	9098.91
572.265	9096.88
572.626	9139.59
572.987	9141.17
573.349	9134.62
573.71	9240.15
574.071	9232.92
574.432	9332.58
574.794	9331.22
575.155	9327.83
575.516	9370.77
575.877	9406.93
576.238	9475.63
576.599	9455.29
576.96	9501.84
577.32	9525.57
577.681	9582.06
578.042	9672.23
578.403	9640.82
578.763	9669.52
579.124	9707.26
579.485	9770.53
579.845	9798.33
580.206	9786.13
580.566	9860.93
580.927	9933.24
581.287	9972.56
581.648	9988.38
582.008	10043.75
582.368	10105.67
582.728	10146.57
583.089	10198.77
583.449	10241.48
583.809	10358.54
584.169	10352.44
584.529	10411.2
584.889	10487.58
585.249	10502.72
585.609	10552.43
585.969	10653.9
586.329	10649.38
586.688	10742.71
587.048	10767.57
587.408	10782.26
587.768	10892.09
588.127	10922.14
588.487	10922.82
588.846	11119.2
589.206	11036.04
589.565	11123.49
589.925	11262.47
590.284	11257.5
590.643	11397.38
591.003	11415.46
591.362	11510.15
591.721	11636.93
592.08	11605.74
592.44	11679.64
592.799	11745.17
593.158	11820.65
593.517	11794.89
593.876	11927.99
594.235	11946.3
594.593	12066.74
594.952	12212.05
595.311	12114.65
595.67	12174.09
596.029	12322.11
596.387	12359.17
596.746	12435.77
597.104	12414.31
597.463	12479.39
597.822	12671.93
598.18	12600.52
598.538	12668.31
598.897	12759.83
599.255	12723.45
599.613	12909.21
599.972	12897.91
600.33	12986.95
600.688	12966.83
601.046	13049.54
601.404	13155.08
601.762	13172.93
602.12	13240.95
602.478	13260.61
602.836	13267.84
603.194	13294.96
603.552	13356.43
603.91	13380.83
604.268	13441.62
604.625	13428.52
604.983	13513.49
605.341	13554.16
605.698	13665.12
606.056	13581.28
606.413	13661.28
606.771	13669.19
607.128	13748.06
607.485	13711.45
607.843	13710.32
608.2	13859.24
608.557	13922.29
608.914	13860.37
609.272	14016.52
609.629	14061.72
609.986	14102.17
610.343	14009.97
610.7	14093.36
611.057	14138.33
611.414	14165.67
611.771	14182.4
612.127	14310.53
612.484	14281.15
612.841	14310.53
613.198	14336.06
613.554	14377.87
613.911	14466.68
614.267	14381.26
614.624	14438.21
614.98	14392.56
615.337	14568.83
615.693	14535.38
616.05	14549.84
616.406	14631.42
616.762	14596.85
617.118	14532.67
617.475	14600.24
617.831	14693.12
618.187	14708.26
618.543	14766.33
618.899	14719.78
619.255	14841.59
619.611	14803.4
619.967	14825.99
620.323	14804.53
620.678	14707.81
621.034	14759.78
621.39	14902.83
621.746	14766.11
622.101	15041.13
622.457	14901.7
622.812	14856.28
623.168	14878.87
623.523	14917.74
623.879	14928.14
624.234	14869.61
624.589	14954.8
624.945	15026.67
625.3	14942.6
625.655	14995.93
626.01	15029.15
626.365	14960.91
626.72	14994.13
627.075	14974.69
627.43	14914.13
627.785	14956.61
628.14	15059.66
628.495	15058.08
628.85	15025.99
629.205	14996.16
629.559	15136.49
629.914	14943.28
630.269	15048.59
630.623	14959.1
630.978	14938.08
631.332	14970.4
631.687	14965.65
632.041	14863.28
632.396	14905.54
632.75	14863.96
633.104	14975.37
633.459	14935.82
633.813	14866.9
634.167	14896.73
634.521	14826.9
634.875	14889.04
635.229	14770.63
635.583	14785.32
635.937	14827.8
636.291	14791.87
636.645	14723.62
636.999	14761.14
637.352	14710.97
637.706	14637.98
638.06	14737.86
638.413	14654.47
638.767	14634.13
639.121	14699.44
639.474	14691.99
639.828	14609.28
640.181	14720.01
640.534	14700.35
640.888	14646.11
641.241	14543.52
641.594	14540.58
641.947	14688.6
642.301	14583.74
642.654	14535.38
643.007	14621.71
643.36	14623.51
643.713	14608.37
644.066	14584.19
644.419	14472.33
644.771	14395.05
645.124	14257.87
645.477	14268.04
645.83	14135.62
646.182	14233.47
646.535	14171.32
646.888	14132.23
647.24	14064.88
647.593	14115.05
647.945	14120.7
648.298	14061.04
648.65	14061.95
649.002	14005.9
649.355	14170.42
649.707	14110.08
650.059	14121.38
650.411	14357.98
650.763	14308.49
651.115	14504.65
651.467	14390.98
651.819	14480.24
652.171	14337.19
652.523	14326.57
652.875	14330.64
653.227	14371.77
653.578	14376.29
653.93	14451.31
654.282	14282.28
654.633	14333.13
654.985	14392.56
655.337	14321.83
655.688	14350.75
656.039	14404.08
656.391	14401.37
656.742	14415.16
657.094	14415.16
657.445	14437.08
657.796	14435.27
658.147	14389.4
658.498	14434.59
658.849	14413.8
659.2	14363.18
659.551	14401.6
659.902	14475.5
660.253	14415.38
660.604	14466.23
660.955	14405.89
661.306	14426.91
661.656	14485.66
662.007	14443.63
662.358	14514.36
662.708	14545.78
663.059	14425.78
663.409	14337.42
663.76	14508.04
664.11	14413.8
664.461	14618.77
664.811	14543.74
665.161	14461.26
665.511	14426.23
665.862	14480.24
666.212	14507.58
666.562	14529.28
666.912	14523.18
667.262	14452.67
667.612	14437.98
667.962	14501.71
668.312	14494.7
668.662	14587.81
669.011	14491.77
669.361	14498.77
669.711	14459.68
670.06	14532.44
670.41	14365.44
670.76	14470.07
671.109	14484.08
671.459	14457.42
671.808	14432.11
672.157	14396.4
672.507	14351.88
672.856	14335.61
673.205	14378.1
673.554	14412.22
673.904	14386.46
674.253	14433.69
674.602	14377.64
674.951	14200.7
675.3	14179.68
675.649	14321.83
675.998	14345.56
676.346	14303.3
676.695	14329.28
677.044	14231.66
677.393	14254.94
677.741	14208.61
678.09	14214.49
678.438	14151.66
678.787	14284.09
679.135	14266.69
679.484	14193.24
679.832	14237.08
680.181	14098.1
680.529	14094.04
680.877	14051.1
681.225	14104.43
681.573	14063.3
681.922	13932.46
682.27	13947.15
682.618	13978.56
682.966	13974.94
683.314	13923.19
683.661	13887.49
684.009	13872.57
684.357	13796.64
684.705	13819.92
685.053	13813.59
685.4	13767.04
685.748	13709.64
686.095	13759.58
686.443	13633.71
686.79	13583.77
687.138	13627.38
687.485	13609.3
687.832	13536.54
688.18	13482.53
688.527	13456.31
688.874	13553.71
689.221	13369.76
689.568	13330.67
689.915	13350.78
690.262	13382.19
690.609	13243.21
690.956	13233.27
691.303	13172.03
691.65	13160.73
691.997	13058.36
692.344	12923.9
692.69	13011.58
693.037	13030.11
693.383	12835.54
693.73	12942.88
694.077	12790.79
694.423	12894.07
694.769	12810.45
695.116	12776.78
695.462	12718.71
695.808	12724.13
696.155	12689.78
696.501	12623.11
696.847	12578.14
697.193	12517.81
697.539	12489.33
697.885	12417.7
698.231	12345.83
698.577	12337.02
698.923	12360.97
699.269	12174.99
699.614	12152.62
699.96	12149
700.306	12205.05
700.651	12068.78
700.997	12035.79
701.342	11997.14
701.688	12013.64
702.033	11914.66
702.379	11966.41
702.724	11878.28
703.069	11800.99
703.415	11690.71
703.76	11691.39
704.105	11644.84
704.45	11641.45
704.795	11608.68
705.14	11558.28
705.485	11463.82
705.83	11398.06
706.175	11552.41
706.52	11390.83
706.865	11429.93
707.209	11384.28
707.554	11349.02
707.899	11311.28
708.243	11232.64
708.588	11285.97
708.932	11202.13
709.277	11197.62
709.621	11223.38
709.966	11110.84
710.31	11149.48
710.654	10957.85
710.998	11015.93
711.342	10991.74
711.687	10975.93
712.031	10916.94
712.375	10848.25
712.719	10891.41
713.063	10901.13
713.407	10830.17
713.75	10780
714.094	10815.93
714.438	10734.12
714.782	10761.47
715.125	10742.26
715.469	10840.34
715.812	10688.02
716.156	10625.65
716.499	10603.96
716.843	10643.28
717.186	10635.14
717.53	10644.41
717.873	10629.72
718.216	10595.82
718.559	10552.66
718.902	10507.92
719.246	10608.25
719.589	10557.63
719.932	10429.5
720.275	10460.91
720.617	10412.55
720.96	10484.87
721.303	10425.43
721.646	10391.08
721.989	10406.9
722.331	10460.46
722.674	10417.07
723.016	10409.84
723.359	10364.87
723.701	10454.13
724.044	10379.56
724.386	10259.79
724.729	10285.55
725.071	10308.37
725.413	10313.12
725.755	10270.18
726.097	10223.63
726.439	10134.37
726.782	10167.81
727.124	10217.75
727.465	10152.9
727.807	10224.99
728.149	10152.67
728.491	10109.06
728.833	10168.26
729.175	10172.78
729.516	10160.58
729.858	10143.41
730.199	10154.7
730.541	10158.32
730.882	10105.44
731.224	10158.55
731.565	10123.75
731.906	10072.45
732.248	10130.52
732.589	10092.79
732.93	10131.88
733.271	10165.33
733.612	10086.91
733.953	10081.49
734.294	10112.22
734.635	10073.58
734.976	10102.95
735.317	10111.77
735.658	10127.36
735.999	10110.64
736.339	10131.65
736.68	10141.6
737.021	10156.74
737.361	10091.66
737.702	10163.07
738.042	10102.5
738.383	10193.8
738.723	10185.44
739.063	10184.99
739.404	10171.65
739.744	10178.43
740.084	10142.95
740.424	10108.15
740.764	10193.35
741.104	10224.53
741.444	10209.84
741.784	10156.06
742.124	10301.59
742.464	10224.76
742.804	10235.38
743.143	10298.66
743.483	10254.36
743.823	10266.57
744.162	10306.11
744.502	10340.24
744.841	10400.12
745.181	10491.87
745.52	10443.28
745.86	10509.27
746.199	10550.63
746.538	10575.94
746.877	10611.87
747.216	10669.95
747.556	10702.71
747.895	10750.85
748.234	10772.32
748.573	10801.92
748.911	10885.31
749.25	10995.36
749.589	10964.63
749.928	11116.71
750.267	11229.93
750.605	11271.06
750.944	11290.95
751.283	11403.26
751.621	11487.1
751.96	11451.62
752.298	11651.16
752.636	11751.72
752.975	11718.28
753.313	11896.58
753.651	12082.56
753.989	12077.82
754.327	12226.74
754.666	12271.49
755.004	12385.61
755.342	12539.73
755.679	12544.25
756.017	12695.2
756.355	12860.62
756.693	12935.2
757.031	13051.13
757.368	13203.89
757.706	13327.73
758.044	13432.58
758.381	13559.36
758.719	13762.29
759.056	13890.88
759.394	14005.45
