Data from hue_340_FLMS001491_39.txt Node
Date: Mon Feb 06 15:43:02 GMT 2017
User: dcchb
Spectrometer: FLMS00149
Trigger mode: 0
Integration Time (sec): 2.000000E-2
Scans to average: 10
Electric dark correction enabled: true
Nonlinearity correction enabled: false
Boxcar width: 0
XAxis mode: Wavelengths
Number of Pixels in Spectrum: 2048
>>>>>Begin Spectral Data<<<<<
341.393	-7.92
341.776	-7.92
342.16	-7.92
342.543	-79.11
342.927	-76.4
343.31	-60.8
343.693	-61.71
344.077	-70.52
344.46	-75.72
344.843	-66.68
345.226	-38.66
345.61	-19.9
345.993	-48.6
346.376	-15.83
346.759	26.65
347.142	33.66
347.525	43.37
347.908	64.84
348.291	66.2
348.674	103.03
349.057	120.66
349.44	122.24
349.823	150.26
350.206	176.25
350.588	192.98
350.971	213.54
351.354	209.7
351.737	236.59
352.119	234.33
352.502	251.28
352.884	286.53
353.267	258.96
353.65	326.98
354.032	301.67
354.414	313.2
354.797	289.02
355.179	307.32
355.562	317.27
355.944	338.06
356.326	326.53
356.709	322.24
357.091	334.44
357.473	347.32
357.855	346.64
358.238	340.99
358.62	352.07
359.002	336.02
359.384	352.07
359.766	353.42
360.148	335.57
360.53	338.96
360.912	332.63
361.294	348.23
361.676	318.4
362.057	323.37
362.439	324.27
362.821	322.69
363.203	326.3
363.584	339.19
363.966	314.55
364.348	311.16
364.729	313.88
365.111	298.74
365.493	318.62
365.874	300.99
366.256	296.02
366.637	318.85
367.019	307.1
367.4	302.58
367.781	306.19
368.163	318.62
368.544	317.72
368.925	319.07
369.306	314.1
369.688	305.06
370.069	298.06
370.45	309.81
370.831	291.96
371.212	309.81
371.593	323.37
371.974	304.61
372.355	304.61
372.736	309.36
373.117	309.13
373.498	315.01
373.879	305.29
374.26	295.8
374.641	309.13
375.021	307.55
375.402	293.99
375.783	307.1
376.163	305.06
376.544	317.49
376.925	334.67
377.305	310.71
377.686	319.53
378.066	305.06
378.447	346.87
378.827	313.42
379.208	330.37
379.588	321.79
379.968	315.01
380.349	308.68
380.729	316.59
381.109	318.62
381.489	344.38
381.87	322.24
382.25	339.41
382.63	310.26
383.01	334.89
383.39	331.28
383.77	328.11
384.15	322.92
384.53	347.32
384.91	357.94
385.29	342.12
385.67	330.6
386.049	339.19
386.429	360.43
386.809	343.48
387.189	362.24
387.568	350.71
387.948	348.23
388.328	364.95
388.707	341.67
389.087	337.83
389.466	371.05
389.846	344.84
390.225	346.42
390.605	353.42
390.984	358.62
391.363	337.6
391.743	378.73
392.122	357.72
392.501	357.26
392.881	350.49
393.26	357.94
393.639	339.19
394.018	344.84
394.397	365.4
394.776	394.78
395.155	368.56
395.534	387.77
395.913	373.99
396.292	355
396.671	370.15
397.05	366.53
397.429	360.65
397.808	373.08
398.186	373.31
398.565	360.65
398.944	374.67
399.323	389.35
399.701	381.22
400.08	377.38
400.458	398.62
400.837	387.55
401.215	399.3
401.594	389.81
401.972	418.05
402.351	380.31
402.729	376.7
403.107	376.47
403.486	387.09
403.864	389.81
404.242	392.74
404.62	393.65
404.999	440.65
405.377	415.57
405.755	421.9
406.133	412.86
406.511	404.95
406.889	411.73
407.267	402.01
407.645	431.39
408.023	420.54
408.401	411.73
408.779	425.51
409.156	414.89
409.534	435
409.912	453.08
410.29	433.19
410.667	453.31
411.045	434.78
411.422	439.3
411.8	430.71
412.178	447.43
412.555	479.52
412.933	449.92
413.31	468
413.687	464.38
414.065	470.26
414.442	469.35
414.819	487.88
415.197	480.65
415.574	494.89
415.951	508.22
416.328	497.37
416.705	489.24
417.082	512.06
417.46	501.44
417.837	497.83
418.214	521.55
418.591	524.04
418.967	533.53
419.344	515.45
419.721	494.21
420.098	537.37
420.475	548.22
420.852	569.46
421.228	552.51
421.605	554.32
421.982	563.81
422.358	542.8
422.735	557.26
423.111	580.76
423.488	581.67
423.864	578.73
424.241	574.89
424.617	589.35
424.994	627.09
425.37	613.98
425.746	609.69
426.123	616.47
426.499	599.74
426.875	613.3
427.251	613.3
427.627	637.48
428.003	627.31
428.379	627.99
428.756	627.99
429.132	647.88
429.507	661.44
429.883	659.63
430.259	692.62
430.635	664.15
431.011	676.35
431.387	684.49
431.763	699.18
432.138	691.27
432.514	686.97
432.89	681.1
433.265	711.83
433.641	716.58
434.016	699.18
434.392	726.52
434.767	731.04
435.143	733.98
435.518	762.9
435.894	739.18
436.269	760.64
436.644	768.1
437.02	767.88
437.395	778.5
437.77	785.5
438.145	795.45
438.52	776.46
438.895	811.26
439.271	806.29
439.646	802.22
440.021	797.48
440.395	821.66
440.77	832.73
441.145	821.21
441.52	863.92
441.895	814.2
442.27	839.29
442.645	853.97
443.019	844.71
443.394	842.9
443.769	885.61
444.143	856.01
444.518	856.91
444.892	860.75
445.267	846.74
445.641	871.15
446.016	867.53
446.39	892.62
446.764	893.75
447.139	907.08
447.513	919.74
447.887	892.17
448.262	924.93
448.636	893.97
449.01	896.91
449.384	903.69
449.758	922.67
450.132	904.82
450.506	942.33
450.88	937.81
451.254	934.42
451.628	933.29
452.002	951.83
452.376	987.53
452.75	960.41
453.123	988.43
453.497	992.73
453.871	1009.9
454.244	992.05
454.618	983.24
454.992	1019.62
455.365	1001.77
455.739	1010.13
456.112	1056
456.486	1021.65
456.859	1050.81
457.232	1056
457.606	1026.85
457.979	1083.57
458.352	1085.38
458.725	1090.8
459.099	1101.2
459.472	1101.2
459.845	1092.84
460.218	1090.13
460.591	1117.47
460.964	1140.29
461.337	1171.93
461.71	1180.29
462.083	1155.89
462.456	1174.64
462.829	1151.59
463.201	1165.83
463.574	1194.76
463.947	1198.82
464.32	1246.73
464.692	1215.32
465.065	1253.29
465.438	1270.46
465.81	1297.35
466.183	1285.6
466.555	1303
466.928	1296
467.3	1332.38
467.672	1316.56
468.045	1359.72
468.417	1373.74
468.789	1358.59
469.161	1379.38
469.534	1412.83
469.906	1387.97
470.278	1443.79
470.65	1429.1
471.022	1460.51
471.394	1491.92
471.766	1510.68
472.138	1499.83
472.51	1536.67
472.882	1568.98
473.253	1557.23
473.625	1585.71
473.997	1571.7
474.369	1643.56
474.74	1629.77
475.112	1639.72
475.484	1674.74
475.855	1737.34
476.227	1698.47
476.598	1763.78
476.97	1765.36
477.341	1819.37
477.713	1845.59
478.084	1821.86
478.455	1841.52
478.827	1913.16
479.198	1919.71
479.569	1915.19
479.94	1987.96
480.311	2017.11
480.682	2017.56
481.053	2085.81
481.424	2087.61
481.795	2117.22
482.166	2155.86
482.537	2176.65
482.908	2190.89
483.279	2212.58
483.65	2272.02
484.021	2299.59
484.391	2312.24
484.762	2318.12
485.133	2321.73
485.503	2416.42
485.874	2444.67
486.244	2431.11
486.615	2512.91
486.985	2506.36
487.356	2582.29
487.726	2566.25
488.097	2652.35
488.467	2603.99
488.837	2702.97
489.207	2674.94
489.578	2742.06
489.948	2772.12
490.318	2796.3
490.688	2809.86
491.058	2908.38
491.428	2900.02
491.798	2896.18
492.168	2984.99
492.538	2984.54
492.908	3019.12
493.278	3004.2
493.648	3059.57
494.017	3067.02
494.387	3076.97
494.757	3098.89
495.126	3194.25
495.496	3121.49
495.866	3189.05
496.235	3221.14
496.605	3242.39
496.974	3278.77
497.344	3271.76
497.713	3318.09
498.082	3353.12
498.452	3373.23
498.821	3371.65
499.19	3368.71
499.559	3416.62
499.928	3406.9
500.298	3414.36
500.667	3505.88
501.036	3478.31
501.405	3510.18
501.774	3540.23
502.143	3548.82
502.512	3541.59
502.88	3558.31
503.249	3526.45
503.618	3617.29
503.987	3603.73
504.356	3618.65
504.724	3659.32
505.093	3649.83
505.462	3663.17
505.83	3681.92
506.199	3655.71
506.567	3767.8
506.936	3737.06
507.304	3733.45
507.672	3793.78
508.041	3749.04
508.409	3845.76
508.777	3830.17
509.145	3803.73
509.514	3804.18
509.882	3928.92
510.25	3863.39
510.618	3894.8
510.986	3907.68
511.354	3916.95
511.722	3950.84
512.09	4023.16
512.458	3971.86
512.826	3977.73
513.193	4023.83
513.561	3960.79
513.929	4005.76
514.297	4060.9
514.664	4052.53
515.032	4034.68
515.4	4090.73
515.767	4102.7
516.135	4129.37
516.502	4066.55
516.869	4124.85
517.237	4232.64
517.604	4161.68
517.972	4211.63
518.339	4178.41
518.706	4159.2
519.073	4180.67
519.44	4191.29
519.808	4256.15
520.175	4213.89
520.542	4282.13
520.909	4310.61
521.276	4281.68
521.643	4354
522.009	4381.79
522.376	4415.24
522.743	4372.3
523.11	4419.3
523.477	4430.6
523.843	4437.84
524.21	4458.85
524.577	4476.03
524.943	4517.83
525.31	4486.87
525.676	4557.38
526.043	4564.39
526.409	4589.7
526.776	4646.87
527.142	4647.32
527.508	4647.32
527.874	4710.6
528.241	4712.86
528.607	4731.16
528.973	4752.18
529.339	4796.24
529.705	4829.24
530.071	4832.63
530.437	4819.97
530.803	4885.96
531.169	4889.8
531.535	4895.22
531.901	4901.1
532.267	4919.86
532.632	4984.49
532.998	4982.45
533.364	5019.06
533.73	5022.23
534.095	5070.14
534.461	5069.01
534.826	5107.2
535.192	5139.96
535.557	5130.47
535.923	5174.09
536.288	5194.88
536.653	5203.24
537.019	5206.18
537.384	5203.24
537.749	5225.16
538.114	5250.47
538.479	5278.72
538.845	5293.63
539.21	5305.38
539.575	5310.35
539.94	5346.06
540.305	5399.39
540.67	5361.43
541.034	5407.3
541.399	5426.96
541.764	5448.2
542.129	5466.96
542.494	5530.91
542.858	5527.98
543.223	5536.79
543.587	5545.6
543.952	5577.24
544.316	5634.87
544.681	5603
545.045	5647.3
545.41	5657.46
545.774	5723.45
546.138	5708.31
546.503	5744.47
546.867	5734.3
547.231	5804.8
547.595	5789.66
547.959	5816.33
548.324	5803.68
548.688	5843
549.052	5916.44
549.416	5919.83
549.779	5927.97
550.143	5924.8
550.507	5965.93
550.871	6006.83
551.235	5963.9
551.599	6004.12
551.962	6048.64
552.326	6025.59
552.689	6082.09
553.053	6026.95
553.417	6064.91
553.78	6108.07
554.143	6132.25
554.507	6170.45
554.87	6134.97
555.234	6232.82
555.597	6167.06
555.96	6246.83
556.323	6258.13
556.686	6250.67
557.05	6338.58
557.413	6294.06
557.776	6347.84
558.139	6336.77
558.502	6330.67
558.865	6376.99
559.228	6392.36
559.59	6475.07
559.953	6449.76
560.316	6442.98
560.679	6540.6
561.041	6491.57
561.404	6534.96
561.767	6513.03
562.129	6530.89
562.492	6598.91
562.854	6615.18
563.217	6587.61
563.579	6641.85
563.941	6703.76
564.304	6671.9
564.666	6743.31
565.028	6740.15
565.39	6711.9
565.753	6731.56
566.115	6772.69
566.477	6879.8
566.839	6916.19
567.201	6907.83
567.563	6858.34
567.925	6927.71
568.287	6941.27
568.648	6992.8
569.01	6984.89
569.372	7098.78
569.734	7083.19
570.095	7113.47
570.457	7137.65
570.819	7135.17
571.18	7172
571.542	7194.82
571.903	7274.82
572.265	7241.15
572.626	7289.06
572.987	7343.75
573.349	7380.81
573.71	7478.66
574.071	7461.48
574.432	7445.44
574.794	7620.8
575.155	7676.17
575.516	7699.9
575.877	7670.97
576.238	7756.62
576.599	7781.7
576.96	7912.32
577.32	7953.45
577.681	8012.43
578.042	8031.64
578.403	8138.98
578.763	8241.58
579.124	8314.12
579.485	8393.66
579.845	8529.93
580.206	8583.71
580.566	8675.69
580.927	8794.56
581.287	8938.06
581.648	9034.55
582.008	9110.48
582.368	9227.31
582.728	9415.56
583.089	9555.89
583.449	9641.31
583.809	9747.07
584.169	9943.68
584.529	10124.92
584.889	10366.72
585.249	10403.55
585.609	10607.39
585.969	10778.91
586.329	10940.04
586.688	11132.8
587.048	11352
587.408	11527.14
587.768	11672.45
588.127	11951.99
588.487	12066.11
588.846	12474.46
589.206	12515.81
589.565	12795.13
589.925	13085.74
590.284	13281.44
590.643	13529.12
591.003	13759.85
591.362	14021.76
591.721	14247.07
592.08	14498.14
592.44	14708.75
592.799	15025.58
593.158	15229.64
593.517	15460.14
593.876	15793.02
594.235	16042.5
594.593	16338.77
594.952	16591.64
595.311	16851.07
595.67	17082.02
596.029	17544.61
596.387	17832.51
596.746	18064.37
597.104	18252.84
597.463	18507.97
597.822	18926.27
598.18	19080.16
598.538	19227.5
598.897	19624.1
599.255	19768.05
599.613	20368.94
599.972	20446.23
600.33	20697.75
600.688	20838.53
601.046	21210.5
601.404	21669.7
601.762	21783.82
602.12	22163.7
602.478	22368.21
602.836	22643.46
603.194	22715.32
603.552	22963.22
603.91	23223.56
604.268	23569.76
604.625	23726.14
604.983	24048.62
605.341	24141.95
605.698	24575.16
606.056	24755.27
606.413	24918.65
606.771	25374.23
607.128	25579.43
607.485	25481.58
607.843	25850.61
608.2	26065.29
608.557	26422.34
608.914	26556.12
609.272	26851.03
609.629	27056.22
609.986	27341.19
610.343	27381.64
610.7	27771.46
611.057	27816.43
611.414	27997.67
611.771	28134.61
612.127	28504.77
612.484	28593.13
612.841	28815.73
613.198	28908.15
613.554	29113.57
613.911	29375.26
614.267	29481.47
614.624	29643.05
614.98	29920.78
615.337	30118.29
615.693	30209.81
616.05	30245.07
616.406	30593.31
616.762	30553.76
617.118	30805.73
617.475	30828.78
617.831	31067.64
618.187	31138.15
618.543	31320.97
618.899	31543.79
619.255	31603.22
619.611	31702.43
619.967	31885.7
620.323	32054.51
620.678	32015.42
621.034	31961.86
621.39	32150.78
621.746	32199.82
622.101	32653.82
622.457	32500.6
622.812	32579.92
623.168	32839.35
623.523	32909.86
623.879	33022.62
624.234	32887.71
624.589	33043.64
624.945	33272.11
625.3	33388.94
625.655	33365.89
626.01	33530.18
626.365	33615.37
626.72	33597.07
627.075	33595.94
627.43	33698.08
627.785	33620.12
628.14	33710.06
628.495	33810.85
628.85	33755.26
629.205	33702.15
629.559	34018.98
629.914	33919.09
630.269	33989.6
630.623	33860.34
630.978	33977.62
631.332	34050.84
631.687	34201.35
632.041	34129.26
632.396	34156.38
632.75	34147.34
633.104	34213.78
633.459	34037.06
633.813	34130.16
634.167	34223.27
634.521	34210.84
634.875	34383.49
635.229	34268.92
635.583	34040.67
635.937	34153.89
636.291	34201.8
636.645	34156.38
636.999	34089.26
637.352	34233.89
637.706	34127.22
638.06	34211.06
638.413	34183.49
638.767	34090.16
639.121	34215.81
639.474	34056.72
639.828	34182.36
640.181	34166.09
640.534	34259.65
640.888	34162.7
641.241	34077.28
641.594	34019.43
641.947	34213.78
642.301	34111.41
642.654	34098.3
643.007	34169.03
643.36	34176.04
643.713	34026.21
644.066	34152.99
644.419	33969.71
644.771	33770.4
645.124	33559.33
645.477	33534.7
645.83	33268.04
646.182	33164.54
646.535	33116.86
646.888	33221.03
647.24	32955.73
647.593	33153.46
647.945	33134.48
648.298	32888.16
648.65	32806.58
649.002	32854.49
649.355	32990.08
649.707	33007.48
650.059	33086.8
650.411	33554.13
650.763	33486.11
651.115	33915.03
651.467	33737.63
651.819	33741.25
652.171	33625.54
652.523	33708.03
652.875	33698.31
653.227	33530.63
653.578	33656.73
653.93	33585.32
654.282	33646.33
654.633	33302.61
654.985	33534.47
655.337	33547.58
655.688	33480.01
656.039	33669.84
656.391	33323.63
656.742	33382.38
657.094	33480.01
657.445	33479.11
657.796	33511.42
658.147	33501.48
658.498	33359.56
658.849	33517.97
659.2	33438.65
659.551	33336.74
659.902	33434.36
660.253	33447.92
660.604	33352.78
660.955	33313.46
661.306	33390.52
661.656	33320.24
662.007	33386.68
662.358	33371.09
662.708	33305.55
663.059	33306
663.409	33194.37
663.76	33403.63
664.11	33245.89
664.461	33482.5
664.811	33274.14
665.161	33337.41
665.511	33203.41
665.862	33309.17
666.212	33412.67
666.562	33386
666.912	33291.31
667.262	33187.14
667.612	33285.44
667.962	33196.63
668.312	33221.03
668.662	33332.22
669.011	33315.27
669.361	33143.07
669.711	33294.03
670.06	33084.31
670.41	33086.35
670.76	33122.05
671.109	33291.31
671.459	33026.01
671.808	33089.74
672.157	33269.39
672.507	32993.69
672.856	32951.21
673.205	33062.39
673.554	33153.24
673.904	33002.73
674.253	33121.83
674.602	32999.57
674.951	32671.67
675.3	32324.33
675.649	33037.99
675.998	32992.11
676.346	33010.87
676.695	33117.08
677.044	32786.69
677.393	32822.4
677.741	32963.19
678.09	32797.54
678.438	32729.29
678.787	32748.05
679.135	32821.04
679.484	32542.63
679.832	32753.7
680.181	32571.11
680.529	32600.48
680.877	32516.19
681.225	32499.47
681.573	32584.44
681.922	32468.06
682.27	32343.54
682.618	32406.59
682.966	32347.84
683.314	32375.63
683.661	32262.19
684.009	32018.13
684.357	32010.44
684.705	32025.58
685.053	32024.45
685.4	31917.56
685.748	31850.45
686.095	31798.02
686.443	31809.77
686.79	31704.91
687.138	31814.74
687.485	31634.18
687.832	31676.44
688.18	31674.18
688.527	31386.05
688.874	31452.49
689.221	31497.69
689.568	31362.1
689.915	31254.31
690.262	31256.34
690.609	31051.37
690.956	30983.58
691.303	30975.67
691.65	30923.69
691.997	30923.47
692.344	30662
692.69	30675.34
693.037	30795.79
693.383	30401.67
693.73	30546.53
694.077	30358.28
694.423	30403.71
694.769	30238.74
695.116	30104.73
695.462	30201.23
695.808	30118.97
696.155	30089.14
696.501	29863.38
696.847	29962.36
697.193	29656.16
697.539	29778.41
697.885	29502.94
698.231	29455.71
698.577	29511.07
698.923	29419.78
699.269	29295.71
699.614	29190.18
699.96	29107.02
700.306	29139.78
700.651	28970.75
700.997	28922.62
701.342	28938.43
701.688	28864.31
702.033	28802.62
702.379	28832.67
702.724	28583.64
703.069	28689.85
703.415	28370.77
703.76	28412.12
704.105	28368.73
704.45	28299.58
704.795	28187.72
705.14	28068.4
705.485	28081.73
705.83	27858.01
706.175	28004.9
706.52	27924.22
706.865	27792.25
707.209	27785.47
707.554	27589.32
707.899	27654.85
708.243	27565.14
708.588	27476.33
708.932	27437.23
709.277	27319.27
709.621	27331.92
709.966	27149.1
710.31	27266.16
710.654	26993.4
710.998	27150.01
711.342	27041.31
711.687	26982.55
712.031	26940.52
712.375	26820.3
712.719	26801.77
713.063	26822.33
713.407	26856
713.75	26571.72
714.094	26555.9
714.438	26634.09
714.782	26535.56
715.125	26420.53
715.469	26493.3
715.812	26291.95
716.156	26231.61
716.499	26188
716.843	26299.86
717.186	26111.62
717.53	26160.88
717.873	26310.48
718.216	26076.14
718.559	25963.6
718.902	25774
719.246	25941.9
719.589	25783.49
719.932	25696.03
720.275	25749.82
720.617	25630.27
720.96	25691.06
721.303	25651.29
721.646	25708.46
721.989	25432.54
722.331	25467.79
722.674	25449.94
723.016	25393.44
723.359	25402.71
723.701	25392.76
724.044	25155.26
724.386	25038.65
724.729	25195.93
725.071	25240.9
725.413	25114.58
725.755	25178.31
726.097	24990.29
726.439	24826.45
726.782	24976.05
727.124	25000.68
727.465	24800.01
727.807	24877.07
728.149	24792.1
728.491	24675.95
728.833	24717.08
729.175	24638.43
729.516	24557.08
729.858	24556.18
730.199	24669.17
730.541	24450.64
730.882	24468.5
731.224	24562.73
731.565	24398.89
731.906	24451.55
732.248	24445.67
732.589	24277.54
732.93	24251.55
733.271	24227.15
733.612	24268.95
733.953	24329.97
734.294	24235.05
734.635	24133.59
734.976	24148.73
735.317	24033.7
735.658	24039.81
735.999	23959.36
736.339	24006.59
736.68	24014.72
737.021	23983.99
737.361	23859.7
737.702	23939.7
738.042	23951.22
738.383	23714.62
738.723	23816.08
739.063	23731.57
739.404	23774.05
739.744	23717.78
740.084	23649.76
740.424	23798.91
740.764	23516.43
741.104	23618.35
741.444	23418.35
741.784	23451.35
742.124	23432.36
742.464	23383.33
742.804	23337.9
743.143	23256.1
743.483	23285.7
743.823	23298.36
744.162	23172.03
744.502	23181.07
744.841	23081.41
745.181	23268.98
745.52	23109.21
745.86	23147.4
746.199	23118.25
746.538	23007.74
746.877	23077.57
747.216	22994.86
747.556	22997.35
747.895	22995.99
748.234	22840.29
748.573	22833.51
748.911	22784.02
749.25	22764.59
749.589	22618.83
749.928	22684.81
750.267	22688.2
750.605	22690.01
750.944	22664.25
751.283	22543.8
751.621	22682.78
751.96	22540.64
752.298	22473.52
752.636	22417.7
752.975	22344.26
753.313	22290.47
753.651	22367.53
753.989	22283.02
754.327	22143.81
754.666	22043.25
755.004	22104.72
755.342	22107.65
755.679	21963.25
756.017	21924.16
756.355	22046.41
756.693	21935.45
757.031	21884.61
757.368	21834.21
757.706	21786.08
758.044	21627.67
758.381	21789.47
758.719	21551.74
759.056	21624.73
759.394	21498.4
759.731	21278.75
760.068	21297.73
760.405	21306.32
760.743	21168.69
761.08	21163.72
761.417	21045.99
