Data from hue_80_FLMS001491_6.txt Node
Date: Mon Feb 06 15:22:22 GMT 2017
User: dcchb
Spectrometer: FLMS00149
Trigger mode: 0
Integration Time (sec): 2.000000E-2
Scans to average: 10
Electric dark correction enabled: true
Nonlinearity correction enabled: false
Boxcar width: 0
XAxis mode: Wavelengths
Number of Pixels in Spectrum: 2048
>>>>>Begin Spectral Data<<<<<
341.393	-11.92
341.776	-11.92
342.16	-11.92
342.543	-56.44
342.927	-53.95
343.31	-68.42
343.693	-65.25
344.077	-71.13
344.46	-79.26
344.843	-41.75
345.226	-28.64
345.61	-27.74
345.993	-14.41
346.376	-14.63
346.759	-2.66
347.142	5.48
347.525	25.14
347.908	90.45
348.291	82.09
348.674	80.73
349.057	130
349.44	112.37
349.823	151.46
350.206	161.86
350.588	195.76
350.971	205.93
351.354	221.75
351.737	236.21
352.119	252.93
352.502	266.72
352.884	268.07
353.267	291.57
353.65	289.77
354.032	307.85
354.414	318.92
354.797	309.2
355.179	314.85
355.562	323.21
355.944	335.41
356.326	343.1
356.709	355.53
357.091	338.58
357.473	345.13
357.855	342.19
358.238	350.1
358.62	334.28
359.002	341.06
359.384	339.71
359.766	333.38
360.148	357.79
360.53	320.05
360.912	346.49
361.294	347.84
361.676	338.8
362.057	341.29
362.439	325.02
362.821	351.46
363.203	339.93
363.584	332.48
363.966	332.03
364.348	333.16
364.729	299.94
365.111	320.73
365.493	329.99
365.874	320.73
366.256	302.2
366.637	322.08
367.019	332.7
367.4	306.26
367.781	306.49
368.163	321.4
368.544	336.32
368.925	314.85
369.306	312.82
369.688	304.68
370.069	327.51
370.45	313.49
370.831	322.53
371.212	304.23
371.593	323.66
371.974	329.77
372.355	320.95
372.736	306.04
373.117	307.39
373.498	320.05
373.879	325.02
374.26	310.56
374.641	336.32
375.021	323.89
375.402	321.18
375.783	339.03
376.163	331.12
376.544	317.34
376.925	336.09
377.305	303.1
377.686	329.09
378.066	332.7
378.447	337.67
378.827	327.51
379.208	329.77
379.588	321.63
379.968	333.38
380.349	323.66
380.729	341.74
381.109	341.29
381.489	359.6
381.87	361.18
382.25	355.3
382.63	344
383.01	325.47
383.39	356.43
383.77	361.4
384.15	356.66
384.53	348.52
384.91	348.75
385.29	347.39
385.67	347.62
386.049	367.05
386.429	358.24
386.809	354.62
387.189	357.34
387.568	346.49
387.948	358.69
388.328	362.08
388.707	366.83
389.087	350.1
389.466	361.85
389.846	359.14
390.225	338.58
390.605	372.02
390.984	368.18
391.363	375.19
391.743	370.44
392.122	363.21
392.501	384.23
392.881	359.14
393.26	373.83
393.639	360.5
394.018	372.02
394.397	374.96
394.776	364.34
395.155	376.32
395.534	386.71
395.913	376.54
396.292	401.85
396.671	388.52
397.05	388.75
397.429	379.71
397.808	381.29
398.186	383.32
398.565	374.06
398.944	400.27
399.323	405.47
399.701	383.32
400.08	412.02
400.458	415.41
400.837	411.8
401.215	407.28
401.594	402.08
401.972	412.93
402.351	383.1
402.729	412.48
403.107	407.05
403.486	404.34
403.864	408.18
404.242	426.71
404.62	418.35
404.999	417.22
405.377	429.88
405.755	436.66
406.133	414.96
406.511	408.18
406.889	416.09
407.267	421.74
407.645	437.56
408.023	439.59
408.401	432.59
408.779	417.67
409.156	435.3
409.534	440.95
409.912	453.6
410.29	422.42
410.667	453.6
411.045	451.57
411.422	454.28
411.8	455.19
412.178	459.93
412.555	459.93
412.933	467.84
413.31	483.21
413.687	479.14
414.065	484.34
414.442	487.73
414.819	508.97
415.197	472.59
415.574	496.31
415.951	499.03
416.328	480.5
416.705	483.21
417.082	504.45
417.46	517.33
417.837	520.04
418.214	508.29
418.591	501.96
418.967	511.23
419.344	505.58
419.721	518.23
420.098	504.68
420.475	533.15
420.852	520.04
421.228	524.34
421.605	523.66
421.982	534.96
422.358	515.98
422.735	542.42
423.111	531.57
423.488	536.54
423.864	558.69
424.241	540.61
424.617	549.87
424.994	577.67
425.37	560.95
425.746	566.6
426.123	565.69
426.499	581.96
426.875	556.88
427.251	590.1
427.627	599.81
428.003	582.64
428.379	581.96
428.756	592.13
429.132	596.2
429.507	613.6
429.883	613.83
430.259	638.68
430.635	619.93
431.011	603.2
431.387	632.58
431.763	630.32
432.138	647.27
432.514	645.46
432.89	642.53
433.265	658.57
433.641	663.99
434.016	687.04
434.392	667.84
434.767	692.69
435.143	676.42
435.518	695.18
435.894	694.95
436.269	692.92
436.644	703.31
437.02	692.02
437.395	700.15
437.77	722.75
438.145	695.63
438.52	721.85
438.895	738.57
439.271	749.64
439.646	762.3
440.021	740.38
440.395	757.32
440.77	764.1
441.145	798.23
441.52	771.56
441.895	758.45
442.27	790.32
442.645	784.44
443.019	788.51
443.394	791.22
443.769	820.15
444.143	812.69
444.518	816.98
444.892	784.67
445.267	803.43
445.641	825.8
446.016	833.93
446.39	834.38
446.764	819.47
447.139	818.11
447.513	846.81
447.887	859.02
448.262	838.45
448.636	857.44
449.01	878.68
449.384	860.15
449.758	850.43
450.132	873.48
450.506	895.17
450.88	890.2
451.254	883.88
451.628	880.03
452.002	894.5
452.376	929.52
452.75	893.14
453.123	910.09
453.497	934.5
453.871	955.29
454.244	972.69
454.618	991.44
454.992	975.85
455.365	983.08
455.739	995.96
456.112	1029.86
456.486	1030.09
456.859	1048.39
457.232	1029.86
457.606	1041.84
457.979	1029.41
458.352	1085.45
458.725	1074.6
459.099	1087.94
459.472	1131.33
459.845	1093.59
460.218	1117.09
460.591	1131.78
460.964	1150.76
461.337	1165.45
461.71	1205
462.083	1204.77
462.456	1238.67
462.829	1241.61
463.201	1246.35
463.574	1268.27
463.947	1283.19
464.32	1316.86
464.692	1297.2
465.065	1313.02
465.438	1336.97
465.81	1338.78
466.183	1372.22
466.555	1405.67
466.928	1391.88
467.3	1413.13
467.672	1440.7
468.045	1493.35
468.417	1484.09
468.789	1497.42
469.161	1487.7
469.534	1562.95
469.906	1593.23
470.278	1608.38
470.65	1673.68
471.022	1674.14
471.394	1725.66
471.766	1727.69
472.138	1776.73
472.51	1793
472.882	1862.15
473.253	1850.86
473.625	1895.83
473.997	1975.6
474.369	2010.85
474.74	2010.4
475.112	2060.79
475.484	2139.44
475.855	2174.24
476.227	2216.27
476.598	2294.69
476.97	2322.93
477.341	2395.25
477.713	2458.07
478.084	2489.03
478.455	2588.91
478.827	2605.64
479.198	2725.41
479.569	2763.6
479.94	2836.37
480.311	2911.62
480.682	3035.91
481.053	3120.65
481.424	3187.77
481.795	3277.03
482.166	3346.86
482.537	3488.78
482.908	3529.68
483.279	3643.12
483.65	3701.88
484.021	3877.69
484.391	3923.57
484.762	4030.91
485.133	4088.54
485.503	4259.83
485.874	4383.9
486.244	4458.92
486.615	4609.88
486.985	4739.59
487.356	4854.17
487.726	4910.44
488.097	5070.43
488.467	5221.16
488.837	5360.14
489.207	5487.82
489.578	5631.55
489.948	5727.14
490.318	5864.08
490.688	5982.72
491.058	6113.79
491.428	6269.95
491.798	6363.05
492.168	6615.48
492.538	6727.34
492.908	6835.58
493.278	6975.92
493.648	7133.88
494.017	7238.28
494.387	7422.91
494.757	7547.2
495.126	7693.87
495.496	7792.17
495.866	7937.02
496.235	8027.87
496.605	8279.61
496.974	8346.5
497.344	8492.71
497.713	8528.65
498.082	8743.78
498.452	8873.27
498.821	9005.92
499.19	8994.4
499.559	9225.12
499.928	9363.2
500.298	9447.49
500.667	9597.54
501.036	9654.72
501.405	9867.59
501.774	9943.07
502.143	10107.81
502.512	10120.92
502.88	10335.83
503.249	10410.63
503.618	10538.99
503.987	10550.06
504.356	10736.95
504.724	10804.07
505.093	10901.01
505.462	11042.7
505.83	11155.47
506.199	11199.31
506.567	11405.86
506.936	11463.71
507.304	11678.17
507.672	11670.94
508.041	11737.83
508.409	11879.74
508.777	11991.61
509.145	12048.1
509.514	12103.02
509.882	12301.43
510.25	12334.87
510.618	12496.23
510.986	12494.19
511.354	12585.04
511.722	12782.09
512.09	12846.27
512.458	12803.34
512.826	12967.63
513.193	13034.97
513.561	13071.13
513.929	13233.83
514.297	13370.1
514.664	13473.83
515.032	13488.52
515.4	13627.04
515.767	13666.36
516.135	13721.05
516.502	13558.12
516.869	13923.08
517.237	13950.2
517.604	13904.32
517.972	14017.09
518.339	14142.74
518.706	14171.89
519.073	14227.7
519.44	14303.64
519.808	14431.09
520.175	14384.31
520.542	14551.54
520.909	14611.88
521.276	14643.97
521.643	14728.93
522.009	14839.89
522.376	14852.32
522.743	14950.62
523.11	15115.82
523.477	15176.83
523.843	15253.44
524.21	15410.95
524.577	15487.33
524.943	15404.4
525.31	15549.48
525.676	15555.35
526.043	15655.69
526.409	15718.97
526.776	15892.97
527.142	15815.69
527.508	15953.54
527.874	16020.2
528.241	15925.29
528.607	16087.09
528.973	16130.71
529.339	16144.49
529.705	16259.74
530.071	16373.19
530.437	16280.31
530.803	16351.49
531.169	16418.83
531.535	16396.46
531.901	16451.6
532.267	16514.42
532.632	16570.47
532.998	16481.43
533.364	16581.54
533.73	16672.84
534.095	16755.77
534.461	16700.63
534.826	16739.96
535.192	16739.96
535.557	16782.89
535.923	16697.24
536.288	16769.11
536.653	16769.56
537.019	16688.21
537.384	16715.1
537.749	16779.73
538.114	16770.46
538.479	16782.67
538.845	16793.74
539.21	16685.72
539.575	16715.55
539.94	16811.14
540.305	16910.57
540.67	16875.54
541.034	16817.24
541.399	16920.06
541.764	16882.1
542.129	16944.7
542.494	16883.91
542.858	16829.67
543.223	16814.98
543.587	16807.3
543.952	16790.35
544.316	16826.05
544.681	16747.86
545.045	16810.91
545.41	16796.68
545.774	16783.57
546.138	16787.86
546.503	16746.51
546.867	16779.28
547.231	16764.59
547.595	16793.06
547.959	16803
548.324	16860.4
548.688	16758.94
549.052	16775.43
549.416	16718.26
549.779	16715.32
550.143	16694.31
550.507	16762.1
550.871	16860.63
551.235	16776.11
551.599	16739.73
551.962	16721.88
552.326	16781.31
552.689	16821.54
553.053	16704.93
553.417	16718.71
553.78	16860.18
554.143	16708.77
554.507	16817.24
554.87	16757.81
555.234	16947.63
555.597	16786.51
555.96	16786.28
556.323	16850.69
556.686	16774.08
557.05	16883.23
557.413	16823.34
557.776	16832.83
558.139	16864.02
558.502	16933.4
558.865	16906.5
559.228	17010.68
559.59	16993.28
559.953	17016.11
560.316	17121.64
560.679	17052.72
561.041	17088.19
561.404	17113.05
561.767	17338.13
562.129	17101.3
562.492	17275.99
562.854	17263.11
563.217	17197.12
563.579	17286.38
563.941	17310.79
564.304	17395.98
564.666	17482.31
565.028	17444.34
565.39	17445.7
565.753	17586.49
566.115	17491.35
566.477	17536.09
566.839	17555.75
567.201	17591.23
567.563	17609.76
567.925	17729.08
568.287	17726.37
568.648	17635.52
569.01	17877.78
569.372	17906.93
569.734	17707.84
570.095	17855.41
570.457	17819.02
570.819	17865.35
571.18	17879.36
571.542	17970.21
571.903	17973.14
572.265	18006.36
572.626	18084.33
572.987	18021.96
573.349	18089.52
573.71	18150.77
574.071	18145.57
574.432	18108.96
574.794	18321.38
575.155	18281.61
575.516	18171.33
575.877	18288.62
576.238	18301.5
576.599	18299.69
576.96	18364.77
577.32	18391.21
577.681	18422.17
578.042	18346.92
578.403	18275.51
578.763	18344.21
579.124	18422.17
579.485	18390.31
579.845	18456.75
580.206	18329.97
580.566	18457.2
580.927	18281.61
581.287	18467.82
581.648	18433.92
582.008	18414.26
582.368	18436.63
582.728	18422.4
583.089	18417.2
583.449	18329.97
583.809	18414.26
584.169	18440.7
584.529	18431.66
584.889	18616.74
585.249	18380.36
585.609	18370.19
585.969	18494.26
586.329	18381.04
586.688	18465.33
587.048	18456.75
587.408	18375.17
587.768	18307.82
588.127	18359.35
588.487	18279.35
588.846	18354.6
589.206	18312.8
589.565	18266.47
589.925	18299.46
590.284	18280.71
590.643	18355.05
591.003	18397.09
591.362	18485.45
591.721	18329.97
592.08	18352.57
592.44	18382.85
592.799	18307.37
593.158	18276.86
593.517	18362.06
593.876	18234.15
594.235	18246.58
594.593	18212.23
594.952	18277.09
595.311	18198.45
595.67	18275.96
596.029	18446.8
596.387	18309.63
596.746	18444.09
597.104	18297.88
597.463	18228.5
597.822	18431.21
598.18	18320.93
598.538	18272.12
598.897	18343.98
599.255	18174.95
599.613	18500.59
599.972	18311.21
600.33	18430.31
600.688	18252.23
601.046	18339.69
601.404	18439.35
601.762	18409.52
602.12	18477.76
602.478	18322.96
602.836	18504.88
603.194	18296.75
603.552	18391.89
603.91	18299.91
604.268	18386.01
604.625	18315.06
604.983	18442.74
605.341	18283.64
605.698	18417.43
606.056	18373.36
606.413	18414.71
606.771	18432.11
607.128	18445.67
607.485	18348.73
607.843	18429.18
608.2	18504.43
608.557	18471.66
608.914	18499.46
609.272	18561.38
609.629	18625.1
609.986	18590.98
610.343	18570.19
610.7	18590.3
611.057	18675.5
611.414	18575.16
611.771	18628.49
612.127	18590.53
612.484	18596.63
612.841	18766.12
613.198	18674.59
613.554	18598.66
613.911	18896.96
614.267	18813.12
614.624	18865.78
614.98	18786.46
615.337	18848.37
615.693	18791.65
616.05	18813.57
616.406	18842.05
616.762	18835.95
617.118	18868.26
617.475	18812.44
617.831	18948.94
618.187	18990.07
618.543	19029.16
618.899	19064.41
619.255	19005.66
619.611	19028.93
619.967	19094.24
620.323	19136.05
620.678	19029.39
621.034	19024.64
621.39	19051.98
621.746	19058.76
622.101	19203.85
622.457	19081.59
622.812	19117.07
623.168	19097.86
623.523	19093.34
623.879	19149.84
624.234	19029.61
624.589	19184.18
624.945	19100.12
625.3	19137.41
625.655	19213.56
626.01	19113.45
626.365	19154.58
626.72	19179.89
627.075	19111.19
627.43	19091.76
627.785	18974.92
628.14	19067.35
628.495	19108.71
628.85	18997.07
629.205	19060.8
629.559	19204.07
629.914	19097.18
630.269	19162.26
630.623	19008.82
630.978	19067.35
631.332	19072.55
631.687	19127.92
632.041	19075.71
632.396	19046.79
632.75	18876.85
633.104	19000.46
633.459	18944.19
633.813	18872.55
634.167	18923.4
634.521	18890.63
634.875	18862.84
635.229	18908.94
635.583	18681.83
635.937	18772.9
636.291	18721.6
636.645	18675.72
636.999	18708.04
637.352	18725.44
637.706	18694.93
638.06	18769.96
638.413	18734.93
638.767	18638.21
639.121	18609.51
639.474	18553.92
639.828	18600.47
640.181	18607.02
640.534	18572.9
640.888	18515.05
641.241	18412.68
641.594	18448.61
641.947	18438.67
642.301	18489.29
642.654	18497.88
643.007	18528.83
643.36	18439.8
643.713	18452
644.066	18527.25
644.419	18362.29
644.771	18223.98
645.124	18092.91
645.477	18095.63
645.83	17904.22
646.182	17897.44
646.535	17878.23
646.888	17833.71
647.24	17741.28
647.593	17916.2
647.945	17804.56
648.298	17762.3
648.65	17742.87
649.002	17669.65
649.355	17733.38
649.707	17784.45
650.059	17834.84
650.411	18085
650.763	18039.58
651.115	18213.14
651.467	18192.35
651.819	18141.27
652.171	18148.96
652.523	18091.11
652.875	18131.56
653.227	18084.55
653.578	18171.56
653.93	18098.34
654.282	18070.09
654.633	18188.96
654.985	18117.77
655.337	18136.98
655.688	18076.64
656.039	18178.34
656.391	18094.27
656.742	18091.56
657.094	18172.23
657.445	18189.86
657.796	18105.57
658.147	18103.99
658.498	18102.41
658.849	18160.03
659.2	18100.6
659.551	18082.74
659.902	18240.03
660.253	18153.7
660.604	18153.48
660.955	18174.27
661.306	18206.58
661.656	18091.11
662.007	18084.55
662.358	18133.14
662.708	18137.88
663.059	18143.76
663.409	18070.32
663.76	18223.31
664.11	18188.28
664.461	18124.78
664.811	18197.77
665.161	18210.88
665.511	18156.42
665.862	18171.78
666.212	18306.69
666.562	18272.8
666.912	18178.79
667.262	18240.25
667.612	18190.31
667.962	18242.51
668.312	18168.39
668.662	18275.06
669.011	18263.08
669.361	18159.58
669.711	18133.59
670.06	18106.47
670.41	18136.3
670.76	18095.85
671.109	18158.68
671.459	18127.94
671.808	18053.14
672.157	18098.79
672.507	17999.81
672.856	18024.89
673.205	18031.67
673.554	18122.74
673.904	18017.66
674.253	18101.5
674.602	17964.1
674.951	17750.1
675.3	17654.51
675.649	17925.91
675.998	17953.93
676.346	17952.35
676.695	18034.61
677.044	17835.75
677.393	17972.92
677.741	17887.72
678.09	17857.89
678.438	17894.5
678.787	17878.23
679.135	17802.3
679.484	17687.95
679.832	17816.31
680.181	17630.55
680.529	17706.03
680.877	17679.82
681.225	17638.91
681.573	17716.2
681.922	17612.02
682.27	17504.68
682.618	17541.74
682.966	17426.49
683.314	17460.61
683.661	17431.01
684.009	17265.59
684.357	17316.89
684.705	17379.71
685.053	17362.54
685.4	17291.35
685.748	17220.85
686.095	17267.63
686.443	17109.66
686.79	17059.04
687.138	17127.29
687.485	17083.45
687.832	17003.9
688.18	17020.63
688.527	16989.44
688.874	16920.52
689.221	16869.44
689.568	16860.18
689.915	16791.93
690.262	16723.68
690.609	16667.87
690.956	16605.95
691.303	16594.42
691.65	16560.07
691.997	16493.63
692.344	16455.44
692.69	16318.95
693.037	16452.28
693.383	16266.52
693.73	16266.3
694.077	16200.76
694.423	16184.49
694.769	16072.18
695.116	16070.14
695.462	16041.22
695.808	15941.33
696.155	15958.05
696.501	15800.09
696.847	15820.43
697.193	15655.24
697.539	15730.04
697.885	15626.99
698.231	15532.08
698.577	15523.49
698.923	15513.77
699.269	15436.26
699.614	15282.14
699.96	15274.91
700.306	15320.11
700.651	15141.13
700.997	15205.08
701.342	15138.42
701.688	15101.81
702.033	15085.08
702.379	15023.62
702.724	14979.55
703.069	15011.64
703.415	14780.91
703.76	14773.45
704.105	14860
704.45	14788.59
704.795	14683.06
705.14	14572.78
705.485	14579.56
705.83	14476.29
706.175	14481.48
706.52	14328.49
706.865	14429.06
707.209	14349.51
707.554	14279.68
707.899	14338.21
708.243	14321.04
708.588	14166.69
708.932	14068.39
709.277	14106.8
709.621	14101.15
709.966	14038.56
710.31	14042.4
710.654	13875.62
710.998	13984.77
711.342	13996.07
711.687	13905
712.031	13768.28
712.375	13741.62
712.719	13788.39
713.063	13787.04
713.407	13750.43
713.75	13700.94
714.094	13734.16
714.438	13717.44
714.782	13589.76
715.125	13586.59
715.469	13568.51
715.812	13582.07
716.156	13480.38
716.499	13426.6
716.843	13443.32
717.186	13445.13
717.53	13421.62
717.873	13527.61
718.216	13405.35
718.559	13355.19
718.902	13264.57
719.246	13300.5
719.589	13197
719.932	13286.03
720.275	13130.56
720.617	13168.3
720.96	13143.44
721.303	13152.48
721.646	13191.57
721.989	13084.01
722.331	13145.93
722.674	13091.46
723.016	13155.19
723.359	13140.05
723.701	13100.28
724.044	12990.45
724.386	12988.19
724.729	12988.19
725.071	12967.85
725.413	13033.61
725.755	12962.88
726.097	12946.16
726.439	12843.56
726.782	12904.12
727.124	12971.01
727.465	12846.95
727.807	12904.12
728.149	12864.58
728.491	12926.04
728.833	12889.44
729.175	12818.93
729.516	12790
729.858	12827.52
730.199	12841.98
730.541	12751.59
730.882	12800.17
731.224	12817.12
731.565	12802.66
731.906	12740.06
732.248	12714.3
732.589	12754.52
732.93	12639.05
733.271	12737.35
733.612	12719.27
733.953	12716.33
734.294	12661.42
734.635	12682.21
734.976	12677.01
735.317	12621.19
735.658	12654.41
735.999	12708.87
736.339	12570.35
736.68	12713.85
737.021	12740.06
737.361	12671.36
737.702	12652.83
738.042	12688.54
738.383	12621.87
738.723	12703.9
739.063	12717.46
739.404	12735.09
739.744	12745.26
740.084	12744.35
740.424	12725.37
740.764	12759.5
741.104	12720.17
741.444	12761.3
741.784	12754.98
742.124	12820.51
742.464	12792.49
742.804	12731.93
743.143	12797.69
743.483	12839.72
743.823	12853.73
744.162	12768.31
744.502	12894.18
744.841	12883.11
745.181	12994.07
745.52	12931.69
745.86	12994.29
746.199	13051.46
746.538	13108.41
746.877	13074.74
747.216	13211.69
747.556	13221.18
747.895	13243.78
748.234	13266.83
748.573	13234.74
748.911	13401.96
749.25	13419.36
749.589	13418.01
749.928	13463.21
750.267	13643.54
750.605	13625.23
750.944	13695.74
751.283	13754.95
751.621	13905.68
751.96	13832.69
752.298	13928.73
752.636	14055.96
752.975	14201.72
753.313	14168.72
753.651	14365.78
753.989	14445.33
754.327	14497.3
754.666	14525.1
755.004	14616.4
755.342	14796.5
755.679	14915.37
756.017	14963.73
756.355	15123.73
756.693	15151.07
