Data from hue_250_FLMS001491_00001.txt Node
Date: Tue Feb 07 16:00:27 GMT 2017
User: dcchb
Spectrometer: FLMS00149
Trigger mode: 0
Integration Time (sec): 2.000000E-2
Scans to average: 10
Electric dark correction enabled: true
Nonlinearity correction enabled: false
Boxcar width: 0
XAxis mode: Wavelengths
Number of Pixels in Spectrum: 2048
>>>>>Begin Spectral Data<<<<<
341.393	-33.43
341.776	-33.43
342.16	-33.43
342.543	-54.22
342.927	-83.6
343.31	-60.55
343.693	-72.75
344.077	-65.75
344.46	-42.02
344.843	-53.54
345.226	-34.34
345.61	-32.98
345.993	-21
346.376	-20.32
346.759	8.6
347.142	26.91
347.525	34.59
347.908	69.62
348.291	75.04
348.674	94.7
349.057	93.8
349.44	118.43
349.823	160.01
350.206	158.43
350.588	193
350.971	178.77
351.354	227.35
351.737	226.22
352.119	242.04
352.502	250.85
352.884	225.77
353.267	275.26
353.65	277.52
354.032	274.58
354.414	295.37
354.797	299.89
355.179	299.89
355.562	310.74
355.944	297.86
356.326	317.97
356.709	329.05
357.091	317.07
357.473	320.91
357.855	324.3
358.238	323.62
358.62	319.33
359.002	327.46
359.384	307.8
359.766	331.76
360.148	341.25
360.53	311.19
360.912	313.45
361.294	315.26
361.676	304.64
362.057	311.64
362.439	301.25
362.821	323.17
363.203	307.35
363.584	315.26
363.966	320.68
364.348	315.49
364.729	312.55
365.111	300.12
365.493	300.12
365.874	302.83
366.256	307.35
366.637	290.18
367.019	311.42
367.4	293.11
367.781	284.53
368.163	291.98
368.544	296.96
368.925	282.49
369.306	278.42
369.688	299.22
370.069	296.96
370.45	300.8
370.831	297.18
371.212	280.91
371.593	291.08
371.974	291.31
372.355	280.68
372.736	301.7
373.117	290.4
373.498	301.48
373.879	282.72
374.26	291.53
374.641	289.05
375.021	303.96
375.402	298.09
375.783	304.64
376.163	322.72
376.544	295.37
376.925	313.23
377.305	327.69
377.686	331.53
378.066	313.9
378.447	306.22
378.827	308.71
379.208	294.24
379.588	306.45
379.968	312.77
380.349	304.41
380.729	301.02
381.109	319.55
381.489	338.31
381.87	336.05
382.25	322.94
382.63	336.28
383.01	317.29
383.39	312.55
383.77	322.72
384.15	328.59
384.53	334.47
384.91	329.27
385.29	354.58
385.67	330.63
386.049	331.98
386.429	315.49
386.809	352.55
387.189	337.63
387.568	314.58
387.948	330.85
388.328	335.6
388.707	355.26
389.087	331.08
389.466	354.58
389.846	367.69
390.225	342.6
390.605	331.3
390.984	353.45
391.363	348.48
391.743	366.33
392.122	349.16
392.501	366.33
392.881	357.52
393.26	362.49
393.639	329.05
394.018	373.34
394.397	372.21
394.776	350.74
395.155	351.64
395.534	381.02
395.913	388.93
396.292	369.95
396.671	384.64
397.05	378.99
397.429	348.03
397.808	357.29
398.186	371.08
398.565	384.64
398.944	383.28
399.323	382.38
399.701	389.83
400.08	395.03
400.458	383.28
400.837	404.52
401.215	404.52
401.594	412.21
401.972	386.44
402.351	409.72
402.729	410.4
403.107	400.68
403.486	399.78
403.864	401.36
404.242	400.46
404.62	433.45
404.999	420.12
405.377	415.6
405.755	429.38
406.133	434.35
406.511	430.74
406.889	438.19
407.267	454.69
407.645	454.92
408.023	439.32
408.401	456.73
408.779	464.41
409.156	474.13
409.534	453.11
409.912	481.58
410.29	476.61
410.667	500.34
411.045	496.5
411.422	512.09
411.8	505.99
412.178	510.51
412.555	514.8
412.933	527.01
413.31	543.73
413.687	538.31
414.065	544.86
414.442	564.52
414.819	560.9
415.197	547.34
415.574	576.95
415.951	575.37
416.328	547.34
416.705	576.72
417.082	592.31
417.46	575.59
417.837	603.61
418.214	597.29
418.591	607.91
418.967	619.21
419.344	610.85
419.721	628.7
420.098	633.67
420.475	629.83
420.852	652.43
421.228	659.43
421.605	652.2
421.982	685.87
422.358	701.46
422.735	687.23
423.111	692.2
423.488	713.67
423.864	707.79
424.241	730.62
424.617	739.2
424.994	735.81
425.37	763.38
425.746	761.12
426.123	789.15
426.499	769.49
426.875	769.26
427.251	797.73
427.627	794.8
428.003	811.52
428.379	828.24
428.756	839.09
429.132	853.33
429.507	864.4
429.883	857.39
430.259	862.59
430.635	854.91
431.011	900.78
431.387	893.78
431.763	923.15
432.138	929.26
432.514	954.34
432.89	968.12
433.265	980.1
433.641	973.1
434.016	971.74
434.392	1024.85
434.767	1032.76
435.143	1023.04
435.518	1035.24
435.894	1043.83
436.269	1068.01
436.644	1113.66
437.02	1102.13
437.395	1136.26
437.77	1144.16
438.145	1162.02
438.52	1186.42
438.895	1165.86
439.271	1187.1
439.646	1235.01
440.021	1228.23
440.395	1211.96
440.77	1225.52
441.145	1272.3
441.52	1264.61
441.895	1286.31
442.27	1299.19
442.645	1282.01
443.019	1330.83
443.394	1328.34
443.769	1343.48
444.143	1326.08
444.518	1360.43
444.892	1369.02
445.267	1357.49
445.641	1368.34
446.016	1404.72
446.39	1381.22
446.764	1431.16
447.139	1409.02
447.513	1424.61
447.887	1436.36
448.262	1426.19
448.636	1444.72
449.01	1502.57
449.384	1474.78
449.758	1485.62
450.132	1521.78
450.506	1490.6
450.88	1539.41
451.254	1528.11
451.628	1533.53
452.002	1541.89
452.376	1560.2
452.75	1582.57
453.123	1605.85
453.497	1595.45
453.871	1609.46
454.244	1661.67
454.618	1673.19
454.992	1684.26
455.365	1681.78
455.739	1741.66
456.112	1761.32
456.486	1772.4
456.859	1762.23
457.232	1787.99
457.606	1814.66
457.979	1809.23
458.352	1833.64
458.725	1865.95
459.099	1876.8
459.472	1893.52
459.845	1922.45
460.218	1921.32
460.591	1943.24
460.964	1959.28
461.337	2001.77
461.71	2035.89
462.083	2057.81
462.456	2027.53
462.829	2056.23
463.201	2098.49
463.574	2111.6
463.947	2170.35
464.32	2167.64
464.692	2162.22
465.065	2223.23
465.438	2254.64
465.81	2237.24
466.183	2262.33
466.555	2293.06
466.928	2347.52
467.3	2350.23
467.672	2338.94
468.045	2441.31
468.417	2437.01
468.789	2431.81
469.161	2466.84
469.534	2470.68
469.906	2543.9
470.278	2552.49
470.65	2561.53
471.022	2631.58
471.394	2651.92
471.766	2670.45
472.138	2715.42
472.51	2752.71
472.882	2760.39
473.253	2815.53
473.625	2869.54
473.997	2875.19
474.369	2943.67
474.74	2972.82
475.112	2956.55
475.484	3026.38
475.855	3053.49
476.227	3067.96
476.598	3179.82
476.97	3192.7
477.341	3246.93
477.713	3288.97
478.084	3298.68
478.455	3388.4
478.827	3409.42
479.198	3441.96
479.569	3469.98
479.94	3575.74
480.311	3587.72
480.682	3681.95
481.053	3734.83
481.424	3767.6
481.795	3810.08
482.166	3853.25
482.537	3879.23
482.908	3990.42
483.279	3999.68
483.65	4023.19
484.021	4127.82
484.391	4170.3
484.762	4176.63
485.133	4222.95
485.503	4278.55
485.874	4331.65
486.244	4358.32
486.615	4410.07
486.985	4468.15
487.356	4539.33
487.726	4609.61
488.097	4644.64
488.467	4640.34
488.837	4750.85
489.207	4817.29
489.578	4876.04
489.948	4888.93
490.318	4976.83
490.688	4961.01
491.058	5036.04
491.428	5114.23
491.798	5118.52
492.168	5206.88
492.538	5221.12
492.908	5271.29
493.278	5307.45
493.648	5321.91
494.017	5368.23
494.387	5443.94
494.757	5408.91
495.126	5532.75
495.496	5528
495.866	5547.44
496.235	5567.78
496.605	5615.69
496.974	5622.01
497.344	5705.85
497.713	5716.02
498.082	5739.98
498.452	5793.53
498.821	5798.51
499.19	5790.14
499.559	5816.13
499.928	5873.76
500.298	5887.54
500.667	5953.3
501.036	5987.43
501.405	6016.13
501.774	5947.65
502.143	6071.27
502.512	6011.83
502.88	6066.75
503.249	6074.2
503.618	6104.49
503.987	6102
504.356	6212.73
504.724	6189.91
505.093	6225.16
505.462	6230.36
505.83	6244.14
506.199	6302
506.567	6341.77
506.936	6314.88
507.304	6403.69
507.672	6387.87
508.041	6398.04
508.409	6396.68
508.777	6503.8
509.145	6475.32
509.514	6456.79
509.882	6494.31
510.25	6526.85
510.618	6583.8
510.986	6544.93
511.354	6513.29
511.722	6602.1
512.09	6645.04
512.458	6612.72
512.826	6655.43
513.193	6675.09
513.561	6667.64
513.929	6701.53
514.297	6764.36
514.664	6754.64
515.032	6801.19
515.4	6816.78
515.767	6814.07
516.135	6881.87
516.502	6751.48
516.869	6858.59
517.237	6875.09
517.604	6824.47
517.972	6819.04
518.339	6967.29
518.706	6956.44
519.073	6921.19
519.44	6927.06
519.808	7003.22
520.175	6931.81
520.542	7017.91
520.909	7009.32
521.276	7045.25
521.643	7087.29
522.009	7072.14
522.376	7056.55
522.743	7106.72
523.11	7061.52
523.477	7216.32
523.843	7165.48
524.21	7196.66
524.577	7157.34
524.943	7195.31
525.31	7205.02
525.676	7284.34
526.043	7261.29
526.409	7280.05
526.776	7315.3
527.142	7359.14
527.508	7356.88
527.874	7377
528.241	7430.33
528.607	7365.47
528.973	7424.9
529.339	7464
529.705	7445.24
530.071	7494.28
530.437	7440.95
530.803	7441.4
531.169	7424.45
531.535	7463.32
531.901	7505.58
532.267	7507.84
532.632	7442.98
532.998	7488.4
533.364	7546.03
533.73	7568.85
534.095	7576.09
534.461	7518.69
534.826	7532.47
535.192	7583.09
535.557	7586.03
535.923	7580.83
536.288	7533.38
536.653	7551.68
537.019	7491.12
537.384	7531.12
537.749	7527.95
538.114	7492.25
538.479	7532.25
538.845	7564.11
539.21	7526.14
539.575	7485.92
539.94	7507.39
540.305	7433.94
540.67	7467.16
541.034	7444.11
541.399	7446.15
541.764	7415.41
542.129	7475.75
542.494	7388.75
542.858	7536.99
543.223	7498.12
543.587	7487.95
543.952	7442.76
544.316	7493.38
544.681	7446.82
545.045	7462.42
545.41	7500.61
545.774	7479.59
546.138	7380.61
546.503	7456.09
546.867	7368.18
547.231	7477.11
547.595	7418.58
547.959	7457.9
548.324	7408.41
548.688	7410.89
549.052	7399.82
549.416	7384
549.779	7383.32
550.143	7402.98
550.507	7374.96
550.871	7394.85
551.235	7362.08
551.599	7363.44
551.962	7497.22
552.326	7372.93
552.689	7401.18
553.053	7354.85
553.417	7333.38
553.78	7372.02
554.143	7356.43
554.507	7385.58
554.87	7399.14
555.234	7486.82
555.597	7355.98
555.96	7369.31
556.323	7357.79
556.686	7343.78
557.05	7423.55
557.413	7377.22
557.776	7397.11
558.139	7404.34
558.502	7448.63
558.865	7414.51
559.228	7471
559.59	7482.76
559.953	7519.36
560.316	7510.1
560.679	7494.51
561.041	7501.51
561.404	7526.6
561.767	7539.25
562.129	7570.89
562.492	7611.11
562.854	7551.23
563.217	7616.54
563.579	7635.97
563.941	7580.61
564.304	7659.93
564.666	7668.29
565.028	7746.93
565.39	7628.06
565.753	7724.78
566.115	7711.45
566.477	7711.22
566.839	7802.75
567.201	7739.47
567.563	7814.05
567.925	7824.67
568.287	7803.65
568.648	7806.59
569.01	7906.7
569.372	7876.87
569.734	7848.62
570.095	7906.25
570.457	7880.71
570.819	7932.91
571.18	7963.42
571.542	8001.84
571.903	7979.24
572.265	7973.36
572.626	8066.69
572.987	8018.11
573.349	8050.88
573.71	8066.02
574.071	8142.17
574.432	8132
574.794	8171.55
575.155	8196.63
575.516	8128.16
575.877	8163.87
576.238	8229.18
576.599	8269.63
576.96	8232.11
577.32	8245
577.681	8287.93
578.042	8321.38
578.403	8302.17
578.763	8291.77
579.124	8367.25
579.485	8376.52
579.845	8409.74
580.206	8315.05
580.566	8455.39
580.927	8406.8
581.287	8481.15
581.648	8432.33
582.008	8460.36
582.368	8479.34
582.728	8557.98
583.089	8493.8
583.449	8497.87
583.809	8522.5
584.169	8518.43
584.529	8515.27
584.889	8600.24
585.249	8550.52
585.609	8595.04
585.969	8619.9
586.329	8610.86
586.688	8661.03
587.048	8624.42
587.408	8562.05
587.768	8549.17
588.127	8614.02
588.487	8656.06
588.846	8679.56
589.206	8633.91
589.565	8699.67
589.925	8694.93
590.284	8653.57
590.643	8779.22
591.003	8722.27
591.362	8772.89
591.721	8750.52
592.08	8771.76
592.44	8833.68
592.799	8787.35
593.158	8834.81
593.517	8830.06
593.876	8842.27
594.235	8842.72
594.593	8848.82
594.952	8879.1
595.311	8858.76
595.67	8844.98
596.029	8881.36
596.387	8974.02
596.746	8863.06
597.104	8873.68
597.463	8885.66
597.822	8899.89
598.18	8877.52
598.538	8916.16
598.897	8968.37
599.255	8846.56
599.613	8958.42
599.972	8980.12
600.33	8928.14
600.688	8968.82
601.046	8968.37
601.404	9026.9
601.762	9010.4
602.12	9000.91
602.478	9012.21
602.836	9062.83
603.194	8962.04
603.552	8941.7
603.91	9009.72
604.268	9063.96
604.625	8945.99
604.983	9030.06
605.341	9000
605.698	9044.3
606.056	9047.01
606.413	9039.78
606.771	9062.83
607.128	9094.92
607.485	9068.25
607.843	9037.74
608.2	9125.2
608.557	9100.57
608.914	9126.33
609.272	9155.03
609.629	9190.96
609.986	9208.59
610.343	9145.54
610.7	9214.01
611.057	9145.31
611.414	9195.03
611.771	9150.96
612.127	9221.01
612.484	9178.98
612.841	9227.57
613.198	9250.84
613.554	9180.34
613.911	9322.25
614.267	9259.66
614.624	9246.1
614.98	9247
615.337	9252.43
615.693	9290.17
616.05	9305.76
616.406	9380.11
616.762	9306.21
617.118	9376.72
617.475	9285.87
617.831	9334.68
618.187	9396.15
618.543	9385.76
618.899	9379.43
619.255	9398.64
619.611	9446.55
619.967	9355.25
620.323	9415.36
620.678	9385.98
621.034	9387.56
621.39	9309.83
621.746	9341.24
622.101	9467.34
622.457	9412.65
622.812	9450.16
623.168	9408.35
623.523	9384.63
623.879	9391.63
624.234	9351.63
624.589	9380.56
624.945	9451.74
625.3	9378.75
625.655	9383.95
626.01	9370.84
626.365	9388.92
626.72	9350.95
627.075	9358.86
627.43	9326.32
627.785	9223.27
628.14	9351.86
628.495	9301.24
628.85	9362.03
629.205	9366.1
629.559	9340.56
629.914	9299.66
630.269	9349.82
630.623	9339.2
630.978	9256.72
631.332	9345.53
631.687	9356.15
632.041	9236.83
632.396	9297.17
632.75	9240.68
633.104	9267.79
633.459	9178.08
633.813	9223.5
634.167	9197.06
634.521	9160.68
634.875	9194.35
635.229	9176.72
635.583	9137.85
635.937	9151.86
636.291	9133.79
636.645	9141.24
636.999	9141.92
637.352	9204.97
637.706	9015.6
638.06	9139.43
638.413	9075.71
638.767	9074.35
639.121	8984.18
639.474	9004.52
639.828	9061.7
640.181	9025.99
640.534	9078.65
640.888	8997.29
641.241	8945.77
641.594	8971.3
641.947	9015.82
642.301	8990.06
642.654	9031.19
643.007	8954.58
643.36	8944.41
643.713	8888.14
644.066	8957.74
644.419	8888.82
644.771	8856.5
645.124	8781.25
645.477	8719.56
645.83	8720.24
646.182	8664.87
646.535	8565.44
646.888	8666.9
647.24	8571.99
647.593	8609.73
647.945	8639.33
648.298	8595.72
648.65	8583.74
649.002	8556.17
649.355	8599.56
649.707	8606.12
650.059	8566.79
650.411	8734.25
650.763	8739.22
651.115	8763.85
651.467	8787.13
651.819	8826.67
652.171	8793.23
652.523	8729.95
652.875	8774.47
653.227	8710.75
653.578	8793
653.93	8783.51
654.282	8723.63
654.633	8730.41
654.985	8758.2
655.337	8765.66
655.688	8753.91
656.039	8768.6
656.391	8666
656.742	8749.84
657.094	8710.75
657.445	8760.91
657.796	8756.39
658.147	8758.88
658.498	8745.55
658.849	8795.49
659.2	8696.96
659.551	8680.92
659.902	8795.94
660.253	8750.07
660.604	8734.25
660.955	8722.5
661.306	8769.5
661.656	8706
662.007	8693.12
662.358	8726.56
662.708	8726.34
663.059	8741.71
663.409	8691.54
663.76	8802.27
664.11	8744.64
664.461	8763.85
664.811	8774.25
665.161	8771.53
665.511	8705.77
665.862	8753.23
666.212	8817.64
666.562	8814.25
666.912	8726.34
667.262	8735.38
667.612	8733.57
667.962	8780.35
668.312	8690.18
668.662	8792.1
669.011	8738.09
669.361	8757.75
669.711	8738.09
670.06	8716.85
670.41	8637.75
670.76	8704.42
671.109	8746.45
671.459	8674.81
671.808	8660.58
672.157	8658.09
672.507	8635.95
672.856	8590.97
673.205	8651.09
673.554	8691.76
673.904	8630.97
674.253	8640.01
674.602	8662.39
674.951	8492.67
675.3	8458.1
675.649	8655.15
675.998	8594.82
676.346	8642.5
676.695	8633.01
677.044	8555.27
677.393	8536.29
677.741	8528.38
678.09	8586
678.438	8522.28
678.787	8496.06
679.135	8550.98
679.484	8501.71
679.832	8471.2
680.181	8470.98
680.529	8465.55
680.877	8424.65
681.225	8450.41
681.573	8495.16
681.922	8394.82
682.27	8426.23
682.618	8440.7
682.966	8388.49
683.314	8340.81
683.661	8384.2
684.009	8251.32
684.357	8288.38
684.705	8308.04
685.053	8328.61
685.4	8301.26
685.748	8267.14
686.095	8310.53
686.443	8179.23
686.79	8114.15
687.138	8188.27
687.485	8185.79
687.832	8100.82
688.18	8123.87
688.527	8126.13
688.874	8101.5
689.221	8036.86
689.568	8052.01
689.915	7937.43
690.262	8060.82
690.609	7941.73
690.956	7928.17
691.303	7910.99
691.65	7884.55
691.997	7898.34
692.344	7837.55
692.69	7885.68
693.037	7815.4
693.383	7761.17
693.73	7798
694.077	7685.91
694.423	7742.18
694.769	7621.96
695.116	7724.1
695.462	7637.78
695.808	7668.97
696.155	7680.04
696.501	7575.41
696.847	7570.89
697.193	7546.71
697.539	7617.21
697.885	7506.48
698.231	7488.86
698.577	7449.31
698.923	7494.96
699.269	7400.05
699.614	7337.9
699.96	7303.78
700.306	7295.64
700.651	7241.86
700.997	7193.72
701.342	7286.83
701.688	7206.15
702.033	7173.38
702.379	7176.77
702.724	7113.5
703.069	7148.98
703.415	7085.7
703.76	7093.16
704.105	6996.21
704.45	7053.16
704.795	7052.26
705.14	7015.42
705.485	6968.42
705.83	6910.79
706.175	6991.47
706.52	6951.7
706.865	6959.38
707.209	6931.81
707.554	6888.65
707.899	6904.92
708.243	6865.37
708.588	6877.12
708.932	6749.22
709.277	6814.52
709.621	6739.5
709.966	6728.42
710.31	6724.13
710.654	6675.77
710.998	6671.03
711.342	6684.81
711.687	6642.78
712.031	6685.71
712.375	6623.12
712.719	6569.33
713.063	6588.32
713.407	6620.63
713.75	6582.21
714.094	6575.89
714.438	6553.06
714.782	6548.32
715.125	6550.8
715.469	6543.12
715.812	6461.99
716.156	6518.71
716.499	6504.7
716.843	6501.54
717.186	6450.01
717.53	6447.98
717.873	6434.42
718.216	6464.25
718.559	6419.96
718.902	6364.82
719.246	6371.6
719.589	6402.11
719.932	6348.77
720.275	6349.23
720.617	6341.54
720.96	6363.69
721.303	6321.66
721.646	6318.49
721.989	6301.32
722.331	6347.19
722.674	6346.97
723.016	6340.41
723.359	6269.91
723.701	6229.68
724.044	6226.52
724.386	6235.33
724.729	6283.92
725.071	6230.81
725.413	6259.28
725.755	6246.18
726.097	6187.2
726.439	6220.19
726.782	6200.3
727.124	6302.22
727.465	6204.14
727.807	6228.1
728.149	6208.89
728.491	6175.9
728.833	6195.78
729.175	6211.6
729.516	6144.26
729.858	6218.61
730.199	6189
730.541	6141.32
730.882	6200.3
731.224	6219.51
731.565	6128.89
731.906	6124.6
732.248	6128.89
732.589	6136.35
732.93	6112.62
733.271	6113.3
733.612	6122.79
733.953	6195.11
734.294	6086.63
734.635	6108.33
734.976	6103.81
735.317	6134.09
735.658	6139.51
735.999	6126.41
736.339	6082.11
736.68	6136.58
737.021	6094.54
737.361	6118.72
737.702	6162.79
738.042	6096.13
738.383	6139.51
738.723	6170.7
739.063	6140.42
739.404	6218.61
739.744	6160.76
740.084	6149
740.424	6143.13
740.764	6193.3
741.104	6217.48
741.444	6186.52
741.784	6151.49
742.124	6240.98
742.464	6187.2
742.804	6209.34
743.143	6235.56
743.483	6179.96
743.823	6204.82
744.162	6245.27
744.502	6310.36
744.841	6250.47
745.181	6311.94
745.52	6313.97
745.86	6330.47
746.199	6368.66
746.538	6344.03
746.877	6433.07
747.216	6477.81
747.556	6438.49
747.895	6490.92
748.234	6482.78
748.573	6501.09
748.911	6553.29
749.25	6610.91
749.589	6627.41
749.928	6663.34
750.267	6749.44
750.605	6846.16
750.944	6800.06
751.283	6814.07
751.621	6924.58
751.96	6918.7
752.298	6974.97
752.636	7082.31
752.975	7094.74
753.313	7191.46
753.651	7243.67
753.989	7289.31
754.327	7422.42
754.666	7409.99
755.004	7536.77
755.342	7625.35
755.679	7672.81
756.017	7728.17
756.355	7866.7
756.693	7965.45
757.031	8038.67
757.368	8103.76
757.706	8263.75
758.044	8334.94
758.381	8379
758.719	8568.15
759.056	8629.84
759.394	8672.78
759.731	8799.56
760.068	8900.8
760.405	8963.39
760.743	9076.61
761.08	9226.21
761.417	9264.86
761.754	9356.38
762.091	9478.86
762.428	9571.29
762.765	9668.69
763.102	9838.4
763.438	9918.85
763.775	10011.28
764.112	10153.42
764.449	10244.04
764.785	10293.98
765.122	10385.5
765.458	10425.5
765.795	10583.46
766.131	10645.16
766.467	10730.13
766.804	10815.32
767.14	10835.66
767.476	10980.52
767.812	10978.93
768.148	11154.75
768.485	11196.33
768.821	11232.94
769.157	11302.09
769.492	11378.92
769.828	11492.37
