Data from hue_140_FLMS001491_00015.txt Node
Date: Tue Feb 07 16:55:29 GMT 2017
User: dcchb
Spectrometer: FLMS00149
Trigger mode: 0
Integration Time (sec): 2.000000E-2
Scans to average: 10
Electric dark correction enabled: true
Nonlinearity correction enabled: false
Boxcar width: 0
XAxis mode: Wavelengths
Number of Pixels in Spectrum: 2048
>>>>>Begin Spectral Data<<<<<
341.393	12.63
341.776	12.63
342.16	12.63
342.543	-65.34
342.927	-66.92
343.31	-73.7
343.693	-60.59
344.077	-69.4
344.46	-75.96
344.843	-26.02
345.226	-55.62
345.61	-22.63
345.993	-27.37
346.376	-1.38
346.759	12.4
347.142	9.69
347.525	48.11
347.908	53.98
348.291	73.42
348.674	95.79
349.057	119.29
349.44	126.97
349.823	147.99
350.206	162.91
350.588	196.8
350.971	212.17
351.354	206.75
351.737	247.42
352.119	243.36
352.502	245.16
352.884	251.72
353.267	279.51
353.65	291.72
354.032	288.33
354.414	323.58
354.797	312.73
355.179	334.65
355.562	325.84
355.944	338.27
356.326	331.26
356.709	329.45
357.091	335.56
357.473	337.36
357.855	336.91
358.238	313.86
358.62	341.43
359.002	339.17
359.384	339.4
359.766	352.5
360.148	336.69
360.53	325.84
360.912	346.18
361.294	315.67
361.676	330.81
362.057	314.09
362.439	354.31
362.821	312.96
363.203	323.81
363.584	311.6
363.966	347.53
364.348	331.04
364.729	337.36
365.111	317.7
365.493	310.47
365.874	313.86
366.256	331.04
366.637	329.45
367.019	319.51
367.4	326.74
367.781	315.67
368.163	317.48
368.544	320.19
368.925	295.11
369.306	289.68
369.688	313.86
370.069	300.08
370.45	320.42
370.831	317.93
371.212	327.42
371.593	291.26
371.974	303.01
372.355	309.34
372.736	314.54
373.117	315.44
373.498	334.88
373.879	320.64
374.26	305.5
374.641	315.67
375.021	317.7
375.402	345.05
375.783	326.06
376.163	310.25
376.544	313.86
376.925	336.46
377.305	335.1
377.686	321.09
378.066	322.22
378.447	306.86
378.827	317.25
379.208	314.54
379.588	319.29
379.968	334.2
380.349	337.59
380.729	345.73
381.109	342.79
381.489	346.86
381.87	317.03
382.25	326.52
382.63	357.48
383.01	328.32
383.39	332.39
383.77	346.86
384.15	340.75
384.53	340.53
384.91	314.54
385.29	366.97
385.67	340.75
386.049	356.12
386.429	343.69
386.809	351.37
387.189	350.47
387.568	358.38
387.948	359.96
388.328	347.76
388.707	362.9
389.087	351.37
389.466	352.5
389.846	354.54
390.225	350.92
390.605	382.79
390.984	350.92
391.363	371.04
391.743	380.53
392.122	356.8
392.501	360.87
392.881	366.52
393.26	363.13
393.639	364.26
394.018	380.75
394.397	375.1
394.776	372.17
395.155	373.97
395.534	386.63
395.913	394.76
396.292	397.7
396.671	374.2
397.05	386.85
397.429	362.9
397.808	397.93
398.186	381.66
398.565	387.76
398.944	376.01
399.323	374.65
399.701	392.96
400.08	401.32
400.458	402.67
400.837	406.97
401.215	407.19
401.594	413.07
401.972	414.65
402.351	409.68
402.729	398.83
403.107	411.03
403.486	394.54
403.864	425.5
404.242	434.76
404.62	402
404.999	422.33
405.377	411.94
405.755	429.79
406.133	409.23
406.511	423.69
406.889	413.07
407.267	434.99
407.645	454.42
408.023	448.1
408.401	424.82
408.779	421.2
409.156	453.75
409.534	452.39
409.912	416.68
410.29	454.2
410.667	434.08
411.045	456.23
411.422	465.5
411.8	473.86
412.178	471.37
412.555	472.05
412.933	459.85
413.31	473.18
413.687	489.68
414.065	474.76
414.442	451.03
414.819	491.26
415.197	484.93
415.574	489
415.951	505.27
416.328	503.24
416.705	494.65
417.082	495.1
417.46	515.44
417.837	526.51
418.214	501.2
418.591	512.95
418.967	519.51
419.344	523.12
419.721	531.48
420.098	509.34
420.475	549.79
420.852	529.9
421.228	542.78
421.605	539.62
421.982	540.52
422.358	523.35
422.735	563.12
423.111	560.63
423.488	527.64
423.864	546.4
424.241	572.16
424.617	570.13
424.994	581.43
425.37	583.23
425.746	564.93
426.123	604.48
426.499	573.29
426.875	594.53
427.251	599.5
427.627	627.53
428.003	610.58
428.379	608.09
428.756	608.32
429.132	614.42
429.507	628.66
429.883	628.43
430.259	625.27
430.635	620.97
431.011	655.77
431.387	640.18
431.763	657.81
432.138	648.09
432.514	665.49
432.89	670.24
433.265	693.96
433.641	684.02
434.016	685.83
434.392	690.12
434.767	700.52
435.143	696.68
435.518	687.86
435.894	742.1
436.269	739.61
436.644	743
437.02	748.65
437.395	748.2
437.77	749.56
438.145	731.03
438.52	770.57
438.895	749.78
439.271	761.76
439.646	779.61
440.021	784.81
440.395	779.16
440.77	791.82
441.145	816.9
441.52	798.82
441.895	803.11
442.27	816.9
442.645	786.17
443.019	816
443.394	806.73
443.769	834.75
444.143	841.98
444.518	841.53
444.892	865.49
445.267	875.2
445.641	854.19
446.016	873.4
446.39	858.71
446.764	880.17
447.139	871.14
447.513	874.98
447.887	885.37
448.262	900.51
448.636	890.12
449.01	886.28
449.384	926.95
449.758	928.99
450.132	912.04
450.506	925.6
450.88	934.18
451.254	937.57
451.628	929.44
452.002	947.97
452.376	963.34
452.75	953.17
453.123	965.82
453.497	999.49
453.871	998.36
454.244	1011.24
454.618	1008.08
454.992	1012.15
455.365	1039.04
455.739	1049.89
456.112	1074.97
456.486	1088.3
456.859	1091.69
457.232	1098.25
457.606	1145.03
457.979	1118.59
458.352	1172.82
458.725	1142.99
459.099	1138.25
459.472	1182.99
459.845	1189.32
460.218	1186.61
460.591	1194.97
460.964	1234.97
461.337	1253.5
461.71	1245.14
462.083	1281.75
462.456	1292.82
462.829	1305.25
463.201	1340.28
463.574	1331.24
463.947	1339.82
464.32	1390.67
464.692	1387.96
465.065	1412.14
465.438	1431.57
465.81	1439.71
466.183	1462.31
466.555	1494.62
466.928	1522.87
467.3	1518.35
467.672	1533.72
468.045	1584.34
468.417	1596.31
468.789	1603.77
469.161	1667.72
469.534	1646.93
469.906	1730.55
470.278	1734.39
470.65	1751.34
471.022	1797.89
471.394	1847.83
471.766	1832.24
472.138	1901.62
472.51	1928.28
472.882	1973.03
473.253	1992.69
473.625	2047.15
473.997	2097.32
474.369	2134.15
474.74	2153.81
475.112	2206.92
475.484	2297.76
475.855	2334.6
476.227	2389.06
476.598	2452.11
476.97	2505.67
477.341	2576.85
477.713	2624.99
478.084	2670.41
478.455	2775.27
478.827	2826.11
479.198	2901.59
479.569	2985.2
479.94	3085.09
480.311	3137.74
480.682	3190.85
481.053	3366.44
481.424	3409.37
481.795	3476.49
482.166	3579.99
482.537	3672.19
482.908	3774.34
483.279	3829.7
483.65	3978.17
484.021	4060.88
484.391	4139.98
484.762	4288.9
485.133	4389.69
485.503	4427.2
485.874	4618.83
486.244	4685.72
486.615	4847.3
486.985	4953.06
487.356	5053.17
487.726	5195.99
488.097	5372.49
488.467	5437.79
488.837	5593.05
489.207	5696.32
489.578	5909.42
489.948	5951.45
490.318	6154.61
490.688	6208.85
491.058	6322.97
491.428	6498.56
491.798	6590.98
492.168	6814.26
492.538	6884.54
492.908	7021.48
493.278	7182.83
493.648	7293.11
494.017	7435.26
494.387	7510.28
494.757	7752.31
495.126	7818.75
495.496	7939.2
495.866	7999.08
496.235	8171.06
496.605	8284.5
496.974	8357.49
497.344	8535.57
497.713	8578.05
498.082	8694.88
498.452	8885.61
498.821	8932.84
499.19	9041.99
499.559	9178.04
499.928	9283.57
500.298	9412.61
500.667	9493.51
501.036	9566.5
501.405	9642.43
501.774	9646.72
502.143	9847.62
502.512	9920.39
502.88	10019.14
503.249	10028.41
503.618	10213.04
503.987	10232.92
504.356	10347.04
504.724	10407.83
505.093	10454.84
505.462	10610.54
505.83	10596.08
506.199	10670.65
506.567	10881.27
506.936	10842.17
507.304	11000.36
507.672	11026.57
508.041	11044.65
508.409	11156.74
508.777	11239.9
509.145	11341.14
509.514	11372.1
509.882	11507.01
510.25	11360.58
510.618	11473.57
510.986	11591.53
511.354	11731.19
511.722	11769.38
512.09	11900.68
512.458	11884.86
512.826	11919.21
513.193	11981.58
513.561	11987.45
513.929	12078.07
514.297	12119.65
514.664	12258.63
515.032	12252.08
515.4	12355.13
515.767	12278.29
516.135	12391.51
516.502	12308.8
516.869	12485.52
517.237	12502.69
517.604	12361
517.972	12573.65
518.339	12604.39
518.706	12601.9
519.073	12603.48
519.44	12649.58
519.808	12773.65
520.175	12683.93
520.542	12848
520.909	12859.52
521.276	12909.91
521.643	12992.17
522.009	12942.68
522.376	13017.26
522.743	13071.72
523.11	13078.5
523.477	13188.78
523.843	13270.81
524.21	13324.59
524.577	13291.15
524.943	13354.42
525.31	13361.43
525.676	13392.39
526.043	13425.61
526.409	13464.02
526.776	13412.5
527.142	13484.36
527.508	13466.74
527.874	13572.04
528.241	13608.2
528.607	13490.24
528.973	13676.9
529.339	13610.91
529.705	13625.83
530.071	13679.61
530.437	13671.25
530.803	13669.22
531.169	13682.1
531.535	13587.64
531.901	13606.17
532.267	13622.44
532.632	13716.9
532.998	13749.67
533.364	13736.79
533.73	13667.86
534.095	13636.9
534.461	13624.02
534.826	13711.48
535.192	13603.68
535.557	13766.84
535.923	13519.62
536.288	13625.83
536.653	13602.33
537.019	13497.92
537.384	13561.2
537.749	13451.37
538.114	13578.37
538.479	13409.56
538.845	13397.13
539.21	13430.81
539.575	13384.48
539.94	13385.16
540.305	13361.43
540.67	13361.88
541.034	13317.81
541.399	13269.23
541.764	13237.82
542.129	13220.19
542.494	13273.07
542.858	13157.82
543.223	13142.45
543.587	13111.49
543.952	13160.98
544.316	13040.53
544.681	12973.64
545.045	12967.31
545.41	12969.12
545.774	12966.41
546.138	12984.04
546.503	12799.41
546.867	12796.92
547.231	12930.48
547.595	12891.16
547.959	12837.37
548.324	12784.95
548.688	12703.37
549.052	12739.07
549.416	12792.86
549.779	12644.84
550.143	12566.87
550.507	12666.98
550.871	12632.41
551.235	12556.03
551.599	12595.57
551.962	12561.45
552.326	12501.11
552.689	12580.43
553.053	12416.14
553.417	12419.98
553.78	12531.17
554.143	12446.65
554.507	12405.75
554.87	12426.31
555.234	12469.47
555.597	12309.7
555.96	12379.53
556.323	12377.95
556.686	12295.92
557.05	12384.5
557.413	12309.93
557.776	12323.49
558.139	12331.85
558.502	12293.21
558.865	12279.2
559.228	12375.24
559.59	12246.43
559.953	12252.76
560.316	12351.96
560.679	12282.81
561.041	12282.36
561.404	12341.57
561.767	12304.28
562.129	12323.04
562.492	12425.63
562.854	12281.23
563.217	12267.45
563.579	12296.82
563.941	12330.27
564.304	12370.49
564.666	12393.09
565.028	12409.59
565.39	12327.11
565.753	12341.34
566.115	12427.89
566.477	12471.96
566.839	12399.19
567.201	12478.29
567.563	12501.56
567.925	12550.38
568.287	12493.88
568.648	12469.93
569.01	12593.76
569.372	12592.18
569.734	12453.66
570.095	12499.08
570.457	12591.73
570.819	12575.46
571.18	12563.71
571.542	12593.09
571.903	12599.64
572.265	12674.44
572.626	12652.29
572.987	12690.94
573.349	12679.86
573.71	12671.05
574.071	12692.29
574.432	12739.75
574.794	12805.51
575.155	12751.95
575.516	12634.89
575.877	12721.67
576.238	12723.48
576.599	12711.5
576.96	12764.83
577.32	12740.2
577.681	12804.61
578.042	12812.52
578.403	12776.58
578.763	12822.01
579.124	12787.43
579.485	12828.56
579.845	12831.95
580.206	12819.52
580.566	12767.55
580.927	12742.69
581.287	12822.23
581.648	12731.61
582.008	12803.25
582.368	12731.61
582.728	12786.3
583.089	12818.62
583.449	12786.98
583.809	12733.42
584.169	12791.05
584.529	12662.46
584.889	12776.81
585.249	12698.39
585.609	12698.85
585.969	12773.2
586.329	12647.55
586.688	12703.14
587.048	12731.61
587.408	12708.79
587.768	12626.08
588.127	12634.22
588.487	12605.74
588.846	12694.55
589.206	12518.06
589.565	12627.21
589.925	12653.65
590.284	12712.18
590.643	12690.71
591.003	12678.96
591.362	12670.6
591.721	12602.58
592.08	12611.17
592.44	12648
592.799	12631.05
593.158	12608
593.517	12601
593.876	12620.2
594.235	12551.28
594.593	12488.46
594.952	12579.53
595.311	12514.22
595.67	12532.75
596.029	12562.58
596.387	12553.31
596.746	12587.44
597.104	12517.61
597.463	12451.85
597.822	12543.14
598.18	12492.52
598.538	12461.79
598.897	12572.75
599.255	12438.51
599.613	12650.49
599.972	12523.48
600.33	12518.51
600.688	12533.88
601.046	12497.27
601.404	12641.45
601.762	12525.29
602.12	12540.43
602.478	12569.13
602.836	12576.82
603.194	12525.74
603.552	12564.61
603.91	12552.18
604.268	12562.58
604.625	12475.58
604.983	12506.08
605.341	12566.2
605.698	12528
606.056	12571.17
606.413	12462.02
606.771	12617.72
607.128	12624.05
607.485	12494.78
607.843	12586.76
608.2	12538.4
608.557	12585.86
608.914	12536.59
609.272	12706.98
609.629	12589.92
609.986	12677.38
610.343	12649.13
610.7	12740.88
611.057	12644.39
611.414	12671.73
611.771	12735.23
612.127	12745.17
612.484	12763.48
612.841	12782.91
613.198	12710.6
613.554	12758.51
613.911	12834.44
614.267	12704.04
614.624	12777.26
614.98	12708.79
615.337	12845.96
615.693	12803.02
616.05	12821.56
616.406	12878.96
616.762	12761.67
617.118	12904.04
617.475	12803.7
617.831	12930.48
618.187	12856.13
618.543	12859.29
618.899	12940.65
619.255	12957.37
619.611	12864.49
619.967	12907.2
620.323	12924.38
620.678	12841.44
621.034	12839.18
621.39	12880.99
621.746	12782.46
622.101	13014.09
622.457	12855
622.812	12891.38
623.168	12932.51
623.523	12873.76
623.879	12986.97
624.234	12785.17
624.589	12872.18
624.945	12944.49
625.3	12896.58
625.655	12956.24
626.01	12865.17
626.365	12989.46
626.72	12928.22
627.075	12949.69
627.43	12980.65
627.785	12850.26
628.14	12840.31
628.495	12997.6
628.85	12950.82
629.205	12886.41
629.559	12907.88
629.914	12927.09
630.269	12900.65
630.623	12874.66
630.978	12830.59
631.332	12878.96
631.687	12878.96
632.041	12717.83
632.396	12873.98
632.75	12790.14
633.104	12826.53
633.459	12716.93
633.813	12791.27
634.167	12744.27
634.521	12705.17
634.875	12754.44
635.229	12765.96
635.583	12623.14
635.937	12679.41
636.291	12582.47
636.645	12598.74
636.999	12552.41
637.352	12602.8
637.706	12540.43
638.06	12546.76
638.413	12488.46
638.767	12487.1
639.121	12567.78
639.474	12455.01
639.828	12494.78
640.181	12455.24
640.534	12460.89
640.888	12447.78
641.241	12348.35
641.594	12408.91
641.947	12499.53
642.301	12415.46
642.654	12434.22
643.007	12421.79
643.36	12456.37
643.713	12452.07
644.066	12402.81
644.419	12438.97
644.771	12321.91
645.124	12159.2
645.477	12207.56
645.83	12062.25
646.182	12112.65
646.535	12028.13
646.888	12102.03
647.24	11977.96
647.593	12087.79
647.945	12053.89
648.298	11972.09
648.65	11966.21
649.002	11861.13
649.355	11914.69
649.707	11975.93
650.059	12073.55
650.411	12169.14
650.763	12166.88
651.115	12210.5
651.467	12262.47
651.819	12218.41
652.171	12229.93
652.523	12228.35
652.875	12154.68
653.227	12172.31
653.578	12261.57
653.93	12198.97
654.282	12128.92
654.633	12163.27
654.985	12138.41
655.337	12188.13
655.688	12286.88
656.039	12245.53
656.391	12163.72
656.742	12203.72
657.094	12215.24
657.445	12209.59
657.796	12244.17
658.147	12222.48
658.498	12206.43
658.849	12255.92
659.2	12250.72
659.551	12139.31
659.902	12219.76
660.253	12215.47
660.604	12222.48
660.955	12219.54
661.306	12333.43
661.656	12212.98
662.007	12255.92
662.358	12238.97
662.708	12253.21
663.059	12246.88
663.409	12156.26
663.76	12299.31
664.11	12280.78
664.461	12273.1
664.811	12262.7
665.161	12221.8
665.511	12169.82
665.862	12217.96
666.212	12349.48
666.562	12311.51
666.912	12217.28
667.262	12210.95
667.612	12224.74
667.962	12312.87
668.312	12316.03
668.662	12311.29
669.011	12237.84
669.361	12189.93
669.711	12257.5
670.06	12257.73
670.41	12185.87
670.76	12203.04
671.109	12269.93
671.459	12273.1
671.808	12146.09
672.157	12295.47
672.507	12173.21
672.856	12128.24
673.205	12200.55
673.554	12198.97
673.904	12108.35
674.253	12245.75
674.602	12128.69
674.951	12047.79
675.3	11990.16
675.649	12108.81
675.998	12089.82
676.346	12028.36
676.695	12148.35
677.044	12075.59
677.393	12021.35
677.741	12085.98
678.09	12048.92
678.438	12016.6
678.787	12043.5
679.135	11996.49
679.484	12004.18
679.832	12017.51
680.181	11886.66
680.529	11957.85
680.877	11798.08
681.225	11842.82
681.573	11916.95
681.922	11814.8
682.27	11772.09
682.618	11746.1
682.966	11788.81
683.314	11759.21
683.661	11712.21
684.009	11705.65
684.357	11685.31
684.705	11683.05
685.053	11659.55
685.4	11640.8
685.748	11546.79
686.095	11583.17
686.443	11505.21
686.79	11468.14
687.138	11536.17
687.485	11535.26
687.832	11362.84
688.18	11460.24
688.527	11331.43
688.874	11350.18
689.221	11363.06
689.568	11268.83
689.915	11297.08
690.262	11332.1
690.609	11206.68
690.956	11169.62
691.303	11194.71
691.65	11116.97
691.997	11079.68
692.344	11058.89
692.69	11019.34
693.037	10989.29
693.383	10870.42
693.73	10956.52
694.077	10853.92
694.423	10880.14
694.769	10743.64
695.116	10812.57
695.462	10697.09
695.808	10652.35
696.155	10676.3
696.501	10612.12
696.847	10580.48
697.193	10541.39
697.539	10555.4
697.885	10516.53
698.231	10420.71
698.577	10412.81
698.923	10397.89
699.269	10293.71
699.614	10186.82
699.96	10309.53
700.306	10232.92
700.651	10218.01
700.997	10116.77
701.342	10194.05
701.688	10100.72
702.033	10092.59
702.379	10036.77
702.724	10023.89
703.069	10076.09
703.415	9921.97
703.76	9885.14
704.105	9813.95
704.45	9889.88
704.795	9787.06
705.14	9807.4
705.485	9773.5
705.83	9785.93
706.175	9736.89
706.52	9660.06
706.865	9675.2
707.209	9629.55
707.554	9578.25
707.899	9649.21
708.243	9606.5
708.588	9540.74
708.932	9482.66
709.277	9583.22
709.621	9471.14
709.966	9352.95
710.31	9408.99
710.654	9284.02
710.998	9342.55
711.342	9356.56
711.687	9304.13
712.031	9240.86
712.375	9192.05
712.719	9246.96
713.063	9259.62
713.407	9227.53
713.75	9151.37
714.094	9155.89
714.438	9165.38
714.782	9143.91
715.125	9052.39
715.469	9129
715.812	9075.89
716.156	8946.18
716.499	9036.34
716.843	9025.5
717.186	8925.84
717.53	9077.25
717.873	9016.01
718.216	9011.26
718.559	8956.57
718.902	8956.12
719.246	8926.06
719.589	8891.94
719.932	8883.81
720.275	8834.32
720.617	8794.09
720.96	8849.23
721.303	8829.8
721.646	8814.88
721.989	8804.49
722.331	8816.24
722.674	8750.48
723.016	8776.01
723.359	8809.01
723.701	8821.89
724.044	8695.79
724.386	8727.2
724.729	8780.31
725.071	8723.13
725.413	8772.62
725.755	8673.19
726.097	8675.9
726.439	8672.51
726.782	8686.07
727.124	8698.05
727.465	8666.86
727.807	8616.24
728.149	8619.63
728.491	8656.69
728.833	8690.36
729.175	8625.73
729.516	8624.83
729.858	8601.33
730.199	8647.2
730.541	8625.73
730.882	8564.27
731.224	8593.64
731.565	8583.02
731.906	8504.15
732.248	8574.21
732.589	8628.67
732.93	8540.99
733.271	8545.28
733.612	8579.41
733.953	8604.27
734.294	8536.02
734.635	8526.75
734.976	8558.62
735.317	8590.71
735.658	8545.06
735.999	8589.8
736.339	8515
736.68	8598.39
737.021	8583.93
737.361	8546.19
737.702	8604.72
738.042	8562.46
738.383	8510.03
738.723	8635.45
739.063	8559.97
739.404	8609.46
739.744	8639.74
740.084	8610.37
740.424	8625.06
740.764	8651.04
741.104	8650.14
741.444	8676.35
741.784	8666.18
742.124	8725.39
742.464	8737.82
742.804	8674.09
743.143	8762.45
743.483	8774.88
743.823	8755.67
744.162	8792.51
744.502	8816.92
744.841	8868.89
745.181	8913.18
745.52	8888.55
745.86	8953.41
746.199	8972.84
746.538	8987.08
746.877	9086.74
747.216	9074.31
747.556	9124.93
747.895	9113.18
748.234	9128.32
748.573	9234.53
748.911	9293.96
749.25	9351.82
749.589	9317.47
749.928	9462.77
750.267	9542.09
750.605	9544.13
750.944	9617.8
751.283	9652.83
751.621	9751.35
751.96	9811.24
752.298	9987.28
752.636	10020.05
752.975	10135.52
753.313	10115.41
753.651	10374.39
753.989	10390.66
754.327	10454.39
754.666	10536.42
755.004	10723.31
755.342	10874.04
755.679	10941.83
756.017	11054.37
756.355	11192.9
756.693	11250.52
757.031	11510.86
757.368	11560.57
757.706	11657.07
758.044	11883.73
758.381	12066.1
758.719	12151.97
759.056	12323.04
759.394	12457.95
