Data from hue_130_FLMS001491_00035.txt Node
Date: Tue Feb 07 16:57:31 GMT 2017
User: dcchb
Spectrometer: FLMS00149
Trigger mode: 0
Integration Time (sec): 2.000000E-2
Scans to average: 10
Electric dark correction enabled: true
Nonlinearity correction enabled: false
Boxcar width: 0
XAxis mode: Wavelengths
Number of Pixels in Spectrum: 2048
>>>>>Begin Spectral Data<<<<<
341.393	6.81
341.776	6.81
342.16	6.81
342.543	-64.6
342.927	-56.47
343.31	-71.61
343.693	-60.99
344.077	-56.24
344.46	-67.77
344.843	-51.72
345.226	-56.47
345.61	-17.15
345.993	-26.86
346.376	6.81
346.759	-1.55
347.142	31.21
347.525	52.46
347.908	69.63
348.291	70.76
348.674	77.54
349.057	101.95
349.44	127.93
349.823	133.81
350.206	165.9
350.588	212.9
350.971	228.04
351.354	223.07
351.737	244.32
352.119	246.58
352.502	247.71
352.884	272.11
353.267	307.82
353.65	292
354.032	299.91
354.414	289.96
354.797	310.3
355.179	320.02
355.562	307.82
355.944	334.26
356.326	335.39
356.709	334.03
357.091	344.88
357.473	341.26
357.855	339.45
358.238	342.17
358.62	315.95
359.002	347.36
359.384	341.71
359.766	333.13
360.148	351.66
360.53	347.36
360.912	353.47
361.294	328.61
361.676	334.48
362.057	332
362.439	332.67
362.821	352.56
363.203	352.56
363.584	329.96
363.966	353.01
364.348	346.01
364.729	323.41
365.111	329.74
365.493	323.64
365.874	313.01
366.256	307.14
366.637	298.55
367.019	306.23
367.4	302.85
367.781	311.66
368.163	343.3
368.544	313.24
368.925	306.91
369.306	330.19
369.688	293.13
370.069	292.45
370.45	339
370.831	311.21
371.212	314.37
371.593	297.87
371.974	318.89
372.355	322.05
372.736	337.19
373.117	296.52
373.498	313.24
373.879	336.29
374.26	323.86
374.641	298.1
375.021	315.95
375.402	313.47
375.783	336.74
376.163	318.89
376.544	326.12
376.925	336.52
377.305	343.07
377.686	326.12
378.066	329.51
378.447	346.01
378.827	330.87
379.208	316.63
379.588	357.98
379.968	328.83
380.349	349.17
380.729	334.26
381.109	323.86
381.489	327.7
381.87	324.09
382.25	341.04
382.63	353.47
383.01	344.88
383.39	319.79
383.77	356.4
384.15	341.71
384.53	336.74
384.91	343.3
385.29	353.01
385.67	337.19
386.049	363.63
386.429	361.6
386.809	341.26
387.189	350.3
387.568	372
387.948	380.13
388.328	366.57
388.707	351.88
389.087	354.37
389.466	372.22
389.846	390.53
390.225	388.72
390.605	356.4
390.984	389.85
391.363	376.74
391.743	357.31
392.122	376.97
392.501	382.17
392.881	369.28
393.26	378.1
393.639	355.5
394.018	378.55
394.397	370.41
394.776	369.96
395.155	393.46
395.534	381.94
395.913	384.42
396.292	401.6
396.671	379.91
397.05	391.43
397.429	394.82
397.808	393.24
398.186	393.69
398.565	398.44
398.944	375.39
399.323	391.88
399.701	413.12
400.08	400.7
400.458	418.55
400.837	421.03
401.215	425.78
401.594	404.54
401.972	438.66
402.351	420.81
402.729	407.93
403.107	416.51
403.486	400.7
403.864	413.12
404.242	416.06
404.62	411.54
404.999	405.89
405.377	423.52
405.755	414.25
406.133	423.52
406.511	433.69
406.889	421.94
407.267	449.73
407.645	437.3
408.023	442.05
408.401	449.51
408.779	462.16
409.156	452.9
409.534	469.17
409.912	459.45
410.29	450.41
410.667	476.63
411.045	474.14
411.422	459.9
411.8	464.65
412.178	487.25
412.555	459.45
412.933	499.22
413.31	495.16
413.687	489.96
414.065	493.35
414.442	491.99
414.819	489.51
415.197	488.83
415.574	494.7
415.951	505.55
416.328	488.15
416.705	503.97
417.082	501.03
417.46	520.92
417.837	531.09
418.214	514.14
418.591	511.65
418.967	504.87
419.344	516.17
419.721	522.73
420.098	513.91
420.475	527.7
420.852	557.53
421.228	525.66
421.605	549.17
421.982	562.27
422.358	553.46
422.735	544.87
423.111	548.49
423.488	578.77
423.864	575.15
424.241	575.83
424.617	586.23
424.994	555.95
425.37	608.15
425.746	562.27
426.123	592.78
426.499	584.19
426.875	617.87
427.251	600.01
427.627	607.47
428.003	598.88
428.379	633.46
428.756	638.2
429.132	632.55
429.507	619.45
429.883	645.89
430.259	617.41
430.635	639.11
431.011	658.54
431.387	666.68
431.763	659.67
432.138	656.96
432.514	658.99
432.89	697.41
433.265	685.21
433.641	691.99
434.016	711.2
434.392	706
434.767	709.39
435.143	724.3
435.518	711.65
435.894	720.01
436.269	733.34
436.644	731.99
437.02	731.53
437.395	762.49
437.77	769.95
438.145	776.73
438.52	770.63
438.895	776.96
439.271	793.45
439.646	795.71
440.021	813.11
440.395	823.06
440.77	775.83
441.145	821.25
441.52	809.05
441.895	828.26
442.27	835.71
442.645	823.28
443.019	847.46
443.394	845.43
443.769	831.64
444.143	851.98
444.518	824.64
444.892	857.63
445.267	865.54
445.641	876.39
446.016	877.07
446.39	877.07
446.764	898.31
447.139	880.01
447.513	890.17
447.887	889.95
448.262	904.64
448.636	904.41
449.01	929.5
449.384	899.67
449.758	922.72
450.132	944.41
450.506	945.31
450.88	965.88
451.254	944.64
451.628	994.35
452.002	968.59
452.376	988.25
452.75	1004.07
453.123	1009.27
453.497	1001.81
453.871	1035.03
454.244	1032.54
454.618	1047.23
454.992	1055.82
455.365	1061.24
455.739	1103.05
456.112	1076.61
456.486	1091.98
456.859	1112.32
457.232	1136.27
457.606	1119.77
457.979	1156.16
458.352	1144.63
458.725	1183.5
459.099	1198.19
459.472	1216.72
459.845	1255.59
460.218	1244.97
460.591	1238.87
460.964	1261.92
461.337	1292.88
461.71	1290.16
462.083	1313.44
462.456	1322.03
462.829	1338.3
463.201	1340.78
463.574	1345.53
463.947	1378.07
464.32	1420.78
464.692	1433.44
465.065	1423.27
465.438	1481.8
465.81	1482.02
466.183	1514.79
466.555	1538.52
466.928	1539.2
467.3	1562.7
467.672	1565.64
468.045	1626.65
468.417	1640.21
468.789	1620.1
469.161	1672.07
469.534	1700.1
469.906	1761.34
470.278	1804.5
470.65	1778.06
471.022	1851.73
471.394	1903.26
471.766	1887.66
472.138	1952.29
472.51	1965.85
472.882	2010.82
473.253	2063.02
473.625	2099.18
473.997	2148.67
474.369	2150.48
474.74	2213.3
475.112	2288.78
475.484	2370.36
475.855	2408.33
476.227	2418.5
476.598	2525.16
476.97	2539.17
477.341	2656.23
477.713	2691.93
478.084	2754.31
478.455	2853.06
478.827	2888.54
479.198	2984.58
479.569	3051.25
479.94	3199.94
480.311	3183.67
480.682	3295.31
481.053	3430.45
481.424	3498.02
481.795	3570.78
482.166	3676.09
482.537	3765.35
482.908	3871.56
483.279	3965.35
483.65	4033.37
484.021	4187.04
484.391	4279.92
484.762	4390.42
485.133	4524.2
485.503	4605.33
485.874	4732.79
486.244	4835.83
486.615	4963.51
486.985	5091.65
487.356	5217.07
487.726	5315.59
488.097	5477.17
488.467	5546.55
488.837	5744.28
489.207	5849.14
489.578	6035.12
489.948	6142.24
490.318	6300.88
490.688	6374.55
491.058	6584.26
491.428	6750.36
491.798	6824.48
492.168	6985.38
492.538	7125.04
492.908	7287.75
493.278	7405.26
493.648	7487.06
494.017	7657.68
494.387	7786.04
494.757	7864.23
495.126	8074.17
495.496	8191.9
495.866	8271.68
496.235	8361.62
496.605	8574.49
496.974	8616.75
497.344	8739.46
497.713	8883.18
498.082	8992.79
498.452	9115.27
498.821	9238.88
499.19	9300.35
499.559	9419.89
499.928	9573.11
500.298	9663.95
500.667	9703.95
501.036	9830.05
501.405	9938.07
501.774	10032.53
502.143	10171.51
502.512	10167.44
502.88	10344.62
503.249	10397.04
503.618	10465.52
503.987	10555.68
504.356	10723.59
504.724	10721.55
505.093	10800.2
505.462	10896.69
505.83	10964.03
506.199	11034.99
506.567	11225.95
506.936	11228.43
507.304	11408.99
507.672	11439.05
508.041	11512.95
508.409	11658.93
508.777	11721.3
509.145	11831.13
509.514	11747.06
509.882	11875.2
510.25	11873.16
510.618	11948.19
510.986	12024.57
511.354	12051.91
511.722	12254.17
512.09	12216.88
512.458	12264.11
512.826	12419.59
513.193	12372.81
513.561	12535.97
513.929	12507.27
514.297	12616.65
514.664	12672.24
515.032	12650.32
515.4	12707.49
515.767	12776.19
516.135	12813.7
516.502	12776.42
516.869	13002.17
517.237	13027.26
517.604	13023.19
517.972	13029.74
518.339	13147.48
518.706	13006.92
519.073	13146.8
519.44	13128.27
519.808	13300.7
520.175	13240.36
520.542	13395.83
520.909	13441.26
521.276	13390.18
521.643	13518.77
522.009	13567.36
522.376	13525.1
522.743	13644.42
523.11	13657.52
523.477	13681.25
523.843	13730.51
524.21	13795.37
524.577	13855.94
524.943	13976.38
525.31	13944.97
525.676	13996.72
526.043	14060.45
526.409	14037.4
526.776	14120.56
527.142	14040.56
527.508	14119.43
527.874	14172.54
528.241	14192.42
528.607	14190.16
528.973	14270.61
529.339	14253.21
529.705	14288.24
530.071	14370.95
530.437	14303.83
530.803	14294.12
531.169	14327.79
531.535	14210.28
531.901	14304.28
532.267	14267.9
532.632	14311.52
532.998	14235.36
533.364	14390.38
533.73	14323.27
534.095	14254.34
534.461	14326.88
534.826	14345.64
535.192	14300.9
535.557	14412.76
535.923	14377.28
536.288	14371.4
536.653	14318.75
537.019	14134.12
537.384	14163.27
537.749	14252.99
538.114	14216.38
538.479	14161.69
538.845	14138.64
539.21	14069.26
539.575	14108.81
539.94	14018.64
540.305	14135.25
540.67	13945.65
541.034	14018.64
541.399	13965.54
541.764	14014.8
542.129	13991.3
542.494	13982.94
542.858	13901.13
543.223	13886.89
543.587	13895.03
543.952	13665.88
544.316	13705.66
544.681	13740.01
545.045	13735.49
545.41	13729.38
545.774	13790.4
546.138	13679.89
546.503	13660.23
546.867	13645.09
547.231	13617.3
547.595	13643.29
547.959	13584.3
548.324	13535.72
548.688	13475.15
549.052	13536.17
549.416	13511.54
549.779	13446.68
550.143	13351.54
550.507	13438.32
550.871	13364.2
551.235	13260.47
551.599	13313.58
551.962	13326.68
552.326	13256.4
552.689	13314.25
553.053	13183.64
553.417	13145.9
553.78	13337.53
554.143	13172.34
554.507	13178.66
554.87	13085.33
555.234	13258.44
555.597	13072.68
555.96	13058.22
556.323	13116.07
556.686	13029.06
557.05	13114.71
557.413	13060.02
557.776	13057.09
558.139	13017.54
558.502	13011.44
558.865	13034.26
559.228	13094.83
559.59	13112.23
559.953	13089.63
560.316	13130.3
560.679	13111.55
561.041	13114.71
561.404	13095.28
561.767	13106.12
562.129	13099.12
562.492	13151.32
562.854	13141.6
563.217	13107.03
563.579	13194.71
563.941	13067.03
564.304	13265.89
564.666	13172.56
565.028	13268.61
565.39	13231.09
565.753	13329.62
566.115	13228.38
566.477	13257.98
566.839	13334.37
567.201	13283.52
567.563	13306.12
567.925	13346.57
568.287	13318.1
568.648	13303.18
569.01	13292.79
569.372	13414.36
569.734	13372.56
570.095	13396.74
570.457	13481.03
570.819	13487.13
571.18	13398.09
571.542	13561.93
571.903	13443.52
572.265	13577.07
572.626	13556.96
572.987	13495.94
573.349	13558.32
573.71	13550.41
574.071	13575.49
574.432	13571.65
574.794	13635.83
575.155	13663.17
575.516	13534.59
575.877	13624.75
576.238	13478.54
576.599	13579.33
576.96	13607.13
577.32	13629.73
577.681	13664.3
578.042	13601.7
578.403	13615.94
578.763	13580.69
579.124	13598.09
579.485	13630.63
579.845	13646.68
580.206	13570.52
580.566	13710.18
580.927	13680.8
581.287	13638.54
581.648	13662.95
582.008	13705.2
582.368	13702.72
582.728	13672.21
583.089	13715.6
583.449	13660.46
583.809	13662.04
584.169	13669.73
584.529	13585.43
584.889	13722.38
585.249	13603.74
585.609	13536.17
585.969	13571.42
586.329	13546.34
586.688	13589.05
587.048	13534.81
587.408	13537.75
587.768	13502.72
588.127	13540.24
588.487	13419.11
588.846	13566.68
589.206	13432.9
589.565	13441.03
589.925	13527.58
590.284	13501.37
590.643	13504.76
591.003	13552.44
591.362	13461.37
591.721	13466.79
592.08	13403.97
592.44	13476.06
592.799	13526.45
593.158	13502.72
593.517	13425.89
593.876	13418.21
594.235	13462.05
594.593	13399.22
594.952	13427.7
595.311	13414.59
595.67	13359.9
596.029	13505.89
596.387	13402.16
596.746	13438.77
597.104	13370.52
597.463	13344.76
597.822	13357.42
598.18	13327.59
598.538	13321.49
598.897	13371.65
599.255	13306.8
599.613	13421.37
599.972	13465.89
600.33	13391.31
600.688	13284.42
601.046	13384.54
601.404	13471.54
601.762	13346.12
602.12	13380.69
602.478	13421.82
602.836	13415.04
603.194	13285.33
603.552	13357.64
603.91	13326.91
604.268	13356.06
604.625	13334.82
604.983	13469.05
605.341	13324.65
605.698	13367.13
606.056	13409.17
606.413	13325.33
606.771	13433.35
607.128	13378.43
607.485	13374.37
607.843	13374.59
608.2	13386.57
608.557	13381.15
608.914	13432.22
609.272	13481.26
609.629	13494.36
609.986	13568.49
610.343	13465.66
610.7	13528.71
611.057	13488.71
611.414	13517.64
611.771	13450.75
612.127	13481.71
612.484	13596.96
612.841	13600.12
613.198	13587.02
613.554	13654.81
613.911	13644.42
614.267	13535.04
614.624	13605.55
614.98	13604.42
615.337	13687.8
615.693	13646.9
616.05	13638.31
616.406	13725.09
616.762	13611.87
617.118	13690.97
617.475	13730.74
617.831	13831.98
618.187	13792.21
618.543	13683.06
618.899	13785.88
619.255	13769.38
619.611	13800.8
619.967	13786.78
620.323	13804.86
620.678	13807.57
621.034	13731.87
621.39	13719.67
621.746	13669.05
622.101	13890.06
622.457	13727.8
622.812	13700.91
623.168	13699.33
623.523	13739.33
623.879	13798.31
624.234	13663.4
624.589	13884.41
624.945	13798.54
625.3	13733.45
625.655	13800.57
626.01	13778.87
626.365	13748.37
626.72	13740.46
627.075	13836.95
627.43	13741.14
627.785	13825.88
628.14	13812.55
628.495	13852.55
628.85	13792.21
629.205	13682.83
629.559	13702.72
629.914	13699.78
630.269	13689.84
630.623	13669.73
630.978	13726.9
631.332	13702.27
631.687	13675.15
632.041	13660.69
632.396	13695.71
632.75	13604.64
633.104	13650.06
633.459	13539.56
633.813	13525.55
634.167	13509.05
634.521	13522.61
634.875	13564.87
635.229	13537.07
635.583	13490.52
635.937	13401.48
636.291	13445.55
636.645	13473.57
636.999	13294.37
637.352	13473.12
637.706	13282.39
638.06	13412.56
638.413	13391.99
638.767	13303.86
639.121	13364.2
639.474	13236.06
639.828	13279.23
640.181	13333.91
640.534	13327.36
640.888	13210.08
641.241	13171.21
641.594	13157.42
641.947	13317.87
642.301	13239.45
642.654	13275.39
643.007	13286.68
643.36	13177.31
643.713	13177.08
644.066	13200.13
644.419	13173.47
644.771	13108.61
645.124	13093.7
645.477	12909.29
645.83	12856.64
646.182	12935.28
646.535	12817.77
646.888	12824.32
647.24	12778.22
647.593	12805.12
647.945	12774.61
648.298	12639.02
648.65	12638.11
649.002	12615.52
649.355	12835.17
649.707	12774.38
650.059	12822.52
650.411	12946.35
650.763	12872.23
651.115	13092.57
651.467	13028.39
651.819	13029.29
652.171	12991.33
652.523	12945.22
652.875	13017.54
653.227	12928.05
653.578	13085.79
653.93	13043.3
654.282	12938.45
654.633	12923.08
654.985	12947.03
655.337	12985.22
655.688	13001.49
656.039	12940.93
656.391	12930.76
656.742	12932.8
657.094	12987.94
657.445	13022.96
657.796	13015.05
658.147	12916.98
658.498	12998.56
658.849	13001.27
659.2	13060.02
659.551	13017.99
659.902	12963.98
660.253	12977.54
660.604	13065.22
660.955	13074.71
661.306	13112.68
661.656	13019.57
662.007	13101.38
662.358	13000.59
662.708	13010.08
663.059	12992.68
663.409	12903.64
663.76	13049.18
664.11	12993.58
664.461	13063.87
664.811	13034.49
665.161	13062.51
665.511	12967.14
665.862	13048.95
666.212	13073.36
666.562	13075.84
666.912	13031.55
667.262	13051.21
667.612	13007.14
667.962	13034.71
668.312	13009.4
668.662	13095.5
669.011	13023.64
669.361	13005.11
669.711	13005.11
670.06	13018.67
670.41	13037.2
670.76	12881.5
671.109	13005.34
671.459	13011.21
671.808	12949.07
672.157	12965.11
672.507	12941.16
672.856	12954.72
673.205	12927.82
673.554	13048.05
673.904	12916.52
674.253	13004.88
674.602	12971.44
674.951	12818.45
675.3	12712.24
675.649	12878.56
675.998	12832.69
676.346	12935.73
676.695	12923.53
677.044	12720.15
677.393	12850.54
677.741	12854.61
678.09	12875.4
678.438	12726.02
678.787	12807.83
679.135	12816.41
679.484	12635.18
679.832	12778.22
680.181	12633.59
680.529	12772.12
680.877	12658.23
681.225	12611.22
681.573	12696.64
681.922	12603.54
682.27	12611.67
682.618	12556.76
682.966	12509.98
683.314	12507.27
683.661	12480.6
684.009	12455.75
684.357	12425.01
684.705	12477.21
685.053	12398.35
685.4	12378.46
685.748	12332.36
686.095	12233.83
686.443	12207.62
686.79	12158.35
687.138	12197
687.485	12262.3
687.832	12148.86
688.18	12198.35
688.527	12163.78
688.874	12056.66
689.221	11995.42
689.568	11994.06
689.915	11925.82
690.262	11947.28
690.609	12025.25
690.956	11917.23
691.303	11879.49
691.65	11825.03
691.997	11827.74
692.344	11823.45
692.69	11664.13
693.037	11670
693.383	11605.6
693.73	11657.35
694.077	11595.43
694.423	11488.77
694.769	11565.37
695.116	11460.74
695.462	11446.28
695.808	11399.73
696.155	11383.46
696.501	11289.45
696.847	11272.73
697.193	11226.85
697.539	11236.79
697.885	11121.54
698.231	11134.42
698.577	11124.03
698.923	11084.26
699.269	10986.18
699.614	10916.13
699.96	10897.59
700.306	10931.04
700.651	10776.92
700.997	10871.83
701.342	10760.2
701.688	10729.92
702.033	10738.28
702.379	10709.8
702.724	10646.3
703.069	10696.02
703.415	10501
703.76	10575.8
704.105	10532.41
704.45	10480.43
704.795	10327.89
705.14	10483.82
705.485	10367.67
705.83	10286.31
706.175	10313.88
706.52	10340.1
706.865	10215.58
707.209	10279.31
707.554	10215.13
707.899	10198.86
708.243	10155.92
708.588	10109.82
708.932	10064.62
709.277	10050.61
709.621	10061.68
709.966	9953.21
710.31	9985.53
710.654	9941.01
710.998	9948.47
711.342	9929.03
711.687	9823.72
712.031	9905.76
712.375	9775.14
712.719	9786.89
713.063	9787.79
713.407	9879.32
713.75	9739.21
714.094	9792.54
714.438	9679.77
714.782	9710.96
715.125	9648.59
715.469	9666.44
715.812	9704.41
716.156	9569.27
716.499	9577.86
716.843	9541.25
717.186	9476.39
717.53	9565.88
717.873	9538.53
718.216	9545.31
718.559	9520.23
718.902	9490.17
719.246	9468.71
719.589	9412.21
719.932	9367.01
720.275	9445.2
720.617	9401.14
720.96	9376.05
721.303	9399.1
721.646	9350.74
721.989	9377.86
722.331	9375.15
722.674	9333.57
723.016	9356.17
723.359	9292.44
723.701	9400.01
724.044	9190.97
724.386	9199.56
724.729	9218.77
725.071	9235.94
725.413	9255.15
725.755	9246.34
726.097	9165.66
726.439	9188.26
726.782	9155.95
727.124	9251.99
727.465	9125.66
727.807	9086.57
728.149	9166.79
728.491	9163.4
728.833	9126.79
729.175	9133.35
729.516	9173.35
729.858	9106
730.199	9109.17
730.541	9126.79
730.882	9139.45
731.224	9150.3
731.565	9049.28
731.906	9115.72
732.248	9100.58
732.589	9048.83
732.93	9047.25
733.271	9102.84
733.612	9054.25
733.953	9108.72
734.294	9033.24
734.635	9059.9
734.976	9084.08
735.317	9048.38
735.658	9120.69
735.999	9022.62
736.339	9054.93
736.68	9057.19
737.021	9077.08
737.361	9028.27
737.702	9138.32
738.042	9065.78
738.383	9095.61
738.723	9122.27
739.063	9042.5
739.404	9118.43
739.744	9137.19
740.084	9100.58
740.424	9162.27
740.764	9171.99
741.104	9194.59
741.444	9168.37
741.784	9130.86
742.124	9141.03
742.464	9128.38
742.804	9212.89
743.143	9219.22
743.483	9278.65
743.823	9277.52
744.162	9282.5
744.502	9314.13
744.841	9294.02
745.181	9442.04
745.52	9451.31
745.86	9505.54
746.199	9442.94
746.538	9499.89
746.877	9552.32
747.216	9611.75
747.556	9601.58
747.895	9708.02
748.234	9726.55
748.573	9776.27
748.911	9824.4
749.25	9870.73
749.589	9923.84
749.928	10003.38
750.267	10091.51
750.605	10106.66
750.944	10148.46
751.283	10212.42
751.621	10352.52
751.96	10372.64
752.298	10473.43
752.636	10595.23
752.975	10613.53
753.313	10717.71
753.651	10935.56
753.989	10965.62
754.327	11104.82
754.666	11117.48
755.004	11321.09
755.342	11428.43
755.679	11505.94
756.017	11629.1
756.355	11743
756.693	11885.59
757.031	12038.58
757.368	12106.15
757.706	12273.15
758.044	12384.79
758.381	12612.8
758.719	12690.77
