Data from hue_40_FLMS001491_27.txt Node
Date: Mon Feb 06 15:07:40 GMT 2017
User: dcchb
Spectrometer: FLMS00149
Trigger mode: 0
Integration Time (sec): 2.000000E-2
Scans to average: 10
Electric dark correction enabled: true
Nonlinearity correction enabled: false
Boxcar width: 0
XAxis mode: Wavelengths
Number of Pixels in Spectrum: 2048
>>>>>Begin Spectral Data<<<<<
341.393	-3.04
341.776	-3.04
342.16	-3.04
342.543	-58.85
342.927	-65.63
343.31	-59.98
343.693	-55.46
344.077	-60.66
344.46	-68.35
344.843	-58.18
345.226	-52.53
345.61	-25.63
345.993	-9.36
346.376	-19.53
346.759	0.58
347.142	24.31
347.525	42.61
347.908	62.95
348.291	79.9
348.674	96.85
349.057	102.5
349.44	123.51
349.823	145.89
350.206	181.59
350.588	204.87
350.971	210.74
351.354	230.86
351.737	253.91
352.119	238.31
352.502	262.95
352.884	267.24
353.267	288.26
353.65	317.63
354.032	294.36
354.414	321.25
354.797	307.24
355.179	322.6
355.562	324.19
355.944	316.95
356.326	349.72
356.709	354.24
357.091	351.98
357.473	363.51
357.855	365.32
358.238	335.03
358.62	355.15
359.002	356.5
359.384	339.55
359.766	356.95
360.148	374.81
360.53	343.39
360.912	340.68
361.294	358.54
361.676	351.3
362.057	326.22
362.439	347.46
362.821	340.23
363.203	343.85
363.584	355.82
363.966	325.09
364.348	330.97
364.729	342.49
365.111	327.35
365.493	317.86
365.874	329.61
366.256	335.94
366.637	325.54
367.019	337.75
367.4	340.46
367.781	327.12
368.163	330.29
368.544	305.2
368.925	311.98
369.306	326.67
369.688	340.23
370.069	315.6
370.45	333.9
370.831	307.46
371.212	314.7
371.593	298.2
371.974	319.67
372.355	325.99
372.736	344.98
373.117	335.49
373.498	317.63
373.879	311.31
374.26	312.89
374.641	337.07
375.021	323.51
375.402	341.14
375.783	333
376.163	312.44
376.544	344.07
376.925	327.58
377.305	358.54
377.686	344.75
378.066	315.6
378.447	338.42
378.827	349.72
379.208	334.58
379.588	338.42
379.968	336.62
380.349	350.63
380.729	353.79
381.109	340.01
381.489	335.71
381.87	347.69
382.25	356.28
382.63	340.68
383.01	348.37
383.39	348.82
383.77	361.25
384.15	357.41
384.53	340.01
384.91	342.27
385.29	365.99
385.67	359.21
386.049	369.38
386.429	348.14
386.809	356.73
387.189	376.39
387.568	372.32
387.948	360.57
388.328	391.76
388.707	383.39
389.087	374.58
389.466	358.99
389.846	379.1
390.225	363.51
390.605	382.26
390.984	392.66
391.363	373
391.743	378.87
392.122	372.09
392.501	374.58
392.881	392.43
393.26	376.39
393.639	383.17
394.018	407.8
394.397	382.26
394.776	390.17
395.155	388.37
395.534	399.66
395.913	388.82
396.292	397.86
396.671	411.64
397.05	406.44
397.429	392.66
397.808	393.34
398.186	392.89
398.565	410.96
398.944	418.65
399.323	428.82
399.701	422.49
400.08	380.23
400.458	400.12
400.837	422.71
401.215	400.34
401.594	437.63
401.972	417.07
402.351	404.41
402.729	417.07
403.107	424.52
403.486	422.04
403.864	437.18
404.242	425.65
404.62	437.86
404.999	417.74
405.377	433.79
405.755	444.86
406.133	444.86
406.511	446.9
406.889	447.12
407.267	439.21
407.645	457.52
408.023	445.31
408.401	457.29
408.779	443.05
409.156	454.35
409.534	446.67
409.912	446.44
410.29	467.46
410.667	470.85
411.045	454.8
411.422	483.73
411.8	510.17
412.178	473.79
412.555	483.73
412.933	497.97
413.31	498.42
413.687	494.35
414.065	488.7
414.442	502.03
414.819	520.57
415.197	491.64
415.574	500.9
415.951	526.67
416.328	502.03
416.705	503.39
417.082	502.49
417.46	512.43
417.837	523.05
418.214	506.33
418.591	519.66
418.967	537.97
419.344	529.83
419.721	570.73
420.098	541.36
420.475	537.74
420.852	531.41
421.228	544.97
421.605	533.45
421.982	552.43
422.358	543.39
422.735	564.41
423.111	581.58
423.488	547.01
423.864	560.56
424.241	585.87
424.617	585.2
424.994	598.98
425.37	584.52
425.746	582.94
426.123	590.39
426.499	604.41
426.875	599.66
427.251	622.71
427.627	601.02
428.003	617.29
428.379	626.1
428.756	620.68
429.132	644.4
429.507	640.79
429.883	639.66
430.259	664.52
430.635	641.47
431.011	655.48
431.387	662.26
431.763	678.3
432.138	679.43
432.514	684.85
432.89	691.63
433.265	662.93
433.641	685.53
434.016	717.17
434.392	697.28
434.767	709.04
435.143	702.26
435.518	737.28
435.894	724.63
436.269	729.83
436.644	725.08
437.02	745.42
437.395	747.45
437.77	751.29
438.145	755.59
438.52	780.67
438.895	767.56
439.271	773.67
439.646	784.06
440.021	802.82
440.395	782.71
440.77	785.42
441.145	818.18
441.52	814.12
441.895	821.8
442.27	831.74
442.645	807.56
443.019	841.01
443.394	829.26
443.769	804.63
444.143	825.42
444.518	849.14
444.892	830.61
445.267	832.42
445.641	845.08
446.016	855.47
446.39	869.26
446.764	868.35
447.139	887.11
447.513	865.87
447.887	882.82
448.262	896.6
448.636	889.37
449.01	914.23
449.384	917.84
449.758	911.74
450.132	916.71
450.506	920.1
450.88	932.08
451.254	896.83
451.628	961.46
452.002	954.68
452.376	951.97
452.75	957.16
453.123	977.28
453.497	965.07
453.871	972.53
454.244	1012.76
454.618	1005.3
454.992	1014.79
455.365	1011.85
455.739	1064.05
456.112	1070.16
456.486	1048.46
456.859	1070.61
457.232	1064.05
457.606	1095.92
457.979	1098.4
458.352	1095.69
458.725	1123.94
459.099	1145.63
459.472	1125.75
459.845	1191.96
460.218	1152.41
460.591	1170.94
460.964	1179.76
461.337	1197.16
461.71	1243.71
462.083	1250.04
462.456	1242.13
462.829	1265.4
463.201	1244.84
463.574	1303.37
463.947	1324.16
464.32	1323.93
464.692	1336.82
465.065	1364.16
465.438	1362.35
465.81	1379.75
466.183	1398.51
466.555	1413.2
466.928	1430.82
467.3	1413.42
467.672	1496.13
468.045	1524.15
468.417	1507.66
468.789	1524.83
469.161	1568.67
469.534	1575
469.906	1586.75
470.278	1618.16
470.65	1629.01
471.022	1658.16
471.394	1729.8
471.766	1774.09
472.138	1766.18
472.51	1799.18
472.882	1866.07
473.253	1862.23
473.625	1885.05
473.997	1956.01
474.369	1986.74
474.74	1981.54
475.112	2055.44
475.484	2082.56
475.855	2167.75
476.227	2186.74
476.598	2233.29
476.97	2283
477.341	2347.64
477.713	2388.09
478.084	2425.6
478.455	2520.29
478.827	2526.16
479.198	2646.61
479.569	2662.88
479.94	2758.25
480.311	2817.45
480.682	2878.7
481.053	2978.13
481.424	3107.39
481.795	3143.32
482.166	3158.24
482.537	3254.28
482.908	3364.11
483.279	3393.26
483.65	3527.49
484.021	3604.78
484.391	3663.31
484.762	3760.03
485.133	3780.14
485.503	3923.41
485.874	4033.02
486.244	4135.61
486.615	4209.96
486.985	4302.39
487.356	4495.6
487.726	4565.43
488.097	4653.11
488.467	4708.93
488.837	4917.06
489.207	5010.62
489.578	5133.1
489.948	5150.27
490.318	5305.75
490.688	5407.67
491.058	5462.58
491.428	5619.64
491.798	5712.07
492.168	5869.8
492.538	5938.5
492.908	6032.06
493.278	6214.43
493.648	6263.47
494.017	6438.15
494.387	6512.95
494.757	6585.49
495.126	6707.97
495.496	6781.87
495.866	6881.3
496.235	7003.56
496.605	7166.72
496.974	7204.68
497.344	7390.44
497.713	7406.49
498.082	7478.12
498.452	7707.72
498.821	7780.71
499.19	7782.75
499.559	7948.84
499.928	8013.02
500.298	8080.59
500.667	8217.76
501.036	8299.34
501.405	8418.44
501.774	8468.83
502.143	8552.22
502.512	8652.55
502.88	8777.75
503.249	8852.1
503.618	8912.21
503.987	8909.27
504.356	9096.16
504.724	9144.29
505.093	9260.45
505.462	9261.13
505.83	9358.53
506.199	9493.44
506.567	9704.5
506.936	9624.51
507.304	9740.21
507.672	9879.64
508.041	9857.72
508.409	10005.06
508.777	10128
509.145	10199.63
509.514	10179.75
509.882	10349.69
510.25	10375.9
510.618	10415.45
510.986	10529.57
511.354	10628.55
511.722	10734.31
512.09	10841.2
512.458	10788.32
512.826	10894.3
513.193	11088.88
513.561	11041.42
513.929	11197.35
514.297	11250.9
514.664	11326.61
515.032	11443.44
515.4	11509.2
515.767	11573.16
516.135	11606.83
516.502	11562.08
516.869	11783.77
517.237	11813.15
517.604	11842.53
517.972	11977.67
518.339	12028.51
518.706	12059.02
519.073	12115.74
519.44	12244.1
519.808	12337.43
520.175	12345.11
520.542	12574.71
520.909	12624.2
521.276	12567.25
521.643	12756.63
522.009	12842.73
522.376	12909.17
522.743	12944.19
523.11	13093.12
523.477	13159.1
523.843	13297.4
524.21	13331.75
524.577	13521.81
524.943	13607.23
525.31	13566.78
525.676	13736.26
526.043	13760.44
526.409	13925.64
526.776	14048.35
527.142	13998.86
527.508	14161.79
527.874	14294.67
528.241	14287.21
528.607	14349.13
528.973	14501.44
529.339	14591.38
529.705	14645.17
530.071	14761.32
530.437	14793.86
530.803	14950.02
531.169	15034.08
531.535	14917.02
531.901	14996.79
532.267	15182.78
532.632	15211.03
532.998	15288.76
533.364	15368.54
533.73	15339.84
534.095	15560.62
534.461	15572.37
534.826	15686.95
535.192	15728.08
535.557	15874.51
535.923	15900.05
536.288	15851.69
536.653	16026.82
537.019	15995.64
537.384	16031.57
537.749	16196.54
538.114	16207.38
538.479	16232.69
538.845	16341.39
539.21	16343.2
539.575	16488.73
539.94	16550.2
540.305	16553.59
540.67	16558.79
541.034	16625
541.399	16698.67
541.764	16726.24
542.129	16835.84
542.494	16883.07
542.858	16963.97
543.223	17132.78
543.587	17145.89
543.952	17111.54
544.316	17247.58
544.681	17344.53
545.045	17445.54
545.41	17501.81
545.774	17526.45
546.138	17601.02
546.503	17523.96
546.867	17546.33
547.231	17793.56
547.595	17819.32
547.959	17857.96
548.324	17835.59
548.688	17948.36
549.052	18067
549.416	18074.45
549.779	18151.51
550.143	18177.73
550.507	18332.98
550.871	18361.9
551.235	18287.78
551.599	18448
551.962	18468.34
552.326	18553.54
552.689	18664.5
553.053	18621.78
553.417	18745.4
553.78	18959.18
554.143	18879.4
554.507	19039.4
554.87	18960.31
555.234	19190.81
555.597	19059.51
555.96	19222.22
556.323	19303.8
556.686	19283.24
557.05	19513.29
557.413	19457.24
557.776	19619.05
558.139	19704.24
558.502	19678.93
558.865	19728.42
559.228	19938.13
559.59	19937.23
559.953	19939.04
560.316	20159.37
560.679	20196.43
561.041	20318.69
561.404	20330.89
561.767	20488.85
562.129	20356.88
562.492	20607.95
562.854	20551.45
563.217	20600.94
563.579	20647.27
563.941	20959.58
564.304	20885.68
564.666	21076.41
565.028	21095.84
565.39	21142.17
565.753	21267.14
566.115	21263.3
566.477	21308.49
566.839	21550.52
567.201	21537.64
567.563	21636.17
567.925	21774.24
568.287	21776.28
568.648	21760.46
569.01	21903.51
569.372	22084.97
569.734	22056.72
570.095	22157.28
570.457	22289.94
570.819	22441.57
571.18	22367.67
571.542	22585.52
571.903	22565.64
572.265	22759.53
572.626	22837.04
572.987	22768.79
573.349	23006.98
573.71	23102.57
574.071	23108.67
574.432	23289.68
574.794	23545.04
575.155	23526.06
575.516	23416.23
575.877	23672.5
576.238	23726.28
576.599	23919.72
576.96	24025.94
577.32	24106.84
577.681	24161.3
578.042	24345.7
578.403	24498.47
578.763	24673.38
579.124	24641.29
579.485	24987.27
579.845	25056.64
580.206	25110.2
580.566	25207.6
580.927	25361.72
581.287	25437.2
581.648	25626.57
582.008	25842.39
582.368	25816.4
582.728	26193.56
583.089	26224.52
583.449	26377.06
583.809	26617.05
584.169	26764.4
584.529	26824.51
584.889	27280.09
585.249	27238.51
585.609	27311.95
585.969	27754.88
586.329	27834.42
586.688	28054.3
587.048	28132.04
587.408	28255.66
587.768	28489.55
588.127	28543.11
588.487	28811.12
588.846	29168.4
589.206	29009.53
589.565	29262.86
589.925	29717.31
590.284	29674.15
590.643	29933.35
591.003	30228.03
591.362	30486.11
591.721	30603.84
592.08	30736.04
592.44	31038.63
592.799	31094.68
593.158	31342.81
593.517	31406.31
593.876	31702.8
594.235	31849.69
594.593	32164.71
594.952	32282.67
595.311	32359.28
595.67	32591.13
596.029	33000.39
596.387	33114.96
596.746	33330.55
597.104	33430.89
597.463	33451.9
597.822	33719.47
598.18	33752.46
598.538	33906.13
598.897	34421.14
599.255	34184.54
599.613	34853
599.972	34681.02
600.33	34882.37
600.688	34954.01
601.046	35266.09
601.404	35535.46
601.762	35680.09
602.12	35820.2
602.478	35946.07
602.836	36123.25
603.194	36015.9
603.552	36263.58
603.91	36212.28
604.268	36600.07
604.625	36534.99
604.983	36955.09
605.341	36756.22
605.698	37018.36
606.056	37167.96
606.413	37303.78
606.771	37624.9
607.128	37666.71
607.485	37546.03
607.843	37694.73
608.2	38110.09
608.557	38249.97
608.914	38154.15
609.272	38432.79
609.629	38489.96
609.986	38849.5
610.343	38527.93
610.7	39065.31
611.057	38959.33
611.414	39035.94
611.771	39313.22
612.127	39439.54
612.484	39434.12
612.841	39644.28
613.198	39561.57
613.554	39691.74
613.911	39900.77
614.267	39957.49
614.624	39907.55
614.98	40110.71
615.337	40389.8
615.693	40363.81
616.05	40483.81
616.406	40786.85
616.762	40719.96
617.118	40689.9
617.475	40735.55
617.831	40967.64
618.187	40991.14
618.543	41195.2
618.899	41280.62
619.255	41235.43
619.611	41486.49
619.967	41693.04
620.323	41700.5
620.678	41507.74
621.034	41541.86
621.39	41545.93
621.746	41617.56
622.101	42057.1
622.457	41721.52
622.812	41938.01
623.168	41920.83
623.523	41986.82
623.879	42095.29
624.234	41841.29
624.589	42179.13
624.945	42144.78
625.3	42157.66
625.655	42213.93
626.01	42272.91
626.365	42370.76
626.72	42152.24
627.075	42360.6
627.43	42367.37
627.785	42306.36
628.14	42309.75
628.495	42458.45
628.85	42369.63
629.205	42294.38
629.559	42522.17
629.914	42320.6
630.269	42502.51
630.623	42337.32
630.978	42396.75
631.332	42686.24
631.687	42498.67
632.041	42527.14
632.396	42571.21
632.75	42444.66
633.104	42558.33
633.459	42402.85
633.813	42361.05
634.167	42432.46
634.521	42414.83
634.875	42505
635.229	42381.84
635.583	42205.8
635.937	42128.28
636.291	42230.43
636.645	42312.01
636.999	42115.86
637.352	42402.4
637.706	42027.95
638.06	42320.82
638.413	42274.04
638.767	42160.83
639.121	42070.43
639.474	41904.34
639.828	41912.7
640.181	42121.96
640.534	42039.25
640.888	41984.33
641.241	41811.91
641.594	42018.23
641.947	42002.64
642.301	41964.67
642.654	41924
643.007	41904.34
643.36	41831.34
643.713	41774.85
644.066	41932.81
644.419	41738.46
644.771	41417.34
645.124	41021.42
645.477	41016.45
645.83	40761.54
646.182	40692.62
646.535	40641.54
646.888	40701.66
647.24	40363.59
647.593	40667.31
647.945	40599.06
648.298	40467.76
648.65	40404.49
649.002	40254.21
649.355	40524.26
649.707	40400.42
650.059	40470.7
650.411	41005.15
650.763	41026.84
651.115	41564.01
651.467	41234.98
651.819	41329.44
652.171	41226.16
652.523	41112.94
652.875	41134.86
653.227	41053.96
653.578	41295.09
653.93	41141.64
654.282	40981.2
654.633	40988.43
654.985	41039.73
655.337	41053.28
655.688	40888.77
656.039	41044.92
656.391	40670.24
656.742	40801.09
657.094	40818.26
657.445	40898.26
657.796	40736.46
658.147	40874.76
658.498	40760.41
658.849	40757.25
659.2	40695.1
659.551	40735.33
659.902	40856.91
660.253	40715.67
660.604	40848.77
660.955	40712.5
661.306	40797.92
661.656	40679.51
662.007	40772.16
662.358	40601.09
662.708	40702.33
663.059	40586.18
663.409	40453.75
663.76	40663.92
664.11	40642.22
664.461	40767.19
664.811	40554.99
665.161	40643.13
665.511	40510.47
665.862	40663.24
666.212	40728.32
666.562	40675.44
666.912	40660.3
667.262	40628.21
667.612	40691.94
667.962	40639.51
668.312	40632.51
668.662	40816.68
669.011	40482.45
669.361	40505.73
669.711	40557.48
670.06	40436.58
670.41	40430.25
670.76	40282.46
671.109	40414.21
671.459	40389.8
671.808	40229.8
672.157	40425.28
672.507	40244.72
672.856	40190.48
673.205	40213.53
673.554	40398.16
673.904	40172.18
674.253	40389.35
674.602	40093.08
674.951	39632.98
675.3	39374.01
675.649	40284.49
675.998	40035.23
676.346	40062.58
676.695	40189.8
677.044	39858.06
677.393	40015.35
677.741	40136.47
678.09	39907.1
678.438	39862.58
678.787	40081.33
679.135	39946.2
679.484	39671.85
679.832	40016.7
680.181	39645.41
680.529	39857.84
680.877	39645.64
681.225	39595.02
681.573	39757.27
681.922	39427.11
682.27	39488.58
682.618	39432.54
682.966	39298.98
683.314	39354.12
683.661	39251.3
684.009	39064.41
684.357	39087.46
684.705	38942.15
685.053	39021.47
685.4	38969.27
685.748	38848.37
686.095	38875.72
686.443	38748.71
686.79	38511.66
687.138	38740.13
687.485	38727.92
687.832	38602.95
688.18	38595.72
688.527	38361.38
688.874	38378.33
689.221	38230.99
689.568	38186.24
689.915	38013.14
690.262	38058.79
690.609	37923.2
690.956	37822.86
691.303	37795.07
691.65	37515.3
691.997	37570.89
692.344	37307.85
692.69	37323.21
693.037	37274.63
693.383	37080.28
693.73	37312.59
694.077	37114.86
694.423	37018.59
694.769	36946.27
695.116	36789.89
695.462	36873.51
695.808	36601.65
696.155	36800.29
696.501	36483.91
696.847	36469.45
697.193	36180.42
697.539	36330.7
697.885	36157.14
698.231	35885.06
698.577	36007.54
698.923	35926.87
699.269	35733.88
699.614	35592.86
699.96	35465.18
700.306	35568.68
700.651	35432.42
700.997	35342.47
701.342	35259.76
701.688	35229.03
702.033	35122.82
702.379	34948.81
702.724	34984.74
703.069	35159.65
703.415	34498.2
703.76	34645.32
704.105	34690.97
704.45	34573.23
704.795	34379.79
705.14	34331.65
705.485	34244.88
705.83	34182.73
706.175	34092.56
706.52	34029.51
706.865	33840.14
707.209	33969.4
707.554	33857.77
707.899	33920.14
708.243	33649.19
708.588	33666.13
708.932	33384.11
709.277	33376.2
709.621	33471.11
709.966	33253.26
710.31	33281.06
710.654	33028.86
710.998	33078.81
711.342	33065.7
711.687	32935.53
712.031	32820.73
712.375	32669.1
712.719	32828.87
713.063	32629.33
713.407	32763.33
713.75	32775.54
714.094	32439.05
714.438	32444.7
714.782	32331.03
715.125	32199.73
715.469	32406.73
715.812	32161.09
716.156	32061.43
716.499	32024.82
716.843	32031.6
717.186	31882.68
717.53	31949.57
717.873	32014.2
718.216	31898.5
718.559	31761.33
718.902	31629.58
719.246	31630.03
719.589	31529.47
719.932	31554.1
720.275	31532.63
720.617	31314.56
720.96	31389.58
721.303	31305.74
721.646	31237.95
721.989	31094.22
722.331	31225.07
722.674	31112.08
723.016	31159.31
723.359	30990.72
723.701	30977.17
724.044	30646.78
724.386	30671.41
724.729	30980.1
725.071	30673.67
725.413	30717.06
725.755	30669.38
726.097	30477.52
726.439	30366.56
726.782	30345.32
727.124	30493.56
727.465	30255.83
727.807	30269.61
728.149	30302.61
728.491	30160.46
728.833	30132.89
729.175	30063.07
729.516	29989.85
729.858	29995.27
730.199	30011.54
730.541	29869.4
730.882	29800.47
731.224	29873.69
731.565	29811.55
731.906	29734.94
732.248	29710.53
732.589	29567.71
732.93	29512.35
733.271	29587.6
733.612	29621.72
733.953	29602.96
734.294	29357.77
734.635	29452.01
734.976	29459.92
735.317	29295.63
735.658	29427.15
735.999	29279.58
736.339	29315.97
736.68	29178.79
737.021	29086.82
737.361	29030.32
737.702	29139.02
738.042	29041.17
738.383	29060.83
738.723	29026.93
739.063	28921.63
739.404	28917.11
739.744	28864.68
740.084	28681.41
740.424	28635.31
740.764	28667.17
741.104	28811.57
741.444	28472.6
741.784	28494.75
742.124	28440.51
742.464	28382.66
742.804	28482.54
743.143	28375.65
743.483	28353.96
743.823	28189.89
744.162	28154.42
744.502	28222.21
744.841	28108.99
745.181	28175.88
745.52	27995.1
745.86	28037.36
746.199	27989.67
746.538	27999.39
746.877	28044.81
747.216	28006.85
747.556	27894.08
747.895	27983.57
748.234	27758.72
748.573	27755.56
748.911	27709.46
749.25	27766.18
749.589	27646.18
749.928	27527.31
750.267	27592.4
750.605	27538.39
750.944	27454.32
751.283	27359.86
751.621	27461.1
751.96	27350.82
752.298	27268.79
752.636	27220.65
752.975	27097.72
753.313	26987.89
753.651	27196.47
753.989	26808.46
754.327	26930.94
754.666	26804.62
755.004	26825.86
755.342	26888.46
755.679	26752.64
756.017	26607.79
756.355	26656.6
756.693	26528.7
757.031	26616.6
