Data from hue_40_FLMS001491_91.txt Node
Date: Mon Feb 06 15:08:50 GMT 2017
User: dcchb
Spectrometer: FLMS00149
Trigger mode: 0
Integration Time (sec): 2.000000E-2
Scans to average: 10
Electric dark correction enabled: true
Nonlinearity correction enabled: false
Boxcar width: 0
XAxis mode: Wavelengths
Number of Pixels in Spectrum: 2048
>>>>>Begin Spectral Data<<<<<
341.393	-9.32
341.776	-9.32
342.16	-9.32
342.543	-82.54
342.927	-71.69
343.31	-88.19
343.693	-67.17
344.077	-66.27
344.46	-49.55
344.843	-62.2
345.226	-43.67
345.61	-53.84
345.993	-18.36
346.376	-9.55
346.759	18.02
347.142	26.16
347.525	36.78
347.908	69.09
348.291	72.48
348.674	94.18
349.057	142.09
349.44	120.17
349.823	134.86
350.206	166.49
350.588	196.77
350.971	215.08
351.354	212.14
351.737	230.9
352.119	244.91
352.502	261.63
352.884	281.29
353.267	281.97
353.65	317.68
354.032	292.14
354.414	312.7
354.797	347.73
355.179	338.01
355.562	308.86
355.944	345.02
356.326	328.97
356.709	321.07
357.091	344.79
357.473	340.05
357.855	345.02
358.238	357.9
358.62	336.66
359.002	342.31
359.384	346.83
359.766	362.42
360.148	348.63
360.53	337.56
360.912	356.77
361.294	352.25
361.676	352.93
362.057	346.15
362.439	330.33
362.821	341.63
363.203	337.34
363.584	331.91
363.966	334.17
364.348	324.45
364.729	324
365.111	318.58
365.493	338.24
365.874	331.01
366.256	311.8
366.637	312.7
367.019	339.14
367.4	316.32
367.781	328.3
368.163	300.5
368.544	319.94
368.925	327.84
369.306	335.08
369.688	309.99
370.069	312.25
370.45	305.25
370.831	305.7
371.212	318.58
371.593	307.96
371.974	324.23
372.355	318.81
372.736	315.64
373.117	316.09
373.498	334.62
373.879	304.34
374.26	324.68
374.641	335.3
375.021	318.81
375.402	326.71
375.783	319.48
376.163	342.31
376.544	328.3
376.925	322.65
377.305	339.37
377.686	324.23
378.066	354.74
378.447	345.92
378.827	327.62
379.208	356.32
379.588	357
379.968	339.37
380.349	343.89
380.729	361.29
381.109	328.07
381.489	343.89
381.87	349.76
382.25	324.45
382.63	365.13
383.01	359.03
383.39	352.02
383.77	327.84
384.15	350.22
384.53	358.8
384.91	354.96
385.29	352.48
385.67	362.19
386.049	364.23
386.429	377.79
386.809	359.03
387.189	350.89
387.568	352.25
387.948	361.29
388.328	375.53
388.707	362.65
389.087	359.93
389.466	366.04
389.846	364.68
390.225	379.82
390.605	362.42
390.984	385.02
391.363	364.91
391.743	403.55
392.122	387.96
392.501	385.24
392.881	404.9
393.26	376.88
393.639	393.61
394.018	394.74
394.397	389.31
394.776	386.83
395.155	406.71
395.534	393.38
395.913	387.96
396.292	419.37
396.671	403.32
397.05	394.51
397.429	384.11
397.808	398.13
398.186	427.73
398.565	401.29
398.944	415.3
399.323	405.81
399.701	408.97
400.08	385.47
400.458	413.72
400.837	415.75
401.215	405.81
401.594	409.65
401.972	410.55
402.351	421.85
402.729	440.38
403.107	399.48
403.486	422.31
403.864	426.15
404.242	420.95
404.62	418.92
404.999	425.7
405.377	450.78
405.755	448.75
406.133	442.64
406.511	435.86
406.889	457.33
407.267	459.59
407.645	441.29
408.023	466.82
408.401	470.44
408.779	466.6
409.156	449.65
409.534	487.16
409.912	464.56
410.29	465.69
410.667	476.99
411.045	460.5
411.422	483.32
411.8	484.45
412.178	482.87
412.555	490.55
412.933	491
413.31	488.97
413.687	534.17
414.065	512.47
414.442	494.62
414.819	505.24
415.197	506.6
415.574	512.25
415.951	516.09
416.328	529.2
416.705	530.1
417.082	522.42
417.46	516.54
417.837	549.08
418.214	533.94
418.591	526.26
418.967	559.25
419.344	545.47
419.721	562.64
420.098	549.31
420.475	579.59
420.852	560.83
421.228	575.52
421.605	555.64
421.982	542.53
422.358	564.22
422.735	574.62
423.111	596.09
423.488	576.65
423.864	583.88
424.241	615.97
424.617	594.28
424.994	589.08
425.37	598.8
425.746	589.76
426.123	583.88
426.499	608.06
426.875	617.1
427.251	600.38
427.627	625.69
428.003	629.31
428.379	625.01
428.756	653.26
429.132	650.77
429.507	646.25
429.883	648.51
430.259	651.45
430.635	666.14
431.011	667.5
431.387	674.95
431.763	668.17
432.138	685.8
432.514	679.25
432.89	697.78
433.265	711.11
433.641	715.4
434.016	695.97
434.392	714.28
434.767	749.08
435.143	732.81
435.518	750.88
435.894	769.64
436.269	752.01
436.644	787.04
437.02	748.4
437.395	762.64
437.77	799.47
438.145	783.88
438.52	792.01
438.895	792.24
439.271	825.23
439.646	824.78
440.021	819.13
440.395	831.33
440.77	814.61
441.145	824.1
441.52	835.63
441.895	838.79
442.27	834.72
442.645	826.59
443.019	828.17
443.394	852.12
443.769	860.03
444.143	856.19
444.518	884.67
444.892	873.14
445.267	896.19
445.641	891.9
446.016	891.9
446.39	896.87
446.764	896.19
447.139	914.72
447.513	885.57
447.887	920.37
448.262	924.44
448.636	894.61
449.01	937.09
449.384	924.21
449.758	934.38
450.132	944.78
450.506	937.09
450.88	973.93
451.254	959.69
451.628	959.69
452.002	997.88
452.376	973.48
452.75	992.91
453.123	966.7
453.497	1036.53
453.871	1030.42
454.244	1022.06
454.618	1070.88
454.992	1054.15
455.365	1040.14
455.739	1065.68
456.112	1096.19
456.486	1072.68
456.859	1090.54
457.232	1099.12
457.606	1126.47
457.979	1129.41
458.352	1174.15
458.725	1156.3
459.099	1182.96
459.472	1200.36
459.845	1195.84
460.218	1212.57
460.591	1196.07
460.964	1235.39
461.337	1246.01
461.71	1263.87
462.083	1288.95
462.456	1282.4
462.829	1301.15
463.201	1324.43
463.574	1316.07
463.947	1347.93
464.32	1397.42
464.692	1391.09
465.065	1408.72
465.438	1387.7
465.81	1434.48
466.183	1417.76
466.555	1461.15
466.928	1483.75
467.3	1494.82
467.672	1507.25
468.045	1547.7
468.417	1578.43
468.789	1569.39
469.161	1590.64
469.534	1649.17
469.906	1636.06
470.278	1694.59
470.65	1725.77
471.022	1744.3
471.394	1733.01
471.766	1763.74
472.138	1816.62
472.51	1855.49
472.882	1895.94
473.253	1906.11
473.625	1952.66
473.997	2011.64
474.369	2013
474.74	2037.63
475.112	2128.25
475.484	2123.05
475.855	2183.84
476.227	2203.5
476.598	2296.83
476.97	2321.46
477.341	2373.67
477.713	2438.52
478.084	2469.26
478.455	2548.13
478.827	2602.13
479.198	2710.61
479.569	2717.61
479.94	2817.04
480.311	2894.33
480.682	2951.28
481.053	3018.4
481.424	3127.09
481.795	3165.06
482.166	3222.46
482.537	3320.76
482.908	3381.1
483.279	3504.03
483.65	3560.3
484.021	3666.06
484.391	3699.51
484.762	3791.71
485.133	3860.41
485.503	3954.87
485.874	4079.61
486.244	4209.55
486.615	4263.79
486.985	4354.63
487.356	4503.78
487.726	4563.44
488.097	4708.75
488.467	4727.73
488.837	4941.73
489.207	4959.14
489.578	5119.81
489.948	5155.51
490.318	5296.3
490.688	5391.21
491.058	5485.45
491.428	5613.36
491.798	5734.03
492.168	5846.34
492.538	5969.73
492.908	6069.39
493.278	6157.97
493.648	6263.28
494.017	6405.2
494.387	6484.97
494.757	6566.32
495.126	6718.18
495.496	6758.18
495.866	6893.77
496.235	7022.81
496.605	7063.49
496.974	7216.02
497.344	7291.05
497.713	7387.55
498.082	7454.66
498.452	7573.98
498.821	7703.02
499.19	7766.52
499.559	7884.26
499.928	7994.08
500.298	7995.89
500.667	8125.15
501.036	8166.96
501.405	8288.31
501.774	8339.84
502.143	8517.23
502.512	8586.61
502.88	8690.56
503.249	8639.04
503.618	8786.83
503.987	8891.69
504.356	8995.87
504.724	9022.31
505.093	9069.99
505.462	9208.06
505.83	9289.19
506.199	9356.08
506.567	9534.16
506.936	9543.2
507.304	9662.06
507.672	9719.69
508.041	9794.94
508.409	9873.81
508.777	9892.56
509.145	10060.92
509.514	10094.59
509.882	10222.05
510.25	10263.63
510.618	10292.55
510.986	10399.67
511.354	10481.25
511.722	10537.07
512.09	10622.49
512.458	10723.05
512.826	10769.83
513.193	10874.46
513.561	10876.72
513.929	10986.55
514.297	11138.18
514.664	11136.6
515.032	11174.79
515.4	11242.59
515.767	11324.17
516.135	11409.81
516.502	11349.02
516.869	11585.85
517.237	11664.04
517.604	11593.54
517.972	11825.62
518.339	11845.73
518.706	11821.55
519.073	11874.43
519.44	12044.6
519.808	12094.99
520.175	12023.58
520.542	12287.98
520.909	12314.2
521.276	12375.44
521.643	12504.93
522.009	12588.77
522.376	12664.7
522.743	12701.08
523.11	12782.66
523.477	12945.59
523.843	12979.49
524.21	13094.74
524.577	13290.67
524.943	13240.27
525.31	13329.54
525.676	13483.88
526.043	13535.63
526.409	13503.32
526.776	13758
527.142	13779.92
527.508	13867.15
527.874	14003.19
528.241	13949.41
528.607	14087.93
528.973	14208.38
529.339	14153.47
529.705	14367.93
530.071	14440.92
530.437	14584.42
530.803	14609.73
531.169	14668.03
531.535	14731.99
531.901	14720.91
532.267	14890.63
532.632	15033.45
532.998	15019.66
533.364	15048.81
533.73	15094.91
534.095	15258.53
534.461	15251.29
534.826	15326.77
535.192	15378.75
535.557	15582.81
535.923	15582.58
536.288	15592.3
536.653	15743.94
537.019	15750.04
537.384	15738.51
537.749	15807.21
538.114	15787.33
538.479	15966.3
538.845	16090.37
539.21	16034.1
539.575	16087.43
539.94	16163.13
540.305	16225.28
540.67	16221.89
541.034	16323.58
541.399	16443.8
541.764	16455.56
542.129	16548.89
542.494	16535.55
542.858	16634.53
543.223	16595.21
543.587	16822.33
543.952	16821.2
544.316	16902.32
544.681	16947.07
545.045	17028.42
545.41	17247.17
545.774	17167.85
546.138	17088.08
546.503	17231.58
546.867	17336.21
547.231	17466.15
547.595	17512.7
547.959	17477
548.324	17551.57
548.688	17643.1
549.052	17622.08
549.416	17776.88
549.779	17820.49
550.143	17867.72
550.507	17923.99
550.871	18013.48
551.235	17978
551.599	18092.35
551.962	18219.58
552.326	18232.01
552.689	18295.96
553.053	18188.62
553.417	18383.19
553.78	18599
554.143	18577.53
554.507	18658.66
554.87	18711.54
555.234	18753.12
555.597	18731.65
555.96	18908.6
556.323	18968.94
556.686	18844.42
557.05	19045.32
557.413	19108.37
557.776	19130.97
558.139	19234.92
558.502	19288.7
558.865	19318.31
559.228	19480.11
559.59	19516.94
559.953	19504.52
560.316	19770.72
560.679	19762.36
561.041	19813.43
561.404	19984.28
561.767	20078.29
562.129	20052.07
562.492	20266.76
562.854	20287.77
563.217	20162.8
563.579	20320.09
563.941	20466.75
564.304	20541.55
564.666	20678.5
565.028	20685.28
565.39	20767.99
565.753	20882.11
566.115	21066.28
566.477	20991.93
566.839	21009.33
567.201	21238.48
567.563	21219.27
567.925	21206.62
568.287	21290.68
568.648	21388.31
569.01	21531.35
569.372	21666.49
569.734	21681.18
570.095	21795.08
570.457	21885.47
570.819	22071.45
571.18	22028.74
571.542	22135.41
571.903	22181.06
572.265	22290.43
572.626	22318.9
572.987	22421.27
573.349	22577.43
573.71	22647.71
574.071	22658.33
574.432	22776.52
574.794	23001.6
575.155	23033.46
575.516	23060.58
575.877	23223.51
576.238	23303.51
576.599	23542.38
576.96	23543.51
577.32	23697.63
577.681	23742.6
578.042	23894.23
578.403	24079.54
578.763	24297.84
579.124	24296.71
579.485	24483.37
579.845	24719.07
580.206	24781.21
580.566	24891.94
580.927	25032.73
581.287	25314.98
581.648	25177.36
582.008	25732.83
582.368	25698.48
582.728	25838.81
583.089	25931.92
583.449	26223.21
583.809	26395.18
584.169	26535.07
584.529	26774.38
584.889	27093.02
585.249	27040.59
585.609	27232.22
585.969	27661.59
586.329	27653
586.688	27941.58
587.048	28066.32
587.408	28123.27
587.768	28372.08
588.127	28468.8
588.487	28868.79
588.846	29191.94
589.206	29147.65
589.565	29480.52
589.925	29676
590.284	29771.59
590.643	30132.26
591.003	30320.73
591.362	30646.37
591.721	30740.83
592.08	30944.89
592.44	31278.9
592.799	31380.36
593.158	31579.45
593.517	31734.7
593.876	31992.32
594.235	32191.19
594.593	32407.9
594.952	32682.25
595.311	32754.11
595.67	32952.52
596.029	33443.36
596.387	33521.55
596.746	33736.46
597.104	33703.01
597.463	33947.75
597.822	34254.41
598.18	34358.14
598.538	34458.7
598.897	34671.8
599.255	34704.79
599.613	35350.65
599.972	35212.58
600.33	35437.43
600.688	35469.29
601.046	35795.16
601.404	36018.21
601.762	36293.68
602.12	36420
602.478	36553.33
602.836	36690.28
603.194	36645.08
603.552	37008.24
603.91	36815.7
604.268	37223.37
604.625	37215.01
604.983	37524.61
605.341	37529.8
605.698	37729.12
606.056	37892.51
606.413	38087.3
606.771	38216.11
607.128	38369.56
607.485	38330.01
607.843	38468.31
608.2	38898.36
608.557	38960.05
608.914	38973.83
609.272	39320.94
609.629	39358.91
609.986	39597.77
610.343	39507.61
610.7	39788.05
611.057	39843.87
611.414	39937.2
611.771	40056.07
612.127	40348.49
612.484	40353.91
612.841	40590.74
613.198	40504.19
613.554	40514.36
613.911	40778.08
614.267	40881.81
614.624	40911.64
614.98	40987.57
615.337	41403.15
615.693	41192.53
616.05	41219.2
616.406	41527.44
616.762	41532.64
617.118	41458.29
617.475	41557.04
617.831	41814.66
618.187	41921.1
618.543	42014.43
618.899	42258.04
619.255	42125.62
619.611	42298.94
619.967	42325.38
620.323	42458.49
620.678	42457.58
621.034	42429.34
621.39	42422.78
621.746	42342.11
622.101	42921.07
622.457	42690.35
622.812	42793.17
623.168	42849.66
623.523	42993.39
623.879	43055.31
624.234	42915.43
624.589	42984.35
624.945	43053.27
625.3	43202.2
625.655	43131.92
626.01	43249.88
626.365	43235.87
626.72	43250.33
627.075	43218.02
627.43	43256.43
627.785	43353.83
628.14	43382.53
628.495	43320.84
628.85	43401.74
629.205	43438.35
629.559	43625.69
629.914	43403.1
630.269	43519.25
630.623	43345.24
630.978	43360.61
631.332	43516.77
631.687	43697.78
632.041	43457.11
632.396	43576.2
632.75	43347.28
633.104	43640.15
633.459	43430.44
633.813	43396.77
634.167	43407.84
634.521	43421.17
634.875	43384.34
635.229	43466.15
635.583	43201.07
635.937	43316.32
636.291	43293.04
636.645	43324.91
636.999	43225.7
637.352	43380.27
637.706	43014.41
638.06	43234.96
638.413	43193.61
638.767	43064.12
639.121	43168.75
639.474	42971.47
639.828	42950
640.181	42980.73
640.534	43046.27
640.888	42995.88
641.241	42752.49
641.594	42831.59
641.947	42983.67
642.301	42917.46
642.654	42865.03
643.007	42924.01
643.36	42806.95
643.713	42732.61
644.066	42910
644.419	42754.53
644.771	42527.86
645.124	42054.43
645.477	41895.79
645.83	41762.69
646.182	41655.8
646.535	41606.99
646.888	41605.86
647.24	41380.78
647.593	41616.25
647.945	41550.04
648.298	41345.98
648.65	41328.8
649.002	41110.27
649.355	41480.43
649.707	41367.9
650.059	41312.76
650.411	41918.84
650.763	41935.11
651.115	42391.37
651.467	42377.13
651.819	42139.85
652.171	42116.35
652.523	42053.53
652.875	42173.3
653.227	42027.76
653.578	42204.48
653.93	42096.01
654.282	42010.14
654.633	41773.31
654.985	41941.67
655.337	41863.93
655.688	41866.19
656.039	41935.11
656.391	41628.68
656.742	41844.72
657.094	41738.73
657.445	41929.01
657.796	41807.66
658.147	41794.55
658.498	41846.98
658.849	41794.32
659.2	41759.75
659.551	41691.95
659.902	41844.94
660.253	41691.5
660.604	41878.16
660.955	41615.57
661.306	41710.49
661.656	41557.72
662.007	41554.11
662.358	41586.65
662.708	41615.35
663.059	41576.03
663.409	41430.94
663.76	41684.05
664.11	41649.24
664.461	41669.58
664.811	41717.04
665.161	41532.18
665.511	41524.73
665.862	41524.5
666.212	41602.24
666.562	41630.71
666.912	41646.76
667.262	41496.25
667.612	41461.45
667.962	41563.6
668.312	41371.96
668.662	41609.02
669.011	41519.76
669.361	41548.68
669.711	41581.22
670.06	41440.66
670.41	41291.74
670.76	41400.21
671.109	41518.63
671.459	41401.34
671.808	41265.75
672.157	41427.1
672.507	41149.14
672.856	41309.14
673.205	41171.97
673.554	41291.51
673.904	41068.69
674.253	41353.21
674.602	41204.51
674.951	40610.18
675.3	40512.55
675.649	41136.04
675.998	41119.77
676.346	41139.43
676.695	41162.25
677.044	40996.38
677.393	40953.67
677.741	41038.86
678.09	40973.1
678.438	40841.58
678.787	40892.2
679.135	40856.95
679.484	40596.62
679.832	40700.12
680.181	40599.1
680.529	40769.94
680.877	40614.69
681.225	40483.4
681.573	40651.08
681.922	40509.61
682.27	40264.87
682.618	40321.37
682.966	40270.52
683.314	40362.5
683.661	40296.06
684.009	40184.2
684.357	40009.74
684.705	39950.53
685.053	40098.32
685.4	39952.34
685.748	39741.05
686.095	39856.97
686.443	39609.52
686.79	39592.57
687.138	39698.33
687.485	39571.33
687.832	39461.28
688.18	39527.72
688.527	39242.75
688.874	39367.95
689.221	39183.09
689.568	39145.35
689.915	38916.21
690.262	38930.67
690.609	38813.39
690.956	38792.6
691.303	38771.35
691.65	38591.02
691.997	38502.66
692.344	38358.03
692.69	38384.02
693.037	38328.88
693.383	37950.81
693.73	38161.2
694.077	38095.89
694.423	37962.56
694.769	37860.64
695.116	37771.83
695.462	37765.5
695.808	37474.44
696.155	37679.4
696.501	37370.03
696.847	37382.69
697.193	37064.51
697.539	37191.96
697.885	36921.23
698.231	36850.73
698.577	36764.4
698.923	36889.14
699.269	36612.77
699.614	36446.22
699.96	36408.25
700.306	36413.45
700.651	36180.91
700.997	36142.72
701.342	36007.58
701.688	36142.04
702.033	35906.34
702.379	35844.88
702.724	35789.28
703.069	35841.26
703.415	35469.52
703.76	35387.71
704.105	35370.31
704.45	35479.69
704.795	35118.34
705.14	35076.08
705.485	35206.7
705.83	34884
706.175	35045.35
706.52	34860.5
706.865	34732.82
707.209	34812.59
707.554	34549.09
707.899	34694.62
708.243	34455.99
708.588	34353.62
708.932	34239.04
709.277	34147.75
709.621	34214.64
709.966	33994.53
710.31	34123.11
710.654	33823.23
710.998	33786.85
711.342	33870.47
711.687	33695.78
712.031	33573.07
712.375	33414.21
712.719	33515.9
713.063	33457.14
713.407	33773.74
713.75	33223.02
714.094	33289.92
714.438	33108.45
714.782	33156.13
715.125	33034.1
715.469	33092.63
715.812	32828.01
716.156	32725.18
716.499	32910.72
716.843	32764.28
717.186	32608.58
717.53	32672.53
717.873	32659.2
718.216	32486.32
718.559	32392.09
718.902	32260.34
719.246	32304.18
719.589	32280.68
719.932	32136.27
720.275	32115.26
720.617	32048.59
720.96	32105.99
721.303	31969.27
721.646	31966.11
721.989	31813.34
722.331	31861.25
722.674	31730.63
723.016	31838.2
723.359	31766.34
723.701	31680.69
724.044	31468.27
724.386	31464.88
724.729	31498.32
725.071	31353.7
725.413	31384.2
725.755	31458.33
726.097	31252.68
726.439	31057.88
726.782	31149.86
727.124	31346.69
727.465	31021.73
727.807	30984.89
728.149	30959.81
728.491	30805.01
728.833	30841.17
729.175	30782.64
729.516	30753.26
729.858	30674.39
730.199	30733.6
730.541	30624.22
730.882	30636.43
731.224	30739.7
731.565	30473.94
731.906	30485.02
732.248	30511.46
732.589	30229.43
732.93	30244.8
733.271	30293.61
733.612	30321.63
733.953	30250.9
734.294	30194.18
734.635	30015.88
734.976	30119.38
735.317	29898.82
735.658	30021.75
735.999	29866.95
736.339	29940.4
736.68	30013.62
737.021	29814.07
737.361	29662.44
737.702	29842.1
738.042	29663.12
738.383	29586.06
738.723	29663.57
739.063	29557.36
739.404	29558.49
739.744	29516.91
740.084	29391.26
740.424	29486.85
740.764	29424.71
741.104	29386.29
741.444	29353.52
741.784	29263.35
742.124	29227.88
742.464	29201.44
742.804	29104.94
743.143	28934.78
743.483	29058.84
743.823	28946.08
744.162	28967.77
744.502	28990.37
744.841	28804.61
745.181	28986.07
745.52	28888.22
745.86	28882.35
746.199	28768.45
746.538	28741.33
746.877	28697.04
747.216	28648.46
747.556	28598.74
747.895	28652.07
748.234	28544.73
748.573	28418.63
748.911	28396.94
749.25	28388.35
749.589	28200.56
749.928	28252.08
750.267	28337.96
750.605	28110.62
750.944	28106.55
751.283	28004.86
751.621	28153.78
751.96	27879.21
752.298	27861.81
752.636	27901.36
752.975	27833.34
753.313	27757.86
753.651	27844.86
753.989	27639.89
754.327	27626.34
754.666	27538.43
755.004	27602.61
755.342	27535.26
755.679	27416.4
756.017	27239.68
756.355	27370.3
756.693	27152.22
757.031	27281.71
