Data from hue_270_FLMS001491_00027.txt Node
Date: Tue Feb 07 15:56:58 GMT 2017
User: dcchb
Spectrometer: FLMS00149
Trigger mode: 0
Integration Time (sec): 2.000000E-2
Scans to average: 10
Electric dark correction enabled: true
Nonlinearity correction enabled: false
Boxcar width: 0
XAxis mode: Wavelengths
Number of Pixels in Spectrum: 2048
>>>>>Begin Spectral Data<<<<<
341.393	0.75
341.776	0.75
342.16	0.75
342.543	-61.62
342.927	-58.68
343.31	-67.95
343.693	-57.55
344.077	-56.2
344.46	-58.91
344.843	-48.52
345.226	-34.96
345.61	-38.35
345.993	-14.62
346.376	-7.84
346.759	-7.39
347.142	37.58
347.525	31.26
347.908	46.62
348.291	63.12
348.674	99.73
349.057	113.97
349.44	141.31
349.823	129.56
350.206	160.97
350.588	193.96
350.971	224.92
351.354	243.23
351.737	238.03
352.119	251.59
352.502	266.73
352.884	282.78
353.267	302.21
353.65	296.33
354.032	308.31
354.414	298.59
354.797	313.96
355.179	325.03
355.562	318.25
355.944	310.57
356.326	328.65
356.709	324.58
357.091	331.36
357.473	328.88
357.855	357.8
358.238	324.36
358.62	333.4
359.002	345.37
359.384	334.75
359.766	336.11
360.148	334.53
360.53	331.59
360.912	327.07
361.294	331.14
361.676	348.76
362.057	326.84
362.439	331.81
362.821	318.93
363.203	336.11
363.584	329.33
363.966	326.84
364.348	331.36
364.729	330.23
365.111	310.8
365.493	320.74
365.874	330.91
366.256	311.02
366.637	302.89
367.019	323.45
367.4	315.09
367.781	315.77
368.163	317.58
368.544	319.84
368.925	321.19
369.306	343.79
369.688	322.32
370.069	311.25
370.45	326.39
370.831	313.28
371.212	328.42
371.593	306.05
371.974	312.83
372.355	335.88
372.736	327.29
373.117	323.9
373.498	321.42
373.879	315.09
374.26	323.23
374.641	317.35
375.021	315.09
375.402	330.01
375.783	308.09
376.163	341.3
376.544	335.2
376.925	339.95
377.305	340.17
377.686	317.58
378.066	332.27
378.447	344.69
378.827	314.19
379.208	325.26
379.588	341.98
379.968	339.72
380.349	334.3
380.729	330.01
381.109	332.94
381.489	324.58
381.87	332.04
382.25	344.69
382.63	342.66
383.01	353.73
383.39	341.98
383.77	357.35
384.15	361.64
384.53	361.87
384.91	342.21
385.29	348.99
385.67	345.37
386.049	365.48
386.429	361.87
386.809	382.21
387.189	363.45
387.568	370.68
387.948	366.84
388.328	353.96
388.707	360.97
389.087	384.69
389.466	357.8
389.846	360.29
390.225	390.57
390.605	365.94
390.984	370
391.363	376.78
391.743	384.02
392.122	391.47
392.501	385.6
392.881	406.61
393.26	384.24
393.639	386.28
394.018	387.41
394.397	398.25
394.776	402.32
395.155	375.2
395.534	379.72
395.913	417.69
396.292	416.1
396.671	400.74
397.05	400.96
397.429	408.65
397.808	405.94
398.186	422.66
398.565	405.71
398.944	413.85
399.323	428.53
399.701	408.2
400.08	429.66
400.458	439.38
400.837	418.59
401.215	450.91
401.594	436.44
401.972	415.43
402.351	440.74
402.729	445.93
403.107	444.8
403.486	439.61
403.864	447.29
404.242	464.47
404.62	461.98
404.999	475.54
405.377	468.98
405.755	495.42
406.133	473.73
406.511	471.24
406.889	492.71
407.267	488.65
407.645	487.06
408.023	497.23
408.401	496.55
408.779	487.06
409.156	512.37
409.534	520.06
409.912	512.6
410.29	523.67
410.667	533.39
411.045	533.62
411.422	539.04
411.8	572.71
412.178	548.53
412.555	557.34
412.933	565.93
413.31	581.3
413.687	593.28
414.065	599.15
414.442	612.71
414.819	632.6
415.197	623.56
415.574	624.46
415.951	623.11
416.328	639.38
416.705	635.99
417.082	673.73
417.46	635.99
417.837	665.14
418.214	662.2
418.591	676.89
418.967	691.13
419.344	682.09
419.721	697.23
420.098	704.91
420.475	704.46
420.852	717.34
421.228	730.67
421.605	742.65
421.982	743.1
422.358	768.41
422.735	773.38
423.111	756.89
423.488	796.66
423.864	787.62
424.241	794.85
424.617	809.31
424.994	813.16
425.37	826.04
425.746	829.88
426.123	837.56
426.499	849.77
426.875	884.57
427.251	877.79
427.627	874.85
428.003	922.76
428.379	915.75
428.756	935.19
429.132	951.46
429.507	951.68
429.883	976.77
430.259	967.05
430.635	1000.72
431.011	991.46
431.387	1029.65
431.763	1016.54
432.138	1026.03
432.514	1050.21
432.89	1075.52
433.265	1091.57
433.641	1114.84
434.016	1115.97
434.392	1137.89
434.767	1162.07
435.143	1167.72
435.518	1198.91
435.894	1191
436.269	1219.02
436.644	1214.28
437.02	1230.77
437.395	1271
437.77	1269.64
438.145	1301.96
438.52	1309.87
438.895	1318
439.271	1357.32
439.646	1374.5
440.021	1384.67
440.395	1384.44
440.77	1407.49
441.145	1406.59
441.52	1423.08
441.895	1398.23
442.27	1440.48
442.645	1439.13
443.019	1454.95
443.394	1492.46
443.769	1502.63
444.143	1506.7
444.518	1506.02
444.892	1519.35
445.267	1532.46
445.641	1547.37
446.016	1563.42
446.39	1573.81
446.764	1546.02
447.139	1558.67
447.513	1580.14
447.887	1598.45
448.262	1617.2
448.636	1612.91
449.01	1621.04
449.384	1638.45
449.758	1654.72
450.132	1678.22
450.506	1688.84
450.88	1686.81
451.254	1700.36
451.628	1718.67
452.002	1764.09
452.376	1707.6
452.75	1762.96
453.123	1770.19
453.497	1775.17
453.871	1792.11
454.244	1810.19
454.618	1859
454.992	1842.06
455.365	1860.36
455.739	1908.95
456.112	1886.8
456.486	1938.55
456.859	1947.59
457.232	1993.46
457.606	1963.18
457.979	1980.58
458.352	1996.85
458.725	2002.73
459.099	2048.15
459.472	2118.21
459.845	2116.4
460.218	2098.32
460.591	2134.03
460.964	2106.91
461.337	2164.08
461.71	2207.47
462.083	2225.1
462.456	2230.07
462.829	2258.54
463.201	2291.99
463.574	2271.88
463.947	2284.3
464.32	2390.29
464.692	2362.27
465.065	2392.78
465.438	2404.3
465.81	2442.04
466.183	2450.85
466.555	2525.2
466.928	2490.4
467.3	2509.84
467.672	2541.92
468.045	2575.37
468.417	2612.21
468.789	2600.45
469.161	2640.68
469.534	2717.29
469.906	2742.6
470.278	2716.84
470.65	2797.51
471.022	2811.52
471.394	2850.39
471.766	2879.09
472.138	2923.61
472.51	2972.65
472.882	2956.6
473.253	2981.01
473.625	3044.74
473.997	3103.72
474.369	3114.11
474.74	3123.15
475.112	3186.2
475.484	3202.25
475.855	3214.22
476.227	3306.88
476.598	3370.83
476.97	3369.93
477.341	3438.62
477.713	3496.48
478.084	3513.2
478.455	3541.67
478.827	3600.43
479.198	3706.19
479.569	3715.68
479.94	3777.6
480.311	3781.89
480.682	3874.32
481.053	3900.53
481.424	3950.93
481.795	3976.92
482.166	4038.83
482.537	4074.09
482.908	4160.87
483.279	4177.14
483.65	4239.73
484.021	4365.15
484.391	4340.97
484.762	4361.31
485.133	4398.15
485.503	4493.51
485.874	4531.7
486.244	4576
486.615	4621.64
486.985	4661.87
487.356	4777.57
487.726	4813.28
488.097	4848.53
488.467	4874.52
488.837	4954.74
489.207	5007.17
489.578	5052.37
489.948	5049.66
490.318	5127.85
490.688	5186.37
491.058	5230.89
491.428	5285.58
491.798	5293.49
492.168	5333.49
492.538	5415.07
492.908	5429.31
493.278	5537.33
493.648	5487.84
494.017	5575.29
494.387	5611.22
494.757	5642.86
495.126	5743.87
495.496	5712.24
495.866	5760.6
496.235	5794.95
496.605	5839.47
496.974	5869.52
497.344	5891.22
497.713	5933.47
498.082	5905.68
498.452	5967.15
498.821	6059.12
499.19	6051.66
499.559	6073.81
499.928	6133.47
500.298	6103.19
500.667	6159
501.036	6149.51
501.405	6198.55
501.774	6217.99
502.143	6298.44
502.512	6229.96
502.88	6382.05
503.249	6258.66
503.618	6318.55
503.987	6356.51
504.356	6384.76
504.724	6444.65
505.093	6429.05
505.462	6420.01
505.83	6512.67
506.199	6522.61
506.567	6513.12
506.936	6569.62
507.304	6576.39
507.672	6637.41
508.041	6633.57
508.409	6707.92
508.777	6748.82
509.145	6728.93
509.514	6710.63
509.882	6723.51
510.25	6800.8
510.618	6778.65
510.986	6764.86
511.354	6871.53
511.722	6817.74
512.09	6925.09
512.458	6923.96
512.826	6968.7
513.193	6960.34
513.561	6943.84
513.929	7025.87
514.297	7020.68
514.664	7069.49
515.032	7077.62
515.4	7104.74
515.767	7110.17
516.135	7088.25
516.502	7089.38
516.869	7201.69
517.237	7183.38
517.604	7154.01
517.972	7181.58
518.339	7261.12
518.706	7171.86
519.073	7218.86
519.44	7274
519.808	7267.68
520.175	7346.77
520.542	7373.21
520.909	7386.32
521.276	7343.83
521.643	7444.62
522.009	7415.02
522.376	7477.39
522.743	7453.21
523.11	7528.91
523.477	7623.15
523.843	7623.6
524.21	7647.78
524.577	7613.2
524.943	7696.14
525.31	7712.86
525.676	7710.38
526.043	7790.6
526.409	7790.37
526.776	7824.95
527.142	7847.1
527.508	7876.02
527.874	7871.73
528.241	7975.68
528.607	7951.5
528.973	7965.06
529.339	7973.65
529.705	8015.45
530.071	8068.11
530.437	8086.19
530.803	8091.38
531.169	8064.72
531.535	8087.54
531.901	8110.37
532.267	8085.06
532.632	8223.81
532.998	8207.31
533.364	8243.7
533.73	8271.72
534.095	8277.59
534.461	8303.58
534.826	8222.23
535.192	8346.29
535.557	8357.36
535.923	8318.5
536.288	8306.29
536.653	8371.6
537.019	8332.96
537.384	8351.04
537.749	8380.87
538.114	8377.03
538.479	8422.67
538.845	8449.34
539.21	8414.76
539.575	8472.84
539.94	8392.39
540.305	8495.89
540.67	8488.89
541.034	8475.33
541.399	8556.46
541.764	8482.79
542.129	8553.52
542.494	8546.29
542.858	8544.48
543.223	8580.41
543.587	8587.19
543.952	8566.85
544.316	8618.15
544.681	8616.79
545.045	8610.69
545.41	8627.41
545.774	8661.09
546.138	8704.93
546.503	8621.76
546.867	8645.27
547.231	8699.95
547.595	8728.2
547.959	8706.96
548.324	8737.47
548.688	8749.67
549.052	8713.97
549.416	8754.87
549.779	8779.05
550.143	8805.04
550.507	8780.86
550.871	8795.77
551.235	8818.37
551.599	8886.16
551.962	8876.22
552.326	8819.27
552.689	8934.52
553.053	8926.16
553.417	8877.58
553.78	8995.77
554.143	8994.64
554.507	8948.08
554.87	8963.22
555.234	9071.24
555.597	8981.98
555.96	9101.3
556.323	9103.79
556.686	9030.79
557.05	9138.36
557.413	9118.93
557.776	9110.57
558.139	9207.96
558.502	9217.91
558.865	9203.22
559.228	9279.83
559.59	9233.95
559.953	9233.95
560.316	9355.98
560.679	9351.01
561.041	9350.33
561.404	9413.83
561.767	9518.92
562.129	9444.79
562.492	9512.81
562.854	9459.03
563.217	9494.51
563.579	9534.51
563.941	9598.46
564.304	9684.11
564.666	9666.03
565.028	9710.78
565.39	9723.66
565.753	9763.43
566.115	9756.42
566.477	9835.97
566.839	9804.33
567.201	9884.78
567.563	9874.61
567.925	9971.11
568.287	9953.26
568.648	10009.98
569.01	10045
569.372	10072.8
569.734	10002.52
570.095	10222.4
570.457	10129.3
570.819	10180.59
571.18	10184.89
571.542	10213.36
571.903	10338.78
572.265	10319.35
572.626	10298.33
572.987	10293.59
573.349	10419.23
573.71	10420.59
574.071	10471.43
574.432	10534.48
574.794	10678.66
575.155	10538.78
575.516	10635.72
575.877	10626.91
576.238	10707.13
576.599	10690.86
576.96	10691.31
577.32	10753.69
577.681	10743.29
578.042	10856.73
578.403	10874.13
578.763	10902.61
579.124	10835.72
579.485	10939.67
579.845	10955.49
580.206	10929.5
580.566	11026
580.927	11073
581.287	11105.99
581.648	11100.34
582.008	11146.9
582.368	11181.47
582.728	11193.67
583.089	11237.06
583.449	11220.79
583.809	11221.02
584.169	11337.63
584.529	11272.32
584.889	11401.35
585.249	11246.1
585.609	11349.6
585.969	11467.11
586.329	11335.82
586.688	11506.66
587.048	11459.66
587.408	11475.7
587.768	11534.91
588.127	11491.29
588.487	11572.87
588.846	11599.09
589.206	11598.41
589.565	11594.34
589.925	11646.77
590.284	11627.11
590.643	11719.08
591.003	11741.23
591.362	11834.11
591.721	11746.2
592.08	11865.07
592.44	11867.1
592.799	11766.31
593.158	11797.73
593.517	11826.88
593.876	11908.46
594.235	11932.86
594.593	11928.34
594.952	12005.18
595.311	11934.67
595.67	11962.69
596.029	12023.03
596.387	12061.9
596.746	12101.22
597.104	12044.73
597.463	12029.13
597.822	12116.81
598.18	12029.58
598.538	12079.98
598.897	12188.9
599.255	12059.64
599.613	12269.35
599.972	12176.25
600.33	12192.07
600.688	12185.96
601.046	12216.92
601.404	12263.03
601.762	12260.54
602.12	12327.2
602.478	12339.18
602.836	12345.73
603.194	12270.26
603.552	12299.63
603.91	12260.09
604.268	12437.26
604.625	12292.18
604.983	12425.28
605.341	12251.05
605.698	12348.22
606.056	12448.1
606.413	12364.94
606.771	12393.87
607.128	12430.03
607.485	12475.9
607.843	12437.03
608.2	12518.39
608.557	12573.75
608.914	12462.34
609.272	12511.15
609.629	12599.29
609.986	12618.27
610.343	12524.49
610.7	12672.28
611.057	12618.72
611.414	12675.44
611.771	12632.96
612.127	12703.47
612.484	12710.7
612.841	12760.87
613.198	12662.56
613.554	12713.63
613.911	12767.64
614.267	12765.16
614.624	12694.65
614.98	12802.67
615.337	12733.75
615.693	12828.66
616.05	12799.28
616.406	12910.47
616.762	12766.97
617.118	12704.14
617.475	12825.95
617.831	12912.95
618.187	12932.16
618.543	12903.69
618.899	12921.54
619.255	12881.77
619.611	12883.57
619.967	12959.28
620.323	12936.45
620.678	12881.77
621.034	12900.97
621.39	12901.88
621.746	12897.58
622.101	13039.95
622.457	12859.17
622.812	12943.91
623.168	12943.46
623.523	12967.41
623.879	12979.62
624.234	12903.01
624.589	12903.69
624.945	12924.93
625.3	12943.23
625.655	13011.48
626.01	12958.37
626.365	12975.77
626.72	12888.09
627.075	12929.45
627.43	12956.57
627.785	12992.72
628.14	12960.41
628.495	12936.91
628.85	12988.43
629.205	12891.94
629.559	12949.56
629.914	12914.08
630.269	12928.09
630.623	12890.13
630.978	12892.84
631.332	12892.84
631.687	12903.46
632.041	12810.58
632.396	12868.66
632.75	12726.74
633.104	12831.6
633.459	12844.03
633.813	12769.68
634.167	12766.97
634.521	12822.11
634.875	12751.15
635.229	12748.21
635.583	12679.51
635.937	12744.14
636.291	12636.12
636.645	12671.83
636.999	12673.18
637.352	12658.04
637.706	12563.81
638.06	12565.84
638.413	12603.58
638.767	12643.58
639.121	12604.26
639.474	12470.7
639.828	12544.15
640.181	12549.35
640.534	12552.28
640.888	12485.17
641.241	12471.61
641.594	12451.95
641.947	12460.99
642.301	12439.52
642.654	12505.73
643.007	12433.19
643.36	12437.26
643.713	12359.07
644.066	12451.04
644.419	12354.77
644.771	12319.52
645.124	12202.24
645.477	12193.87
645.83	12143.48
646.182	12077.04
646.535	12050.38
646.888	12019.42
647.24	11972.86
647.593	12046.53
647.945	12012.41
648.298	11974.9
648.65	11924.28
649.002	11817.84
649.355	12055.12
649.707	11936.93
650.059	12059.19
650.411	12164.95
650.763	12169.24
651.115	12258.96
651.467	12243.36
651.819	12244.27
652.171	12202.69
652.523	12162.46
652.875	12188.22
653.227	12147.32
653.578	12235.68
653.93	12163.59
654.282	12148.9
654.633	12078.85
654.985	12159.3
655.337	12174.67
655.688	12155.23
656.039	12235.23
656.391	12071.62
656.742	12121.79
657.094	12057.61
657.445	12202.91
657.796	12120.66
658.147	12087.66
658.498	12123.37
658.849	12187.09
659.2	12214.89
659.551	12133.76
659.902	12209.47
660.253	12184.83
660.604	12166.76
660.955	12162.91
661.306	12123.82
661.656	12146.64
662.007	12159.75
662.358	12166.76
662.708	12160.2
663.059	12158.62
663.409	12077.72
663.76	12167.21
664.11	12225.51
664.461	12158.17
664.811	12235.91
665.161	12221.67
665.511	12159.3
665.862	12196.36
666.212	12189.81
666.562	12193.87
666.912	12143.93
667.262	12163.14
667.612	12170.6
667.962	12130.37
668.312	12184.83
668.662	12266.64
669.011	12126.98
669.361	12187.77
669.711	12199.3
670.06	12160.43
670.41	12156.36
670.76	12179.64
671.109	12165.85
671.459	12126.31
671.808	12071.84
672.157	12160.88
672.507	12050.15
672.856	12050.83
673.205	12118.62
673.554	12072.97
673.904	12044.5
674.253	12114.55
674.602	12009.02
674.951	11901.9
675.3	11774.22
675.649	11944.84
675.998	12052.86
676.346	11989.36
676.695	12004.73
677.044	11876.37
677.393	11915.92
677.741	11979.19
678.09	11936.93
678.438	11931.51
678.787	11933.09
679.135	11944.62
679.484	11853.32
679.832	11875.24
680.181	11757.05
680.529	11870.94
680.877	11698.29
681.225	11750.27
681.573	11827.33
681.922	11706.66
682.27	11686.99
682.618	11661.68
682.966	11628.92
683.314	11658.3
683.661	11719.31
684.009	11523.16
684.357	11574.91
684.705	11557.28
685.053	11588.92
685.4	11484.06
685.748	11531.29
686.095	11395.93
686.443	11469.37
686.79	11438.64
687.138	11395.7
687.485	11463.5
687.832	11437.28
688.18	11395.25
688.527	11362.48
688.874	11383.05
689.221	11213.34
689.568	11202.04
689.915	11223.96
690.262	11191.64
690.609	11104.64
690.956	11077.29
691.303	11023.51
691.65	10984.87
691.997	11064.19
692.344	10962.04
692.69	10870.75
693.037	10921.59
693.383	10805.21
693.73	10899.9
694.077	10747.81
694.423	10796.85
694.769	10766.34
695.116	10682.95
695.462	10655.84
695.808	10682.5
696.155	10699.9
696.501	10598.89
696.847	10579.23
697.193	10465.56
697.539	10489.96
697.885	10418.55
698.231	10407.93
698.577	10349.63
698.923	10370.19
699.269	10282.51
699.614	10275.73
699.96	10230.99
700.306	10225.34
700.651	10090.2
700.997	10071.9
701.342	10127.71
701.688	10063.08
702.033	10037.77
702.379	9932.46
702.724	9987.15
703.069	9989.19
703.415	9852.92
703.76	9884.56
704.105	9823.77
704.45	9826.7
704.795	9749.87
705.14	9749.64
705.485	9723.66
705.83	9622.42
706.175	9708.29
706.52	9595.52
706.865	9654.05
707.209	9566.82
707.554	9595.52
707.899	9638.69
708.243	9495.87
708.588	9490.67
708.932	9479.82
709.277	9440.5
709.621	9464.68
709.966	9319.83
710.31	9378.58
710.654	9306.94
710.998	9347.85
711.342	9365.47
711.687	9288.64
712.031	9266.04
712.375	9174.74
712.719	9210.9
713.063	9238.47
713.407	9211.35
713.75	9203.9
714.094	9206.61
714.438	9157.57
714.782	9112.37
715.125	9101.07
715.469	9116.44
715.812	9038.25
716.156	9059.04
716.499	9038.93
716.843	9022.21
717.186	9053.84
717.53	9008.42
717.873	8969.1
718.216	8943.34
718.559	8961.87
718.902	8956.45
719.246	8955.32
719.589	8874.19
719.932	8863.34
720.275	8847.52
720.617	8893.62
720.96	8868.31
721.303	8875.32
721.646	8844.58
721.989	8764.36
722.331	8870.35
722.674	8744.7
723.016	8786.51
723.359	8760.74
723.701	8720.52
724.044	8732.04
724.386	8707.19
724.729	8725.26
725.071	8657.92
725.413	8647.98
725.755	8663.35
726.097	8710.12
726.439	8593.52
726.782	8663.8
727.124	8658.15
727.465	8589.45
727.807	8692.72
728.149	8576.34
728.491	8647.75
728.833	8627.64
729.175	8607.3
729.516	8602.1
729.858	8586.29
730.199	8537.47
730.541	8580.41
730.882	8563.46
731.224	8570.69
731.565	8489.79
731.906	8587.87
732.248	8621.31
732.589	8454.31
732.93	8473.29
733.271	8484.59
733.612	8533.18
733.953	8529.11
734.294	8428.55
734.635	8500.86
734.976	8529.79
735.317	8478.27
735.658	8497.7
735.999	8494.08
736.339	8489.56
736.68	8554.87
737.021	8437.59
737.361	8408.89
737.702	8543.57
738.042	8539.28
738.383	8505.61
738.723	8519.17
739.063	8494.31
739.404	8528.89
739.744	8523.91
740.084	8581.09
740.424	8496.12
740.764	8553.07
741.104	8593.74
741.444	8489.34
741.784	8506.29
742.124	8600.52
742.464	8544.48
742.804	8589
743.143	8617.02
743.483	8629.67
743.823	8583.57
744.162	8614.08
744.502	8649.56
744.841	8656.11
745.181	8704.25
745.52	8705.15
745.86	8711.03
746.199	8799.61
746.538	8768.2
746.877	8823.79
747.216	8875.77
747.556	8820.4
747.895	8925.94
748.234	8940.4
748.573	9007.07
748.911	9049.1
749.25	9051.58
749.589	9111.02
749.928	9188.3
750.267	9184.24
750.605	9283.44
750.944	9388.3
751.283	9450.9
751.621	9516.2
751.96	9598.24
752.298	9599.82
752.636	9679.82
752.975	9802.52
753.313	9805.01
753.651	9985.57
753.989	9957.32
754.327	10094.72
754.666	10233.02
755.004	10322.51
755.342	10492.22
755.679	10515.27
756.017	10597.98
756.355	10744.65
756.693	10825.32
757.031	11004.3
757.368	11030.06
757.706	11205.2
758.044	11390.51
758.381	11481.8
758.719	11599.99
759.056	11717.95
759.394	11904.84
759.731	11941
760.068	12182.58
760.405	12240.43
760.743	12399.07
761.08	12602.23
761.417	12692.17
761.754	12800.41
