Data from hue_240_FLMS001491_00033.txt Node
Date: Tue Feb 07 16:35:23 GMT 2017
User: dcchb
Spectrometer: FLMS00149
Trigger mode: 0
Integration Time (sec): 2.000000E-2
Scans to average: 10
Electric dark correction enabled: true
Nonlinearity correction enabled: false
Boxcar width: 0
XAxis mode: Wavelengths
Number of Pixels in Spectrum: 2048
>>>>>Begin Spectral Data<<<<<
341.393	4.51
341.776	4.51
342.16	4.51
342.543	-65.32
342.927	-68.03
343.31	-74.81
343.693	-80.24
344.077	-64.19
344.46	-54.48
344.843	-52.44
345.226	-52.89
345.61	-36.85
345.993	-24.19
346.376	4.96
346.759	18.74
347.142	22.81
347.525	49.25
347.908	30.95
348.291	87.44
348.674	116.37
349.057	109.59
349.44	101.68
349.823	145.97
350.206	170.6
350.588	155.91
350.971	222.35
351.354	215.8
351.737	236.59
352.119	254.22
352.502	243.6
352.884	261
353.267	273.43
353.65	276.36
354.032	298.96
354.414	283.82
354.797	298.06
355.179	310.71
355.562	322.01
355.944	323.37
356.326	302.12
356.709	339.19
357.091	321.79
357.473	337.38
357.855	313.65
358.238	325.4
358.62	337.38
359.002	357.72
359.384	324.27
359.766	343.71
360.148	325.4
360.53	337.15
360.912	313.65
361.294	319.75
361.676	310.94
362.057	312.75
362.439	314.78
362.821	335.12
363.203	300.77
363.584	326.08
363.966	311.84
364.348	324.72
364.729	326.53
365.111	307.55
365.493	295.12
365.874	294.89
366.256	296.48
366.637	305.29
367.019	316.14
367.4	307.32
367.781	326.76
368.163	315.23
368.544	329.02
368.925	305.97
369.306	305.06
369.688	297.83
370.069	319.3
370.45	304.38
370.831	300.32
371.212	315.46
371.593	307.77
371.974	310.26
372.355	311.39
372.736	293.99
373.117	310.71
373.498	309.58
373.879	309.13
374.26	312.52
374.641	300.09
375.021	320.88
375.402	313.88
375.783	332.41
376.163	340.32
376.544	312.07
376.925	327.89
377.305	337.38
377.686	339.86
378.066	316.14
378.447	317.27
378.827	303.25
379.208	333.54
379.588	323.59
379.968	332.18
380.349	334.67
380.729	335.12
381.109	310.94
381.489	321.11
381.87	326.08
382.25	317.27
382.63	327.89
383.01	322.92
383.39	334.21
383.77	332.86
384.15	361.56
384.53	335.57
384.91	356.81
385.29	337.83
385.67	331.73
386.049	338.51
386.429	362.69
386.809	367.43
387.189	356.81
387.568	334.44
387.948	342.8
388.328	359.07
388.707	349.81
389.087	357.49
389.466	350.49
389.846	357.26
390.225	359.07
390.605	349.58
390.984	352.29
391.363	361.78
391.743	355.68
392.122	360.88
392.501	375.57
392.881	365.85
393.26	345.06
393.639	371.5
394.018	357.94
394.397	366.08
394.776	369.02
395.155	391.16
395.534	362.91
395.913	390.94
396.292	366.98
396.671	401.56
397.05	375.34
397.429	380.54
397.808	378.51
398.186	388.22
398.565	370.15
398.944	368.56
399.323	391.16
399.701	395.68
400.08	399.07
400.458	387.09
400.837	397.26
401.215	421.67
401.594	404.72
401.972	410.14
402.351	407.66
402.729	404.04
403.107	413.08
403.486	424.38
403.864	430.48
404.242	413.53
404.62	431.61
404.999	433.87
405.377	440.65
405.755	430.93
406.133	423.7
406.511	440.65
406.889	434.55
407.267	451.27
407.645	471.84
408.023	447.88
408.401	460.54
408.779	448.11
409.156	476.36
409.534	471.61
409.912	484.72
410.29	474.1
410.667	504.61
411.045	514.32
411.422	487.66
411.8	493.31
412.178	522.01
412.555	552.06
412.933	534.44
413.31	553.64
413.687	542.57
414.065	560.42
414.442	569.01
414.819	561.55
415.197	545.73
415.574	560.65
415.951	577.37
416.328	579.41
416.705	587.99
417.082	583.02
417.46	595.9
417.837	599.74
418.214	607.65
418.591	613.98
418.967	631.61
419.344	625.51
419.721	644.71
420.098	645.17
420.475	643.81
420.852	625.51
421.228	661.89
421.605	675
421.982	671.83
422.358	694.2
422.735	691.27
423.111	706.18
423.488	732.62
423.864	710.48
424.241	733.3
424.617	752.06
424.994	747.08
425.37	749.8
425.746	746.63
426.123	767.65
426.499	776.46
426.875	782.56
427.251	821.21
427.627	819.4
428.003	816.01
428.379	831.83
428.756	837.48
429.132	846.52
429.507	834.09
429.883	892.39
430.259	868.66
430.635	871.83
431.011	890.58
431.387	917.7
431.763	917.25
432.138	909.79
432.514	952.96
432.89	960.19
433.265	965.16
433.641	978.94
434.016	992.28
434.392	1024.14
434.767	996.8
435.143	1014.2
435.518	1051.71
435.894	1047.42
436.269	1088.54
436.644	1101.88
437.02	1106.62
437.395	1114.53
437.77	1108.43
438.145	1136.23
438.52	1152.27
438.895	1171.48
439.271	1190.69
439.646	1192.72
440.021	1253.29
440.395	1230.69
440.77	1229.11
441.145	1240.41
441.52	1272.27
441.895	1289.44
442.27	1298.26
442.645	1265.49
443.019	1317.92
443.394	1311.59
443.769	1308.2
444.143	1321.31
444.518	1356.79
444.892	1321.76
445.267	1365.15
445.641	1371.25
446.016	1379.38
446.39	1390.68
446.764	1395.66
447.139	1407.86
447.513	1437.69
447.887	1427.74
448.262	1431.13
448.636	1413.73
449.01	1469.78
449.384	1461.64
449.758	1477.69
450.132	1477.91
450.506	1504.81
450.88	1532.83
451.254	1512.94
451.628	1531.7
452.002	1543.45
452.376	1573.73
452.75	1594.29
453.123	1577.57
453.497	1583
453.871	1607.4
454.244	1621.19
454.618	1615.31
454.992	1680.62
455.365	1668.87
455.739	1714.97
456.112	1745.25
456.486	1741.86
456.859	1765.59
457.232	1799.49
457.606	1798.36
457.979	1810.56
458.352	1844.23
458.725	1820.05
459.099	1831.12
459.472	1879.26
459.845	1874.74
460.218	1911.35
460.591	1961.97
460.964	1967.84
461.337	1976.88
461.71	2007.16
462.083	2022.31
462.456	2051.91
462.829	2051.01
463.201	2076.09
463.574	2093.49
463.947	2118.8
464.32	2154.73
464.692	2159.03
465.065	2191.79
465.438	2206.71
465.81	2241.51
466.183	2256.65
466.555	2284.9
466.928	2294.84
467.3	2300.04
467.672	2335.74
468.045	2420.49
468.417	2372.8
468.789	2431.33
469.161	2439.02
469.534	2499.13
469.906	2536.19
470.278	2526.93
470.65	2567.83
471.022	2608.96
471.394	2638.79
471.766	2680.37
472.138	2686.24
472.51	2754.94
472.882	2795.17
473.253	2816.18
473.625	2846.24
473.997	2916.52
474.369	2893.47
474.74	2948.83
475.112	2979.12
475.484	3058.66
475.855	3080.58
476.227	3072.67
476.598	3165.78
476.97	3179.56
477.341	3256.17
477.713	3293.91
478.084	3306.34
478.455	3411.42
478.827	3399.44
479.198	3516.05
479.569	3482.83
479.94	3546.33
480.311	3584.3
480.682	3674.69
481.053	3727.57
481.424	3790.17
481.795	3791.75
482.166	3872.88
482.537	3888.02
482.908	3950.84
483.279	3989.94
483.65	4067.68
484.021	4173.44
484.391	4215.24
484.762	4171.85
485.133	4255.47
485.503	4280.33
485.874	4359.19
486.244	4422.02
486.615	4466.31
486.985	4572.52
487.356	4567.78
487.726	4593.99
488.097	4692.97
488.467	4695.23
488.837	4786.3
489.207	4851.61
489.578	4887.09
489.948	4923.02
490.318	5052.51
490.688	4987.88
491.058	5093.86
491.428	5093.41
491.798	5187.65
492.168	5293.41
492.538	5301.99
492.908	5299.28
493.278	5382.44
493.648	5382.22
494.017	5429
494.387	5489.56
494.757	5519.84
495.126	5562.1
495.496	5565.49
495.866	5640.06
496.235	5701.08
496.605	5717.58
496.974	5741.3
497.344	5775.43
497.713	5800.51
498.082	5851.58
498.452	5860.62
498.821	5904.24
499.19	5934.97
499.559	5978.13
499.928	6005.48
500.298	6054.97
500.667	6091.58
501.036	6027.62
501.405	6135.19
501.774	6075.31
502.143	6158.69
502.512	6118.47
502.88	6182.42
503.249	6228.97
503.618	6287.05
503.987	6256.32
504.356	6291.35
504.724	6296.32
505.093	6353.49
505.462	6343.77
505.83	6381.74
506.199	6411.79
506.567	6505.13
506.936	6420.61
507.304	6479.82
507.672	6485.47
508.041	6480.49
508.409	6555.29
508.777	6562.3
509.145	6670.77
509.514	6626.7
509.882	6663.54
510.25	6653.14
510.618	6704.67
510.986	6692.01
511.354	6748.73
511.722	6831.22
512.09	6892.01
512.458	6803.2
512.826	6803.87
513.193	6800.94
513.561	6903.53
513.929	6889.52
514.297	6971.78
514.664	7009.75
515.032	6960.03
515.4	6991.44
515.767	7039.8
516.135	7021.72
516.502	7003.42
516.869	7070.76
517.237	7090.19
517.604	7070.76
517.972	7119.57
518.339	7123.64
518.706	7075.51
519.073	7108.27
519.44	7140.59
519.808	7177.88
520.175	7099.01
520.542	7240.47
520.909	7269.85
521.276	7241.83
521.643	7293.13
522.009	7310.08
522.376	7299.91
522.743	7340.13
523.11	7345.1
523.477	7454.25
523.843	7436.17
524.21	7503.07
524.577	7480.02
524.943	7546
525.31	7484.53
525.676	7479.79
526.043	7606.34
526.409	7560.24
526.776	7662.16
527.142	7583.29
527.508	7617.86
527.874	7653.12
528.241	7580.35
528.607	7689.05
528.973	7717.3
529.339	7665.1
529.705	7802.27
530.071	7711.2
530.437	7800.46
530.803	7780.35
531.169	7811.31
531.535	7767.47
531.901	7716.39
532.267	7808.14
532.632	7821.02
532.998	7834.13
533.364	7770.4
533.73	7788.26
534.095	7855.15
534.461	7822.15
534.826	7869.16
535.192	7874.36
535.557	7852.89
535.923	7852.66
536.288	7875.94
536.653	7871.87
537.019	7823.28
537.384	7831.64
537.749	7867.35
538.114	7804.53
538.479	7821.7
538.845	7805.88
539.21	7897.18
539.575	7866.67
539.94	7849.27
540.305	7846.79
540.67	7816.28
541.034	7835.71
541.399	7842.49
541.764	7823.51
542.129	7803.17
542.494	7787.8
542.858	7816.96
543.223	7814.47
543.587	7808.37
543.952	7783.28
544.316	7756.17
544.681	7740.12
545.045	7735.15
545.41	7767.69
545.774	7793
546.138	7689.73
546.503	7787.58
546.867	7748.26
547.231	7745.54
547.595	7780.57
547.959	7723.4
548.324	7751.65
548.688	7706.9
549.052	7710.74
549.416	7659.45
549.779	7679.56
550.143	7723.4
550.507	7735.15
550.871	7706.9
551.235	7667.35
551.599	7736.73
551.962	7689.28
552.326	7678.2
552.689	7716.62
553.053	7742.16
553.417	7694.25
553.78	7745.09
554.143	7699.22
554.507	7735.15
554.87	7722.49
555.234	7743.96
555.597	7701.03
555.96	7663.74
556.323	7727.24
556.686	7750.06
557.05	7799.33
557.413	7707.58
557.776	7748.03
558.139	7839.55
558.502	7791.42
558.865	7762.04
559.228	7793.45
559.59	7815.37
559.953	7806.56
560.316	7741.03
560.679	7850.17
561.041	7829.61
561.404	7857.41
561.767	7865.32
562.129	7855.82
562.492	7933.79
562.854	7893.79
563.217	7881.13
563.579	7964.52
563.941	7977.86
564.304	7966.56
564.666	7977.63
565.028	8018.98
565.39	8058.08
565.753	8068.02
566.115	8091.75
566.477	8109.15
566.839	8111.64
567.201	8147.34
567.563	8120.22
567.925	8204.97
568.287	8175.36
568.648	8226.89
569.01	8272.99
569.372	8253.33
569.734	8214.46
570.095	8330.84
570.457	8324.96
570.819	8298.3
571.18	8319.99
571.542	8410.39
571.903	8422.14
572.265	8446.09
572.626	8475.47
572.987	8449.26
573.349	8429.14
573.71	8541.46
574.071	8484.51
574.432	8475.92
574.794	8577.39
575.155	8569.03
575.516	8591.4
575.877	8556.15
576.238	8622.81
576.599	8632.3
576.96	8636.59
577.32	8693.99
577.681	8606.77
578.042	8698.29
578.403	8695.8
578.763	8691.28
579.124	8753.43
579.485	8721.34
579.845	8806.31
580.206	8757.5
580.566	8769.25
580.927	8809.92
581.287	8772.64
581.648	8819.87
582.008	8822.13
582.368	8887.89
582.728	8851.73
583.089	8872.75
583.449	8884.27
583.809	8877.27
584.169	8933.31
584.529	8945.29
584.889	8957.26
585.249	8896.02
585.609	8958.85
585.969	9009.92
586.329	8912.52
586.688	9019.64
587.048	8935.57
587.408	8965.63
587.768	8962.91
588.127	8997.04
588.487	8962.24
588.846	9047.66
589.206	8979.18
589.565	8991.61
589.925	9080.2
590.284	9035
590.643	9070.03
591.003	9037.71
591.362	9076.13
591.721	9045.62
592.08	9123.59
592.44	9127.2
592.799	9087.43
593.158	9090.82
593.517	9104.15
593.876	9153.64
594.235	9123.36
594.593	9113.42
594.952	9105.74
595.311	9117.94
595.67	9154.1
596.029	9208.56
596.387	9173.53
596.746	9203.81
597.104	9180.76
597.463	9136.24
597.822	9252.4
598.18	9155.45
598.538	9176.69
598.897	9219.86
599.255	9168.78
599.613	9329.68
599.972	9274.09
600.33	9290.36
600.688	9214.66
601.046	9230.03
601.404	9313.87
601.762	9205.62
602.12	9249.69
602.478	9309.12
602.836	9294.43
603.194	9282.23
603.552	9315.67
603.91	9294.66
604.268	9298.5
604.625	9292.17
604.983	9245.84
605.341	9234.55
605.698	9303.24
606.056	9402.45
606.413	9335.33
606.771	9382.56
607.128	9374.65
607.485	9366.07
607.843	9347.31
608.2	9420.98
608.557	9432.05
608.914	9391.38
609.272	9436.35
609.629	9487.42
609.986	9470.02
610.343	9460.53
610.7	9451.04
611.057	9444.94
611.414	9392.28
611.771	9469.57
612.127	9515.44
612.484	9489.23
612.841	9546.18
613.198	9504.37
613.554	9453.75
613.911	9542.79
614.267	9512.28
614.624	9478.61
614.98	9560.86
615.337	9540.3
615.693	9533.07
616.05	9583.01
616.406	9625.72
616.762	9559.06
617.118	9604.48
617.475	9581.65
617.831	9690.35
618.187	9679.28
618.543	9670.24
618.899	9705.04
619.255	9736.9
619.611	9655.55
619.967	9740.07
620.323	9715.89
620.678	9644.48
621.034	9636.34
621.39	9688.32
621.746	9609.22
622.101	9684.25
622.457	9663.69
622.812	9676.34
623.168	9661.88
623.523	9685.15
623.879	9723.8
624.234	9639.73
624.589	9594.31
624.945	9642.67
625.3	9685.15
625.655	9718.6
626.01	9650.35
626.365	9623.01
626.72	9637.7
627.075	9615.55
627.43	9611.03
627.785	9586.63
628.14	9619.17
628.495	9648.09
628.85	9628.66
629.205	9544.37
629.559	9643.35
629.914	9589.11
630.269	9589.79
630.623	9598.38
630.978	9546.85
631.332	9586.63
631.687	9601.77
632.041	9586.85
632.396	9573.29
632.75	9570.81
633.104	9519.74
633.459	9513.18
633.813	9461.66
634.167	9461.43
634.521	9464.37
634.875	9535.33
635.229	9430.25
635.583	9402
635.937	9448.55
636.291	9391.15
636.645	9372.17
636.999	9350.7
637.352	9397.7
637.706	9331.72
638.06	9378.27
638.413	9386.41
638.767	9372.85
639.121	9360.42
639.474	9254.88
639.828	9241.32
640.181	9267.99
640.534	9311.38
640.888	9271.61
641.241	9262.34
641.594	9216.92
641.947	9230.25
642.301	9278.16
642.654	9265.05
643.007	9245.17
643.36	9204.49
643.713	9271.83
644.066	9185.28
644.419	9162
644.771	9143.7
645.124	9028
645.477	8976.92
645.83	8872.75
646.182	8955.91
646.535	8955.46
646.888	8942.58
647.24	8864.16
647.593	8876.81
647.945	8910.49
648.298	8832.07
648.65	8842.47
649.002	8825.97
649.355	8839.3
649.707	8916.36
650.059	8891.73
650.411	8976.47
650.763	8973.54
651.115	9065.28
651.467	9089.24
651.819	9056.47
652.171	9052.63
652.523	9030.71
652.875	9091.05
653.227	8968.79
653.578	9084.04
653.93	8945.29
654.282	8937.6
654.633	8958.85
654.985	8969.47
655.337	8972.18
655.688	8956.81
656.039	9053.53
656.391	8988
656.742	8964.04
657.094	8990.71
657.445	8992.29
657.796	8994.1
658.147	8993.65
658.498	9018.96
658.849	9017.83
659.2	9001.33
659.551	8962.46
659.902	9021.9
660.253	8979.18
660.604	9031.61
660.955	8958.85
661.306	8956.81
661.656	8938.06
662.007	8964.5
662.358	8978.96
662.708	8931.73
663.059	8953.42
663.409	8922.69
663.76	9077.94
664.11	8990.71
664.461	9055.34
664.811	8987.55
665.161	9011.73
665.511	8950.26
665.862	8949.81
666.212	8987.55
666.562	8966.98
666.912	9017.83
667.262	8954.55
667.612	8976.7
667.962	8968.56
668.312	9022.8
668.662	9009.47
669.011	8973.76
669.361	9001.11
669.711	8992.29
670.06	8881.79
670.41	8874.55
670.76	8896.93
671.109	8914.55
671.459	8976.02
671.808	8924.5
672.157	8891.05
672.507	8880.88
672.856	8926.76
673.205	8882.92
673.554	8904.61
673.904	8867.1
674.253	8908.45
674.602	8835.91
674.951	8760.21
675.3	8770.38
675.649	8827.55
675.998	8821.67
676.346	8863.48
676.695	8887.44
677.044	8820.77
677.393	8766.08
677.741	8758.63
678.09	8796.36
678.438	8737.61
678.787	8817.83
679.135	8781.68
679.484	8761.56
679.832	8772.86
680.181	8720.66
680.529	8718.63
680.877	8678.85
681.225	8638.4
681.573	8738.51
681.922	8614.45
682.27	8601.57
682.618	8583.71
682.966	8545.3
683.314	8612.64
683.661	8629.59
684.009	8543.26
684.357	8543.49
684.705	8476.37
685.053	8520.89
685.4	8487.22
685.748	8428.92
686.095	8438.86
686.443	8432.98
686.79	8366.32
687.138	8391.4
687.485	8397.96
687.832	8345.76
688.18	8338.98
688.527	8287.9
688.874	8278.41
689.221	8315.93
689.568	8277.28
689.915	8256.04
690.262	8188.7
690.609	8170.39
690.956	8148.47
691.303	8164.29
691.65	8073.45
691.997	8175.36
692.344	8052.88
692.69	8021.47
693.037	8064.41
693.383	7976.5
693.73	8028.7
694.077	8003.62
694.423	7927.01
694.769	7919.55
695.116	7923.85
695.462	7892.21
695.808	7868.03
696.155	7823.51
696.501	7759.1
696.847	7832.77
697.193	7783.74
697.539	7767.01
697.885	7720.01
698.231	7582.16
698.577	7718.88
698.923	7590.97
699.269	7592.1
699.614	7585.78
699.96	7544.19
700.306	7490.64
700.651	7462.39
700.997	7476.63
701.342	7418.32
701.688	7419.45
702.033	7357.53
702.379	7370.64
702.724	7348.04
703.069	7398.44
703.415	7313.01
703.76	7243.86
704.105	7291.09
704.45	7242.06
704.795	7273.24
705.14	7230.08
705.485	7212.45
705.83	7188.72
706.175	7173.13
706.52	7156.86
706.865	7096.07
707.209	7094.94
707.554	7052.91
707.899	7122.06
708.243	7059.46
708.588	7053.36
708.932	6982.63
709.277	6951.89
709.621	6926.36
709.966	6947.15
710.31	6983.08
710.654	6894.72
710.998	6886.13
711.342	6907.37
711.687	6872.57
712.031	6838.9
712.375	6837.55
712.719	6890.88
713.063	6834.61
713.407	6873.7
713.75	6764.33
714.094	6744.89
714.438	6736.31
714.782	6747.15
715.125	6767.94
715.469	6756.87
715.812	6662.41
716.156	6668.96
716.499	6635.74
716.843	6668.51
717.186	6646.36
717.53	6630.77
717.873	6637.33
718.216	6678.45
718.559	6607.04
718.902	6657.44
719.246	6616.08
719.589	6600.04
719.932	6555.29
720.275	6531.79
720.617	6543.09
720.96	6584.45
721.303	6518.91
721.646	6494.28
721.989	6499.02
722.331	6488.63
722.674	6472.81
723.016	6517.33
723.359	6519.14
723.701	6486.37
724.044	6434.84
724.386	6424.22
724.729	6532.47
725.071	6467.39
725.413	6453.83
725.755	6454.28
726.097	6413.83
726.439	6370.44
726.782	6419.93
727.124	6440.95
727.465	6369.76
727.807	6373.6
728.149	6378.8
728.491	6351.91
728.833	6394.39
729.175	6375.19
729.516	6409.53
729.858	6369.31
730.199	6415.64
730.541	6325.24
730.882	6409.76
731.224	6386.03
731.565	6315.3
731.906	6332.25
732.248	6337.22
732.589	6282.98
732.93	6310.78
733.271	6277.56
733.612	6309.88
733.953	6333.38
734.294	6261.29
734.635	6297.9
734.976	6334.73
735.317	6279.59
735.658	6321.63
735.999	6298.58
736.339	6306.03
736.68	6302.42
737.021	6295.41
737.361	6316.2
737.702	6292.25
738.042	6299.03
738.383	6283.66
738.723	6302.19
739.063	6280.27
739.404	6330.67
739.744	6316.43
740.084	6323.89
740.424	6294.96
740.764	6367.95
741.104	6359.59
741.444	6339.93
741.784	6352.14
742.124	6400.72
742.464	6392.81
742.804	6376.77
743.143	6352.81
743.483	6426.26
743.823	6450.44
744.162	6424.68
744.502	6447.5
744.841	6443.21
745.181	6424.68
745.52	6504.9
745.86	6463.77
746.199	6520.27
746.538	6458.57
746.877	6617.89
747.216	6585.12
747.556	6638.46
747.895	6632.35
748.234	6642.3
748.573	6680.71
748.911	6755.51
749.25	6748.51
749.589	6730.88
749.928	6861.05
750.267	6883.42
750.605	6886.81
750.944	6943.31
751.283	6950.99
751.621	7023.76
751.96	7027.37
752.298	7141.27
752.636	7167.03
752.975	7171.1
753.313	7213.36
753.651	7369.74
753.989	7394.59
754.327	7451.32
754.666	7466.46
755.004	7541.26
755.342	7657.41
755.679	7716.85
756.017	7738.54
756.355	7898.08
756.693	7943.05
757.031	8109.38
757.368	8105.54
757.706	8134.01
758.044	8231.86
758.381	8436.15
758.719	8399.31
759.056	8527.45
759.394	8563.6
759.731	8670.27
760.068	8732.64
760.405	8784.16
760.743	8887.44
761.08	9018.96
761.417	9132.4
761.754	9216.47
762.091	9325.62
762.428	9389.12
762.765	9398.83
763.102	9633.4
763.438	9661.2
763.775	9658.49
764.112	9892.61
764.449	9926.96
764.785	10030.23
765.122	10044.47
765.458	10138.7
765.795	10232.49
766.131	10288.3
766.467	10399.03
766.804	10457.34
767.14	10444.91
767.476	10507.96
767.812	10669.76
768.148	10731.91
768.485	10730.55
768.821	10741.85
769.157	10985.69
769.492	10983.65
