Data from hue_240_FLMS001491_00045.txt Node
Date: Tue Feb 07 16:35:32 GMT 2017
User: dcchb
Spectrometer: FLMS00149
Trigger mode: 0
Integration Time (sec): 2.000000E-2
Scans to average: 10
Electric dark correction enabled: true
Nonlinearity correction enabled: false
Boxcar width: 0
XAxis mode: Wavelengths
Number of Pixels in Spectrum: 2048
>>>>>Begin Spectral Data<<<<<
341.393	-21.33
341.776	-21.33
342.16	-21.33
342.543	-74.66
342.927	-67.43
343.31	-77.82
343.693	-60.65
344.077	-75.34
344.46	-58.84
344.843	-63.36
345.226	-28.78
345.61	-30.37
345.993	-13.42
346.376	6.47
346.759	0.82
347.142	27.71
347.525	43.3
347.908	46.69
348.291	74.94
348.674	99.57
349.057	109.06
349.44	126.01
349.823	131.89
350.206	179.8
350.588	183.87
350.971	187.71
351.354	209.18
351.737	224.77
352.119	248.72
352.502	263.86
352.884	239.68
353.267	270.42
353.65	268.16
354.032	302.51
354.414	292.79
354.797	288.04
355.179	318.32
355.562	302.05
355.944	321.71
356.326	324.88
356.709	331.21
357.091	328.49
357.473	320.58
357.855	346.35
358.238	325.78
358.62	323.52
359.002	327.82
359.384	335.27
359.766	321.94
360.148	315.84
360.53	322.39
360.912	300.25
361.294	333.24
361.676	332.34
362.057	334.82
362.439	307.93
362.821	323.07
363.203	324.65
363.584	311.09
363.966	300.02
364.348	297.76
364.729	314.48
365.111	311.32
365.493	301.15
365.874	304.54
366.256	293.69
366.637	314.71
367.019	309.06
367.4	295.73
367.781	313.81
368.163	311.32
368.544	297.31
368.925	308.61
369.306	314.26
369.688	315.84
370.069	295.27
370.45	304.54
370.831	314.26
371.212	299.12
371.593	300.47
371.974	306.12
372.355	307.48
372.736	309.06
373.117	298.21
373.498	302.51
373.879	314.03
374.26	308.38
374.641	287.59
375.021	308.83
375.402	318.32
375.783	305.44
376.163	326.46
376.544	300.7
376.925	313.58
377.305	296.86
377.686	325.33
378.066	308.38
378.447	348.83
378.827	343.86
379.208	304.99
379.588	318.55
379.968	319.68
380.349	322.39
380.729	312.68
381.109	303.41
381.489	306.8
381.87	316.52
382.25	298.44
382.63	352.9
383.01	336.4
383.39	338.44
383.77	325.1
384.15	340.25
384.53	335.95
384.91	318.78
385.29	332.34
385.67	329.85
386.049	346.12
386.429	319
386.809	340.02
387.189	354.03
387.568	357.42
387.948	316.97
388.328	349.74
388.707	356.97
389.087	349.96
389.466	361.71
389.846	355.61
390.225	344.31
390.605	344.54
390.984	360.36
391.363	338.66
391.743	370.53
392.122	363.75
392.501	345.22
392.881	370.08
393.26	370.75
393.639	389.51
394.018	384.54
394.397	364.2
394.776	370.53
395.155	369.62
395.534	366.01
395.913	383.86
396.292	373.46
396.671	404.42
397.05	391.54
397.429	370.3
397.808	378.21
398.186	378.89
398.565	389.96
398.944	393.8
399.323	379.57
399.701	376.4
400.08	395.39
400.458	403.07
400.837	410.75
401.215	403.75
401.594	400.81
401.972	389.28
402.351	413.69
402.729	423.86
403.107	420.47
403.486	420.47
403.864	427.25
404.242	406.68
404.62	420.24
404.999	421.83
405.377	424.99
405.755	441.71
406.133	433.58
406.511	444.88
406.889	466.8
407.267	458.66
407.645	438.32
408.023	448.04
408.401	466.8
408.779	471.99
409.156	442.62
409.534	458.66
409.912	480.58
410.29	481.26
410.667	486
411.045	497.3
411.422	488.26
411.8	497.3
412.178	487.13
412.555	505.66
412.933	513.35
413.31	531.2
413.687	535.49
414.065	536.85
414.442	546.12
414.819	552.44
415.197	601.93
415.574	559
415.951	570.3
416.328	577.98
416.705	576.4
417.082	584.31
417.46	606.23
417.837	589.96
418.214	588.6
418.591	604.65
418.967	629.05
419.344	619.79
419.721	640.8
420.098	631.09
420.475	633.12
420.852	640.35
421.228	645.32
421.605	657.98
421.982	671.76
422.358	675.83
422.735	693.46
423.111	704.98
423.488	700.69
423.864	722.61
424.241	724.87
424.617	744.53
424.994	744.3
425.37	743.62
425.746	749.73
426.123	780.69
426.499	772.32
426.875	790.85
427.251	770.97
427.627	796.05
428.003	808.71
428.379	813.45
428.756	805.77
429.132	824.53
429.507	845.09
429.883	861.14
430.259	860.01
430.635	846.9
431.011	876.28
431.387	911.08
431.763	900.91
432.138	893
432.514	927.57
432.89	933.45
433.265	947.46
433.641	967.12
434.016	979.32
434.392	979.78
434.767	1022.71
435.143	1016.61
435.518	1043.5
435.894	1044.86
436.269	1041.7
436.644	1073.11
437.02	1097.74
437.395	1114.24
437.77	1125.08
438.145	1118.08
438.52	1125.31
438.895	1154.46
439.271	1149.72
439.646	1187.45
440.021	1206.21
440.395	1198.3
440.77	1222.48
441.145	1236.72
441.52	1231.52
441.895	1264.06
442.27	1268.13
442.645	1288.02
443.019	1316.26
443.394	1312.42
443.769	1292.76
444.143	1309.03
444.518	1330.5
444.892	1340.9
445.267	1339.32
445.641	1358.07
446.016	1360.56
446.39	1383.16
446.764	1364.4
447.139	1395.36
447.513	1420.67
447.887	1422.7
448.262	1429.48
448.636	1439.43
449.01	1454.79
449.384	1484.17
449.758	1491.4
450.132	1502.02
450.506	1494.57
450.88	1479.42
451.254	1504.96
451.628	1506.99
452.002	1518.07
452.376	1576.14
452.75	1579.31
453.123	1549.71
453.497	1605.97
453.871	1599.65
454.244	1645.97
454.618	1640.78
454.992	1669.7
455.365	1663.37
455.739	1703.6
456.112	1745.18
456.486	1732.3
456.859	1742.24
457.232	1771.85
457.606	1743.82
457.979	1777.27
458.352	1829.47
458.725	1840.09
459.099	1858.4
459.472	1895.46
459.845	1883.71
460.218	1884.16
460.591	1900.88
460.964	1944.04
461.337	1970.26
461.71	2009.58
462.083	1991.5
462.456	2055.23
462.829	2057.49
463.201	2006.87
463.574	2082.12
463.947	2090.03
464.32	2139.75
464.692	2160.76
465.065	2169.35
465.438	2190.37
465.81	2252.51
466.183	2231.72
466.555	2251.16
466.928	2312.4
467.3	2322.57
467.672	2314.2
468.045	2378.16
468.417	2369.34
468.789	2431.26
469.161	2419.29
469.534	2449.12
469.906	2501.54
470.278	2514.88
470.65	2520.75
471.022	2594.88
471.394	2608.89
471.766	2636.68
472.138	2684.82
472.51	2740.41
472.882	2759.84
473.253	2746.06
473.625	2810.91
473.997	2874.64
474.369	2902.66
474.74	2897.92
475.112	2951.7
475.484	3037.8
475.855	3035.32
476.227	3049.33
476.598	3116.67
476.97	3113.73
477.341	3201.86
477.713	3225.59
478.084	3243.67
478.455	3342.2
478.827	3371.58
479.198	3472.82
479.569	3463.55
479.94	3568.18
480.311	3580.61
480.682	3638.01
481.053	3729.99
481.424	3747.16
481.795	3787.16
482.166	3818.8
482.537	3862.41
482.908	3910.32
483.279	4017.89
483.65	4079.58
484.021	4115.29
484.391	4149.18
484.762	4148.96
485.133	4205.91
485.503	4242.06
485.874	4372.91
486.244	4362.74
486.615	4459.91
486.985	4501.27
487.356	4565.9
487.726	4609.96
488.097	4707.81
488.467	4649.74
488.837	4739.9
489.207	4807.7
489.578	4877.08
489.948	4849.28
490.318	4953.46
490.688	4878.66
491.058	5026.22
491.428	5097.18
491.798	5144.19
492.168	5233.22
492.538	5187.12
492.908	5263.96
493.278	5372.88
493.648	5392.77
494.017	5405.42
494.387	5423.28
494.757	5432.77
495.126	5539.88
495.496	5554.12
495.866	5595.93
496.235	5661.46
496.605	5684.74
496.974	5663.04
497.344	5729.71
497.713	5730.61
498.082	5784.4
498.452	5819.88
498.821	5858.29
499.19	5815.81
499.559	5894.68
499.928	5986.65
500.298	5945.3
500.667	6016.71
501.036	5964.28
501.405	6020.32
501.774	6048.34
502.143	6087.66
502.512	6129.47
502.88	6156.59
503.249	6124.5
503.618	6134.9
503.987	6251.73
504.356	6228.68
504.724	6225.97
505.093	6237.49
505.462	6286.98
505.83	6307.55
506.199	6355
506.567	6417.37
506.936	6372.63
507.304	6466.19
507.672	6439.52
508.041	6426.64
508.409	6526.3
508.777	6520.65
509.145	6554.32
509.514	6631.83
509.882	6520.65
510.25	6596.13
510.618	6669.12
510.986	6638.84
511.354	6654.66
511.722	6682
512.09	6736.91
512.458	6701.66
512.826	6778.49
513.193	6764.94
513.561	6755.22
513.929	6823.24
514.297	6826.63
514.664	6907.3
515.032	6925.61
515.4	6968.55
515.767	6945.04
516.135	6969.68
516.502	6877.7
516.869	7043.35
517.237	7039.73
517.604	6997.7
517.972	7076.57
518.339	7026.17
518.706	7030.69
519.073	7095.77
519.44	7140.97
519.808	7129.67
520.175	7114.08
520.542	7223
520.909	7186.17
521.276	7171.03
521.643	7245.37
522.009	7289.44
522.376	7263.91
522.743	7250.8
523.11	7272.94
523.477	7345.94
523.843	7329.89
524.21	7370.12
524.577	7458.48
524.943	7484.92
525.31	7470.23
525.676	7463.67
526.043	7488.08
526.409	7519.49
526.776	7524.01
527.142	7536.89
527.508	7539.38
527.874	7603.11
528.241	7632.71
528.607	7559.04
528.973	7613.95
529.339	7587.29
529.705	7627.74
530.071	7679.71
530.437	7587.51
530.803	7727.85
531.169	7723.55
531.535	7659.83
531.901	7732.37
532.267	7720.16
532.632	7726.49
532.998	7722.42
533.364	7766.94
533.73	7794.06
534.095	7774.4
534.461	7745.47
534.826	7795.42
535.192	7792.03
535.557	7801.52
535.923	7743.21
536.288	7730.11
536.653	7706.83
537.019	7707.96
537.384	7751.12
537.749	7728.3
538.114	7755.64
538.479	7714.51
538.845	7711.8
539.21	7672.26
539.575	7735.08
539.94	7742.76
540.305	7721.29
540.67	7712.71
541.034	7729.66
541.399	7712.25
541.764	7668.87
542.129	7744.57
542.494	7695.98
542.858	7687.17
543.223	7654.18
543.587	7720.62
543.952	7646.27
544.316	7659.6
544.681	7686.04
545.045	7643.33
545.41	7644.01
545.774	7676.1
546.138	7645.82
546.503	7659.6
546.867	7606.49
547.231	7700.5
547.595	7689.2
547.959	7680.62
548.324	7624.57
548.688	7648.53
549.052	7644.69
549.416	7634.29
549.779	7582.31
550.143	7553.84
550.507	7605.36
550.871	7616.89
551.235	7558.81
551.599	7617.79
551.962	7617.79
552.326	7577.8
552.689	7625.03
553.053	7523.79
553.417	7581.64
553.78	7616.66
554.143	7563.11
554.507	7542.77
554.87	7588.64
555.234	7632.03
555.597	7559.49
555.96	7578.7
556.323	7624.35
556.686	7588.64
557.05	7660.28
557.413	7683.33
557.776	7584.35
558.139	7621.18
558.502	7640.62
558.865	7633.16
559.228	7664.57
559.59	7688.75
559.953	7647.85
560.316	7707.06
560.679	7685.81
561.041	7687.17
561.404	7670.22
561.767	7761.07
562.129	7763.55
562.492	7791.12
562.854	7701.63
563.217	7743.44
563.579	7750.9
563.941	7822.76
564.304	7853.04
564.666	7853.27
565.028	7837.9
565.39	7946.82
565.753	7882.19
566.115	7898.01
566.477	7940.05
566.839	7909.99
567.201	7979.59
567.563	7977.11
567.925	7982.98
568.287	7994.96
568.648	8020.95
569.01	8039.25
569.372	8048.52
569.734	8076.99
570.095	8095.75
570.457	8099.14
570.819	8108.18
571.18	8138.46
571.542	8188.85
571.903	8201.51
572.265	8211.68
572.626	8214.39
572.987	8218
573.349	8240.15
573.71	8290.09
574.071	8275.63
574.432	8314.05
574.794	8356.76
575.155	8354.95
575.516	8256.65
575.877	8394.27
576.238	8351.56
576.599	8392.69
576.96	8414.61
577.32	8431.33
577.681	8443.76
578.042	8436.53
578.403	8488.51
578.763	8514.27
579.124	8548.39
579.485	8536.64
579.845	8515.4
580.206	8522.85
580.566	8500.48
580.927	8568.73
581.287	8668.39
581.648	8607.6
582.008	8579.12
582.368	8573.25
582.728	8635.17
583.089	8622.51
583.449	8663.42
583.809	8659.8
584.169	8688.5
584.529	8681.04
584.889	8745.67
585.249	8679.91
585.609	8709.97
585.969	8758.1
586.329	8738.67
586.688	8729.4
587.048	8804.2
587.408	8782.06
587.768	8760.36
588.127	8777.54
588.487	8812.56
588.846	8839.68
589.206	8790.42
589.565	8832.9
589.925	8852.79
590.284	8891.43
590.643	8873.58
591.003	8813.02
591.362	8884.65
591.721	8889.17
592.08	8913.81
592.44	8926.01
592.799	8992
593.158	8919.68
593.517	8878.55
593.876	8928.04
594.235	9010.07
594.593	8896.63
594.952	8955.84
595.311	8920.58
595.67	8947.02
596.029	9015.5
596.387	9034.71
596.746	8979.11
597.104	8919
597.463	8954.93
597.822	8951.32
598.18	8997.19
598.538	8974.37
598.897	9027.7
599.255	8987.93
599.613	9054.59
599.972	9058.89
600.33	9060.92
600.688	8983.63
601.046	9104.53
601.404	9144.31
601.762	9072.22
602.12	9115.83
602.478	9076.96
602.836	9102.5
603.194	9036.74
603.552	9035.16
603.91	9082.39
604.268	9111.54
604.625	9122.61
604.983	9128.71
605.341	9088.04
605.698	9102.95
606.056	9152.44
606.413	9100.47
606.771	9162.84
607.128	9116.51
607.485	9121.94
607.843	9093.69
608.2	9166.68
608.557	9197.19
608.914	9143.4
609.272	9285.55
609.629	9208.03
609.986	9269.05
610.343	9264.08
610.7	9274.02
611.057	9180.01
611.414	9214.59
611.771	9261.14
612.127	9210.52
612.484	9243.97
612.841	9325.32
613.198	9237.86
613.554	9251.65
613.911	9373.68
614.267	9342.95
614.624	9322.16
614.98	9256.17
615.337	9369.61
615.693	9349.05
616.05	9351.31
616.406	9386.34
616.762	9355.83
617.118	9337.3
617.475	9324.64
617.831	9392.89
618.187	9388.59
618.543	9387.92
618.899	9436.28
619.255	9483.06
619.611	9403.06
619.967	9407.58
620.323	9457.52
620.678	9443.96
621.034	9370.06
621.39	9401.02
621.746	9350.4
622.101	9496.16
622.457	9399.22
622.812	9425.88
623.168	9428.59
623.523	9464.53
623.879	9416.16
624.234	9373
624.589	9451.64
624.945	9489.61
625.3	9487.58
625.655	9468.82
626.01	9516.05
626.365	9466.56
626.72	9437.63
627.075	9452.1
627.43	9425.66
627.785	9429.72
628.14	9481.7
628.495	9398.09
628.85	9417.75
629.205	9390.18
629.559	9453
629.914	9370.29
630.269	9467.46
630.623	9421.36
630.978	9344.3
631.332	9376.39
631.687	9383.17
632.041	9384.3
632.396	9292.78
632.75	9356.51
633.104	9326.22
633.459	9288.03
633.813	9314.47
634.167	9236.73
634.521	9278.09
634.875	9291.42
635.229	9218.66
635.583	9126.91
635.937	9251.65
636.291	9191.76
636.645	9231.76
636.999	9112.44
637.352	9179.79
637.706	9163.74
638.06	9195.38
638.413	9151.99
638.767	9121.03
639.121	9160.8
639.474	9164.87
639.828	9107.92
640.181	9126.23
640.534	9063.86
640.888	9108.83
641.241	9088.94
641.594	9075.16
641.947	9080.58
642.301	8986.57
642.654	9005.1
643.007	9072.45
643.36	9054.14
643.713	9032.22
644.066	9043.29
644.419	8954.48
644.771	8957.65
645.124	8856.63
645.477	8841.72
645.83	8812.79
646.182	8773.47
646.535	8707.93
646.888	8704.77
647.24	8664.55
647.593	8731.66
647.945	8719.23
648.298	8662.29
648.65	8605.56
649.002	8607.15
649.355	8616.41
649.707	8691.66
650.059	8713.36
650.411	8755.62
650.763	8843.75
651.115	8934.37
651.467	8869.06
651.819	8891.88
652.171	8888.27
652.523	8829.74
652.875	8826.12
653.227	8890.53
653.578	8847.14
653.93	8847.37
654.282	8871.77
654.633	8813.02
654.985	8810.76
655.337	8861.6
655.688	8862.73
656.039	8891.66
656.391	8828.38
656.742	8853.69
657.094	8824.99
657.445	8835.39
657.796	8799.46
658.147	8881.26
658.498	8815.05
658.849	8827.48
659.2	8869.06
659.551	8794.26
659.902	8869.96
660.253	8822.06
660.604	8824.54
660.955	8784.09
661.306	8859.34
661.656	8859.12
662.007	8806.46
662.358	8861.15
662.708	8847.37
663.059	8802.85
663.409	8847.82
663.76	8824.32
664.11	8798.78
664.461	8879.91
664.811	8810.53
665.161	8862.06
665.511	8813.02
665.862	8853.02
666.212	8812.56
666.562	8820.7
666.912	8863.64
667.262	8830.64
667.612	8815.28
667.962	8853.69
668.312	8790.87
668.662	8855.05
669.011	8824.09
669.361	8798.78
669.711	8824.99
670.06	8808.05
670.41	8735.73
670.76	8857.31
671.109	8888.27
671.459	8835.62
671.808	8774.15
672.157	8747.48
672.507	8721.49
672.856	8775.96
673.205	8705
673.554	8785.45
673.904	8718.78
674.253	8826.12
674.602	8755.84
674.951	8559.46
675.3	8596.53
675.649	8718.1
675.998	8731.21
676.346	8690.08
676.695	8711.55
677.044	8641.04
677.393	8649.18
677.741	8649.63
678.09	8645.11
678.438	8678.11
678.787	8642.4
679.135	8622.74
679.484	8615.96
679.832	8603.98
680.181	8642.4
680.529	8519.24
680.877	8592.46
681.225	8548.84
681.573	8583.64
681.922	8535.06
682.27	8546.58
682.618	8509.07
682.966	8503.87
683.314	8486.02
683.661	8386.36
684.009	8426.13
684.357	8427.72
684.705	8340.03
685.053	8402.41
685.4	8379.58
685.748	8394.04
686.095	8349.75
686.443	8334.84
686.79	8288.06
687.138	8261.39
687.485	8277.89
687.832	8238.79
688.18	8292.35
688.527	8260.04
688.874	8194.28
689.221	8218.46
689.568	8116.99
689.915	8105.69
690.262	8095.75
690.609	8130.1
690.956	8026.14
691.303	8027.73
691.65	8012.59
691.997	7985.92
692.344	7950.44
692.69	7944.57
693.037	7922.42
693.383	7820.73
693.73	7855.53
694.077	7817.34
694.423	7827.96
694.769	7785.47
695.116	7802.87
695.462	7784.8
695.808	7706.83
696.155	7742.08
696.501	7677
696.847	7660.73
697.193	7620.96
697.539	7601.75
697.885	7569.43
698.231	7533.05
698.577	7561.52
698.923	7543.67
699.269	7498.25
699.614	7449.89
699.96	7431.36
700.306	7439.27
700.651	7437.01
700.997	7381.64
701.342	7355.43
701.688	7311.36
702.033	7303.45
702.379	7284.02
702.724	7220.74
703.069	7257.58
703.415	7210.8
703.76	7240.4
704.105	7207.41
704.45	7100.97
704.795	7119.5
705.14	7109.33
705.485	7136.22
705.83	7039.28
706.175	7041.31
706.52	7033.63
706.865	6951.37
707.209	6943.24
707.554	6935.78
707.899	7018.94
708.243	6913.18
708.588	6832.05
708.932	6822.33
709.277	6854.65
709.621	6799.51
709.966	6829.34
710.31	6861.2
710.654	6764.94
710.998	6733.98
711.342	6759.96
711.687	6721.77
712.031	6761.09
712.375	6694.88
712.719	6666.63
713.063	6680.19
713.407	6706.63
713.75	6627.09
714.094	6648.55
714.438	6667.76
714.782	6652.62
715.125	6618.95
715.469	6578.27
715.812	6588.22
716.156	6547.99
716.499	6560.42
716.843	6545.28
717.186	6504.83
717.53	6539.86
717.873	6495.11
718.216	6499.18
718.559	6442.01
718.902	6443.81
719.246	6499.63
719.589	6421.22
719.932	6388.67
720.275	6375.11
720.617	6454.66
720.96	6409.92
721.303	6448.11
721.646	6406.75
721.989	6400.88
722.331	6418.28
722.674	6316.59
723.016	6335.34
723.359	6378.05
723.701	6395.91
724.044	6279.07
724.386	6335.34
724.729	6354.1
725.071	6348.22
725.413	6351.61
725.755	6317.94
726.097	6301.67
726.439	6298.05
726.782	6344.83
727.124	6313.2
727.465	6336.7
727.807	6330.14
728.149	6279.75
728.491	6294.66
728.833	6283.59
729.175	6241.33
729.516	6269.35
729.858	6279.3
730.199	6212.63
730.541	6204.27
730.882	6296.02
731.224	6275.46
731.565	6217.6
731.906	6270.03
732.248	6239.3
732.589	6202.92
732.93	6210.15
733.271	6216.93
733.612	6211.05
733.953	6226.64
734.294	6213.09
734.635	6254.67
734.976	6224.38
735.317	6195.46
735.658	6168.11
735.999	6194.78
736.339	6206.08
736.68	6223.25
737.021	6165.85
737.361	6202.69
737.702	6194.1
738.042	6167.21
738.383	6223.25
738.723	6179.41
739.063	6171.5
739.404	6248.79
739.744	6238.17
740.084	6222.58
740.424	6234.33
740.764	6296.7
741.104	6230.49
741.444	6265.06
741.784	6256.47
742.124	6230.26
742.464	6285.63
742.804	6269.35
743.143	6275.91
743.483	6310.26
743.823	6343.7
744.162	6316.36
744.502	6338.96
744.841	6368.56
745.181	6420.54
745.52	6360.2
745.86	6397.04
746.199	6479.74
746.538	6463.02
746.877	6570.59
747.216	6541.44
747.556	6566.75
747.895	6583.92
748.234	6585.5
748.573	6595.9
748.911	6688.33
749.25	6644.49
749.589	6700.3
749.928	6730.59
750.267	6842.67
750.605	6865.5
750.944	6852.62
751.283	6871.6
751.621	6990.01
751.96	6980.97
752.298	7093.74
752.636	7121.08
752.975	7175.55
753.313	7204.02
753.651	7313.4
753.989	7304.13
754.327	7342.77
754.666	7448.31
755.004	7526.5
755.342	7615.53
755.679	7673.84
756.017	7780.5
756.355	7861.18
756.693	7921.97
757.031	7988.18
757.368	8078.8
757.706	8180.04
758.044	8222.98
758.381	8358.34
758.719	8364.22
759.056	8576.41
759.394	8592.91
759.731	8657.77
760.068	8720.36
760.405	8816.86
760.743	8884.88
761.08	9040.58
761.417	9062.28
761.754	9209.39
762.091	9326.68
762.428	9398.31
762.765	9419.78
763.102	9578.19
763.438	9611.64
763.775	9742.48
764.112	9825.87
764.449	9929.15
764.785	9944.51
765.122	10040.56
765.458	10087.33
765.795	10207.56
766.131	10283.03
766.467	10369.59
766.804	10452.75
767.14	10448.91
767.476	10531.62
767.812	10613.87
768.148	10705.17
768.485	10735
768.821	10746.53
769.157	10856.35
769.492	10843.7
769.828	10978.16
