Data from hue_340_FLMS001491_45.txt Node
Date: Mon Feb 06 15:43:10 GMT 2017
User: dcchb
Spectrometer: FLMS00149
Trigger mode: 0
Integration Time (sec): 2.000000E-2
Scans to average: 10
Electric dark correction enabled: true
Nonlinearity correction enabled: false
Boxcar width: 0
XAxis mode: Wavelengths
Number of Pixels in Spectrum: 2048
>>>>>Begin Spectral Data<<<<<
341.393	-17.74
341.776	-17.74
342.16	-17.74
342.543	-73.33
342.927	-57.51
343.31	-70.85
343.693	-47.34
344.077	-70.39
344.46	-63.16
344.843	-62.94
345.226	-50.51
345.61	-33.78
345.993	-18.87
346.376	4.86
346.759	0.56
347.142	11.64
347.525	42.82
347.908	54.57
348.291	77.4
348.674	108.36
349.057	117.62
349.44	116.72
349.823	149.94
350.206	170.96
350.588	190.62
350.971	190.62
351.354	205.31
351.737	221.58
352.119	260.45
352.502	267.68
352.884	251.63
353.267	262.25
353.65	299.99
354.032	295.47
354.414	284.4
354.797	326.88
355.179	327.11
355.562	309.71
355.944	314
356.326	319.65
356.709	325.53
357.091	327.11
357.473	343.61
357.855	335.25
358.238	349.71
358.62	339.77
359.002	353.1
359.384	335.25
359.766	336.6
360.148	331.4
360.53	332.76
360.912	313.1
361.294	344.96
361.676	338.86
362.057	328.24
362.439	344.28
362.821	314.91
363.203	327.34
363.584	314
363.966	328.92
364.348	313.33
364.729	315.13
365.111	297.28
365.493	316.26
365.874	310.84
366.256	330.5
366.637	312.2
367.019	306.09
367.4	325.08
367.781	319.43
368.163	301.35
368.544	306.77
368.925	323.27
369.306	311.29
369.688	318.52
370.069	304.74
370.45	319.65
370.831	309.71
371.212	310.39
371.593	284.63
371.974	319.43
372.355	309.94
372.736	310.84
373.117	306.09
373.498	307.22
373.879	318.75
374.26	306.09
374.641	316.94
375.021	311.29
375.402	321.01
375.783	316.26
376.163	308.58
376.544	308.35
376.925	318.75
377.305	300.67
377.686	312.2
378.066	317.62
378.447	311.29
378.827	314.23
379.208	326.88
379.588	334.57
379.968	313.33
380.349	322.36
380.729	333.44
381.109	330.27
381.489	335.02
381.87	321.23
382.25	325.98
382.63	312.2
383.01	339.99
383.39	335.47
383.77	336.15
384.15	314.68
384.53	337.96
384.91	328.47
385.29	331.86
385.67	319.2
386.049	340.44
386.429	327.34
386.809	346.32
387.189	327.34
387.568	347.22
387.948	349.48
388.328	359.2
388.707	348.35
389.087	349.48
389.466	340.44
389.846	353.32
390.225	359.65
390.605	357.17
390.984	348.58
391.363	351.29
391.743	367.79
392.122	340.22
392.501	332.08
392.881	345.41
393.26	364.17
393.639	345.19
394.018	358.52
394.397	383.83
394.776	370.05
395.155	365.08
395.534	383.61
395.913	360.1
396.292	378.63
396.671	378.86
397.05	385.19
397.429	389.48
397.808	383.83
398.186	377.28
398.565	368.92
398.944	379.99
399.323	373.89
399.701	360.33
400.08	391.52
400.458	388.8
400.837	372.98
401.215	386.09
401.594	389.03
401.972	379.09
402.351	388.58
402.729	382.02
403.107	384.96
403.486	385.64
403.864	361.23
404.242	388.13
404.62	395.81
404.999	393.32
405.377	415.92
405.755	394
406.133	400.78
406.511	408.24
406.889	419.99
407.267	420.44
407.645	423.6
408.023	426.54
408.401	428.58
408.779	439.65
409.156	437.84
409.534	429.71
409.912	431.29
410.29	422.25
410.667	436.26
411.045	437.62
411.422	435.13
411.8	460.21
412.178	470.84
412.555	450.95
412.933	483.72
413.31	464.96
413.687	475.58
414.065	464.06
414.442	497.28
414.819	473.55
415.197	490.5
415.574	481.91
415.951	482.59
416.328	493.66
416.705	506.09
417.082	498.63
417.46	505.18
417.837	506.77
418.214	519.42
418.591	523.04
418.967	532.53
419.344	534.11
419.721	549.7
420.098	523.26
420.475	537.95
420.852	530.95
421.228	554.9
421.605	537.73
421.982	546.09
422.358	584.05
422.735	570.95
423.111	565.97
423.488	567.78
423.864	573.43
424.241	575.69
424.617	595.58
424.994	596.71
425.37	584.5
425.746	587.22
426.123	593.54
426.499	612.75
426.875	612.07
427.251	600.1
427.627	618.85
428.003	666.99
428.379	629.7
428.756	635.58
429.132	626.54
429.507	641.23
429.883	650.04
430.259	646.88
430.635	650.49
431.011	685.29
431.387	677.84
431.763	674.22
432.138	672.19
432.514	683.03
432.89	688
433.265	695.24
433.641	708.34
434.016	719.64
434.392	731.62
434.767	730.94
435.143	740.21
435.518	755.8
435.894	756.7
436.269	757.16
436.644	750.38
437.02	787.21
437.395	764.84
437.77	804.61
438.145	804.84
438.52	787.21
438.895	808.23
439.271	775.46
439.646	817.72
440.021	788.34
440.395	795.8
440.77	809.58
441.145	822.69
441.52	845.97
441.895	853.2
442.27	858.17
442.645	844.38
443.019	865.4
443.394	866.08
443.769	848
444.143	856.81
444.518	859.75
444.892	885.29
445.267	852.97
445.641	861.79
446.016	863.59
446.39	868.56
446.764	897.72
447.139	889.81
447.513	905.17
447.887	905.85
448.262	920.09
448.636	908.79
449.01	915.12
449.384	914.21
449.758	916.93
450.132	914.44
450.506	939.3
450.88	944.27
451.254	943.59
451.628	927.09
452.002	930.48
452.376	944.04
452.75	967.55
453.123	953.31
453.497	981.78
453.871	990.82
454.244	977.04
454.618	983.14
454.992	1015.68
455.365	998.73
455.739	1013.19
456.112	1029.46
456.486	1037.15
456.859	1044.83
457.232	1031.05
457.606	1065.62
457.979	1068.33
458.352	1081.67
458.725	1082.12
459.099	1084.38
459.472	1092.51
459.845	1121.67
460.218	1104.72
460.591	1123.02
460.964	1132.74
461.337	1142.23
461.71	1156.24
462.083	1189.23
462.456	1161.66
462.829	1151.04
463.201	1183.58
463.574	1198.05
463.947	1161.21
464.32	1220.87
464.692	1205.73
465.065	1238.72
465.438	1256.58
465.81	1252.74
466.183	1274.88
466.555	1287.54
466.928	1292.28
467.3	1287.76
467.672	1298.38
468.045	1338.83
468.417	1343.13
468.789	1351.94
469.161	1364.6
469.534	1393.75
469.906	1389.45
470.278	1426.74
470.65	1441.66
471.022	1442.79
471.394	1481.66
471.766	1467.65
472.138	1467.19
472.51	1514.65
472.882	1531.6
473.253	1530.47
473.625	1542.45
473.997	1607.53
474.369	1585.38
474.74	1598.26
475.112	1639.39
475.484	1669.22
475.855	1720.52
476.227	1698.83
476.598	1769.56
476.97	1765.94
477.341	1786.05
477.713	1790.12
478.084	1794.64
478.455	1860.4
478.827	1880.06
479.198	1931.59
479.569	1904.24
479.94	1963
480.311	1983.11
480.682	2046.39
481.053	2059.27
481.424	2111.47
481.795	2090.45
482.166	2099.72
482.537	2171.36
482.908	2187.17
483.279	2224.24
483.65	2234.18
484.021	2286.61
484.391	2315.98
484.762	2302.65
485.133	2334.51
485.503	2383.55
485.874	2439.82
486.244	2417.22
486.615	2488.64
486.985	2518.69
487.356	2526.37
487.726	2550.78
488.097	2614.73
488.467	2619.93
488.837	2672.59
489.207	2685.47
489.578	2705.35
489.948	2751.68
490.318	2749.42
490.688	2778.35
491.058	2851.79
491.428	2860.6
491.798	2915.52
492.168	2930.88
492.538	2971.56
492.908	2979.47
493.278	3053.82
493.648	3015.17
494.017	3062.18
494.387	3080.03
494.757	3116.87
495.126	3121.84
495.496	3167.94
495.866	3166.58
496.235	3177.43
496.605	3231.89
496.974	3261.04
497.344	3245.23
497.713	3260.37
498.082	3306.92
498.452	3349.63
498.821	3342.4
499.19	3367.26
499.559	3408.16
499.928	3383.07
500.298	3423.53
500.667	3472.11
501.036	3481.6
501.405	3441.6
501.774	3468.5
502.143	3510.3
502.512	3544.2
502.88	3521.6
503.249	3577.65
503.618	3596.4
503.987	3585.33
504.356	3598.89
504.724	3561.6
505.093	3607.48
505.462	3668.04
505.83	3666.23
506.199	3691.77
506.567	3720.92
506.936	3697.64
507.304	3723.86
507.672	3734.7
508.041	3762.5
508.409	3785.78
508.777	3805.21
509.145	3801.82
509.514	3824.87
509.882	3848.83
510.25	3869.39
510.618	3864.64
510.986	3856.73
511.354	3865.55
511.722	3948.03
512.09	3928.82
512.458	3927.02
512.826	3945.55
513.193	3963.17
513.561	4002.04
513.929	3962.04
514.297	4014.02
514.664	4015.6
515.032	4041.59
515.4	4013.34
515.767	4032.1
516.135	4116.16
516.502	4030.52
516.869	4078.88
517.237	4145.77
517.604	4111.19
517.972	4117.52
518.339	4126.56
518.706	4141.25
519.073	4157.74
519.44	4171.3
519.808	4170.4
520.175	4185.77
520.542	4232.54
520.909	4178.08
521.276	4254.69
521.643	4220.34
522.009	4279.77
522.376	4317.29
522.743	4320.68
523.11	4338.76
523.477	4395.93
523.843	4404.06
524.21	4383.95
524.577	4417.85
524.943	4430.28
525.31	4469.6
525.676	4497.62
526.043	4468.7
526.409	4525.64
526.776	4579.88
527.142	4555.25
527.508	4591.86
527.874	4623.27
528.241	4618.97
528.607	4611.97
528.973	4687.22
529.339	4635.02
529.705	4735.13
530.071	4738.29
530.437	4760.67
530.803	4750.04
531.169	4809.93
531.535	4816.48
531.901	4821.23
532.267	4836.82
532.632	4845.18
532.998	4850.83
533.364	4948.68
533.73	4887.67
534.095	4997.27
534.461	4961.56
534.826	4976.48
535.192	5031.39
535.557	5043.6
535.923	5018.06
536.288	5038.85
536.653	5130.37
537.019	5103.26
537.384	5099.19
537.749	5157.04
538.114	5202.01
538.479	5160.43
538.845	5169.02
539.21	5205.4
539.575	5198.62
539.94	5260.09
540.305	5265.51
540.67	5289.01
541.034	5299.86
541.399	5334.66
541.764	5315.45
542.129	5360.65
542.494	5414.21
542.858	5384.38
543.223	5384.83
543.587	5437.71
543.952	5450.14
544.316	5469.35
544.681	5484.94
545.045	5566.07
545.41	5527.65
545.774	5544.15
546.138	5656.91
546.503	5621.21
546.867	5649.23
547.231	5632.06
547.595	5709.79
547.959	5737.82
548.324	5719.96
548.688	5703.69
549.052	5720.87
549.416	5742.11
549.779	5779.4
550.143	5784.37
550.507	5830.24
550.871	5847.19
551.235	5813.75
551.599	5837.02
551.962	5863.91
552.326	5913.86
552.689	5944.82
553.053	5886.96
553.417	5977.13
553.78	5985.72
554.143	5985.72
554.507	6028.2
554.87	6037.92
555.234	6086.05
555.597	6095.55
555.96	6090.12
556.323	6134.64
556.686	6141.42
557.05	6182.55
557.413	6212.15
557.776	6152.72
558.139	6233.62
558.502	6193.17
558.865	6257.8
559.228	6373.5
559.59	6261.42
559.953	6314.75
560.316	6423.45
560.679	6372.37
561.041	6321.53
561.404	6417.8
561.767	6402.2
562.129	6343
562.492	6465.71
562.854	6488.98
563.217	6480.17
563.579	6466.16
563.941	6498.02
564.304	6532.82
564.666	6554.06
565.028	6573.05
565.39	6609.2
565.753	6608.98
566.115	6695.76
566.477	6660.95
566.839	6720.84
567.201	6688.75
567.563	6734.63
567.925	6806.94
568.287	6724.46
568.648	6757
569.01	6820.95
569.372	6893.04
569.734	6867.96
570.095	6962.64
570.457	6984.11
570.819	6962.42
571.18	6982.08
571.542	7004.9
571.903	7067.27
572.265	7080.6
572.626	7129.87
572.987	7187.49
573.349	7182.52
573.71	7240.6
574.071	7274.5
574.432	7345.91
574.794	7446.7
575.155	7419.58
575.516	7444.21
575.877	7574.15
576.238	7606.01
576.599	7688.95
576.96	7772.34
577.32	7793.58
577.681	7924.88
578.042	7961.03
578.403	8023.4
578.763	8085.55
579.124	8237.41
579.485	8224.3
579.845	8442.15
580.206	8466.56
580.566	8606.89
580.927	8684.86
581.287	8808.47
581.648	8869.26
582.008	9061.12
582.368	9123.49
582.728	9300.43
583.089	9453.65
583.449	9496.81
583.809	9689.12
584.169	9910.36
584.529	9999.4
584.889	10217.7
585.249	10384.25
585.609	10470.57
585.969	10786.27
586.329	10893.39
586.688	11208.86
587.048	11306.03
587.408	11536.08
587.768	11803.87
588.127	11913.7
588.487	12141.26
588.846	12469.62
589.206	12572.89
589.565	12759.55
589.925	13087.23
590.284	13300.33
590.643	13538.97
591.003	13809.47
591.362	14055.56
591.721	14310.92
592.08	14625.72
592.44	14895.31
592.799	15142.31
593.158	15378.69
593.517	15660.72
593.876	15978.68
594.235	16210.76
594.593	16473.8
594.952	16751.99
595.311	17016.84
595.67	17323.95
596.029	17732.98
596.387	17923.94
596.746	18237.6
597.104	18466.52
597.463	18758.26
597.822	19087.52
598.18	19280.06
598.538	19438.25
598.897	20020.6
599.255	20035.52
599.613	20618.55
599.972	20730.19
600.33	21021.26
600.688	21127.24
601.046	21451.98
601.404	21909.59
601.762	22039.31
602.12	22399.75
602.478	22701.66
602.836	22992.73
603.194	23014.65
603.552	23373.28
603.91	23559.27
604.268	23871.35
604.625	24067.28
604.983	24443.09
605.341	24688.96
605.698	24896.18
606.056	25091.2
606.413	25264.99
606.771	25654.58
607.128	25902.71
607.485	25966.89
607.843	26200.78
608.2	26640.09
608.557	26770.93
608.914	26920.31
609.272	27330.02
609.629	27497.92
609.986	27746.95
610.343	27743.11
610.7	28178.36
611.057	28302.65
611.414	28434.39
611.771	28676.42
612.127	28807.94
612.484	28939.92
612.841	29236.41
613.198	29315.27
613.554	29491.09
613.911	29705.77
614.267	29868.71
614.624	30008.59
614.98	30313.89
615.337	30367
615.693	30613.09
616.05	30728.34
616.406	31018.73
616.762	31053.08
617.118	31188.9
617.475	31283.81
617.831	31566.06
618.187	31551.6
618.543	31705.95
618.899	32020.06
619.255	32038.59
619.611	32075.43
619.967	32359.26
620.323	32562.42
620.678	32457.34
621.034	32533.95
621.39	32623.89
621.746	32820.04
622.101	33161.27
622.457	33087.38
622.812	33197.88
623.168	33316.3
623.523	33292.8
623.879	33569.63
624.234	33391.1
624.589	33647.59
624.945	33694.82
625.3	33988.37
625.655	33922.61
626.01	34010.52
626.365	34088.03
626.72	34144.3
627.075	34125.32
627.43	34236.05
627.785	34226.11
628.14	34439.21
628.495	34377.29
628.85	34444.41
629.205	34414.8
629.559	34558.75
629.914	34458.19
630.269	34518.53
630.623	34479.88
630.978	34613.67
631.332	34667.22
631.687	34707.45
632.041	34674.46
632.396	34820.21
632.75	34679.65
633.104	34729.6
633.459	34573.67
633.813	34777.5
634.167	34627.9
634.521	34676.26
634.875	34784.06
635.229	34822.7
635.583	34671.97
635.937	34815.47
636.291	34661.35
636.645	34699.09
636.999	34751.52
637.352	34832.19
637.706	34683.04
638.06	34833.1
638.413	34893.21
638.767	34732.08
639.121	34772.76
639.474	34654.57
639.828	34686.66
640.181	34736.37
640.534	34739.09
640.888	34708.13
641.241	34667.22
641.594	34812.3
641.947	34875.81
642.301	34631.74
642.654	34725.08
643.007	34669.26
643.36	34769.37
643.713	34722.36
644.066	34817.05
644.419	34549.04
644.771	34374.35
645.124	34210.06
645.477	33940.92
645.83	33940.46
646.182	33767.59
646.535	33695.5
646.888	33719.45
647.24	33655.95
647.593	33762.39
647.945	33580.25
648.298	33588.61
648.65	33582.05
649.002	33547.48
649.355	33619.34
649.707	33583.64
650.059	33754.25
650.411	34116.5
650.763	34121.02
651.115	34400.11
651.467	34367.34
651.819	34344.29
652.171	34363.05
652.523	34313.56
652.875	34244.86
653.227	34257.29
653.578	34387.68
653.93	34344.29
654.282	34189.27
654.633	34124.19
654.985	34142.72
655.337	34275.6
655.688	34214.58
656.039	34339.78
656.391	34044.19
656.742	34049.84
657.094	34041.03
657.445	34212.09
657.796	34191.76
658.147	33964.64
658.498	34140.91
658.849	34008.48
659.2	33991.31
659.551	33928.03
659.902	34104.75
660.253	34000.8
660.604	34107.92
660.955	34044.64
661.306	33896.85
661.656	33933.01
662.007	33982.04
662.358	33895.49
662.708	33921.71
663.059	33964.64
663.409	33796.06
663.76	34023.4
664.11	33980.01
664.461	34098.65
664.811	34019.78
665.161	33928.26
665.511	33916.28
665.862	33940.69
666.212	34104.53
666.562	34066.56
666.912	34002.16
667.262	33888.71
667.612	33842.61
667.962	33976.85
668.312	33809.17
668.662	33980.91
669.011	34036.51
669.361	33853.01
669.711	33823.86
670.06	33718.77
670.41	33730.98
670.76	33747.02
671.109	33844.87
671.459	33825.44
671.808	33717.42
672.157	33858.66
672.507	33550.19
672.856	33716.29
673.205	33817.08
673.554	33759
673.904	33602.17
674.253	33780.02
674.602	33751.77
674.951	33274.72
675.3	33178.45
675.649	33704.76
675.998	33511.32
676.346	33564.2
676.695	33678.1
677.044	33437.2
677.393	33491.21
677.741	33619.34
678.09	33538.89
678.438	33423.64
678.787	33513.58
679.135	33482.85
679.484	33205.12
679.832	33395.85
680.181	33199.47
680.529	33325.79
680.877	33194.49
681.225	33170.54
681.573	33342.06
681.922	33000.15
682.27	32982.52
682.618	32975.07
682.966	32968.51
683.314	32945.91
683.661	32993.14
684.009	32693.94
684.357	32663.43
684.705	32737.56
685.053	32658.69
685.4	32681.06
685.748	32465.02
686.095	32483.33
686.443	32464.12
686.79	32376.89
687.138	32470.22
687.485	32419.6
687.832	32293.73
688.18	32258.47
688.527	32126.27
688.874	32235.42
689.221	32066.39
689.568	32033.4
689.915	31928.99
690.262	31973.74
690.609	31772.16
690.956	31682.67
691.303	31689.9
691.65	31550.02
691.997	31580.07
692.344	31343.02
692.69	31399.74
693.037	31417.82
693.383	31082.46
693.73	31278.16
694.077	31184.6
694.423	30969.47
694.769	30870.49
695.116	30945.74
695.462	30873.65
695.808	30636.14
696.155	30848.79
696.501	30598.4
696.847	30611.51
697.193	30473.44
697.539	30423.95
697.885	30341.69
698.231	30268.02
698.577	30189.83
698.923	30115.25
699.269	30002.04
699.614	29857.18
699.96	29717.75
700.306	29796.84
700.651	29684.08
700.997	29621.48
701.342	29447.7
701.688	29508.26
702.033	29467.59
702.379	29349.62
702.724	29389.17
703.069	29343.75
703.415	29084.55
703.76	29103.08
704.105	29126.8
704.45	29000.48
704.795	28713.93
705.14	28769.3
705.485	28655.86
705.83	28666.93
706.175	28577.21
706.52	28639.59
706.865	28597.33
707.209	28382.87
707.554	28321.18
707.899	28349.88
708.243	28220.16
708.588	28212.93
708.932	28008.42
709.277	27990.56
709.621	27894.97
709.966	27873.5
710.31	27853.39
710.654	27609.1
710.998	27677.13
711.342	27693.62
711.687	27642.55
712.031	27456.79
712.375	27382.67
712.719	27394.87
713.063	27450.24
713.407	27469.45
713.75	27275.55
714.094	27172.05
714.438	27176.57
714.782	27285.05
715.125	27090.93
715.469	27149.68
715.812	26937.48
716.156	26871.72
716.499	26817.94
716.843	26847.99
717.186	26714.89
717.53	26895.68
717.873	26798.5
718.216	26781.78
718.559	26576.59
718.902	26449.59
719.246	26499.98
719.589	26410.27
719.932	26310.61
720.275	26404.62
720.617	26287.78
720.96	26138.41
721.303	26303.38
721.646	26207.33
721.989	25918.3
722.331	26100.9
722.674	25981.35
723.016	26025.19
723.359	26036.26
723.701	26020.9
724.044	25890.73
724.386	25637.18
724.729	25804.86
725.071	25761.47
725.413	25654.58
725.755	25768.7
726.097	25579.33
726.439	25455.94
726.782	25518.54
727.124	25499.33
727.465	25391.99
727.807	25432.44
728.149	25346.57
728.491	25335.72
728.833	25248.49
729.175	25156.29
729.516	25192.44
729.858	25172.11
730.199	25065.89
730.541	25035.84
730.882	25032
731.224	25013.69
731.565	24925.56
731.906	24909.97
732.248	24887.37
732.589	24810.53
732.93	24801.27
733.271	24749.52
733.612	24784.32
733.953	24862.74
734.294	24758.33
734.635	24609.41
734.976	24616.41
735.317	24425.23
735.658	24534.84
735.999	24465.91
736.339	24493.25
736.68	24653.7
737.021	24500.03
737.361	24309.3
737.702	24440.83
738.042	24374.61
738.383	24242.41
738.723	24268.85
739.063	24163.32
739.404	24317.44
739.744	24202.87
740.084	24084.45
740.424	24080.38
740.764	24111.34
741.104	24070.67
741.444	23971.23
741.784	23886.49
742.124	23954.06
742.464	23870.45
742.804	23869.09
743.143	23855.53
743.483	23842.42
743.823	23734.63
744.162	23757.91
744.502	23705.7
744.841	23643.56
745.181	23694.63
745.52	23521.75
745.86	23591.13
746.199	23624.35
746.538	23478.37
746.877	23519.72
747.216	23538.25
747.556	23372.61
747.895	23385.71
748.234	23320.63
748.573	23284.92
748.911	23287.64
749.25	23183.23
749.589	23035.21
749.928	23180.29
750.267	23150.69
750.605	23073.63
750.944	22999.96
751.283	22965.38
751.621	23082.67
751.96	22852.85
752.298	22890.81
752.636	22967.42
752.975	22698.05
753.313	22664.15
753.651	22875.9
753.989	22585.51
754.327	22562.46
754.666	22508.45
755.004	22506.41
755.342	22488.56
755.679	22442.01
756.017	22345.51
756.355	22405.63
756.693	22404.27
757.031	22390.03
757.368	22178.51
757.706	22159.3
758.044	22141.23
758.381	22062.13
758.719	21923.83
759.056	21984.39
759.394	21921.8
759.731	21782.82
760.068	21758.41
760.405	21691.29
760.743	21625.31
761.08	21639.32
