Data from hue_280_FLMS001491_00007.txt Node
Date: Tue Feb 07 15:54:44 GMT 2017
User: dcchb
Spectrometer: FLMS00149
Trigger mode: 0
Integration Time (sec): 2.000000E-2
Scans to average: 10
Electric dark correction enabled: true
Nonlinearity correction enabled: false
Boxcar width: 0
XAxis mode: Wavelengths
Number of Pixels in Spectrum: 2048
>>>>>Begin Spectral Data<<<<<
341.393	-2.27
341.776	-2.27
342.16	-2.27
342.543	-60.8
342.927	-78.2
343.31	-77.3
343.693	-61.03
344.077	-78.43
344.46	-70.07
344.843	-60.8
345.226	-42.27
345.61	-27.36
345.993	-12.22
346.376	-1.6
346.759	27.33
347.142	29.82
347.525	42.24
347.908	44.96
348.291	73.88
348.674	106.65
349.057	106.2
349.44	109.81
349.823	161.79
350.206	141.45
350.588	199.75
350.971	217.38
351.354	241.11
351.737	230.71
352.119	239.98
352.502	240.43
352.884	256.93
353.267	258.06
353.65	285.85
354.032	274.78
354.414	280.66
354.797	300.32
355.179	304.38
355.562	303.93
355.944	321.56
356.326	321.11
356.709	335.34
357.091	333.08
357.473	304.61
357.855	330.37
358.238	324.72
358.62	326.98
359.002	309.36
359.384	309.81
359.766	327.66
360.148	346.64
360.53	346.42
360.912	331.73
361.294	347.32
361.676	323.82
362.057	322.69
362.439	310.94
362.821	315.68
363.203	332.86
363.584	322.69
363.966	331.28
364.348	311.16
364.729	304.84
365.111	335.34
365.493	318.62
365.874	319.98
366.256	322.01
366.637	324.5
367.019	305.97
367.4	318.62
367.781	319.3
368.163	312.75
368.544	320.88
368.925	311.62
369.306	314.78
369.688	296.48
370.069	298.51
370.45	302.58
370.831	314.1
371.212	280.88
371.593	296.02
371.974	322.92
372.355	302.8
372.736	326.08
373.117	300.54
373.498	288.57
373.879	309.13
374.26	317.27
374.641	294.22
375.021	312.07
375.402	309.81
375.783	329.02
376.163	356.59
376.544	322.01
376.925	326.53
377.305	327.43
377.686	324.95
378.066	317.49
378.447	324.27
378.827	336.93
379.208	331.95
379.588	328.79
379.968	319.07
380.349	358.85
380.729	322.69
381.109	325.4
381.489	336.25
381.87	333.99
382.25	341.22
382.63	341.45
383.01	333.08
383.39	359.3
383.77	347.55
384.15	349.13
384.53	354.78
384.91	338.28
385.29	345.74
385.67	359.75
386.049	343.48
386.429	338.73
386.809	348.68
387.189	357.49
387.568	349.13
387.948	364.5
388.328	351.62
388.707	338.51
389.087	364.27
389.466	364.5
389.846	354.1
390.225	371.73
390.605	348.23
390.984	366.53
391.363	367.21
391.743	385.74
392.122	372.41
392.501	368.34
392.881	382.57
393.26	378.73
393.639	390.03
394.018	402.91
394.397	393.2
394.776	371.05
395.155	384.16
395.534	417.38
395.913	386.19
396.292	384.83
396.671	407.88
397.05	385.06
397.429	414.89
397.808	390.94
398.186	407.21
398.565	397.26
398.944	425.96
399.323	407.66
399.701	420.54
400.08	420.99
400.458	443.59
400.837	430.71
401.215	430.48
401.594	425.06
401.972	425.96
402.351	444.95
402.729	419.18
403.107	444.04
403.486	445.17
403.864	451.05
404.242	418.05
404.62	437.94
404.999	444.49
405.377	446.53
405.755	484.94
406.133	444.72
406.511	454.89
406.889	473.87
407.267	470.48
407.645	470.26
408.023	487.66
408.401	494.66
408.779	480.88
409.156	494.89
409.534	505.96
409.912	505.06
410.29	530.14
410.667	517.26
411.045	538.95
411.422	537.15
411.8	550.03
412.178	539.18
412.555	577.15
412.933	552.06
413.31	573.08
413.687	568.78
414.065	572.4
414.442	582.57
414.819	587.54
415.197	580.31
415.574	631.16
415.951	621.21
416.328	645.84
416.705	617.37
417.082	644.04
417.46	639.29
417.837	651.95
418.214	666.64
418.591	666.41
418.967	668.22
419.344	685.39
419.721	707.31
420.098	704.6
420.475	707.31
420.852	713.19
421.228	729.01
421.605	739.18
421.982	720.87
422.358	741.44
422.735	756.35
423.111	760.19
423.488	802.22
423.864	795.45
424.241	804.48
424.617	807.42
424.994	837.48
425.37	822.11
425.746	849.68
426.123	837.93
426.499	855.78
426.875	866.63
427.251	903.69
427.627	905.27
428.003	917.02
428.379	939.17
428.756	920.19
429.132	928.1
429.507	958.83
429.883	945.95
430.259	972.84
430.635	959.51
431.011	976.46
431.387	1027.53
431.763	1014.65
432.138	1030.47
432.514	1050.13
432.89	1049.45
433.265	1084.93
433.641	1090.35
434.016	1086.96
434.392	1109.34
434.767	1131.26
435.143	1133.52
435.518	1157.92
435.894	1166.96
436.269	1178.71
436.644	1206.73
437.02	1233.63
437.395	1211.25
437.77	1256
438.145	1248.54
438.52	1267.07
438.895	1283.12
439.271	1303.91
439.646	1306.84
440.021	1329.44
440.395	1331.48
440.77	1323.57
441.145	1365.15
441.52	1386.62
441.895	1366.05
442.27	1400.4
442.645	1422.1
443.019	1385.26
443.394	1406.28
443.769	1434.07
444.143	1444.24
444.518	1459.16
444.892	1466.84
445.267	1458.48
445.641	1485.82
446.016	1476.33
446.39	1510.68
446.764	1483.34
447.139	1495.31
447.513	1496.9
447.887	1531.47
448.262	1517.23
448.636	1541.41
449.01	1542.77
449.384	1568.98
449.758	1561.3
450.132	1595.65
450.506	1573.5
450.88	1604.46
451.254	1598.14
451.628	1637.23
452.002	1632.49
452.376	1636.1
452.75	1652.6
453.123	1636.1
453.497	1657.8
453.871	1686.5
454.244	1687.85
454.618	1707.51
454.992	1757.68
455.365	1733.05
455.739	1792.03
456.112	1811.01
456.486	1792.93
456.859	1775.31
457.232	1831.12
457.606	1823.67
457.979	1883.1
458.352	1900.73
458.725	1934.62
459.099	1919.48
459.472	1931.23
459.845	1939.6
460.218	1973.95
460.591	2003.32
460.964	1986.6
461.337	2023.66
461.71	2035.86
462.083	2080.16
462.456	2070.89
462.829	2096.88
463.201	2066.82
463.574	2089.2
463.947	2168.29
464.32	2180.95
464.692	2146.82
465.065	2232.92
465.438	2214.62
465.81	2251.9
466.183	2281.96
466.555	2288.97
466.928	2288.74
467.3	2302.3
467.672	2338
468.045	2406.93
468.417	2385.01
468.789	2368.74
469.161	2431.33
469.534	2452.12
469.906	2506.36
470.278	2478.34
470.65	2525.12
471.022	2579.13
471.394	2571.67
471.766	2625.91
472.138	2623.42
472.51	2688.28
472.882	2696.41
473.253	2750.42
473.625	2791.78
473.997	2834.26
474.369	2821.15
474.74	2821.61
475.112	2869.51
475.484	2939.34
475.855	2989.29
476.227	2965.33
476.598	3060.47
476.97	3054.14
477.341	3147.25
477.713	3160.13
478.084	3148.83
478.455	3226.34
478.827	3253.23
479.198	3326.23
479.569	3330.52
479.94	3397.64
480.311	3453.23
480.682	3476.73
481.053	3513.34
481.424	3532.77
481.795	3588.37
482.166	3655.71
482.537	3606.67
482.908	3742.49
483.279	3717.18
483.65	3791.52
484.021	3847.34
484.391	3887.57
484.762	3916.49
485.133	4002.14
485.503	4026.09
485.874	4057.73
486.244	4069.48
486.615	4175.47
486.985	4175.02
487.356	4234.45
487.726	4312.64
488.097	4309.48
488.467	4303.83
488.837	4399.87
489.207	4427.67
489.578	4475.12
489.948	4477.38
490.318	4596.25
490.688	4564.39
491.058	4631.5
491.428	4650.03
491.798	4723.25
492.168	4791.5
492.538	4754.44
492.908	4836.92
493.278	4877.15
493.648	4937.26
494.017	4940.87
494.387	4933.42
494.757	5028.55
495.126	5007.31
495.496	5051.38
495.866	5093.64
496.235	5094.54
496.605	5143.81
496.974	5188.32
497.344	5207.98
497.713	5253.86
498.082	5254.99
498.452	5255.67
498.821	5332.28
499.19	5313.52
499.559	5369.11
499.928	5362.56
500.298	5418.37
500.667	5450.46
501.036	5426.74
501.405	5477.36
501.774	5478.71
502.143	5589.22
502.512	5555.09
502.88	5626.28
503.249	5574.3
503.618	5634.87
503.987	5672.83
504.356	5681.87
504.724	5619.73
505.093	5655.88
505.462	5678.25
505.83	5717.8
506.199	5767.52
506.567	5810
506.936	5817.69
507.304	5834.86
507.672	5855.88
508.041	5849.55
508.409	5892.94
508.777	5924.58
509.145	5941.3
509.514	5933.84
509.882	6017.91
510.25	5983.11
510.618	6023.1
510.986	6016.55
511.354	6047.06
511.722	6042.76
512.09	6094.51
512.458	6109.43
512.826	6190.11
513.193	6226.26
513.561	6155.53
513.929	6183.1
514.297	6217.9
514.664	6250.67
515.032	6251.35
515.4	6232.82
515.767	6300.39
516.135	6321.18
516.502	6280.05
516.869	6346.26
517.237	6382.87
517.604	6319.82
517.972	6420.61
518.339	6412.47
518.706	6447.73
519.073	6483.66
519.44	6432.81
519.808	6494.73
520.175	6488.4
520.542	6549.64
520.909	6588.51
521.276	6553.94
521.643	6554.62
522.009	6644.33
522.376	6654.27
522.743	6652.92
523.11	6725.46
523.477	6708.28
523.843	6768.4
524.21	6763.2
524.577	6819.24
524.943	6866.7
525.31	6862.18
525.676	6963.64
526.043	6961.61
526.409	6907.83
526.776	7051.78
527.142	6988.28
527.508	7120.48
527.874	7060.82
528.241	7086.81
528.607	7190.76
528.973	7156.41
529.339	7173.81
529.705	7208.16
530.071	7243.19
530.437	7287.25
530.803	7296.52
531.169	7326.35
531.535	7272.56
531.901	7351.66
532.267	7343.07
532.632	7417.64
532.998	7459.22
533.364	7482.5
533.73	7471.43
534.095	7560.24
534.461	7545.32
534.826	7538.54
535.192	7579.67
535.557	7646.79
535.923	7561.59
536.288	7601.37
536.653	7616.96
537.019	7580.8
537.384	7689.28
537.749	7636.4
538.114	7692.66
538.479	7599.56
538.845	7774.7
539.21	7671.87
539.575	7708.71
539.94	7784.87
540.305	7866.22
540.67	7836.84
541.034	7811.08
541.399	7842.94
541.764	7807.46
542.129	7833
542.494	7827.8
542.858	7892.21
543.223	7919.1
543.587	7898.54
543.952	7883.39
544.316	7987.8
544.681	7939.89
545.045	7993
545.41	8016.95
545.774	8053.79
546.138	8001.13
546.503	8069.83
546.867	8056.05
547.231	8114.8
547.595	8098.3
547.959	8149.83
548.324	8127
548.688	8142.6
549.052	8098.08
549.416	8220.33
549.779	8144.18
550.143	8203.16
550.507	8239.77
550.871	8241.13
551.235	8204.97
551.599	8312.54
551.962	8283.16
552.326	8306.89
552.689	8343.72
553.053	8303.04
553.417	8339.2
553.78	8420.33
554.143	8373.33
554.507	8376.04
554.87	8395.47
555.234	8470.27
555.597	8384.17
555.96	8472.98
556.323	8480.44
556.686	8508.46
557.05	8595.92
557.413	8532.64
557.776	8564.73
558.139	8631.62
558.502	8600.21
558.865	8602.7
559.228	8665.29
559.59	8685.18
559.953	8692.41
560.316	8756.37
560.679	8776.48
561.041	8813.99
561.404	8844.05
561.767	8915.46
562.129	8850.83
562.492	8941.22
562.854	8880.43
563.217	8921.33
563.579	8866.42
563.941	8990.48
564.304	9042.46
564.666	9077.49
565.028	9031.39
565.39	9125.62
565.753	9181.67
566.115	9152.97
566.477	9210.14
566.839	9219.4
567.201	9306.86
567.563	9309.35
567.925	9337.59
568.287	9334.88
568.648	9330.14
569.01	9446.74
569.372	9459.85
569.734	9409.91
570.095	9512.5
570.457	9591.37
570.819	9626.85
571.18	9592.73
571.542	9633.63
571.903	9718.15
572.265	9737.81
572.626	9683.57
572.987	9796.79
573.349	9750.01
573.71	9833.4
574.071	9895.54
574.432	9881.08
574.794	10013.28
575.155	9932.83
575.516	9983.9
575.877	10026.84
576.238	10050.12
576.599	10109.78
576.96	10166.5
577.32	10171.02
577.681	10223.9
578.042	10277.68
578.403	10269.77
578.763	10362.43
579.124	10424.57
579.485	10469.32
579.845	10486.72
580.206	10545.47
580.566	10563.78
580.927	10615.53
581.287	10634.51
581.648	10611.23
582.008	10701.63
582.368	10770.55
582.728	10851.45
583.089	10872.47
583.449	10982.75
583.809	10956.76
584.169	11033.82
584.529	11006.25
584.889	11271.33
585.249	11237.66
585.609	11205.11
585.969	11291.67
586.329	11347.48
586.688	11428.39
587.048	11505.45
587.408	11597.42
587.768	11614.37
588.127	11635.84
588.487	11709.28
588.846	11839.45
589.206	11768.49
589.565	11909.5
589.925	12015.04
590.284	12082.61
590.643	12226.11
591.003	12170.74
591.362	12325.09
591.721	12331.19
592.08	12389.49
592.44	12507.91
592.799	12551.75
593.158	12642.59
593.517	12587
593.876	12749.71
594.235	12754.68
594.593	12850.95
594.952	12906.99
595.311	12978.85
595.67	13033.32
596.029	13136.82
596.387	13177.94
596.746	13190.83
597.104	13324.38
597.463	13337.71
597.822	13406.19
598.18	13390.14
598.538	13434.66
598.897	13564.37
599.255	13525.96
599.613	13775.89
599.972	13662.23
600.33	13867.64
600.688	13769.79
601.046	13874.65
601.404	13971.37
601.762	14017.47
602.12	14012.05
602.478	14078.49
602.836	14134.08
603.194	14084.81
603.552	14225.6
603.91	14248.65
604.268	14257.24
604.625	14287.52
604.983	14374.98
605.341	14397.8
605.698	14478.7
606.056	14498.14
606.413	14546.04
606.771	14570.68
607.128	14648.64
607.485	14538.59
607.843	14676.21
608.2	14740.16
608.557	14727.73
608.914	14833.72
609.272	14891.8
609.629	14861.74
609.986	14970.67
610.343	14968.41
610.7	15109.42
611.057	15018.12
611.414	14976.32
611.771	15158.46
612.127	15135.86
612.484	15171.79
612.841	15213.6
613.198	15117.55
613.554	15177.21
613.911	15356.87
614.267	15380.6
614.624	15291.79
614.98	15309.19
615.337	15484.32
615.693	15461.73
616.05	15475.74
616.406	15557.99
616.762	15417.43
617.118	15499.69
617.475	15566.13
617.831	15561.38
618.187	15568.39
618.543	15708.73
618.899	15717.76
619.255	15663.75
619.611	15724.77
619.967	15793.02
620.323	15762.28
620.678	15689.29
621.034	15684.09
621.39	15684.32
621.746	15743.07
622.101	15846.57
622.457	15732.45
622.812	15799.8
623.168	15872.56
623.523	15847.93
623.879	15932.67
624.234	15826.24
624.589	15893.58
624.945	15899.91
625.3	15902.62
625.655	15948.49
626.01	15959.11
626.365	15892.45
626.72	15975.84
627.075	15964.54
627.43	15955.72
627.785	15873.01
628.14	15963.18
628.495	16025.78
628.85	15964.54
629.205	15944.43
629.559	15992.56
629.914	15911.88
630.269	15920.02
630.623	15866.69
630.978	15851.32
631.332	15859
631.687	15890.42
632.041	15834.6
632.396	15881.83
632.75	15764.54
633.104	15824.88
633.459	15765
633.813	15725.45
634.167	15792.56
634.521	15721.15
634.875	15780.59
635.229	15746.69
635.583	15598.67
635.937	15566.36
636.291	15751.21
636.645	15723.87
636.999	15623.53
637.352	15622.17
637.706	15611.33
638.06	15622.4
638.413	15648.39
638.767	15583.98
639.121	15550.54
639.474	15484.32
639.828	15532.01
640.181	15467.6
640.534	15521.39
640.888	15530.42
641.241	15516.87
641.594	15377.66
641.947	15472.57
642.301	15479.13
642.654	15493.59
643.007	15473.48
643.36	15494.04
643.713	15422.18
644.066	15440.26
644.419	15389.19
644.771	15313.03
645.124	15201.85
645.477	15174.5
645.83	15037.33
646.182	14931.34
646.535	15012.02
646.888	14949.88
647.24	14875.75
647.593	15031.23
647.945	14929.31
648.298	14784.91
648.65	14935.19
649.002	14837.34
649.355	14850.44
649.707	14950.78
650.059	15008.86
650.411	15137.21
650.763	15147.38
651.115	15396.42
651.467	15338.11
651.819	15220.83
652.171	15230.09
652.523	15324.78
652.875	15281.39
653.227	15195.29
653.578	15262.64
653.93	15318.91
654.282	15137.21
654.633	15187.84
654.985	15279.36
655.337	15194.16
655.688	15190.09
656.039	15307.38
656.391	15205.01
656.742	15293.6
657.094	15254.95
657.445	15243.88
657.796	15246.14
658.147	15189.64
658.498	15311
658.849	15259.25
659.2	15374.5
659.551	15289.53
659.902	15264.44
660.253	15379.47
660.604	15244.56
660.955	15205.69
661.306	15317.55
661.656	15311
662.007	15347.83
662.358	15384.44
662.708	15357.77
663.059	15325.91
663.409	15345.8
663.76	15376.08
664.11	15361.16
664.461	15435.74
664.811	15442.97
665.161	15362.52
665.511	15374.27
665.862	15420.6
666.212	15371.79
666.562	15470.54
666.912	15360.26
667.262	15440.03
667.612	15415.17
667.962	15268.96
668.312	15265.12
668.662	15408.62
669.011	15328.17
669.361	15320.04
669.711	15401.61
670.06	15256.76
670.41	15266.03
670.76	15286.36
671.109	15336.98
671.459	15272.8
671.808	15234.61
672.157	15258.57
672.507	15116.65
672.856	15224.22
673.205	15194.84
673.554	15255.63
673.904	15230.77
674.253	15257.66
674.602	15294.95
674.951	15044.79
675.3	14998.01
675.649	15158.23
675.998	15127.05
676.346	15180.6
676.695	15153.71
677.044	15036.43
677.393	15067.16
677.741	15091.79
678.09	15091.57
678.438	15010.89
678.787	15017.44
679.135	15075.52
679.484	14990.33
679.832	15043.21
680.181	14920.72
680.529	14910.55
680.877	14889.76
681.225	14919.37
681.573	14925.7
681.922	14794.85
682.27	14761.41
682.618	14740.84
682.966	14753.5
683.314	14801.4
683.661	14751.01
684.009	14587.4
684.357	14617.23
684.705	14563.67
685.053	14626.72
685.4	14604.12
685.748	14504.69
686.095	14466.95
686.443	14419.49
686.79	14456.55
687.138	14374.75
687.485	14407.06
687.832	14295.2
688.18	14373.39
688.527	14273.51
688.874	14279.16
689.221	14138.82
689.568	14185.6
689.915	14116.22
690.262	14008.88
690.609	14006.85
690.956	13923.24
691.303	13915.55
691.65	13864.03
691.997	13895.67
692.344	13734.77
692.69	13809.11
693.037	13709.68
693.383	13620.87
693.73	13721.21
694.077	13551.72
694.423	13548.56
694.769	13492.29
695.116	13502.46
695.462	13478.73
695.808	13408.67
696.155	13449.12
696.501	13329.8
696.847	13298.39
697.193	13210.49
697.539	13283.25
697.885	13072.18
698.231	13062.69
698.577	13126.19
698.923	13111.05
699.269	12901.57
699.614	12887.56
699.96	12859.53
700.306	12793.32
700.651	12768.01
700.997	12708.13
701.342	12679.43
701.688	12747.22
702.033	12630.84
702.379	12696.15
702.724	12555.81
703.069	12614.34
703.415	12358.3
703.76	12448.25
704.105	12366.21
704.45	12450.51
704.795	12278.31
705.14	12267.91
705.485	12208.03
705.83	12134.58
706.175	12157.41
706.52	12138.2
706.865	12120.35
707.209	12055.04
707.554	12049.39
707.899	11978.88
708.243	11879
708.588	11877.41
708.932	11839
709.277	11841.71
709.621	11876.96
709.966	11724.65
710.31	11754.25
710.654	11649.85
710.998	11690.53
711.342	11680.36
711.687	11595.84
712.031	11589.96
712.375	11457.54
712.719	11515.62
713.063	11483.98
713.407	11558.78
713.75	11517.88
714.094	11520.59
714.438	11445.56
714.782	11361.04
715.125	11380.48
715.469	11305.68
715.812	11266.13
716.156	11267.49
716.499	11299.58
716.843	11281.95
717.186	11230.2
717.53	11303.42
717.873	11232.23
718.216	11289.63
718.559	11120.15
718.902	11083.54
719.246	11163.08
719.589	11041.5
719.932	11042.18
720.275	11008.06
720.617	10980.04
720.96	10998.34
721.303	11062.52
721.646	11075.63
721.989	10926.25
722.331	11036.31
722.674	10952.69
723.016	10972.35
723.359	10943.2
723.701	10946.82
724.044	10855.29
724.386	10877.67
724.729	10905.46
725.071	10864.33
725.413	10868.63
725.755	10838.12
726.097	10877.89
726.439	10813.94
726.782	10761.51
727.124	10834.73
727.465	10695.75
727.807	10838.8
728.149	10765.13
728.491	10764.67
728.833	10786.14
729.175	10753.6
729.516	10702.53
729.858	10785.92
730.199	10725.81
730.541	10724
730.882	10747.5
731.224	10793.6
731.565	10672.93
731.906	10706.82
732.248	10768.97
732.589	10677.45
732.93	10686.94
733.271	10641.74
733.612	10721.29
733.953	10730.78
734.294	10754.51
734.635	10671.34
734.976	10722.87
735.317	10658.46
735.658	10612.36
735.999	10699.82
736.339	10673.6
736.68	10726.48
737.021	10639.25
737.361	10626.6
737.702	10706.6
738.042	10709.31
738.383	10677.45
738.723	10730.33
739.063	10712.25
739.404	10721.74
739.744	10729.2
740.084	10728.07
740.424	10728.52
740.764	10749.08
741.104	10828.4
741.444	10729.87
741.784	10780.72
742.124	10858.01
742.464	10825.46
742.804	10883.77
743.143	10858.91
743.483	10914.73
743.823	10953.82
744.162	10922.64
744.502	10918.79
744.841	10934.16
745.181	11002.41
745.52	11032.69
745.86	11083.54
746.199	11120.6
746.538	11127.38
746.877	11204.44
747.216	11239.01
747.556	11256.41
747.895	11359.91
748.234	11377.99
748.573	11350.42
748.911	11479.23
749.25	11554.26
749.589	11556.29
749.928	11622.73
750.267	11791.09
750.605	11751.77
750.944	11881.26
751.283	11904.53
751.621	12017.07
751.96	12095.26
752.298	12206.67
752.636	12311.07
752.975	12271.08
753.313	12423.61
753.651	12601.24
753.989	12677.17
754.327	12790.16
754.666	12895.24
755.004	13096.14
755.342	13181.79
755.679	13233.54
756.017	13262.69
756.355	13560.53
756.693	13573.64
757.031	13807.98
757.368	13879.39
757.706	14041.88
758.044	14182.66
758.381	14285.94
758.719	14424.69
759.056	14645.7
759.394	14685.7
