Data from hue_140_FLMS001491_00095.txt Node
Date: Tue Feb 07 16:56:41 GMT 2017
User: dcchb
Spectrometer: FLMS00149
Trigger mode: 0
Integration Time (sec): 2.000000E-2
Scans to average: 10
Electric dark correction enabled: true
Nonlinearity correction enabled: false
Boxcar width: 0
XAxis mode: Wavelengths
Number of Pixels in Spectrum: 2048
>>>>>Begin Spectral Data<<<<<
341.393	-12.44
341.776	-12.44
342.16	-12.44
342.543	-62.16
342.927	-63.52
343.31	-47.24
343.693	-82.05
344.077	-81.37
344.46	-63.52
344.843	-48.83
345.226	-45.66
345.61	-41.14
345.993	-24.42
346.376	0.44
346.759	2.25
347.142	22.81
347.525	56.48
347.908	60.1
348.291	71.17
348.674	96.93
349.057	124.05
349.44	118.85
349.823	139.19
350.206	166.54
350.588	191.17
350.971	200.88
351.354	231.17
351.737	195.69
352.119	237.95
352.502	264.84
352.884	267.78
353.267	262.13
353.65	298.51
354.032	293.76
354.414	308.9
354.797	297.61
355.179	333.31
355.562	316.36
355.944	304.84
356.326	328.79
356.709	320.66
357.091	352.52
357.473	336.25
357.855	333.54
358.238	346.64
358.62	346.87
359.002	331.95
359.384	327.66
359.766	321.11
360.148	335.12
360.53	317.04
360.912	330.82
361.294	345.29
361.676	327.21
362.057	324.5
362.439	325.85
362.821	329.47
363.203	328.34
363.584	321.33
363.966	320.88
364.348	340.09
364.729	304.84
365.111	315.91
365.493	323.59
365.874	325.85
366.256	310.94
366.637	311.62
367.019	310.49
367.4	300.09
367.781	308
368.163	317.04
368.544	331.05
368.925	304.61
369.306	314.1
369.688	305.51
370.069	301.45
370.45	308
370.831	311.62
371.212	318.85
371.593	291.5
371.974	298.51
372.355	308.45
372.736	296.7
373.117	307.32
373.498	317.94
373.879	319.53
374.26	311.39
374.641	312.52
375.021	310.03
375.402	314.78
375.783	333.76
376.163	339.19
376.544	297.83
376.925	341.22
377.305	326.3
377.686	319.07
378.066	342.12
378.447	327.43
378.827	339.86
379.208	322.24
379.588	329.92
379.968	327.66
380.349	327.43
380.729	332.86
381.109	302.35
381.489	342.58
381.87	322.46
382.25	339.41
382.63	351.39
383.01	354.1
383.39	328.34
383.77	326.76
384.15	291.73
384.53	355.68
384.91	360.65
385.29	352.97
385.67	334.44
386.049	359.98
386.429	358.62
386.809	362.01
387.189	345.06
387.568	358.62
387.948	347.55
388.328	355
388.707	371.95
389.087	375.12
389.466	362.69
389.846	364.72
390.225	364.5
390.605	354.1
390.984	363.82
391.363	364.95
391.743	365.63
392.122	374.67
392.501	394.78
392.881	364.72
393.26	357.26
393.639	370.6
394.018	372.63
394.397	390.03
394.776	362.46
395.155	376.7
395.534	388
395.913	367.21
396.292	415.12
396.671	409.24
397.05	393.65
397.429	383.48
397.808	384.38
398.186	385.74
398.565	372.41
398.944	392.07
399.323	389.81
399.701	388.45
400.08	413.53
400.458	388.9
400.837	396.59
401.215	394.78
401.594	407.21
401.972	393.2
402.351	411.27
402.729	386.42
403.107	402.01
403.486	417.38
403.864	412.18
404.242	413.53
404.62	429.58
404.999	399.3
405.377	410.82
405.755	424.61
406.133	438.62
406.511	428.9
406.889	428
407.267	432.29
407.645	430.93
408.023	451.5
408.401	432.97
408.779	444.49
409.156	437.71
409.534	446.98
409.912	433.87
410.29	447.43
410.667	457.37
411.045	449.47
411.422	465.96
411.8	460.54
412.178	463.48
412.555	472.74
412.933	474.78
413.31	493.08
413.687	510.48
414.065	505.06
414.442	480.65
414.819	491.5
415.197	509.35
415.574	496.47
415.951	494.89
416.328	515.45
416.705	521.55
417.082	518.16
417.46	522.91
417.837	534.44
418.214	537.82
418.591	512.51
418.967	527.66
419.344	522.46
419.721	536.24
420.098	510.03
420.475	560.2
420.852	503.25
421.228	546.41
421.605	551.38
421.982	546.86
422.358	556.13
422.735	528.79
423.111	567.88
423.488	557.26
423.864	557.94
424.241	572.17
424.617	578.5
424.994	564.04
425.37	572.63
425.746	581.21
426.123	593.87
426.499	577.6
426.875	600.87
427.251	574.66
427.627	604.49
428.003	588.9
428.379	610.82
428.756	602
429.132	621.66
429.507	635.9
429.883	630.93
430.259	650.82
430.635	637.26
431.011	655.56
431.387	654.88
431.763	650.36
432.138	695.56
432.514	678.84
432.89	692.17
433.265	679.29
433.641	683.13
434.016	676.8
434.392	715.67
434.767	721.1
435.143	710.48
435.518	713.64
435.894	726.75
436.269	738.05
436.644	707.09
437.02	728.1
437.395	728.1
437.77	742.11
438.145	729.23
438.52	760.19
438.895	773.52
439.271	771.94
439.646	773.07
440.021	779.85
440.395	775.11
440.77	784.37
441.145	804.48
441.52	804.71
441.895	789.12
442.27	821.43
442.645	790.47
443.019	809.23
443.394	823.92
443.769	854.2
444.143	845.16
444.518	845.84
444.892	846.97
445.267	852.62
445.641	844.48
446.016	847.42
446.39	849.23
446.764	872.51
447.139	879.96
447.513	876.35
447.887	874.09
448.262	880.19
448.636	883.8
449.01	893.3
449.384	895.78
449.758	895.33
450.132	941.43
450.506	916.12
450.88	942.79
451.254	947.76
451.628	932.39
452.002	998.6
452.376	959.51
452.75	974.42
453.123	999.51
453.497	1003.35
453.871	980.98
454.244	1019.85
454.618	1006.97
454.992	1030.24
455.365	1038.38
455.739	1062.33
456.112	1049
456.486	1058.04
456.859	1077.02
457.232	1117.7
457.606	1092.84
457.979	1113.63
458.352	1147.07
458.725	1145.94
459.099	1157.7
459.472	1187.07
459.845	1206.06
460.218	1229.33
460.591	1199.28
460.964	1230.91
461.337	1241.31
461.71	1234.08
462.083	1248.31
462.456	1248.09
462.829	1288.31
463.201	1300.52
463.574	1281.53
463.947	1341.87
464.32	1382.1
464.692	1375.32
465.065	1408.31
465.438	1418.93
465.81	1453.73
466.183	1464.58
466.555	1445.6
466.928	1503.68
467.3	1524.01
467.672	1525.37
468.045	1564.01
468.417	1605.37
468.789	1604.69
469.161	1620.51
469.534	1688.98
469.906	1691.92
470.278	1725.14
470.65	1778.7
471.022	1766.49
471.394	1825.02
471.766	1808.98
472.138	1875.64
472.51	1919.94
472.882	1964.23
473.253	1989.31
473.625	2035.19
473.997	2056.88
474.369	2102.08
474.74	2129.87
475.112	2232.7
475.484	2252.13
475.855	2306.37
476.227	2369.64
476.598	2442.63
476.97	2443.31
477.341	2545.68
477.713	2586.36
478.084	2626.58
478.455	2715.39
478.827	2787.71
479.198	2861.61
479.569	2956.07
479.94	3050.53
480.311	3072.9
480.682	3196.96
481.053	3282.61
481.424	3368.48
481.795	3482.61
482.166	3534.13
482.537	3622.04
482.908	3713.33
483.279	3857.74
483.65	3925.08
484.021	4054.57
484.391	4146.54
484.762	4237.16
485.133	4317.84
485.503	4437.84
485.874	4556.02
486.244	4658.85
486.615	4803.48
486.985	4912.4
487.356	5009.35
487.726	5145.16
488.097	5307.42
488.467	5347.64
488.837	5544.47
489.207	5666.73
489.578	5806.16
489.948	5925.93
490.318	6077.11
490.688	6238.24
491.058	6322.08
491.428	6477.33
491.798	6542.64
492.168	6758.45
492.538	6829.86
492.908	6968.84
493.278	7131.55
493.648	7230.08
494.017	7316.4
494.387	7449.73
494.757	7603.63
495.126	7833.45
495.496	7847.92
495.866	7984.63
496.235	8106.21
496.605	8228.47
496.974	8351.86
497.344	8429.37
497.713	8557.05
498.082	8696.93
498.452	8789.13
498.821	8920.2
499.19	8957.94
499.559	9162.23
499.928	9223.7
500.298	9256.24
500.667	9461.66
501.036	9486.52
501.405	9630.02
501.774	9642.22
502.143	9790.24
502.512	9858.03
502.88	10005.15
503.249	9932.61
503.618	10109.78
503.987	10159.49
504.356	10302.54
504.724	10353.39
505.093	10418.24
505.462	10479.48
505.83	10575.75
506.199	10646.49
506.567	10813.03
506.936	10795.63
507.304	10946.59
507.672	11013.03
508.041	11093.48
508.409	11123.99
508.777	11256.19
509.145	11334.83
509.514	11379.8
509.882	11436.07
510.25	11415.5
510.618	11470.42
510.986	11479.68
511.354	11656.85
511.722	11711.09
512.09	11844.19
512.458	11769.62
512.826	11912.22
513.193	11979.33
513.561	11833.35
513.929	11991.76
514.297	12123.73
514.664	12162.15
515.032	12147.46
515.4	12298.65
515.767	12260.91
516.135	12373.22
516.502	12226.11
516.869	12423.84
517.237	12450.51
517.604	12389.94
517.972	12528.7
518.339	12627.9
518.706	12587.23
519.073	12556.49
519.44	12651.63
519.808	12743.15
520.175	12639.2
520.542	12752.19
520.909	12816.15
521.276	12798.07
521.643	12827.9
522.009	12899.76
522.376	12934.79
522.743	12984.05
523.11	13049.13
523.477	13067.89
523.843	13127.78
524.21	13241.22
524.577	13290.48
524.943	13214.55
525.31	13242.35
525.676	13320.31
526.043	13416.36
526.409	13386.75
526.776	13451.84
527.142	13439.63
527.508	13358.73
527.874	13399.18
528.241	13583.58
528.607	13468.11
528.973	13492.96
529.339	13447.77
529.705	13558.95
530.071	13575.45
530.437	13602.79
530.803	13592.4
531.169	13629.91
531.535	13555.34
531.901	13560.53
532.267	13605.73
532.632	13491.16
532.998	13585.84
533.364	13572.96
533.73	13558.73
534.095	13575.22
534.461	13544.04
534.826	13589.01
535.192	13522.34
535.557	13579.06
535.923	13508.33
536.288	13462.23
536.653	13538.84
537.019	13447.32
537.384	13439.63
537.749	13466.07
538.114	13465.85
538.479	13313.76
538.845	13328.22
539.21	13334.32
539.575	13277.6
539.94	13191.96
540.305	13257.04
540.67	13218.85
541.034	13170.49
541.399	13243.48
541.764	13208.68
542.129	13239.86
542.494	13045.29
542.858	13079.19
543.223	13053.88
543.587	13096.14
543.952	12935.69
544.316	12890.72
544.681	12895.24
545.045	12888.01
545.41	13015.46
545.774	12832.87
546.138	12743.38
546.503	12750.84
546.867	12708.13
547.231	12738.86
547.595	12687.34
547.959	12693.44
548.324	12618.64
548.688	12621.35
549.052	12579.54
549.416	12601.01
549.779	12526.21
550.143	12495.48
550.507	12497.74
550.871	12501.35
551.235	12401.47
551.599	12500.9
551.962	12386.55
552.326	12429.72
552.689	12472.88
553.053	12390.62
553.417	12272.43
553.78	12369.15
554.143	12304.52
554.507	12234.24
554.87	12232.21
555.234	12309.49
555.597	12184.52
555.96	12218.87
556.323	12137.75
556.686	12152.66
557.05	12242.6
557.413	12221.81
557.776	12192.66
558.139	12172.1
558.502	12137.97
558.865	12132.77
559.228	12181.59
559.59	12155.37
559.953	12120.12
560.316	12230.62
560.679	12113.79
561.041	12204.64
561.404	12206.9
561.767	12303.39
562.129	12099.55
562.492	12255.48
562.854	12198.31
563.217	12105.2
563.579	12171.64
563.941	12199.89
564.304	12248.93
564.666	12141.14
565.028	12189.95
565.39	12256.16
565.753	12241.92
566.115	12258.42
566.477	12281.24
566.839	12251.42
567.201	12312.2
567.563	12305.2
567.925	12326.22
568.287	12363.5
568.648	12314.92
569.01	12353.79
569.372	12421.35
569.734	12365.76
570.095	12490.5
570.457	12387
570.819	12411.41
571.18	12387.46
571.542	12451.18
571.903	12439.43
572.265	12523.72
572.626	12528.02
572.987	12471.3
573.349	12419.77
573.71	12519.66
574.071	12503.61
574.432	12528.92
574.794	12563.5
575.155	12572.99
575.516	12464.06
575.877	12596.72
576.238	12595.36
576.599	12646.43
576.96	12615.47
577.32	12543.16
577.681	12574.12
578.042	12638.3
578.403	12597.39
578.763	12581.12
579.124	12602.82
579.485	12616.38
579.845	12632.65
580.206	12572.76
580.566	12587.9
580.927	12608.47
581.287	12592.88
581.648	12604.4
582.008	12720.1
582.368	12584.51
582.728	12534.12
583.089	12579.54
583.449	12599.43
583.809	12550.62
584.169	12543.38
584.529	12561.92
584.889	12709.26
585.249	12523.95
585.609	12579.32
585.969	12532.99
586.329	12594.68
586.688	12572.31
587.048	12517.17
587.408	12501.58
587.768	12454.12
588.127	12429.04
588.487	12470.39
588.846	12598.07
589.206	12345.88
589.565	12425.87
589.925	12467.23
590.284	12475.59
590.643	12448.47
591.003	12504.29
591.362	12537.74
591.721	12468.81
592.08	12492.09
592.44	12431.52
592.799	12454.57
593.158	12294.13
593.517	12307.01
593.876	12526.44
594.235	12297.97
594.593	12313.79
594.952	12266.1
595.311	12303.17
595.67	12252.77
596.029	12422.03
596.387	12357.85
596.746	12449.38
597.104	12317.63
597.463	12358.98
597.822	12370.28
598.18	12358.76
598.538	12248.48
598.897	12413.9
599.255	12279.89
599.613	12507.45
599.972	12401.69
600.33	12281.47
600.688	12340.9
601.046	12300.91
601.404	12397.4
601.762	12382.71
602.12	12423.16
602.478	12448.25
602.836	12396.72
603.194	12318.76
603.552	12305.88
603.91	12359.66
604.268	12280.57
604.625	12309.94
604.983	12385.42
605.341	12338.19
605.698	12300.91
606.056	12366.44
606.413	12421.35
606.771	12367.57
607.128	12420.45
607.485	12311.75
607.843	12295.48
608.2	12368.02
608.557	12460.22
608.914	12391.3
609.272	12380.23
609.629	12442.14
609.986	12467
610.343	12330.06
610.7	12534.57
611.057	12487.57
611.414	12484.4
611.771	12532.31
612.127	12495.48
612.484	12474.46
612.841	12563.05
613.198	12506.32
613.554	12540.9
613.911	12554.91
614.267	12598.75
614.624	12558.3
614.98	12618.41
615.337	12608.92
615.693	12542.48
616.05	12564.85
616.406	12625.19
616.762	12535.02
617.118	12621.8
617.475	12533.67
617.831	12645.53
618.187	12717.62
618.543	12696.6
618.899	12703.38
619.255	12668.58
619.611	12671.52
619.967	12695.25
620.323	12774.11
620.678	12685.08
621.034	12676.49
621.39	12639.88
621.746	12650.73
622.101	12745.41
622.457	12645.08
622.812	12655.02
623.168	12683.49
623.523	12710.39
623.879	12893.21
624.234	12752.42
624.589	12694.79
624.945	12677.84
625.3	12778.41
625.655	12703.83
626.01	12764.62
626.365	12679.43
626.72	12692.76
627.075	12644.17
627.43	12749.03
627.785	12712.19
628.14	12657.73
628.495	12657.96
628.85	12650.5
629.205	12638.52
629.559	12712.19
629.914	12622.93
630.269	12640.11
630.623	12600.33
630.978	12553.1
631.332	12603.5
631.687	12593.78
632.041	12528.47
632.396	12568.24
632.75	12515.81
633.104	12583.61
633.459	12502.03
633.813	12496.15
634.167	12562.59
634.521	12455.25
634.875	12419.09
635.229	12435.59
635.583	12421.13
635.937	12464.97
636.291	12384.29
636.645	12393.78
636.999	12371.64
637.352	12380
637.706	12333.9
638.06	12331.41
638.413	12281.7
638.767	12270.4
639.121	12323.05
639.474	12204.86
639.828	12264.97
640.181	12184.75
640.534	12230.17
640.888	12171.64
641.241	12090.97
641.594	12144.75
641.947	12241.47
642.301	12225.2
642.654	12212.55
643.007	12314.01
643.36	12209.38
643.713	12153.34
644.066	12220.68
644.419	12100.91
644.771	12075.15
645.124	11993.34
645.477	11915.15
645.83	11882.39
646.182	11761.94
646.535	11768.72
646.888	11835.61
647.24	11698.44
647.593	11817.75
647.945	11764.42
648.298	11732.33
648.65	11639.91
649.002	11707.25
649.355	11729.17
649.707	11684.2
650.059	11731.88
650.411	11915.83
650.763	11860.92
651.115	11957.86
651.467	12019.33
651.819	11996.05
652.171	11961.48
652.523	11924.42
652.875	12016.62
653.227	11931.2
653.578	12006.9
653.93	11968.71
654.282	11942.04
654.633	11982.5
654.985	11979.33
655.337	11886.23
655.688	11873.12
656.039	12015.72
656.391	11859.56
656.742	11968.94
657.094	12006.68
657.445	12023.4
657.796	11968.03
658.147	11946.56
658.498	11954.7
658.849	11977.75
659.2	11909.05
659.551	11959.67
659.902	12033.79
660.253	12038.31
660.604	12003.74
660.955	11980.46
661.306	12020.91
661.656	11988.6
662.007	12022.49
662.358	12041.93
662.708	12047.13
663.059	11981.14
663.409	11928.49
663.76	12002.38
664.11	11991.31
664.461	12004.87
664.811	12046
665.161	12030.4
665.511	12050.97
665.862	12051.87
666.212	12147.24
666.562	12070.63
666.912	12066.79
667.262	12111.53
667.612	12003.51
667.962	12016.17
668.312	11975.26
668.662	12046
669.011	12026.34
669.361	11973.46
669.711	12013
670.06	12027.69
670.41	11960.8
670.76	11860.92
671.109	12038.77
671.459	11907.7
671.808	12065.66
672.157	11996.28
672.507	11934.14
672.856	11971.65
673.205	11915.38
673.554	11955.6
673.904	11839.22
674.253	12052.55
674.602	11950.18
674.951	11715.61
675.3	11714.93
675.649	11868.37
675.998	11834.25
676.346	11780.24
676.695	11902.95
677.044	11753.12
677.393	11824.08
677.741	11834.02
678.09	11815.49
678.438	11812.1
678.787	11787.7
679.135	11793.57
679.484	11748.6
679.832	11662.73
680.181	11654.37
680.529	11653.24
680.877	11748.6
681.225	11616.4
681.573	11703.41
681.922	11566.69
682.27	11602.62
682.618	11556.74
682.966	11468.84
683.314	11611.66
683.661	11464.09
684.009	11482.62
684.357	11398.1
684.705	11373.7
685.053	11386.13
685.4	11441.49
685.748	11321.5
686.095	11331.21
686.443	11351.55
686.79	11256.19
687.138	11302.74
687.485	11262.51
687.832	11279.46
688.18	11234.72
688.527	11170.09
688.874	11155.17
689.221	11121.28
689.568	11079.92
689.915	11105.68
690.262	11112.91
690.609	10992.24
690.956	10995.63
691.303	10987.49
691.65	10891.9
691.997	10829.53
692.344	10792.7
692.69	10759.03
693.037	10766.93
693.383	10666.37
693.73	10682.64
694.077	10610.55
694.423	10726.94
694.769	10553.61
695.116	10528.75
695.462	10472.93
695.808	10465.25
696.155	10454.85
696.501	10296.89
696.847	10395.87
697.193	10324.23
697.539	10354.97
697.885	10216.67
698.231	10242.65
698.577	10203.11
698.923	10214.41
699.269	10054.64
699.614	10088.31
699.96	10101.64
700.306	9964.24
700.651	9951.81
700.997	9889.44
701.342	9950.23
701.688	9910.01
702.033	9872.04
702.379	9824.81
702.724	9864.36
703.069	9867.97
703.415	9668.88
703.76	9696
704.105	9724.48
704.45	9686.51
704.795	9608.55
705.14	9561.77
705.485	9548.66
705.83	9598.83
706.175	9553.86
706.52	9472.96
706.865	9522.67
707.209	9443.58
707.554	9369.68
707.899	9415.56
708.243	9297.59
708.588	9288.78
708.932	9265.96
709.277	9286.52
709.621	9269.35
709.966	9214.21
710.31	9248.33
710.654	9127.66
710.998	9104.61
711.342	9138.73
711.687	9191.61
712.031	9095.57
712.375	9032.97
712.719	9076.13
713.063	9043.14
713.407	9124.72
713.75	9096.24
714.094	8972.86
714.438	8973.76
714.782	9009.69
715.125	8929.02
715.469	8924.72
715.812	8899.41
716.156	8804.05
716.499	8849.24
716.843	8849.47
717.186	8797.72
717.53	8831.84
717.873	8848.57
718.216	8823.26
718.559	8800.66
718.902	8687.22
719.246	8724.73
719.589	8707.33
719.932	8654.9
720.275	8692.19
720.617	8639.53
720.96	8574.45
721.303	8658.29
721.646	8651.51
721.989	8588.01
722.331	8645.18
722.674	8633.66
723.016	8613.09
723.359	8555.02
723.701	8627.56
724.044	8562.25
724.386	8509.14
724.729	8572.19
725.071	8528.58
725.413	8578.07
725.755	8541.23
726.097	8471.85
726.439	8462.36
726.782	8512.08
727.124	8489.71
727.465	8539.42
727.807	8407.67
728.149	8461.01
728.491	8413.55
728.833	8457.84
729.175	8439.99
729.516	8411.74
729.858	8413.55
730.199	8459.42
730.541	8418.3
730.882	8416.04
731.224	8426.88
731.565	8406.54
731.906	8449.48
732.248	8444.51
732.589	8343.72
732.93	8367.22
733.271	8381.69
733.612	8391.18
733.953	8421.23
734.294	8368.13
734.635	8357.28
734.976	8403.83
735.317	8319.09
735.658	8385.3
735.999	8388.01
736.339	8404.96
736.68	8376.71
737.021	8364.29
737.361	8355.7
737.702	8414.45
738.042	8398.41
738.383	8388.01
738.723	8460.1
739.063	8416.71
739.404	8456.03
739.744	8437.96
740.084	8448.35
740.424	8452.42
740.764	8497.62
741.104	8556.82
741.444	8534.45
741.784	8518.86
742.124	8514.34
742.464	8489.25
742.804	8526.32
743.143	8538.74
743.483	8564.51
743.823	8619.65
744.162	8618.29
744.502	8581.46
744.841	8690.6
745.181	8692.64
745.52	8696.71
745.86	8735.58
746.199	8860.54
746.538	8783.94
746.877	8960.2
747.216	8933.31
747.556	9070.26
747.895	9039.52
748.234	8990.71
748.573	9098.28
748.911	9110.25
749.25	9205.39
749.589	9191.83
749.928	9345.5
750.267	9409
750.605	9447.2
750.944	9501.2
751.283	9539.62
751.621	9718.83
751.96	9725.83
752.298	9797.92
752.636	9884.92
752.975	10003.11
753.313	10069.78
753.651	10219.38
753.989	10324.91
754.327	10356.55
754.666	10422.08
755.004	10639.71
755.342	10763.09
755.679	10860.94
756.017	10962.64
756.355	11042.86
756.693	11170.54
757.031	11363.98
757.368	11461.83
757.706	11503.41
758.044	11735.04
758.381	11856.85
758.719	12020.69
759.056	12191.08
759.394	12310.85
759.731	12433.11
