Data from hue_330_FLMS001491_29.txt Node
Date: Mon Feb 06 15:45:11 GMT 2017
User: dcchb
Spectrometer: FLMS00149
Trigger mode: 0
Integration Time (sec): 2.000000E-2
Scans to average: 10
Electric dark correction enabled: true
Nonlinearity correction enabled: false
Boxcar width: 0
XAxis mode: Wavelengths
Number of Pixels in Spectrum: 2048
>>>>>Begin Spectral Data<<<<<
341.393	-37.47
341.776	-37.47
342.16	-37.47
342.543	-58.26
342.927	-71.59
343.31	-64.81
343.693	-72.72
344.077	-60.75
344.46	-55.78
344.843	-43.8
345.226	-56.68
345.61	-22.1
345.993	-10.13
346.376	-31.37
346.759	23.77
347.142	15.64
347.525	45.69
347.908	62.19
348.291	81.85
348.674	81.85
349.057	107.16
349.44	121.62
349.823	138.57
350.206	158.68
350.588	191.9
350.971	193.48
351.354	238.45
351.737	240.94
352.119	230.54
352.502	256.76
352.884	278.45
353.267	278.91
353.65	286.14
354.032	281.84
354.414	308.51
354.797	304.67
355.179	311.22
355.562	305.57
355.944	323.42
356.326	331.33
356.709	340.6
357.091	336.3
357.473	350.09
357.855	354.84
358.238	352.35
358.62	320.03
359.002	335.63
359.384	335.63
359.766	332.46
360.148	334.27
360.53	334.95
360.912	307.15
361.294	317.32
361.676	311.9
362.057	328.62
362.439	313.93
362.821	342.86
363.203	327.27
363.584	331.33
363.966	303.09
364.348	308.51
364.729	320.26
365.111	317.55
365.493	309.86
365.874	326.59
366.256	298.11
366.637	298.57
367.019	326.14
367.4	305.8
367.781	307.38
368.163	304.89
368.544	326.36
368.925	307.6
369.306	317.32
369.688	306.7
370.069	323.2
370.45	327.94
370.831	317.55
371.212	302.18
371.593	304.67
371.974	313.48
372.355	310.54
372.736	288.62
373.117	305.8
373.498	315.97
373.879	298.79
374.26	323.65
374.641	310.54
375.021	312.8
375.402	302.41
375.783	334.5
376.163	327.49
376.544	327.72
376.925	315.74
377.305	315.74
377.686	306.7
378.066	316.19
378.447	313.93
378.827	313.03
379.208	329.98
379.588	323.42
379.968	327.49
380.349	324.1
380.729	336.08
381.109	315.74
381.489	330.88
381.87	324.55
382.25	324.78
382.63	334.27
383.01	342.63
383.39	328.62
383.77	338.11
384.15	325.01
384.53	312.12
384.91	338.56
385.29	324.33
385.67	345.34
386.049	355.51
386.429	360.26
386.809	358.45
387.189	361.61
387.568	339.69
387.948	354.84
388.328	328.17
388.707	352.58
389.087	355.74
389.466	367.49
389.846	346.7
390.225	366.36
390.605	343.08
390.984	334.72
391.363	343.08
391.743	373.59
392.122	360.48
392.501	353.48
392.881	362.74
393.26	367.04
393.639	373.59
394.018	372.69
394.397	352.8
394.776	359.13
395.155	375.17
395.534	383.54
395.913	379.47
396.292	368.85
396.671	372.91
397.05	383.08
397.429	385.12
397.808	362.97
398.186	375.17
398.565	382.63
398.944	382.41
399.323	383.99
399.701	370.43
400.08	404.33
400.458	374.72
400.837	411.33
401.215	397.77
401.594	401.61
401.972	388.96
402.351	398.68
402.729	394.38
403.107	394.61
403.486	412.91
403.864	410.43
404.242	396.42
404.62	417.21
404.999	424.66
405.377	426.7
405.755	405
406.133	426.7
406.511	416.98
406.889	426.02
407.267	434.38
407.645	431.44
408.023	435.74
408.401	427.83
408.779	457.21
409.156	471.67
409.534	437.77
409.912	449.52
410.29	466.24
410.667	455.62
411.045	490.42
411.422	471.67
411.8	471.22
412.178	499.69
412.555	492.23
412.933	492.91
413.31	499.69
413.687	498.11
414.065	494.94
414.442	494.72
414.819	522.74
415.197	533.14
415.574	538.33
415.951	523.42
416.328	550.31
416.705	532.23
417.082	554.15
417.46	569.74
417.837	550.54
418.214	566.81
418.591	558.67
418.967	576.52
419.344	579.69
419.721	604.32
420.098	609.07
420.475	590.99
420.852	630.31
421.228	596.64
421.605	614.72
421.982	617.43
422.358	632.57
422.735	653.13
423.111	635.73
423.488	646.13
423.864	662.4
424.241	686.8
424.617	690.19
424.994	656.97
425.37	699.23
425.746	671.66
426.123	680.48
426.499	666.24
426.875	714.37
427.251	714.37
427.627	744.66
428.003	738.55
428.379	712.79
428.756	749.4
429.132	760.47
429.507	773.58
429.883	764.09
430.259	765.45
430.635	773.13
431.011	774.71
431.387	806.12
431.763	809.96
432.138	811.55
432.514	815.84
432.89	831.88
433.265	827.59
433.641	845.9
434.016	840.25
434.392	839.79
434.767	882.28
435.143	868.95
435.518	863.75
435.894	885.67
436.269	904.2
436.644	915.05
437.02	906.91
437.395	920.92
437.77	934.93
438.145	939.45
438.52	946.01
438.895	960.92
439.271	964.76
439.646	964.08
440.021	990.52
440.395	979.68
440.77	965.21
441.145	963.86
441.52	1020.35
441.895	986.46
442.27	1020.35
442.645	1003.41
443.019	1014.48
443.394	1019.45
443.769	1022.84
444.143	1005.89
444.518	1043.63
444.892	1037.98
445.267	1046.34
445.641	1037.3
446.016	1062.16
446.39	1073.91
446.764	1073.69
447.139	1062.84
447.513	1053.57
447.887	1061.26
448.262	1084.08
448.636	1068.04
449.01	1105.32
449.384	1101.48
449.758	1082.95
450.132	1132.67
450.506	1115.04
450.88	1121.14
451.254	1124.98
451.628	1151.65
452.002	1158.88
452.376	1136.74
452.75	1149.16
453.123	1134.7
453.497	1170.41
453.871	1162.95
454.244	1189.39
454.618	1203.63
454.992	1202.95
455.365	1191.2
455.739	1228.94
456.112	1230.52
456.486	1254.7
456.859	1258.31
457.232	1263.51
457.606	1266.22
457.979	1281.36
458.352	1308.71
458.725	1301.7
459.099	1279.78
459.472	1337.41
459.845	1340.57
460.218	1306.45
460.591	1346.45
460.964	1311.42
461.337	1358.88
461.71	1407.69
462.083	1404.53
462.456	1390.29
462.829	1419.89
463.201	1448.82
463.574	1438.2
463.947	1445.43
464.32	1477.97
464.692	1456.5
465.065	1475.71
465.438	1505.54
465.81	1511.64
466.183	1520.91
466.555	1548.48
466.928	1553.67
467.3	1564.07
467.672	1588.02
468.045	1606.78
468.417	1624.86
468.789	1576.95
469.161	1659.43
469.534	1674.12
469.906	1678.42
470.278	1677.74
470.65	1706.44
471.022	1717.51
471.394	1753.22
471.766	1730.17
472.138	1763.39
472.51	1790.5
472.882	1834.34
473.253	1836.38
473.625	1830.5
473.997	1868.02
474.369	1877.96
474.74	1902.37
475.112	1935.81
475.484	1975.36
475.855	1997.5
476.227	1999.76
476.598	2028.24
476.97	2025.53
477.341	2093.77
477.713	2102.13
478.084	2140.78
478.455	2161.12
478.827	2194.11
479.198	2263.71
479.569	2249.02
479.94	2288.57
480.311	2317.95
480.682	2322.02
481.053	2399.75
481.424	2406.08
481.795	2410.15
482.166	2443.59
482.537	2517.94
482.908	2507.55
483.279	2555.91
483.65	2579.64
484.021	2606.75
484.391	2618.96
484.762	2639.52
485.133	2724.49
485.503	2754.77
485.874	2741.44
486.244	2759.29
486.615	2865.05
486.985	2831.83
487.356	2905.28
487.726	2910.93
488.097	2945.5
488.467	2987.08
488.837	3013.97
489.207	3070.24
489.578	3086.97
489.948	3100.07
490.318	3156.57
490.688	3169
491.058	3176.23
491.428	3243.12
491.798	3255.32
492.168	3323.57
492.538	3326.73
492.908	3337.58
493.278	3384.59
493.648	3387.3
494.017	3423
494.387	3468.43
494.757	3505.94
495.126	3519.05
495.496	3514.53
495.866	3549.55
496.235	3535.99
496.605	3557.01
496.974	3595.88
497.344	3648.76
497.713	3692.6
498.082	3673.84
498.452	3669.55
498.821	3701.41
499.19	3737.57
499.559	3744.8
499.928	3783.9
500.298	3783.9
500.667	3806.5
501.036	3809.21
501.405	3873.39
501.774	3831.35
502.143	3878.81
502.512	3920.17
502.88	3946.83
503.249	3912.03
503.618	3962.88
503.987	3954.06
504.356	3986.6
504.724	3940.73
505.093	4015.08
505.462	4037.22
505.83	4020.28
506.199	4047.17
506.567	4094.4
506.936	4106.83
507.304	4104.79
507.672	4145.7
508.041	4159.71
508.409	4164.68
508.777	4167.39
509.145	4215.98
509.514	4232.7
509.882	4212.36
510.25	4230.44
510.618	4254.17
510.986	4222.08
511.354	4285.35
511.722	4372.13
512.09	4347.05
512.458	4328.06
512.826	4367.39
513.193	4363.32
513.561	4389.08
513.929	4398.57
514.297	4429.76
514.664	4434.05
515.032	4418.23
515.4	4458
515.767	4476.08
516.135	4517.89
516.502	4493.26
516.869	4582.97
517.237	4488.29
517.604	4502.3
517.972	4559.24
518.339	4553.14
518.706	4573.71
519.073	4544.33
519.44	4564.22
519.808	4590.66
520.175	4613.03
520.542	4648.73
520.909	4662.29
521.276	4719.01
521.643	4721.27
522.009	4755.62
522.376	4756.53
522.743	4776.19
523.11	4757.21
523.477	4813.7
523.843	4792.68
524.21	4862.51
524.577	4888.95
524.943	4903.64
525.31	4909.97
525.676	4960.36
526.043	5015.28
526.409	5012.11
526.776	4996.97
527.142	5012.34
527.508	5050.98
527.874	5099.34
528.241	5119.91
528.607	5176.4
528.973	5240.81
529.339	5186.12
529.705	5268.38
530.071	5267.02
530.437	5277.19
530.803	5261.6
531.169	5287.81
531.535	5288.72
531.901	5337.08
532.267	5359.45
532.632	5356.51
532.998	5369.62
533.364	5421.82
533.73	5486
534.095	5468.83
534.461	5517.64
534.826	5548.82
535.192	5513.34
535.557	5550.63
535.923	5562.61
536.288	5606.67
536.653	5610.06
537.019	5621.14
537.384	5663.85
537.749	5675.15
538.114	5662.27
538.479	5727.12
538.845	5712.89
539.21	5764.86
539.575	5716.28
539.94	5859.78
540.305	5756.5
540.67	5852.54
541.034	5827.23
541.399	5903.16
541.764	5894.8
542.129	5959.43
542.494	5942.03
542.858	5961.02
543.223	6011.41
543.587	6060
543.952	6034.01
544.316	6070.62
544.681	6085.53
545.045	6132.08
545.41	6174.12
545.774	6167.56
546.138	6172.08
546.503	6238.97
546.867	6251.86
547.231	6277.39
547.595	6313.1
547.959	6314.45
548.324	6350.38
548.688	6412.3
549.052	6376.82
549.416	6403.72
549.779	6383.83
550.143	6417.73
550.507	6525.07
550.871	6450.27
551.235	6487.1
551.599	6558.51
551.962	6535.69
552.326	6544.96
552.689	6585.41
553.053	6605.52
553.417	6587.44
553.78	6677.15
554.143	6666.31
554.507	6688.45
554.87	6691.17
555.234	6748.34
555.597	6717.15
555.96	6717.83
556.323	6753.09
556.686	6744.5
557.05	6800.77
557.413	6798.06
557.776	6864.95
558.139	6894.1
558.502	6909.01
558.865	6873.08
559.228	7014.77
559.59	6948.11
559.953	6975.68
560.316	7066.52
560.679	7057.26
561.041	7070.82
561.404	7109.91
561.767	7069.24
562.129	7103.81
562.492	7164.83
562.854	7171.83
563.217	7151.27
563.579	7204.15
563.941	7196.69
564.304	7248.89
564.666	7305.84
565.028	7312.17
565.39	7332.05
565.753	7353.75
566.115	7350.13
566.477	7344.26
566.839	7445.72
567.201	7431.26
567.563	7489.34
567.925	7514.42
568.287	7549.45
568.648	7594.19
569.01	7603.23
569.372	7688.43
569.734	7586.96
570.095	7772.49
570.457	7691.37
570.819	7717.81
571.18	7809.55
571.542	7832.15
571.903	7824.92
572.265	8006.16
572.626	7958.7
572.987	7974.3
573.349	8034.63
573.71	8030.57
574.071	8074.86
574.432	8174.29
574.794	8286.15
575.155	8262.65
575.516	8301.29
575.877	8373.61
576.238	8446.6
576.599	8557.11
576.96	8551.46
577.32	8611.12
577.681	8725.69
578.042	8778.34
578.403	8853.82
578.763	8953.25
579.124	9033.48
579.485	9172.46
579.845	9353.47
580.206	9355.28
580.566	9480.02
580.927	9607.25
581.287	9775.15
581.648	9858.31
582.008	9955.26
582.368	10122.71
582.728	10263.5
583.089	10365.19
583.449	10542.14
583.809	10703.26
584.169	10844.05
584.529	11044.27
584.889	11215.34
585.249	11371.04
585.609	11481.77
585.969	11789.56
586.329	11938.26
586.688	12182.55
587.048	12421.18
587.408	12586.38
587.768	12825.24
588.127	13138.23
588.487	13313.36
588.846	13633.81
589.206	13712.22
589.565	13873.58
589.925	14322.38
590.284	14451.19
590.643	14733.89
591.003	14981.34
591.362	15341.56
591.721	15556.7
592.08	15813.64
592.44	16200.75
592.799	16459.72
593.158	16631.92
593.517	16954.17
593.876	17241.4
594.235	17473.03
594.593	17831.21
594.952	18125.89
595.311	18288.83
595.67	18718.65
596.029	19047.45
596.387	19390.94
596.746	19697.6
597.104	19849.46
597.463	20156.12
597.822	20448.09
598.18	20639.05
598.538	20863.45
598.897	21362.19
599.255	21425.47
599.613	22048.5
599.972	22100.48
600.33	22437.42
600.688	22571.65
601.046	23019.32
601.404	23404.17
601.762	23448.24
602.12	23848
602.478	24081.9
602.836	24345.62
603.194	24502
603.552	24828.99
603.91	25087.74
604.268	25408.87
604.625	25569.54
604.983	25928.63
605.341	26038.23
605.698	26520.25
606.056	26643.41
606.413	26914.14
606.771	27258.76
607.128	27550.96
607.485	27489.04
607.843	27757.28
608.2	28124.05
608.557	28399.52
608.914	28501.89
609.272	28834.99
609.629	28998.83
609.986	29326.95
610.343	29236.11
610.7	29701.63
611.057	29909.76
611.414	29932.36
611.771	30188.63
612.127	30286.93
612.484	30690.99
612.841	30863.64
613.198	30982.96
613.554	31150.64
613.911	31458.42
614.267	31623.62
614.624	31616.84
614.98	32010.5
615.337	32055.7
615.693	32236.93
616.05	32365.75
616.406	32729.8
616.762	32670.14
617.118	32860.2
617.475	32864.26
617.831	33150.13
618.187	33257.25
618.543	33324.36
618.899	33743.11
619.255	33768.87
619.611	33739.04
619.967	34119.15
620.323	34129.99
620.678	34216.32
621.034	34228.75
621.39	34404.11
621.746	34447.05
622.101	34745.12
622.457	34699.47
622.812	34861.27
623.168	35045.45
623.523	35155.73
623.879	35345.55
624.234	35122.06
624.589	35344.42
624.945	35571.99
625.3	35423.07
625.655	35605.43
626.01	35705.09
626.365	35811.08
626.72	35826.44
627.075	35949.38
627.43	35878.2
627.785	35842.72
628.14	36028.02
628.495	36095.36
628.85	36119.09
629.205	36087.46
629.559	36291.29
629.914	36227.56
630.269	36390.72
630.623	36255.13
630.978	36251.07
631.332	36416.94
631.687	36605.41
632.041	36555.69
632.396	36568.8
632.75	36357.96
633.104	36629.59
633.459	36476.15
633.813	36677.27
634.167	36511.4
634.521	36447.45
634.875	36553.88
635.229	36632.07
635.583	36609.25
635.937	36560.89
636.291	36514.56
636.645	36585.97
636.999	36527.22
637.352	36642.02
637.706	36376.49
638.06	36747.55
638.413	36688.34
638.767	36541
639.121	36707.33
639.474	36425.3
639.828	36459.2
640.181	36580.78
640.534	36570.61
640.888	36531.74
641.241	36318.64
641.594	36380.78
641.947	36706.2
642.301	36539.87
642.654	36488.57
643.007	36520.66
643.36	36438.41
643.713	36456.26
644.066	36650.83
644.419	36405.64
644.771	36173.33
645.124	35873.9
645.477	35830.29
645.83	35632.78
646.182	35589.84
646.535	35437.75
646.888	35376.29
647.24	35256.06
647.593	35369.51
647.945	35263.75
648.298	35297.87
648.65	35296.52
649.002	35211.77
649.355	35349.17
649.707	35274.6
650.059	35332.22
650.411	35872.32
650.763	35830.74
651.115	36315.7
651.467	36222.14
651.819	36169.49
652.171	36021.92
652.523	36072.31
652.875	36089.04
653.227	35978.31
653.578	36194.8
653.93	36170.16
654.282	35975.37
654.633	35925.65
654.985	35924.75
655.337	35961.13
655.688	36069.15
656.039	36056.72
656.391	35774.69
656.742	35889.27
657.094	35833.45
657.445	35959.55
657.796	35857.86
658.147	35828.93
658.498	35851.98
658.849	35825.09
659.2	35806.56
659.551	35723.17
659.902	35842.26
660.253	35715.49
660.604	35862.6
660.955	35540.12
661.306	35819.67
661.656	35773.79
662.007	35704.19
662.358	35655.38
662.708	35641.59
663.059	35684.3
663.409	35571.76
663.76	35739.22
664.11	35664.42
664.461	35711.19
664.811	35695.37
665.161	35666
665.511	35554.59
665.862	35669.61
666.212	35693.12
666.562	35691.53
666.912	35692.44
667.262	35646.56
667.612	35690.86
667.962	35794.58
668.312	35529.28
668.662	35833.9
669.011	35708.71
669.361	35597.98
669.711	35615.38
670.06	35557.3
670.41	35555.94
670.76	35571.99
671.109	35645.21
671.459	35534.93
671.808	35580.12
672.157	35552.78
672.507	35377.64
672.856	35373.8
673.205	35404.99
673.554	35468.04
673.904	35215.39
674.253	35611.31
674.602	35427.13
674.951	34967.26
675.3	34662.86
675.649	35336.51
675.998	35252.22
676.346	35423.07
676.695	35496.51
677.044	35138.1
677.393	35162.28
677.741	35330.64
678.09	35212.22
678.438	35083.87
678.787	35171.32
679.135	35204.77
679.484	34983.98
679.832	35148.27
680.181	34914.83
680.529	34972.91
680.877	34898.11
681.225	34977.65
681.573	35121.15
681.922	34867.15
682.27	34760.94
682.618	34808.62
682.966	34657.44
683.314	34676.87
683.661	34623.99
684.009	34605.69
684.357	34377.44
684.705	34394.84
685.053	34396.88
685.4	34395.52
685.748	34169.54
686.095	34182.87
686.443	34108.75
686.79	34048.19
687.138	34217.45
687.485	34172.7
687.832	33877.34
688.18	33973.16
688.527	33875.54
688.874	33677.35
689.221	33702.21
689.568	33603.45
689.915	33509.9
690.262	33694.3
690.609	33386.28
690.956	33339.28
691.303	33400.07
691.65	33127.08
691.997	33152.84
692.344	33030.59
692.69	32995.33
693.037	33043.69
693.383	32842.34
693.73	32905.17
694.077	32664.72
694.423	32717.15
694.769	32697.71
695.116	32488
695.462	32505.4
695.808	32306.76
696.155	32417.5
696.501	32219.99
696.847	32291.85
697.193	32086.43
697.539	32167.11
697.885	31786.55
698.231	31704.29
698.577	31859.32
698.923	31912.42
699.269	31622.04
699.614	31444.87
699.96	31454.36
700.306	31353.57
700.651	31326
700.997	31219.33
701.342	31180.92
701.688	31076.51
702.033	31035.16
702.379	31038.32
702.724	30975.95
703.069	30922.39
703.415	30450.77
703.76	30578.22
704.105	30610.54
704.45	30552.91
704.795	30385.46
705.14	30210.32
705.485	30173.71
705.83	30112.02
706.175	30231.11
706.52	30104.79
706.865	29993.38
707.209	29913.83
707.554	29857.56
707.899	29869.09
708.243	29686.04
708.588	29612.37
708.932	29626.83
709.277	29513.39
709.621	29561.52
709.966	29350.91
710.31	29418.25
710.654	29171.03
710.998	29259.39
711.342	29158.15
711.687	29104.81
712.031	28877.02
712.375	28876.35
712.719	28983.01
713.063	28905.95
713.407	28906.4
713.75	28730.13
714.094	28707.31
714.438	28529.69
714.782	28655.56
715.125	28428.67
715.469	28541.66
715.812	28275.01
716.156	28203.82
716.499	28249.7
716.843	28166.08
717.186	28113.88
717.53	28230.49
717.873	28192.07
718.216	28201.79
718.559	27979.65
718.902	27863.94
719.246	27898.74
719.589	27943.71
719.932	27758.63
720.275	27684.96
720.617	27584.4
720.96	27643.38
721.303	27608.58
721.646	27678.64
721.989	27422.82
722.331	27542.37
722.674	27439.55
723.016	27486.55
723.359	27414.46
723.701	27357.29
724.044	27178.08
724.386	27089.5
724.729	27313.67
725.071	27220.8
725.413	27120.46
725.755	27042.72
726.097	26981.03
726.439	26836.4
726.782	26923.4
727.124	26940.12
727.465	26797.08
727.807	26935.38
728.149	26638.89
728.491	26644.31
728.833	26757.3
729.175	26600.7
729.516	26445.9
729.858	26576.74
730.199	26561.6
730.541	26506.46
730.882	26512.79
731.224	26492
731.565	26397.77
731.906	26381.72
732.248	26408.16
732.589	26169.52
732.93	26107.15
733.271	26156.87
733.612	26138.34
733.953	26106.7
734.294	25958.23
734.635	26026.25
734.976	26109.19
735.317	25916.42
735.658	25881.62
735.999	25838.91
736.339	25877.33
736.68	25868.06
737.021	25839.81
737.361	25653.38
737.702	25798.46
738.042	25705.13
738.383	25575.64
738.723	25688.41
739.063	25553.49
739.404	25624.68
739.744	25489.77
740.084	25475.53
740.424	25449.54
740.764	25482.31
741.104	25497.23
741.444	25331.81
741.784	25264.24
742.124	25266.72
742.464	25279.6
742.804	25132.71
743.143	25178.14
743.483	25151.47
743.823	24936.11
744.162	25077.8
744.502	24976.11
744.841	24800.52
745.181	25052.49
745.52	24895.66
745.86	24973.4
746.199	24821.31
746.538	24811.82
746.877	24853.85
747.216	24848.88
747.556	24654.99
747.895	24735.89
748.234	24452.96
748.573	24544.03
748.911	24504.03
749.25	24639.62
749.589	24351.04
749.928	24440.3
750.267	24351.49
750.605	24366.41
750.944	24258.16
751.283	24252.06
751.621	24255.22
751.96	24087.09
752.298	24077.15
752.636	24120.99
752.975	23895.91
753.313	23923.71
753.651	23977.94
753.989	23865.86
754.327	23850.94
754.666	23620.21
755.004	23789.7
755.342	23652.75
755.679	23643.26
756.017	23550.38
756.355	23552.42
756.693	23393.78
757.031	23640.1
757.368	23332.31
757.706	23238.53
758.044	23198.53
758.381	23181.81
758.719	23089.6
759.056	23104.07
759.394	23019.78
759.731	22925.99
760.068	22895.71
