Data from hue_170_FLMS001491_00012.txt Node
Date: Tue Feb 07 16:48:19 GMT 2017
User: dcchb
Spectrometer: FLMS00149
Trigger mode: 0
Integration Time (sec): 2.000000E-2
Scans to average: 10
Electric dark correction enabled: true
Nonlinearity correction enabled: false
Boxcar width: 0
XAxis mode: Wavelengths
Number of Pixels in Spectrum: 2048
>>>>>Begin Spectral Data<<<<<
341.393	-16.34
341.776	-16.34
342.16	-16.34
342.543	-61.09
342.927	-65.38
343.31	-65.61
343.693	-52.27
344.077	-58.37
344.46	-54.31
344.843	-52.72
345.226	-41.43
345.61	-24.7
345.993	-29
346.376	-12.73
346.759	11
347.142	29.31
347.525	27.73
347.908	42.19
348.291	69.08
348.674	102.3
349.057	109.53
349.44	125.58
349.823	129.42
350.206	166.7
350.588	196.08
350.971	232.92
351.354	218.68
351.737	232.01
352.119	249.87
352.502	263.88
352.884	274.5
353.267	287.61
353.65	291.9
354.032	269.75
354.414	290.09
354.797	301.39
355.179	307.04
355.562	305.23
355.944	312.24
356.326	328.73
356.709	348.17
357.091	333.71
357.473	342.29
357.855	338.68
358.238	342.75
358.62	327.15
359.002	346.81
359.384	347.26
359.766	330.09
360.148	344.78
360.53	335.74
360.912	342.29
361.294	345.91
361.676	351.11
362.057	324.21
362.439	328.96
362.821	327.15
363.203	345.46
363.584	310.88
363.966	345.68
364.348	335.51
364.729	322.86
365.111	332.8
365.493	314.05
365.874	308.85
366.256	311.11
366.637	297.55
367.019	316.76
367.4	321.05
367.781	311.56
368.163	326.7
368.544	317.66
368.925	310.88
369.306	295.74
369.688	289.64
370.069	293.48
370.45	319.24
370.831	312.24
371.212	314.72
371.593	307.94
371.974	315.63
372.355	310.66
372.736	325.12
373.117	311.79
373.498	328.06
373.879	314.05
374.26	324.67
374.641	303.42
375.021	305.01
375.402	316.76
375.783	319.69
376.163	321.05
376.544	328.73
376.925	337.1
377.305	323.08
377.686	313.14
378.066	312.46
378.447	310.43
378.827	328.73
379.208	341.84
379.588	336.42
379.968	335.51
380.349	341.16
380.729	348.17
381.109	362.18
381.489	354.72
381.87	315.4
382.25	330.32
382.63	344.33
383.01	352.46
383.39	352.24
383.77	353.37
384.15	354.95
384.53	352.01
384.91	356.53
385.29	339.81
385.67	326.7
386.049	357.43
386.429	368.73
386.809	354.95
387.189	361.05
387.568	373.03
387.948	347.04
388.328	343.2
388.707	352.91
389.087	372.57
389.466	374.38
389.846	383.87
390.225	385.46
390.605	350.65
390.984	362.18
391.363	361.73
391.743	369.64
392.122	367.6
392.501	379.58
392.881	372.8
393.26	385.68
393.639	389.07
394.018	392.01
394.397	376.19
394.776	370.32
395.155	388.62
395.534	397.89
395.913	384.55
396.292	403.99
396.671	402.63
397.05	394.95
397.429	408.51
397.808	379.35
398.186	396.3
398.565	380.48
398.944	397.66
399.323	410.99
399.701	404.89
400.08	409.18
400.458	408.73
400.837	406.7
401.215	420.03
401.594	399.24
401.972	427.26
402.351	416.64
402.729	410.54
403.107	426.58
403.486	432.91
403.864	460.26
404.242	440.14
404.62	463.87
404.999	413.03
405.377	433.59
405.755	453.02
406.133	438.79
406.511	440.37
406.889	468.39
407.267	453.7
407.645	461.39
408.023	451.67
408.401	459.58
408.779	468.84
409.156	483.31
409.534	468.39
409.912	495.96
410.29	492.57
410.667	504.32
411.045	509.97
411.422	502.52
411.8	516.3
412.178	507.71
412.555	511.78
412.933	522.85
413.31	511.55
413.687	529.18
414.065	542.06
414.442	529.41
414.819	542.06
415.197	543.87
415.574	542.97
415.951	558.11
416.328	580.93
416.705	570.54
417.082	550.42
417.46	563.3
417.837	599.69
418.214	603.53
418.591	587.94
418.967	599.69
419.344	619.35
419.721	622.06
420.098	599.69
420.475	639.23
420.852	633.13
421.228	644.88
421.605	640.82
421.982	664.32
422.358	636.75
422.735	667.48
423.111	664.32
423.488	668.61
423.864	690.76
424.241	685.11
424.617	701.61
424.994	694.37
425.37	693.47
425.746	726.92
426.123	726.24
426.499	728.95
426.875	745.22
427.251	749.97
427.627	764.43
428.003	757.88
428.379	786.12
428.756	785.22
429.132	790.42
429.507	787.48
429.883	793.13
430.259	840.36
430.635	814.6
431.011	821.38
431.387	836.29
431.763	848.72
432.138	842.85
432.514	862.51
432.89	847.59
433.265	883.3
433.641	915.16
434.016	909.51
434.392	917.87
434.767	945.44
435.143	949.51
435.518	965.33
435.894	983.41
436.269	984.54
436.644	978.66
437.02	1004.87
437.395	1021.6
437.77	1016.17
438.145	1011.43
438.52	1043.52
438.895	1072.22
439.271	1051.65
439.646	1075.38
440.021	1095.49
440.395	1128.04
440.77	1102.05
441.145	1140.69
441.52	1147.47
441.895	1117.19
442.27	1145.44
442.645	1137.98
443.019	1171.65
443.394	1158.32
443.769	1201.93
444.143	1183.85
444.518	1191.31
444.892	1217.07
445.267	1236.06
445.641	1229.05
446.016	1231.31
446.39	1266.34
446.764	1242.38
447.139	1261.14
447.513	1264.3
447.887	1281.25
448.262	1256.39
448.636	1291.87
449.01	1305.43
449.384	1302.72
449.758	1331.65
450.132	1354.47
450.506	1353.11
450.88	1375.03
451.254	1389.27
451.628	1380.68
452.002	1401.93
452.376	1416.62
452.75	1441.93
453.123	1417.29
453.497	1464.75
453.871	1489.16
454.244	1518.53
454.618	1525.54
454.992	1544.75
455.365	1535.93
455.739	1594.01
456.112	1588.81
456.486	1618.42
456.859	1624.97
457.232	1627.91
457.606	1639.21
457.979	1688.25
458.352	1713.78
458.725	1719.66
459.099	1745.19
459.472	1786.78
459.845	1809.83
460.218	1827.68
460.591	1817.73
460.964	1862.48
461.337	1936.38
461.71	1899.99
462.083	1951.06
462.456	1952.19
462.829	1961.46
463.201	1989.26
463.574	2013.44
463.947	2034.23
464.32	2110.61
464.692	2103.83
465.065	2146.31
465.438	2174.34
465.81	2250.94
466.183	2222.02
466.555	2276.71
466.928	2321
467.3	2317.83
467.672	2364.16
468.045	2417.04
468.417	2420.2
468.789	2454.55
469.161	2515.57
469.534	2573.42
469.906	2624.72
470.278	2630.59
470.65	2700.2
471.022	2765.28
471.394	2798.05
471.766	2857.26
472.138	2882.34
472.51	2945.84
472.882	3037.82
473.253	3050.92
473.625	3099.73
473.997	3198.49
474.369	3228.32
474.74	3278.49
475.112	3351.48
475.484	3452.27
475.855	3542.44
476.227	3568.2
476.598	3670.79
476.97	3732.49
477.341	3858.13
477.713	3939.49
478.084	3952.82
478.455	4097.45
478.827	4173.38
479.198	4274.85
479.569	4362.75
479.94	4473.94
480.311	4586.7
480.682	4656.3
481.053	4799.8
481.424	4923.42
481.795	4983.3
482.166	5131.55
482.537	5273.46
482.908	5350.75
483.279	5418.09
483.65	5581.25
484.021	5688.14
484.391	5772.88
484.762	5917.51
485.133	6007.46
485.503	6078.87
485.874	6317.05
486.244	6363.15
486.615	6512.75
486.985	6656.03
487.356	6842.69
487.726	6910.26
488.097	7102.34
488.467	7187.31
488.837	7323.58
489.207	7496
489.578	7675.89
489.948	7745.26
490.318	7925.37
490.688	8019.61
491.058	8175.76
491.428	8248.53
491.798	8418.47
492.168	8603.54
492.538	8680.15
492.908	8856.42
493.278	8857.55
493.648	9020.48
494.017	9178.22
494.387	9248.73
494.757	9435.84
495.126	9483.3
495.496	9571.43
495.866	9718.54
496.235	9771.42
496.605	9907.01
496.974	10061.13
497.344	10178.42
497.713	10209.6
498.082	10356.49
498.452	10487.56
498.821	10541.57
499.19	10583.15
499.559	10726.65
499.928	10805.07
500.298	10801
500.667	10938.62
501.036	10942.24
501.405	11131.16
501.774	11137.49
502.143	11239.18
502.512	11348.78
502.88	11401.44
503.249	11366.64
503.618	11491.38
503.987	11520.98
504.356	11693.18
504.724	11746.06
505.093	11710.13
505.462	11778.6
505.83	11879.84
506.199	11957.58
506.567	12077.13
506.936	12004.13
507.304	12294.3
507.672	12162.55
508.041	12316.67
508.409	12431.92
508.777	12405.25
509.145	12489.09
509.514	12408.64
509.882	12518.24
510.25	12578.81
510.618	12678.92
510.986	12653.38
511.354	12767.73
511.722	12854.28
512.09	12959.14
512.458	12851.12
512.826	13041.39
513.193	13025.58
513.561	13048.4
513.929	13072.81
514.297	13186.48
514.664	13208.62
515.032	13207.04
515.4	13254.95
515.767	13284.33
516.135	13329.3
516.502	13271.9
516.869	13388.28
517.237	13393.02
517.604	13367.71
517.972	13461.5
518.339	13491.55
518.706	13462.4
519.073	13451.1
519.44	13572.23
519.808	13663.52
520.175	13587.37
520.542	13710.3
520.909	13789.17
521.276	13770.64
521.643	13828.72
522.009	13812.45
522.376	13863.29
522.743	13887.93
523.11	13976.29
523.477	14030.29
523.843	14109.84
524.21	14215.6
524.577	14169.95
524.943	14210.86
525.31	14108.26
525.676	14236.17
526.043	14188.26
526.409	14256.05
526.776	14241.81
527.142	14333.79
527.508	14311.87
527.874	14324.75
528.241	14301.02
528.607	14293.34
528.973	14413.34
529.339	14310.51
529.705	14393.9
530.071	14406.33
530.437	14418.31
530.803	14460.34
531.169	14386.9
531.535	14423.5
531.901	14370.85
532.267	14385.99
532.632	14404.75
532.998	14308.71
533.364	14388.7
533.73	14299.21
534.095	14418.76
534.461	14261.48
534.826	14314.58
535.192	14341.47
535.557	14327.24
535.923	14310.06
536.288	14231.87
536.653	14245.2
537.019	14148.48
537.384	14070.75
537.749	14220.57
538.114	14090.86
538.479	14042.05
538.845	13984.87
539.21	14007.92
539.575	14022.16
539.94	13908.49
540.305	13938.77
540.67	13853.12
541.034	13875.72
541.399	13823.52
541.764	13764.09
542.129	13755.95
542.494	13717.99
542.858	13661.27
543.223	13701.49
543.587	13664.65
543.952	13511.21
544.316	13550.31
544.681	13474.38
545.045	13422.85
545.41	13390.76
545.774	13484.77
546.138	13399.8
546.503	13365.45
546.867	13301.27
547.231	13341.95
547.595	13278
547.959	13266.25
548.324	13189.41
548.688	13184.44
549.052	13085.24
549.416	13079.13
549.779	13034.39
550.143	12976.09
550.507	13067.16
550.871	12924.79
551.235	12929.31
551.599	12967.05
551.962	12810.21
552.326	12787.84
552.689	12908.74
553.053	12748.52
553.417	12735.19
553.78	12824.22
554.143	12689.54
554.507	12725.24
554.87	12665.13
555.234	12727.05
555.597	12676.66
555.96	12652.7
556.323	12606.15
556.686	12595.53
557.05	12652.25
557.413	12585.59
557.776	12540.84
558.139	12629.65
558.502	12677.11
558.865	12553.72
559.228	12544.68
559.59	12514.4
559.953	12519.37
560.316	12599.6
560.679	12572.03
561.041	12508.53
561.404	12593.04
561.767	12612.25
562.129	12522.09
562.492	12591.91
562.854	12492.48
563.217	12507.85
563.579	12532.93
563.941	12573.61
564.304	12459.71
564.666	12630.11
565.028	12603.67
565.39	12544.23
565.753	12606.38
566.115	12602.76
566.477	12575.42
566.839	12689.31
567.201	12660.16
567.563	12593.27
567.925	12707.17
568.287	12722.31
568.648	12579.49
569.01	12717.56
569.372	12737.22
569.734	12651.12
570.095	12728.86
570.457	12722.76
570.819	12693.61
571.18	12667.17
571.542	12775.64
571.903	12755.3
572.265	12833.04
572.626	12780.38
572.987	12784.23
573.349	12795.3
573.71	12817.67
574.071	12808.41
574.432	12806.15
574.794	12877.78
575.155	12835.07
575.516	12775.64
575.877	12796.43
576.238	12955.97
576.599	12925.69
576.96	12820.61
577.32	12880.72
577.681	12949.65
578.042	12873.94
578.403	12852.25
578.763	12870.33
579.124	12813.6
579.485	12922.3
579.845	12968.18
580.206	12851.79
580.566	12824.45
580.927	12863.09
581.287	12984.9
581.648	12870.55
582.008	12906.26
582.368	12810.67
582.728	12845.02
583.089	12810.67
583.449	12833.04
583.809	12845.47
584.169	12752.14
584.529	12744.68
584.889	12899.93
585.249	12768.86
585.609	12805.24
585.969	12734.28
586.329	12688.18
586.688	12767.05
587.048	12738.58
587.408	12649.77
587.768	12729.54
588.127	12589.88
588.487	12693.83
588.846	12721.4
589.206	12699.26
589.565	12693.61
589.925	12736.77
590.284	12635.98
590.643	12637.34
591.003	12666.26
591.362	12673.49
591.721	12720.27
592.08	12683.89
592.44	12749.88
592.799	12608.41
593.158	12463.1
593.517	12624
593.876	12552.37
594.235	12560.5
594.593	12513.5
594.952	12648.64
595.311	12585.14
595.67	12657.45
596.029	12615.42
596.387	12596.66
596.746	12511.92
597.104	12530.45
597.463	12448.42
597.822	12544.01
598.18	12515.53
598.538	12494.97
598.897	12600.5
599.255	12454.07
599.613	12604.8
599.972	12551.24
600.33	12550.33
600.688	12540.62
601.046	12530.22
601.404	12607.06
601.762	12584.23
602.12	12592.59
602.478	12559.6
602.836	12619.94
603.194	12492.71
603.552	12500.39
603.91	12491.35
604.268	12572.71
604.625	12512.82
604.983	12498.36
605.341	12481.18
605.698	12578.36
606.056	12535.42
606.413	12536.32
606.771	12478.02
607.128	12578.81
607.485	12506.49
607.843	12492.93
608.2	12498.81
608.557	12606.38
608.914	12545.14
609.272	12617
609.629	12625.59
609.986	12653.83
610.343	12589.65
610.7	12647.05
611.057	12635.3
611.414	12609.54
611.771	12629.65
612.127	12688.18
612.484	12682.08
612.841	12665.36
613.198	12662.65
613.554	12674.17
613.911	12689.99
614.267	12741.52
614.624	12745.13
614.98	12725.24
615.337	12738.8
615.693	12712.14
616.05	12699.03
616.406	12854.96
616.762	12755.3
617.118	12750.78
617.475	12727.73
617.831	12792.81
618.187	12808.63
618.543	12826.71
618.899	12923.66
619.255	12917.78
619.611	12825.35
619.967	12951.68
620.323	12917.1
620.678	12809.31
621.034	12804.11
621.39	12809.99
621.746	12806.82
622.101	12962.3
622.457	12861.74
622.812	12859.48
623.168	12941.74
623.523	12803.89
623.879	12893.83
624.234	12847.73
624.589	12918.01
624.945	12898.57
625.3	12922.98
625.655	12859.03
626.01	12883.88
626.365	12908.29
626.72	12819.03
627.075	12848.86
627.43	12915.52
627.785	12811.12
628.14	12804.11
628.495	12919.82
628.85	12862.42
629.205	12857.67
629.559	12930.21
629.914	12762.31
630.269	12807.28
630.623	12809.99
630.978	12728.18
631.332	12752.36
631.687	12840.04
632.041	12795.3
632.396	12720.95
632.75	12660.39
633.104	12642.31
633.459	12649.99
633.813	12663.1
634.167	12624.23
634.521	12569.99
634.875	12629.2
635.229	12582.88
635.583	12518.02
635.937	12530.45
636.291	12436.21
636.645	12524.8
636.999	12455.65
637.352	12520.05
637.706	12432.6
638.06	12521.18
638.413	12421.98
638.767	12440.73
639.121	12480.96
639.474	12318.25
639.828	12414.97
640.181	12435.31
640.534	12368.42
640.888	12346.27
641.241	12346.5
641.594	12363.67
641.947	12408.87
642.301	12354.63
642.654	12351.02
643.007	12314.18
643.36	12360.06
643.713	12276.67
644.066	12372.94
644.419	12248.87
644.771	12252.26
645.124	12147.41
645.477	12068.99
645.83	12047.75
646.182	11927.07
646.535	11954.19
646.888	11937.92
647.24	11892.95
647.593	11979.95
647.945	11889.56
648.298	11848.88
648.65	11797.81
649.002	11745.16
649.355	11885.72
649.707	11873.97
650.059	11911.25
650.411	12073.06
650.763	12028.09
651.115	12219.5
651.467	12088.65
651.819	12096.11
652.171	12125.03
652.523	12122.32
652.875	12126.39
653.227	12005.26
653.578	12154.64
653.93	12142.43
654.282	12060.86
654.633	12020.18
654.985	12102.66
655.337	12068.99
655.688	12114.64
656.039	12195.77
656.391	12074.87
656.742	12096.79
657.094	12132.04
657.445	12200.29
657.796	12193.96
658.147	12146.05
658.498	12118.25
658.849	12177.01
659.2	12189.44
659.551	12158.25
659.902	12161.64
660.253	12159.61
660.604	12167.07
660.955	12139.05
661.306	12258.59
661.656	12144.24
662.007	12201.42
662.358	12177.24
662.708	12147.18
663.059	12209.1
663.409	12092.04
663.76	12192.38
664.11	12186.5
664.461	12204.35
664.811	12215.88
665.161	12228.31
665.511	12145.82
665.862	12219.95
666.212	12195.77
666.562	12254.07
666.912	12182.43
667.262	12207.07
667.612	12238.03
667.962	12249.78
668.312	12256.33
668.662	12249.78
669.011	12245.26
669.361	12193.96
669.711	12153.51
670.06	12189.21
670.41	12196.22
670.76	12126.39
671.109	12170
671.459	12119.16
671.808	12205.03
672.157	12175.43
672.507	12087.52
672.856	12052.49
673.205	12082.32
673.554	12108.31
673.904	12074.87
674.253	12176.33
674.602	12073.51
674.951	12008.88
675.3	11870.35
675.649	12025.6
675.998	12040.97
676.346	12083.91
676.695	12034.64
677.044	11949.67
677.393	12062.66
677.741	12054.08
678.09	11960.97
678.438	11928.43
678.787	11957.13
679.135	11962.55
679.484	11844.36
679.832	11805.95
680.181	11786.51
680.529	11776.79
680.877	11797.36
681.225	11799.17
681.573	11821.99
681.922	11774.76
682.27	11717.81
682.618	11659.96
682.966	11632.39
683.314	11727.76
683.661	11600.3
684.009	11621.32
684.357	11545.16
684.705	11545.61
685.053	11553.3
685.4	11511.27
685.748	11481.44
686.095	11437.14
686.443	11451.38
686.79	11463.58
687.138	11518.95
687.485	11432.4
687.832	11382.23
688.18	11360.08
688.527	11276.7
688.874	11271.27
689.221	11211.16
689.568	11202.57
689.915	11140.2
690.262	11152.63
690.609	11166.42
690.956	11021.79
691.303	11060.66
691.65	11006.65
691.997	11013.65
692.344	10976.59
692.69	10908.57
693.037	10911.05
693.383	10836.93
693.73	10771.85
694.077	10830.83
694.423	10726.43
694.769	10733.88
695.116	10644.4
695.462	10691.85
695.808	10663.15
696.155	10647.79
696.501	10524.85
696.847	10569.59
697.193	10408.47
697.539	10467.68
697.885	10330.96
698.231	10253.45
698.577	10338.87
698.923	10260.45
699.269	10231.07
699.614	10164.86
699.96	10162.15
700.306	10100.68
700.651	10073.11
700.997	10008.93
701.342	10068.37
701.688	10024.52
702.033	9897.52
702.379	9996.73
702.724	9950.85
703.069	9961.7
703.415	9794.93
703.76	9806.23
704.105	9810.74
704.45	9768.49
704.795	9694.59
705.14	9607.81
705.485	9646.91
705.83	9600.81
706.175	9612.11
706.52	9530.75
706.865	9544.54
707.209	9500.47
707.554	9458.21
707.899	9459.12
708.243	9374.37
708.588	9312
708.932	9282.85
709.277	9152.68
709.621	9320.36
709.966	9230.87
710.31	9230.2
710.654	9147.94
710.998	9165.79
711.342	9203.98
711.687	9101.84
712.031	9154.94
712.375	9105
712.719	9104.1
713.063	9080.59
713.407	9104.77
713.75	9044.21
714.094	8998.34
714.438	8962.86
714.782	8962.63
715.125	8962.41
715.469	8980.71
715.812	8870.88
716.156	8873.82
716.499	8904.33
716.843	8935.74
717.186	8849.87
717.53	8883.54
717.873	8882.86
718.216	8791.11
718.559	8830.21
718.902	8799.92
719.246	8795.4
719.589	8781.39
719.932	8698.23
720.275	8673.37
720.617	8754.5
720.96	8716.08
721.303	8662.3
721.646	8725.35
721.989	8663.43
722.331	8694.84
722.674	8594.51
723.016	8652.81
723.359	8654.84
723.701	8640.38
724.044	8541.4
724.386	8564.22
724.729	8614.62
725.071	8584.79
725.413	8632.7
725.755	8575.3
726.097	8581.17
726.439	8473.83
726.782	8551.12
727.124	8550.44
727.465	8569.42
727.807	8526.48
728.149	8500.04
728.491	8495.53
728.833	8442.19
729.175	8462.98
729.516	8481.06
729.858	8529.2
730.199	8446.26
730.541	8486.49
730.882	8440.39
731.224	8429.99
731.565	8433.61
731.906	8387.51
732.248	8468.63
732.589	8466.83
732.93	8457.11
733.271	8375.53
733.612	8528.29
733.953	8528.52
734.294	8442.19
734.635	8444.68
734.976	8452.14
735.317	8431.8
735.658	8489.65
735.999	8506.37
736.339	8459.82
736.68	8502.53
737.021	8467.73
737.361	8414.17
737.702	8443.78
738.042	8520.16
738.383	8455.3
738.723	8533.26
739.063	8532.36
739.404	8568.97
739.744	8528.07
740.084	8563.77
740.424	8554.05
740.764	8565.35
741.104	8541.85
741.444	8551.34
741.784	8625.69
742.124	8590.66
742.464	8648.06
742.804	8668.4
743.143	8629.76
743.483	8702.75
743.823	8746.59
744.162	8726.93
744.502	8705.24
744.841	8798.12
745.181	8902.52
745.52	8808.96
745.86	8952.24
746.199	8857.32
746.538	8895.74
746.877	8963.76
747.216	9059.58
747.556	9059.13
747.895	9122.18
748.234	9151.33
748.573	9196.52
748.911	9289.85
749.25	9352
749.589	9399.23
749.928	9483.3
750.267	9504.31
750.605	9533.24
750.944	9671.31
751.283	9722.84
751.621	9830.41
751.96	9922.38
752.298	9991.31
752.636	10080.12
752.975	10119.89
753.313	10241.24
753.651	10438.3
753.989	10508.35
754.327	10665.41
754.666	10621.57
755.004	10841.68
755.342	10961
755.679	11112.18
756.017	11175.45
756.355	11335.9
756.693	11464.71
757.031	11685.05
757.368	11715.1
757.706	11846.62
758.044	12070.57
