Data from hue_60_FLMS001491_85.txt Node
Date: Mon Feb 06 15:18:03 GMT 2017
User: dcchb
Spectrometer: FLMS00149
Trigger mode: 0
Integration Time (sec): 2.000000E-2
Scans to average: 10
Electric dark correction enabled: true
Nonlinearity correction enabled: false
Boxcar width: 0
XAxis mode: Wavelengths
Number of Pixels in Spectrum: 2048
>>>>>Begin Spectral Data<<<<<
341.393	-10
341.776	-10
342.16	-10
342.543	-70.79
342.927	-56.33
343.31	-52.48
343.693	-60.39
344.077	-65.37
344.46	-62.65
344.843	-67.63
345.226	-48.42
345.61	-35.54
345.993	-13.39
346.376	-9.55
346.759	-10.9
347.142	19.6
347.525	25.71
347.908	71.13
348.291	64.12
348.674	98.92
349.057	146.83
349.44	121.07
349.823	130.11
350.206	161.07
350.588	178.7
350.971	207.62
351.354	229.54
351.737	265.25
352.119	271.57
352.502	282.42
352.884	272.7
353.267	281.97
353.65	298.01
354.032	317.22
354.414	316.77
354.797	329.88
355.179	331.46
355.562	322.65
355.944	340.27
356.326	357.22
356.709	342.31
357.091	345.7
357.473	345.92
357.855	330.33
358.238	366.04
358.62	354.06
359.002	326.94
359.384	341.4
359.766	349.54
360.148	336.43
360.53	364
360.912	361.52
361.294	354.06
361.676	351.12
362.057	327.84
362.439	335.53
362.821	360.61
363.203	341.4
363.584	308.41
363.966	341.18
364.348	327.62
364.729	337.11
365.111	338.69
365.493	292.82
365.874	335.75
366.256	305.25
366.637	324.91
367.019	331.23
367.4	328.3
367.781	319.26
368.163	327.62
368.544	325.36
368.925	337.11
369.306	324.23
369.688	324.91
370.069	320.16
370.45	324.68
370.831	333.95
371.212	330.78
371.593	326.26
371.974	319.03
372.355	319.94
372.736	336.43
373.117	331.46
373.498	320.61
373.879	335.3
374.26	303.66
374.641	327.17
375.021	318.58
375.402	322.19
375.783	314.06
376.163	321.52
376.544	326.26
376.925	324.68
377.305	341.86
377.686	330.56
378.066	328.07
378.447	335.08
378.827	368.75
379.208	323.1
379.588	318.81
379.968	328.3
380.349	339.37
380.729	330.33
381.109	336.88
381.489	340.05
381.87	359.93
382.25	329.2
382.63	325.58
383.01	321.97
383.39	343.44
383.77	338.92
384.15	341.63
384.53	345.47
384.91	361.97
385.29	340.5
385.67	357.9
386.049	370.78
386.429	356.32
386.809	373.72
387.189	350.89
387.568	351.12
387.948	364.68
388.328	352.7
388.707	379.59
389.087	358.13
389.466	378.24
389.846	381.18
390.225	356.32
390.605	354.74
390.984	360.16
391.363	357.45
391.743	366.71
392.122	364
392.501	387.05
392.881	360.84
393.26	357.45
393.639	358.58
394.018	374.85
394.397	362.65
394.776	372.36
395.155	361.52
395.534	379.14
395.913	394.74
396.292	382.76
396.671	383.21
397.05	380.95
397.429	389.76
397.808	368.97
398.186	377.11
398.565	389.09
398.944	375.07
399.323	395.64
399.701	409.65
400.08	400.16
400.458	371.69
400.837	401.06
401.215	405.36
401.594	384.79
401.972	394.51
402.351	411.68
402.729	415.53
403.107	399.71
403.486	409.65
403.864	392.02
404.242	410.55
404.62	431.12
404.999	415.75
405.377	423.66
405.755	419.14
406.133	411.91
406.511	416.43
406.889	404.68
407.267	417.79
407.645	430.21
408.023	422.31
408.401	408.29
408.779	424.79
409.156	458.69
409.534	437.22
409.912	440.61
410.29	456.65
410.667	453.72
411.045	437.9
411.422	466.15
411.8	455.3
412.178	485.81
412.555	446.49
412.933	459.37
413.31	441.74
413.687	467.73
414.065	455.75
414.442	456.2
414.819	465.02
415.197	466.82
415.574	471.34
415.951	480.61
416.328	471.34
416.705	473.6
417.082	498.01
417.46	490.55
417.837	511.12
418.214	516.09
418.591	489.2
418.967	495.52
419.344	486.71
419.721	492.59
420.098	491.91
420.475	522.87
420.852	501.4
421.228	509.76
421.605	509.99
421.982	489.42
422.358	524.22
422.735	514.73
423.111	507.95
423.488	530.78
423.864	550.66
424.241	533.04
424.617	540.95
424.994	512.02
425.37	547.95
425.746	538.01
426.123	566.71
426.499	560.83
426.875	536.43
427.251	559.25
427.627	549.53
428.003	566.93
428.379	550.44
428.756	563.54
429.132	575.07
429.507	582.3
429.883	580.49
430.259	593.6
430.635	589.76
431.011	612.58
431.387	576.65
431.763	608.06
432.138	604.45
432.514	604
432.89	610.77
433.265	619.81
433.641	628.18
434.016	636.08
434.392	641.28
434.767	665.01
435.143	639.7
435.518	681.28
435.894	649.42
436.269	639.7
436.644	637.44
437.02	649.42
437.395	666.14
437.77	672.24
438.145	665.01
438.52	684.67
438.895	668.17
439.271	691.45
439.646	700.26
440.021	708.4
440.395	726.7
440.77	690.77
441.145	704.11
441.52	694.16
441.895	698
442.27	705.01
442.645	719.7
443.019	747.27
443.394	740.26
443.769	718.79
444.143	748.62
444.518	741.62
444.892	756.08
445.267	728.51
445.641	749.53
446.016	757.44
446.39	768.06
446.764	771.9
447.139	767.83
447.513	756.31
447.887	775.74
448.262	765.12
448.636	784.1
449.01	790.88
449.384	780.26
449.758	786.36
450.132	800.37
450.506	823.88
450.88	791.56
451.254	822.07
451.628	849.64
452.002	835.18
452.376	829.3
452.75	838.79
453.123	833.14
453.497	860.26
453.871	856.64
454.244	890.32
454.618	876.08
454.992	869.3
455.365	880.37
455.739	908.85
456.112	914.04
456.486	909.3
456.859	904.55
457.232	938.9
457.606	944.78
457.979	952.23
458.352	959.47
458.725	982.29
459.099	995.85
459.472	1006.92
459.845	1000.14
460.218	1013.93
460.591	1023.65
460.964	1045.79
461.337	1062.74
461.71	1059.58
462.083	1065.9
462.456	1094.38
462.829	1066.13
463.201	1114.94
463.574	1139.8
463.947	1147.71
464.32	1142.51
464.692	1149.74
465.065	1189.29
465.438	1174.15
465.81	1206.01
466.183	1218.67
466.555	1261.15
466.928	1258.22
467.3	1265.67
467.672	1286.24
468.045	1328.04
468.417	1335.5
468.789	1376.63
469.161	1358.55
469.534	1380.7
469.906	1421.6
470.278	1438.78
470.65	1460.7
471.022	1490.3
471.394	1524.2
471.766	1518.77
472.138	1559.9
472.51	1626.12
472.882	1626.57
473.253	1673.57
473.625	1701.14
473.997	1768.26
474.369	1782.5
474.74	1786.79
475.112	1849.16
475.484	1923.96
475.855	1967.12
476.227	1974.35
476.598	2036.73
476.97	2116.05
477.341	2161.47
477.713	2243.05
478.084	2243.27
478.455	2338.19
478.827	2379.99
479.198	2469.94
479.569	2482.14
479.94	2582.25
480.311	2668.35
480.682	2736.37
481.053	2854.33
481.424	2923.48
481.795	2978.85
482.166	3110.14
482.537	3170.48
482.908	3313.98
483.279	3349.46
483.65	3434.43
484.021	3593.52
484.391	3671.26
484.762	3772.27
485.133	3825.15
485.503	3974.08
485.874	4070.12
486.244	4214.3
486.615	4381.3
486.985	4447.28
487.356	4575.87
487.726	4690.67
488.097	4892.7
488.467	4927.72
488.837	5108.74
489.207	5260.37
489.578	5388.5
489.948	5526.35
490.318	5618.33
490.688	5776.74
491.058	5920.47
491.428	6103.51
491.798	6193.23
492.168	6467.34
492.538	6525.42
492.908	6702.82
493.278	6859.2
493.648	6981.91
494.017	7144.61
494.387	7291.5
494.757	7459.18
495.126	7596.35
495.496	7747.08
495.866	7907.76
496.235	8075.89
496.605	8159.5
496.974	8439.04
497.344	8553.62
497.713	8647.17
498.082	8776.66
498.452	9022.53
498.821	9110.21
499.19	9278.8
499.559	9381.17
499.928	9573.7
500.298	9780.93
500.667	9879.23
501.036	9919
501.405	10168.26
501.774	10227.02
502.143	10450.52
502.512	10519.67
502.88	10756.27
503.249	10804.41
503.618	10989.94
503.987	11090.05
504.356	11274.68
504.724	11416.37
505.093	11480.55
505.462	11618.17
505.83	11804.38
506.199	11964.37
506.567	12192.84
506.936	12234.88
507.304	12469.22
507.672	12469.9
508.041	12660.18
508.409	12875.09
508.777	13029.21
509.145	13116.89
509.514	13199.6
509.882	13407.73
510.25	13356.43
510.618	13732.24
510.986	13797.55
511.354	13898.34
511.722	14055.85
512.09	14296.29
512.458	14268.72
512.826	14467.13
513.193	14581.71
513.561	14715.94
513.929	14824.19
514.297	15019.89
514.664	15167.68
515.032	15235.48
515.4	15516.82
515.767	15564.28
516.135	15689.02
516.502	15692.64
516.869	16009.69
517.237	16023.7
517.604	16055.57
517.972	16278.61
518.339	16390.02
518.706	16465.27
519.073	16664.14
519.44	16713.63
519.808	16938.26
520.175	17017.58
520.542	17176.67
520.909	17325.14
521.276	17386.38
521.643	17575.75
522.009	17817.33
522.376	17877.67
522.743	18008.28
523.11	18197.43
523.477	18431.32
523.843	18519.91
524.21	18683.52
524.577	18908.37
524.943	18971.42
525.31	19095.71
525.676	19363.5
526.043	19486.44
526.409	19643.49
526.776	19901.57
527.142	19829.03
527.508	20018.85
527.874	20026.76
528.241	20243.03
528.607	20245.06
528.973	20542.68
529.339	20569.8
529.705	20807.98
530.071	20921.43
530.437	20949.9
530.803	21188.09
531.169	21298.37
531.535	21330
531.901	21504.46
532.267	21514.63
532.632	21643.89
532.998	21689.77
533.364	21833.49
533.73	21946.49
534.095	22166.37
534.461	22234.84
534.826	22302.41
535.192	22391.67
535.557	22649.52
535.923	22586.92
536.288	22737.42
536.653	22877.76
537.019	22873.24
537.384	22932.67
537.749	23073.01
538.114	23086.79
538.479	23178.54
538.845	23275.26
539.21	23315.04
539.575	23435.71
539.94	23510.29
540.305	23718.42
540.67	23638.42
541.034	23654.91
541.399	23765.87
541.764	23917.73
542.129	23973.32
542.494	24099.2
542.858	24133.32
543.223	24249.02
543.587	24358.4
543.952	24353.88
544.316	24425.52
544.681	24423.26
545.045	24609.24
545.41	24779.86
545.774	24754.55
546.138	24775.56
546.503	24858.5
546.867	24873.19
547.231	25119.73
547.595	25115.22
547.959	25262.56
548.324	25332.84
548.688	25383
549.052	25364.7
549.416	25432.04
549.779	25596.11
550.143	25585.03
550.507	25917.23
550.871	25850.11
551.235	25985.7
551.599	26008.98
551.962	26138.92
552.326	26146.37
552.689	26379.14
553.053	26258.24
553.417	26387.5
553.78	26675.4
554.143	26528.51
554.507	26772.57
554.87	26771.89
555.234	27152
555.597	26938.9
555.96	27205.33
556.323	27232
556.686	27237.87
557.05	27534.13
557.413	27574.13
557.776	27537.98
558.139	27797.4
558.502	27876.5
558.865	27989.72
559.228	28152.2
559.59	28226.09
559.953	28297.96
560.316	28598.29
560.679	28522.13
561.041	28773.88
561.404	28853.2
561.767	29090.48
562.129	29066.75
562.492	29356.46
562.854	29290.7
563.217	29399.62
563.579	29410.7
563.941	29534.99
564.304	29793.96
564.666	29878.25
565.028	30065.37
565.39	30085.93
565.753	30373.83
566.115	30361.41
566.477	30598.01
566.839	30664.67
567.201	30777.89
567.563	30714.39
567.925	30970.43
568.287	31083.87
568.648	31089.75
569.01	31360.93
569.372	31567.02
569.734	31507.14
570.095	31620.81
570.457	31861.48
570.819	31881.14
571.18	31915.26
571.542	32094.92
571.903	32137.18
572.265	32314.35
572.626	32419.2
572.987	32397.96
573.349	32488.58
573.71	32758.18
574.071	32749.82
574.432	32818.06
574.794	33069.13
575.155	32965.63
575.516	32987.78
575.877	33112.07
576.238	33212.63
576.599	33273.42
576.96	33323.36
577.32	33385.28
577.681	33512.06
578.042	33501.89
578.403	33618.27
578.763	33628.66
579.124	33723.12
579.485	33985.72
579.845	33867.75
580.206	33804.7
580.566	33895.32
580.927	33896.45
581.287	34133.96
581.648	33971.48
582.008	33980.29
582.368	34127.86
582.728	34131.02
583.089	34127.63
583.449	34210.8
583.809	34184.81
584.169	34341.87
584.529	34133.28
584.889	34518.13
585.249	34263.45
585.609	34385.48
585.969	34424.35
586.329	34305.71
586.688	34502.09
587.048	34363.56
587.408	34252.15
587.768	34380.06
588.127	34477.91
588.487	34301.41
588.846	34678.13
589.206	34328.31
589.565	34431.35
589.925	34566.94
590.284	34527.62
590.643	34546.83
591.003	34651.69
591.362	34761.74
591.721	34736.21
592.08	34682.87
592.44	34676.32
592.799	34808.29
593.158	34714.28
593.517	34709.99
593.876	34850.78
594.235	34823.66
594.593	34884
594.952	34871.12
595.311	34781.63
595.67	34893.94
596.029	35098.23
596.387	35118.57
596.746	35105.69
597.104	34999.25
597.463	34934.84
597.822	35159.25
598.18	35024.56
598.538	35009.87
598.897	35315.4
599.255	35118.57
599.613	35513.13
599.972	35296.19
600.33	35385.23
600.688	35254.84
601.046	35465.45
601.404	35526.92
601.762	35548.39
602.12	35624.77
602.478	35769.85
602.836	35734.15
603.194	35550.2
603.552	35582.74
603.91	35606.46
604.268	35696.41
604.625	35755.61
604.983	35877.42
605.341	35856.4
605.698	35994.25
606.056	36058.2
606.413	36032.44
606.771	36184.53
607.128	36243.96
607.485	36166.45
607.843	36156.51
608.2	36324.86
608.557	36453.45
608.914	36377.97
609.272	36474.24
609.629	36650.51
609.986	36737.73
610.343	36584.52
610.7	36877.62
611.057	36876.71
611.414	36869.93
611.771	36977.73
612.127	37069.93
612.484	36989.93
612.841	37151.74
613.198	37034
613.554	37204.84
613.911	37284.84
614.267	37332.97
614.624	37375.23
614.98	37391.95
615.337	37576.58
615.693	37536.13
616.05	37602.12
616.406	37759.85
616.762	37565.06
617.118	37580.65
617.475	37729.57
617.831	37800.08
618.187	37928.44
618.543	37825.62
618.899	38121.65
619.255	38016.35
619.611	38094.99
619.967	38314.64
620.323	38184.48
620.678	38097.92
621.034	38059.28
621.39	38069.23
621.746	38271.71
622.101	38634.18
622.457	38264.25
622.812	38343.34
623.168	38570.23
623.523	38396.22
623.879	38576.56
624.234	38279.84
624.589	38407.97
624.945	38558.25
625.3	38612.26
625.655	38508.76
626.01	38568.65
626.365	38753.05
626.72	38595.31
627.075	38653.62
627.43	38597.35
627.785	38590.57
628.14	38634.41
628.495	38598.48
628.85	38588.76
629.205	38470.34
629.559	38734.52
629.914	38724.8
630.269	38770.22
630.623	38603.9
630.978	38475.99
631.332	38691.81
631.687	38609.55
632.041	38588.99
632.396	38772.71
632.75	38528.87
633.104	38522.55
633.459	38451.81
633.813	38572.94
634.167	38468.76
634.521	38590.34
634.875	38572.49
635.229	38360.74
635.583	38335.88
635.937	38412.27
636.291	38277.13
636.645	38370.46
636.999	38420.18
637.352	38388.54
637.706	38137.25
638.06	38388.31
638.413	38135.89
638.767	38135.66
639.121	38197.13
639.474	37971.15
639.828	37969.11
640.181	38184.25
640.534	38176.79
640.888	38111.48
641.241	37846.63
641.594	37938.61
641.947	37990.81
642.301	37906.07
642.654	37876.91
643.007	37964.14
643.36	37739.97
643.713	37885.73
644.066	37920.75
644.419	37756.92
644.771	37549.46
645.124	37189.25
645.477	37121.68
645.83	36935.24
646.182	36849.14
646.535	36567.34
646.888	36798.52
647.24	36605.31
647.593	36816.83
647.945	36698.87
648.298	36610.96
648.65	36526.44
649.002	36285.54
649.355	36497.51
649.707	36532.32
650.059	36615.7
650.411	36990.84
650.763	36991.51
651.115	37411.16
651.467	37293.65
651.819	37423.59
652.171	37262.47
652.523	37189.93
652.875	37153.99
653.227	37043.72
653.578	37324.16
653.93	37258.4
654.282	37096.6
654.633	36882.82
654.985	37043.72
655.337	37015.47
655.688	36936.6
656.039	37135.01
656.391	36822.25
656.742	36862.03
657.094	36763.27
657.445	36964.85
657.796	36942.02
658.147	36896.83
658.498	36882.14
658.849	36896.15
659.2	36756.04
659.551	36696.38
659.902	36979.31
660.253	36926.2
660.604	36946.09
660.955	36662.03
661.306	36860.9
661.656	36728.47
662.007	36674.69
662.358	36771.63
662.708	36712.65
663.059	36689.83
663.409	36505.2
663.76	36829.26
664.11	36664.06
664.461	36810.73
664.811	36761.24
665.161	36713.33
665.511	36577.96
665.862	36554.24
666.212	36808.47
666.562	36762.14
666.912	36673.56
667.262	36655.25
667.612	36535.03
667.962	36654.57
668.312	36665.42
668.662	36760.56
669.011	36543.84
669.361	36400.57
669.711	36524.18
670.06	36541.58
670.41	36459.1
670.76	36418.19
671.109	36565.99
671.459	36502.03
671.808	36529.15
672.157	36476.72
672.507	36277.63
672.856	36273.79
673.205	36316.73
673.554	36475.82
673.904	36286.67
674.253	36431.3
674.602	36264.75
674.951	35817.76
675.3	35709.06
675.649	36192.89
675.998	36090.52
676.346	36191.99
676.695	36364.64
677.044	36019.79
677.393	36221.36
677.741	36178.88
678.09	36081.93
678.438	35931.88
678.787	36015.72
679.135	36008.04
679.484	35767.36
679.832	35944.99
680.181	35709.06
680.529	35792.9
680.877	35871.54
681.225	35710.87
681.573	35927.36
681.922	35623.19
682.27	35666.8
682.618	35527.82
682.966	35422.74
683.314	35641.49
683.661	35438.79
684.009	35349.75
684.357	35274.5
684.705	35128.29
685.053	35219.81
685.4	35178.23
685.748	35013.03
686.095	35047.38
686.443	34962.19
686.79	34867.05
687.138	34983.88
687.485	34867.95
687.832	34886.48
688.18	34890.1
688.527	34660.05
688.874	34505.7
689.221	34640.61
689.568	34506.38
689.915	34148.42
690.262	34411.69
690.609	34293.51
690.956	34113.85
691.303	34128.31
691.65	33975.32
691.997	33944.36
692.344	33733.29
692.69	33737.59
693.037	33807.42
693.383	33618.95
693.73	33488.55
694.077	33483.81
694.423	33412.85
694.769	33270.71
695.116	33211.05
695.462	33162.01
695.808	33149.13
696.155	33040.43
696.501	32852.64
696.847	32933.77
697.193	32625.98
697.539	32774.9
697.885	32469.82
698.231	32487.68
698.577	32438.64
698.923	32366.1
699.269	32210.62
699.614	32147.8
699.96	32157.74
700.306	32118.42
700.651	31981.48
700.997	31854.02
701.342	31659.68
701.688	31802.95
702.033	31675.95
702.379	31633.01
702.724	31495.39
703.069	31570.19
703.415	31224.89
703.76	31223.3
704.105	31298.78
704.45	31143.31
704.795	30995.29
705.14	30952.35
705.485	30948.06
705.83	30810.43
706.175	30870.54
706.52	30628.06
706.865	30626.48
707.209	30519.59
707.554	30383.78
707.899	30400.95
708.243	30284.8
708.588	30371.57
708.932	30098.59
709.277	30074.63
709.621	30158.7
709.966	29873.96
710.31	29951.47
710.654	29756
710.998	29722.1
711.342	29787.63
711.687	29766.62
712.031	29579.96
712.375	29404.59
712.719	29552.39
713.063	29529.56
713.407	29595.1
713.75	29344.26
714.094	29309.46
714.438	29234.43
714.782	29223.81
715.125	29109.91
715.469	29233.98
715.812	28969.8
716.156	28753.54
716.499	28910.37
716.843	28849.81
717.186	28584.05
717.53	28845.29
717.873	28804.38
718.216	28736.36
718.559	28577.27
718.902	28429.7
719.246	28391.29
719.589	28430.61
719.932	28233.1
720.275	28187.68
720.617	28169.82
720.96	28234
721.303	28264.29
721.646	28179.99
721.989	27980.22
722.331	28172.99
722.674	27971.86
723.016	27942.26
723.359	27901.13
723.701	27885.09
724.044	27683.74
724.386	27598.54
724.729	27708.59
725.071	27597.86
725.413	27562.38
725.755	27544.08
726.097	27563.06
726.439	27374.59
726.782	27359
727.124	27479.22
727.465	27307.25
727.807	27331.88
728.149	27295.95
728.491	27097.54
728.833	27274.48
729.175	27185.9
729.516	27016.86
729.858	27083.07
730.199	27102.73
730.541	27068.16
730.882	26973.92
731.224	26969.18
731.565	26719.69
731.906	26829.75
732.248	26765.57
732.589	26740.03
732.93	26657.77
733.271	26771.22
733.612	26557.44
733.953	26588.4
734.294	26486.25
734.635	26413.49
734.976	26535.74
735.317	26400.15
735.658	26302.75
735.999	26359.93
736.339	26312.02
736.68	26411.23
737.021	26293.26
737.361	26196.99
737.702	26217.11
738.042	26053.27
738.383	26003.55
738.723	26144.57
739.063	26123.55
739.404	25972.14
739.744	25964.68
740.084	25943.67
740.424	25981.86
740.764	25876.1
741.104	25957.68
741.444	25833.61
741.784	25648.76
742.124	25777.57
742.464	25647.86
742.804	25552.49
743.143	25667.52
743.483	25641.76
743.823	25436.56
744.162	25480.86
744.502	25532.15
744.841	25478.82
745.181	25405.6
745.52	25337.58
745.86	25291.48
746.199	25291.26
746.538	25252.84
746.877	25188.66
747.216	25273.86
747.556	25100.75
747.895	25139.85
748.234	25057.36
748.573	25030.25
748.911	24972.85
749.25	24984.6
749.589	24875.45
749.928	24853.98
750.267	24872.96
750.605	24772.85
750.944	24759.29
751.283	24628.22
751.621	24724.72
751.96	24627.32
752.298	24497.15
752.636	24619.18
752.975	24395.91
753.313	24322.69
753.651	24420.54
753.989	24295.58
754.327	24214.67
754.666	24110.27
755.004	24150.04
755.342	24179.19
755.679	24124.05
756.017	24007.45
756.355	24042.93
756.693	23816.27
757.031	23990.05
757.368	23686.1
