Data from hue_30_FLMS001491_47.txt Node
Date: Mon Feb 06 15:05:23 GMT 2017
User: dcchb
Spectrometer: FLMS00149
Trigger mode: 0
Integration Time (sec): 2.000000E-2
Scans to average: 10
Electric dark correction enabled: true
Nonlinearity correction enabled: false
Boxcar width: 0
XAxis mode: Wavelengths
Number of Pixels in Spectrum: 2048
>>>>>Begin Spectral Data<<<<<
341.393	-16.37
341.776	-16.37
342.16	-16.37
342.543	-78.74
342.927	-92.53
343.31	-50.27
343.693	-64.05
344.077	-70.38
344.46	-66.54
344.843	-37.84
345.226	-52.75
345.61	-10.49
345.993	-29.48
346.376	-4.84
346.759	5.32
347.142	6.23
347.525	33.35
347.908	59.33
348.291	68.37
348.674	102.05
349.057	111.99
349.44	104.53
349.823	131.88
350.206	171.87
350.588	208.71
350.971	211.2
351.354	220.46
351.737	261.59
352.119	247.58
352.502	239.22
352.884	267.69
353.267	258.65
353.65	281.25
354.032	279.44
354.414	298.65
354.797	297.97
355.179	349.5
355.562	303.85
355.944	317.18
356.326	331.19
356.709	315.37
357.091	318.31
357.473	345.65
357.855	342.72
358.238	349.5
358.62	335.26
359.002	326.67
359.384	332.55
359.766	332.55
360.148	344.52
360.53	335.71
360.912	333
361.294	328.93
361.676	326.67
362.057	344.07
362.439	320.57
362.821	332.1
363.203	336.39
363.584	312.89
363.966	317.18
364.348	303.17
364.729	343.39
365.111	320.8
365.493	311.31
365.874	322.83
366.256	329.38
366.637	315.15
367.019	310.18
367.4	320.8
367.781	311.31
368.163	302.94
368.544	308.14
368.925	310.18
369.306	311.53
369.688	305.43
370.069	304.3
370.45	318.54
370.831	307.69
371.212	307.46
371.593	288.48
371.974	325.09
372.355	305.66
372.736	326.67
373.117	328.93
373.498	318.31
373.879	313.79
374.26	304.07
374.641	307.46
375.021	314.92
375.402	301.59
375.783	310.63
376.163	322.6
376.544	348.14
376.925	311.98
377.305	320.8
377.686	304.3
378.066	334.13
378.447	316.95
378.827	324.41
379.208	327.35
379.588	333.23
379.968	336.16
380.349	331.19
380.729	317.41
381.109	330.29
381.489	323.96
381.87	330.06
382.25	340.68
382.63	329.16
383.01	351.3
383.39	335.71
383.77	355.6
384.15	356.28
384.53	338.65
384.91	331.87
385.29	361.25
385.67	328.25
386.049	350.85
386.429	341.81
386.809	344.3
387.189	346.56
387.568	379.33
387.948	335.03
388.328	368.03
388.707	350.63
389.087	346.33
389.466	354.47
389.846	358.08
390.225	382.94
390.605	349.04
390.984	361.93
391.363	343.62
391.743	341.81
392.122	366.45
392.501	347.69
392.881	373.22
393.26	360.57
393.639	364.41
394.018	355.37
394.397	373.45
394.776	342.72
395.155	366.45
395.534	384.98
395.913	368.48
396.292	380
396.671	366.45
397.05	367.35
397.429	396.5
397.808	387.91
398.186	365.99
398.565	377.97
398.944	374.81
399.323	404.41
399.701	390.63
400.08	391.08
400.458	380.68
400.837	378.42
401.215	394.02
401.594	384.75
401.972	390.17
402.351	382.26
402.729	396.73
403.107	403.73
403.486	416.61
403.864	421.13
404.242	412.77
404.62	393.79
404.999	403.28
405.377	376.84
405.755	397.18
406.133	420.68
406.511	404.64
406.889	434.01
407.267	406.44
407.645	413.22
408.023	432.21
408.401	421.36
408.779	430.62
409.156	423.62
409.534	424.75
409.912	439.89
410.29	435.82
410.667	445.77
411.045	427.46
411.422	452.09
411.8	449.83
412.178	427.23
412.555	471.08
412.933	445.99
413.31	468.14
413.687	465.43
414.065	455.93
414.442	433.34
414.819	459.55
415.197	469.49
415.574	459.1
415.951	474.24
416.328	466.1
416.705	478.31
417.082	491.19
417.46	504.97
417.837	472.21
418.214	493.45
418.591	479.21
418.967	469.04
419.344	502.49
419.721	501.81
420.098	479.21
420.475	510.17
420.852	487.8
421.228	517.4
421.605	507.91
421.982	527.34
422.358	525.76
422.735	494.13
423.111	504.52
423.488	532.54
423.864	510.85
424.241	547.68
424.617	529.15
424.994	533.22
425.37	559.89
425.746	550.62
426.123	563.5
426.499	554.24
426.875	555.14
427.251	547.91
427.627	549.27
428.003	547.91
428.379	568.47
428.756	576.84
429.132	587.23
429.507	577.97
429.883	587.23
430.259	604.18
430.635	582.03
431.011	589.26
431.387	608.7
431.763	603.5
432.138	593.56
432.514	605.08
432.89	617.29
433.265	623.61
433.641	625.2
434.016	621.35
434.392	626.1
434.767	647.12
435.143	621.13
435.518	648.47
435.894	645.53
436.269	659.54
436.644	649.83
437.02	679.43
437.395	668.13
437.77	693.89
438.145	683.05
438.52	667.45
438.895	694.8
439.271	696.83
439.646	702.48
440.021	712.2
440.395	696.83
440.77	705.65
441.145	692.76
441.52	738.86
441.895	709.49
442.27	717.85
442.645	744.74
443.019	741.58
443.394	732.54
443.769	756.94
444.143	729.83
444.518	765.76
444.892	776.6
445.267	739.54
445.641	790.16
446.016	741.12
446.39	769.37
446.764	799.43
447.139	761.69
447.513	776.83
447.887	764.17
448.262	777.73
448.636	815.92
449.01	792.42
449.384	829.94
449.758	827.68
450.132	819.31
450.506	838.3
450.88	842.14
451.254	829.94
451.628	842.82
452.002	851.18
452.376	840.33
452.75	850.05
453.123	848.24
453.497	873.1
453.871	877.39
454.244	888.92
454.618	885.08
454.992	877.62
455.365	866.32
455.739	932.31
456.112	942.93
456.486	949.48
456.859	935.47
457.232	926.88
457.606	950.84
457.979	984.96
458.352	991.51
458.725	993.77
459.099	1013.89
459.472	1003.72
459.845	1040.55
460.218	1036.94
460.591	1036.03
460.964	1042.81
461.337	1051.62
461.71	1054.34
462.083	1052.98
462.456	1081.68
462.829	1102.25
463.201	1097.27
463.574	1106.09
463.947	1131.62
464.32	1132.07
464.692	1150.38
465.065	1150.83
465.438	1180.89
465.81	1194.67
466.183	1204.39
466.555	1204.16
466.928	1234.9
467.3	1244.84
467.672	1233.99
468.045	1251.85
468.417	1285.52
468.789	1306.99
469.161	1340.2
469.534	1337.27
469.906	1380.2
470.278	1365.74
470.65	1377.49
471.022	1440.54
471.394	1443.25
471.766	1446.42
472.138	1459.98
472.51	1488
472.882	1541.78
473.253	1531.61
473.625	1590.59
473.997	1636.69
474.369	1638.28
474.74	1661.78
475.112	1673.76
475.484	1689.8
475.855	1741.55
476.227	1777.93
476.598	1816.12
476.97	1830.36
477.341	1882.34
477.713	1910.36
478.084	1934.99
478.455	1956.91
478.827	1988.78
479.198	2040.07
479.569	2059.51
479.94	2163.01
480.311	2146.51
480.682	2205.27
481.053	2263.57
481.424	2305.38
481.795	2376.11
482.166	2400.06
482.537	2454.3
482.908	2506.5
483.279	2523.45
483.65	2594.86
484.021	2666.5
484.391	2705.37
484.762	2734.74
485.133	2773.16
485.503	2847.96
485.874	2919.15
486.244	2979.71
486.615	2990.78
486.985	3060.16
487.356	3127.95
487.726	3169.31
488.097	3243.66
488.467	3243.21
488.837	3361.17
489.207	3413.6
489.578	3488.17
489.948	3499.7
490.318	3578.34
490.688	3632.35
491.058	3665.79
491.428	3779.46
491.798	3836.86
492.168	3894.71
492.538	3910.76
492.908	3992.11
493.278	4080.02
493.648	4086.12
494.017	4130.64
494.387	4160.02
494.757	4244.99
495.126	4301.93
495.496	4383.29
495.866	4390.07
496.235	4420.35
496.605	4497.18
496.974	4553
497.344	4564.53
497.713	4663.06
498.082	4652.43
498.452	4750.06
498.821	4757.97
499.19	4776.27
499.559	4884.52
499.928	4886.55
500.298	4930.39
500.667	4987.79
501.036	4981.92
501.405	5056.27
501.774	5114.57
502.143	5152.31
502.512	5143.49
502.88	5205.64
503.249	5218.07
503.618	5307.56
503.987	5303.94
504.356	5334.22
504.724	5392.08
505.093	5418.97
505.462	5414.22
505.83	5479.31
506.199	5558.4
506.567	5592.07
506.936	5595.91
507.304	5674.1
507.672	5662.58
508.041	5743.48
508.409	5740.09
508.777	5787.77
509.145	5882.46
509.514	5827.09
509.882	5856.47
510.25	5922.23
510.618	5901.44
510.986	6017.37
511.354	6010.14
511.722	6062.79
512.09	6124.49
512.458	6122
512.826	6176.24
513.193	6158.84
513.561	6169.46
513.929	6237.25
514.297	6303.01
514.664	6315.67
515.032	6267.98
515.4	6368.32
515.767	6380.52
516.135	6405.61
516.502	6414.42
516.869	6546.4
517.237	6521.31
517.604	6466.17
517.972	6554.08
518.339	6624.59
518.706	6636.11
519.073	6573.51
519.44	6674.98
519.808	6762.44
520.175	6704.13
520.542	6780.29
520.909	6837.01
521.276	6777.8
521.643	6913.84
522.009	6917.01
522.376	6930.11
522.743	6944.35
523.11	7062.99
523.477	7099.83
523.843	7081.75
524.21	7167.17
524.577	7217.56
524.943	7260.5
525.31	7307.51
525.676	7341.63
526.043	7372.59
526.409	7412.59
526.776	7428.18
527.142	7538.46
527.508	7529.19
527.874	7564.9
528.241	7652.81
528.607	7660.94
528.973	7699.36
529.339	7745.46
529.705	7797.21
530.071	7820.94
530.437	7885.12
530.803	7882.18
531.169	7992.23
531.535	7951.78
531.901	7984.55
532.267	8027.26
532.632	8123.53
532.998	8142.06
533.364	8159.69
533.73	8186.35
534.095	8269.74
534.461	8280.36
534.826	8287.14
535.192	8327.59
535.557	8400.36
535.923	8403.75
536.288	8450.07
536.653	8491.88
537.019	8422.28
537.384	8520.58
537.749	8540.69
538.114	8595.16
538.479	8656.62
538.845	8696.85
539.21	8687.36
539.575	8694.36
539.94	8704.76
540.305	8764.42
540.67	8775.49
541.034	8856.17
541.399	8836.5
541.764	8947.24
542.129	8913.11
542.494	8961.7
542.858	9025.88
543.223	9006.44
543.587	9072.2
543.952	9145.2
544.316	9144.75
544.681	9118.76
545.045	9231.07
545.41	9264.52
545.774	9269.49
546.138	9359.66
546.503	9401.46
546.867	9337.51
547.231	9405.98
547.595	9455.47
547.959	9519.2
548.324	9486.21
548.688	9568.92
549.052	9648.24
549.416	9625.86
549.779	9626.54
550.143	9655.01
550.507	9768.91
550.871	9764.39
551.235	9725.75
551.599	9833.31
551.962	9915.35
552.326	9932.07
552.689	9940.2
553.053	9942.46
553.417	9955.57
553.78	9996.47
554.143	10021.33
554.507	10035.57
554.87	10095
555.234	10191.27
555.597	10142.46
555.96	10172.97
556.323	10168.67
556.686	10181.1
557.05	10235.11
557.413	10283.7
557.776	10360.31
558.139	10444.15
558.502	10406.41
558.865	10446.41
559.228	10551.49
559.59	10499.51
559.953	10567.08
560.316	10646.4
560.679	10617.02
561.041	10727.98
561.404	10816.57
561.767	10855.21
562.129	10762.1
562.492	10861.76
562.854	10864.93
563.217	10879.39
563.579	10941.08
563.941	10948.31
564.304	10999.61
564.666	11034.64
565.028	11145.82
565.39	11112.83
565.753	11152.15
566.115	11257.01
566.477	11297.23
566.839	11264.24
567.201	11348.76
567.563	11301.52
567.925	11420.39
568.287	11457.45
568.648	11469.2
569.01	11520.73
569.372	11613.61
569.734	11552.82
570.095	11649.31
570.457	11781.06
570.819	11831
571.18	11766.82
571.542	11826.03
571.903	11887.05
572.265	11964.56
572.626	12026.93
572.987	12144.89
573.349	12118
573.71	12176.53
574.071	12285
574.432	12341.5
574.794	12400.25
575.155	12466.69
575.516	12550.53
575.877	12625.11
576.238	12659.46
576.599	12778.55
576.96	12800.24
577.32	12915.72
577.681	13024.87
578.042	12979.9
578.403	13155.71
578.763	13284.52
579.124	13370.17
579.485	13478.87
579.845	13672.54
580.206	13755.47
580.566	13797.96
580.927	13938.52
581.287	14101.23
581.648	14256.02
582.008	14324.72
582.368	14583.92
582.728	14715.67
583.089	14782.11
583.449	14992.5
583.809	15205.83
584.169	15381.19
584.529	15453.05
584.889	15778.02
585.249	15841.07
585.609	15998.8
585.969	16317.66
586.329	16409.64
586.688	16603.31
587.048	16863.64
587.408	17031.54
587.768	17241.03
588.127	17455.26
588.487	17600.57
588.846	17881.01
589.206	18080.56
589.565	18281.91
589.925	18576.14
590.284	18784.27
590.643	19112.84
591.003	19326.62
591.362	19652.94
591.721	19834.86
592.08	20036.89
592.44	20292.93
592.799	20485.46
593.158	20738.79
593.517	21043.42
593.876	21240.7
594.235	21423.74
594.593	21813.11
594.952	22087.23
595.311	22150.96
595.67	22434.79
596.029	22920.2
596.387	23165.62
596.746	23375.33
597.104	23383.69
597.463	23723.57
597.822	24103.45
598.18	24235.42
598.538	24448.98
598.897	24825.46
599.255	24925.12
599.613	25414.83
599.972	25449.63
600.33	25862.5
600.688	25904.3
601.046	26178.42
601.404	26516.72
601.762	26605.08
602.12	27003.48
602.478	27232.41
602.836	27426.75
603.194	27563.7
603.552	27710.36
603.91	27904.93
604.268	28185.15
604.625	28364.58
604.983	28515.31
605.341	28631.01
605.698	29090.44
606.056	29134.95
606.413	29441.61
606.771	29635.28
607.128	29827.14
607.485	29799.12
607.843	29995.72
608.2	30483.85
608.557	30722.48
608.914	30748.02
609.272	30945.53
609.629	31150.72
609.986	31337.83
610.343	31363.6
610.7	31679.29
611.057	31861.66
611.414	31885.16
611.771	32160.64
612.127	32332.84
612.484	32526.96
612.841	32611.92
613.198	32661.19
613.554	32958.81
613.911	33220.5
614.267	33179.59
614.624	33346.37
614.98	33447.61
615.337	33639.47
615.693	33714.72
616.05	33730.31
616.406	34198.55
616.762	33972.79
617.118	34154.48
617.475	34256.63
617.831	34469.28
618.187	34575.49
618.543	34743.85
618.899	34927.57
619.255	35078.98
619.611	34999.88
619.967	35126.66
620.323	35354.68
620.678	35345.86
621.034	35221.57
621.39	35316.94
621.746	35376.6
622.101	35815.23
622.457	35600.77
622.812	35859.75
623.168	36020.2
623.523	36056.58
623.879	36173.41
624.234	35916.47
624.589	36214.32
624.945	36226.29
625.3	36327.08
625.655	36388.1
626.01	36549.45
626.365	36599.39
626.72	36365.27
627.075	36560.52
627.43	36646.62
627.785	36561.2
628.14	36692.04
628.495	36722.55
628.85	36790.12
629.205	36640.75
629.559	36992.15
629.914	36829.22
630.269	36810.46
630.623	36876.45
630.978	36773.62
631.332	37011.81
631.687	36928.42
632.041	36958.48
632.396	36948.76
632.75	36804.13
633.104	36928.2
633.459	36795.77
633.813	36820.85
634.167	37017.68
634.521	36964.8
634.875	37081.41
635.229	36882.55
635.583	36941.3
635.937	36875.99
636.291	36915.77
636.645	36871.25
636.999	36889.33
637.352	37036.67
637.706	36698.6
638.06	37049.77
638.413	36937.91
638.767	36758.93
639.121	36939.49
639.474	36683
639.828	36767.97
640.181	36811.14
640.534	36792.38
640.888	36668.09
641.241	36626.28
641.594	36719.61
641.947	36859.27
642.301	36688.88
642.654	36770.46
643.007	36643.23
643.36	36621.54
643.713	36697.69
644.066	36744.25
644.419	36435.33
644.771	36395.33
645.124	36100.65
645.477	35869.47
645.83	35812.07
646.182	35571.85
646.535	35495.46
646.888	35561.23
647.24	35354.68
647.593	35692.75
647.945	35500.66
648.298	35408.91
648.65	35295.02
649.002	35325.3
649.355	35495.69
649.707	35551.28
650.059	35539.76
650.411	35996.69
650.763	36110.36
651.115	36305.16
651.467	36384.26
651.819	36342.45
652.171	36270.36
652.523	36144.26
652.875	36073.3
653.227	36052.96
653.578	36361.88
653.93	36236.91
654.282	36130.02
654.633	36016.81
654.985	36128.67
655.337	35957.37
655.688	36096.35
656.039	36304.26
656.391	35849.58
656.742	36017.71
657.094	36049.8
657.445	36095.45
657.796	36102.91
658.147	35935.68
658.498	35892.52
658.849	35979.07
659.2	35956.47
659.551	35754.89
659.902	35965.74
660.253	35885.29
660.604	35922.12
660.955	35705.85
661.306	35937.04
661.656	35836.47
662.007	35845.29
662.358	35866.08
662.708	35877.38
663.059	35845.96
663.409	35742.92
663.76	35863.82
664.11	35915.79
664.461	35856.36
664.811	35722.13
665.161	35805.74
665.511	35654.56
665.862	35746.31
666.212	35816.59
666.562	35878.51
666.912	35757.83
667.262	35830.37
667.612	35690.71
667.962	35866.98
668.312	35776.36
668.662	35914.66
669.011	35721
669.361	35708.34
669.711	35758.06
670.06	35571.17
670.41	35649.13
670.76	35612.52
671.109	35930.26
671.459	35548.57
671.808	35494.56
672.157	35591.51
672.507	35508.57
672.856	35407.78
673.205	35627.89
673.554	35610.72
673.904	35515.58
674.253	35542.47
674.602	35499.08
674.951	34949.94
675.3	34905.65
675.649	35396.03
675.998	35249.6
676.346	35247.34
676.695	35459.99
677.044	35143.84
677.393	35416.82
677.741	35278.97
678.09	35148.13
678.438	35149.49
678.787	35275.36
679.135	35233.78
679.484	34968.25
679.832	35095.93
680.181	34971.18
680.529	35098.87
680.877	34930.96
681.225	34882.83
681.573	35077.4
681.922	34905.42
682.27	34783.39
682.618	34927.34
682.966	34691.64
683.314	34651.87
683.661	34689.84
684.009	34512.67
684.357	34421.14
684.705	34368.49
685.053	34457.53
685.4	34201.49
685.748	34124.2
686.095	34201.04
686.443	34119.91
686.79	34036.07
687.138	34064.77
687.485	34208.95
687.832	34013.7
688.18	34081.49
688.527	33817.09
688.874	33911.33
689.221	33727.83
689.568	33706.59
689.915	33629.98
690.262	33502.07
690.609	33350.21
690.956	33400.38
691.303	33285.81
691.65	33234.06
691.997	33148.86
692.344	33127.39
692.69	33102.99
693.037	33122.87
693.383	32657.57
693.73	32870
694.077	32579.84
694.423	32557.01
694.769	32479.5
695.116	32419.61
695.462	32383.23
695.808	32231.6
696.155	32325.6
696.501	32126.97
696.847	32108.89
697.193	31870.25
697.539	32098.04
697.885	31703.93
698.231	31707.99
698.577	31710.48
698.923	31732.85
699.269	31515.23
699.614	31349.13
699.96	31305.29
700.306	31409.02
700.651	31229.36
700.997	31082.47
701.342	31013.32
701.688	30959.09
702.033	30968.13
702.379	30917.28
702.724	30861.46
703.069	30827.57
703.415	30442.94
703.76	30644.75
704.105	30523.62
704.45	30399.1
704.795	30385.09
705.14	30211.76
705.485	30095.61
705.83	30102.84
706.175	30039.34
706.52	29936.52
706.865	29908.27
707.209	29843.64
707.554	29800.47
707.899	29857.42
708.243	29626.92
708.588	29542.4
708.932	29470.31
709.277	29527.49
709.621	29415.4
709.966	29297.66
710.31	29283.88
710.654	28982.42
710.998	29103.32
711.342	29001.62
711.687	29041.85
712.031	28866.26
712.375	28854.74
712.719	28812.02
713.063	28797.34
713.407	28942.87
713.75	28600.28
714.094	28573.84
714.438	28562.77
714.782	28472.6
715.125	28433.28
715.469	28487.74
715.812	28328.2
716.156	28038.71
716.499	28135.21
716.843	28219.05
717.186	28050.46
717.53	28111.93
717.873	28037.81
718.216	28032.84
718.559	27901.31
718.902	27818.83
719.246	27872.16
719.589	27738.38
719.932	27640.98
720.275	27773.18
720.617	27629.46
720.96	27566.86
721.303	27541.32
721.646	27583.36
721.989	27418.62
722.331	27434.66
722.674	27332.29
723.016	27478.73
723.359	27306.75
723.701	27231.5
724.044	27128
724.386	27035.12
724.729	27175.46
725.071	26970.49
725.413	27013.2
725.755	27070.15
726.097	26827.44
726.439	26744.06
726.782	26711.06
727.124	26888.23
727.465	26650.5
727.807	26682.82
728.149	26564.85
728.491	26586.09
728.833	26585.19
729.175	26506.55
729.516	26394.01
729.858	26448.25
730.199	26513.1
730.541	26354.24
730.882	26376.83
731.224	26401.24
731.565	26257.97
731.906	26308.59
732.248	26173.9
732.589	26154.24
732.93	25987.01
733.271	26024.3
733.612	26129.84
733.953	25941.82
734.294	25985.21
734.635	25932.33
734.976	26033.34
735.317	25785.44
735.658	25768.72
735.999	25890.29
736.339	25720.13
736.68	25879.22
737.021	25844.87
737.361	25570.08
737.702	25679.23
738.042	25630.19
738.383	25541.15
738.723	25574.82
739.063	25440.36
739.404	25525.78
739.744	25432.68
740.084	25262.06
740.424	25468.16
740.764	25269.52
741.104	25331.89
741.444	25300.25
741.784	25095.29
742.124	25177.32
742.464	25136.42
742.804	25163.76
743.143	25058.45
743.483	25172.12
743.823	24942.07
744.162	24878.34
744.502	25048.73
744.841	24876.31
745.181	24923.54
745.52	24721.74
745.86	24883.54
746.199	24720.83
746.538	24835.18
746.877	24726.26
747.216	24690.78
747.556	24749.98
747.895	24741.85
748.234	24493.49
748.573	24652.36
748.911	24487.39
749.25	24491.01
749.589	24487.17
749.928	24551.12
750.267	24440.84
750.605	24384.57
750.944	24357
751.283	24272.71
751.621	24359.94
751.96	24204.69
752.298	24164.69
752.636	24104.35
752.975	24131.24
753.313	24110.68
753.651	24139.83
753.989	23993.17
754.327	23840.4
754.666	23826.17
755.004	23833.85
755.342	23973.96
755.679	23781.87
756.017	23730.58
756.355	23806.96
756.693	23609.68
757.031	23559.96
757.368	23485.16
757.706	23434.99
758.044	23295.33
758.381	23450.58
758.719	23293.98
759.056	23371.04
759.394	23261.44
