Data from hue_120_FLMS001491_00066.txt Node
Date: Tue Feb 07 16:59:49 GMT 2017
User: dcchb
Spectrometer: FLMS00149
Trigger mode: 0
Integration Time (sec): 2.000000E-2
Scans to average: 10
Electric dark correction enabled: true
Nonlinearity correction enabled: false
Boxcar width: 0
XAxis mode: Wavelengths
Number of Pixels in Spectrum: 2048
>>>>>Begin Spectral Data<<<<<
341.393	-11.33
341.776	-11.33
342.16	-11.33
342.543	-65.79
342.927	-61.5
343.31	-75.05
343.693	-62.4
344.077	-58.56
344.46	-59.91
344.843	-45.22
345.226	-51.33
345.61	-32.57
345.993	-26.02
346.376	4.27
346.759	1.78
347.142	0.88
347.525	54.66
347.908	63.7
348.291	70.7
348.674	89.01
349.057	126.07
349.44	127.2
349.823	129.91
350.206	174.2
350.588	192.74
350.971	198.61
351.354	249.91
351.737	223.92
352.119	250.59
352.502	269.12
352.884	307.08
353.267	284.71
353.65	293.3
354.032	307.08
354.414	326.52
354.797	319.96
355.179	308.21
355.562	328.78
355.944	317.93
356.326	323.13
356.709	340.08
357.091	350.25
357.473	343.01
357.855	362.45
358.238	354.54
358.62	369
359.002	341.21
359.384	333.52
359.766	344.6
360.148	348.89
360.53	347.08
360.912	348.21
361.294	331.26
361.676	342.79
362.057	333.3
362.439	322.68
362.821	341.43
363.203	324.03
363.584	334.2
363.966	327.19
364.348	315.67
364.729	335.78
365.111	329
365.493	327.87
365.874	327.65
366.256	328.78
366.637	336.01
367.019	312.05
367.4	331.71
367.781	319.74
368.163	329.45
368.544	327.65
368.925	329.91
369.306	344.82
369.688	333.97
370.069	321.55
370.45	314.99
370.831	319.51
371.212	326.74
371.593	331.04
371.974	319.29
372.355	303.92
372.736	303.92
373.117	308.89
373.498	322.22
373.879	324.48
374.26	308.21
374.641	320.64
375.021	305.05
375.402	320.19
375.783	318.83
376.163	342.56
376.544	332.84
376.925	337.14
377.305	326.06
377.686	334.43
378.066	324.48
378.447	335.56
378.827	329.91
379.208	349.79
379.588	334.65
379.968	340.98
380.349	344.6
380.729	354.09
381.109	342.56
381.489	347.99
381.87	348.66
382.25	369
382.63	349.57
383.01	329.68
383.39	353.41
383.77	333.75
384.15	358.38
384.53	354.31
384.91	363.8
385.29	354.54
385.67	370.36
386.049	379.4
386.429	369.23
386.809	369.68
387.189	346.63
387.568	371.94
387.948	375.56
388.328	378.04
388.707	375.33
389.087	371.94
389.466	350.47
389.846	397.02
390.225	371.94
390.605	374.88
390.984	388.89
391.363	373.3
391.743	369
392.122	394.54
392.501	385.27
392.881	380.53
393.26	393.41
393.639	397.93
394.018	407.87
394.397	392.05
394.776	366.29
395.155	384.82
395.534	416.46
395.913	400.87
396.292	418.49
396.671	404.71
397.05	401.54
397.429	418.04
397.808	417.14
398.186	424.37
398.565	418.94
398.944	416.68
399.323	413.07
399.701	423.46
400.08	431.15
400.458	429.11
400.837	403.35
401.215	422.33
401.594	433.63
401.972	423.01
402.351	443.58
402.729	437.02
403.107	449.23
403.486	425.72
403.864	451.03
404.242	434.08
404.62	462.56
404.999	473.63
405.377	442.22
405.755	441.99
406.133	448.1
406.511	481.99
406.889	480.41
407.267	468.66
407.645	472.73
408.023	479.06
408.401	444.71
408.779	473.41
409.156	503.24
409.534	477.47
409.912	479.51
410.29	481.09
410.667	505.27
411.045	515.44
411.422	489
411.8	504.59
412.178	511.14
412.555	505.5
412.933	536.23
413.31	520.64
413.687	519.73
414.065	538.49
414.442	518.6
414.819	521.09
415.197	553.18
415.574	557.92
415.951	544.36
416.328	549.11
416.705	557.25
417.082	551.6
417.46	552.95
417.837	568.77
418.214	572.39
418.591	559.96
418.967	576.91
419.344	584.14
419.721	580.97
420.098	588.66
420.475	574.65
420.852	592.27
421.228	585.27
421.605	572.61
421.982	592.72
422.358	601.54
422.735	632.5
423.111	586.17
423.488	622.55
423.864	641.76
424.241	604.02
424.617	643.12
424.994	643.8
425.37	646.28
425.746	629.33
426.123	662.78
426.499	642.67
426.875	658.26
427.251	681.99
427.627	676.11
428.003	697.58
428.379	674.76
428.756	678.37
429.132	686.06
429.507	693.06
429.883	701.65
430.259	718.6
430.635	717.24
431.011	726.05
431.387	738.26
431.763	730.57
432.138	757.24
432.514	743.68
432.89	769.44
433.265	779.84
433.641	796.11
434.016	802.44
434.392	787.75
434.767	806.28
435.143	821.65
435.518	824.13
435.894	786.39
436.269	823
436.644	842.89
437.02	859.61
437.395	837.69
437.77	844.47
438.145	852.6
438.52	873.17
438.895	894.64
439.271	856.45
439.646	893.73
440.021	897.8
440.395	879.5
440.77	903.9
441.145	895.77
441.52	917.91
441.895	934.18
442.27	946.39
442.645	953.39
443.019	957.46
443.394	921.3
443.769	994.52
444.143	942.77
444.518	965.37
444.892	965.6
445.267	976.67
445.641	1003.11
446.016	980.51
446.39	967.4
446.764	989.1
447.139	1015.09
447.513	1032.04
447.887	1025.26
448.262	1018.7
448.636	1037.68
449.01	1055.09
449.384	1032.49
449.758	1070.23
450.132	1063.45
450.506	1063.9
450.88	1079.94
451.254	1076.78
451.628	1076.33
452.002	1107.74
452.376	1106.16
452.75	1124.24
453.123	1124.91
453.497	1133.5
453.871	1161.3
454.244	1178.25
454.618	1195.19
454.992	1213.05
455.365	1221.86
455.739	1225.25
456.112	1258.7
456.486	1258.7
456.859	1235.42
457.232	1293.95
457.606	1300.05
457.979	1302.99
458.352	1336.21
458.725	1351.57
459.099	1371.91
459.472	1376.88
459.845	1384.57
460.218	1391.8
460.591	1427.28
460.964	1418.69
461.337	1458.92
461.71	1449.2
462.083	1467.05
462.456	1499.14
462.829	1502.53
463.201	1557.22
463.574	1506.15
463.947	1564.9
464.32	1632.92
464.692	1633.15
465.065	1662.07
465.438	1668.18
465.81	1695.97
466.183	1728.51
466.555	1753.37
466.928	1742.3
467.3	1774.16
467.672	1805.57
468.045	1856.65
468.417	1862.97
468.789	1859.13
469.161	1929.19
469.534	1953.14
469.906	1994.27
470.278	2018.9
470.65	2048.73
471.022	2140.93
471.394	2159.24
471.766	2185.9
472.138	2216.86
472.51	2276.75
472.882	2331.21
473.253	2360.14
473.625	2387.71
473.997	2449.17
474.369	2475.39
474.74	2539.79
475.112	2579.11
475.484	2662.05
475.855	2707.02
476.227	2756.96
476.598	2885.09
476.97	2942.04
477.341	2967.8
477.713	3033.34
478.084	3116.73
478.455	3209.15
478.827	3284.63
479.198	3395.81
479.569	3477.17
479.94	3551.74
480.311	3641.91
480.682	3748.57
481.053	3850.04
481.424	3984.95
481.795	4075.57
482.166	4173.42
482.537	4213.65
482.908	4382.91
483.279	4472.4
483.65	4553.07
484.021	4746.51
484.391	4896.34
484.762	4923.91
485.133	5057.92
485.503	5180.17
485.874	5391.02
486.244	5480.28
486.615	5620.16
486.985	5772.48
487.356	5910.1
487.726	5989.87
488.097	6208.17
488.467	6265.34
488.837	6476.41
489.207	6651.55
489.578	6834.14
489.948	6941.48
490.318	7043.18
490.688	7193.91
491.058	7372.89
491.428	7482.03
491.798	7667.57
492.168	7928.58
492.538	8004.28
492.908	8168.12
493.278	8317.95
493.648	8416.93
494.017	8668.44
494.387	8751.61
494.757	8896.24
495.126	9075.89
495.496	9128.77
495.866	9310.46
496.235	9496.67
496.605	9581.64
496.974	9762.65
497.344	9922.42
497.713	10008.97
498.082	10084.23
498.452	10300.94
498.821	10368.96
499.19	10471.79
499.559	10609.86
499.928	10721.95
500.298	10878.56
500.667	11003.75
501.036	11016.41
501.405	11203.97
501.774	11337.98
502.143	11430.18
502.512	11486.9
502.88	11606.22
503.249	11756.27
503.618	11824.52
503.987	11893.22
504.356	12014.12
504.724	12047.11
505.093	12139.09
505.462	12283.04
505.83	12403.04
506.199	12478.06
506.567	12735.68
506.936	12605.97
507.304	12791.27
507.672	12919.18
508.041	13007.99
508.409	13083.92
508.777	13141.55
509.145	13269.91
509.514	13296.35
509.882	13377.02
510.25	13433.52
510.618	13514.64
510.986	13469.67
511.354	13594.42
511.722	13777.69
512.09	13886.61
512.458	13913.5
512.826	14060.39
513.193	14020.39
513.561	14076.89
513.929	14151.24
514.297	14204.8
514.664	14378.58
515.032	14340.39
515.4	14484.11
515.767	14560.94
516.135	14602.3
516.502	14524.56
516.869	14654.05
517.237	14695.86
517.604	14583.09
517.972	14745.35
518.339	14859.69
518.706	14810.88
519.073	14837.1
519.44	14931.1
519.808	15101.04
520.175	15015.4
520.542	15161.61
520.909	15269.4
521.276	15213.13
521.643	15249.06
522.009	15383.07
522.376	15371.77
522.743	15469.17
523.11	15560.01
523.477	15617.64
523.843	15662.16
524.21	15721.37
524.577	15786.9
524.943	15796.17
525.31	15880.23
525.676	15938.31
526.043	15896.5
526.409	15914.81
526.776	16072.32
527.142	16058.76
527.508	16140.11
527.874	16113.9
528.241	16213.1
528.607	16180.79
528.973	16284.97
529.339	16270.05
529.705	16351.86
530.071	16411.52
530.437	16437.51
530.803	16358.41
531.169	16466.66
531.535	16341.24
531.901	16323.61
532.267	16386.43
532.632	16347.79
532.998	16447.22
533.364	16435.92
533.73	16408.13
534.095	16468.24
534.461	16498.3
534.826	16392.08
535.192	16364.29
535.557	16492.87
535.923	16337.17
536.288	16436.83
536.653	16509.37
537.019	16240.67
537.384	16349.37
537.749	16289.03
538.114	16406.32
538.479	16367.68
538.845	16323.84
539.21	16235.03
539.575	16240.9
539.94	16157.29
540.305	16250.17
540.67	16190.96
541.034	16183.73
541.399	16147.57
541.764	16156.61
542.129	16204.07
542.494	16073.67
542.858	16084.29
543.223	15971.53
543.587	15991.87
543.952	15974.02
544.316	15920.23
544.681	15923.85
545.045	15893.57
545.41	15957.74
545.774	15901.7
546.138	15787.35
546.503	15803.62
546.867	15755.49
547.231	15815.6
547.595	15809.5
547.959	15694.25
548.324	15665.77
548.688	15525.21
549.052	15632.33
549.416	15571.99
549.779	15544.87
550.143	15529.05
550.507	15573.12
550.871	15406.57
551.235	15422.17
551.599	15456.74
551.962	15487.93
552.326	15466.91
552.689	15460.58
553.053	15310.3
553.417	15357.76
553.78	15516.4
554.143	15299.91
554.507	15379.91
554.87	15358.44
555.234	15546.46
555.597	15266.91
555.96	15312.79
556.323	15347.59
556.686	15307.59
557.05	15331.55
557.413	15387.36
557.776	15306.91
558.139	15321.83
558.502	15280.7
558.865	15225.79
559.228	15336.29
559.59	15229.63
559.953	15266.01
560.316	15384.43
560.679	15348.04
561.041	15370.87
561.404	15407.25
561.767	15491.77
562.129	15321.6
562.492	15387.14
562.854	15389.62
563.217	15363.41
563.579	15435.95
563.941	15463.52
564.304	15481.15
564.666	15468.94
565.028	15437.98
565.39	15501.49
565.753	15583.52
566.115	15551.88
566.477	15586
566.839	15550.98
567.201	15616.28
567.563	15656.06
567.925	15738.77
568.287	15705.1
568.648	15667.36
569.01	15696.73
569.372	15702.38
569.734	15732.89
570.095	15778.09
570.457	15723.63
570.819	15869.84
571.18	15775.15
571.542	15860.8
571.903	15798.65
572.265	15820.8
572.626	15883.85
572.987	15880.01
573.349	15873.9
573.71	15893.57
574.071	15932.21
574.432	15948.48
574.794	15989.16
575.155	15963.62
575.516	15887.01
575.877	16041.36
576.238	16007.01
576.599	16027.12
576.96	16018.08
577.32	16042.94
577.681	16112.54
578.042	16121.58
578.403	16097.18
578.763	16098.08
579.124	16105.54
579.485	16176.95
579.845	16080.68
580.206	16098.08
580.566	16042.94
580.927	16083.16
581.287	16161.13
581.648	16032.77
582.008	16134.91
582.368	16063.28
582.728	16169.72
583.089	16129.04
583.449	16018.53
583.809	16123.62
584.169	16114.35
584.529	16034.35
584.889	16067.12
585.249	16030.06
585.609	15975.6
585.969	16112.54
586.329	15892.44
586.688	15938.54
587.048	15988.93
587.408	15928.37
587.768	15922.04
588.127	15960.91
588.487	15919.33
588.846	16014.24
589.206	15873.68
589.565	15881.36
589.925	15970.85
590.284	15864.64
590.643	15875.26
591.003	15995.94
591.362	16007.23
591.721	15823.74
592.08	15982.15
592.44	15933.11
592.799	15906.9
593.158	15945.99
593.517	15877.52
593.876	15912.55
594.235	15862.83
594.593	15806.56
594.952	15859.67
595.311	15767.47
595.67	15824.41
596.029	15919.55
596.387	15898.76
596.746	15836.84
597.104	15765.43
597.463	15825.09
597.822	15833.23
598.18	15725.21
598.538	15716.39
598.897	15918.42
599.255	15724.98
599.613	15916.84
599.972	15774.7
600.33	15874.81
600.688	15763.17
601.046	15905.54
601.404	15868.93
601.762	15909.38
602.12	15915.94
602.478	15920.91
602.836	15950.29
603.194	15772.21
603.552	15843.4
603.91	15854.24
604.268	15904.41
604.625	15769.27
604.983	15927.69
605.341	15768.14
605.698	15831.87
606.056	15833.23
606.413	15782.38
606.771	15851.98
607.128	15878.65
607.485	15802.72
607.843	15835.49
608.2	15930.63
608.557	15949.83
608.914	15944.64
609.272	15934.47
609.629	15975.37
609.986	16009.04
610.343	15912.77
610.7	16077.06
611.057	16050.17
611.414	16041.81
611.771	16020.12
612.127	16034.13
612.484	16022.15
612.841	16169.72
613.198	16137.17
613.554	16063.96
613.911	16108.93
614.267	16051.3
614.624	16099.21
614.98	16108.7
615.337	16221.47
615.693	16173.33
616.05	16208.36
616.406	16230.28
616.762	16181.02
617.118	16171.98
617.475	16141.24
617.831	16194.57
618.187	16277.51
618.543	16246.78
618.899	16386.89
619.255	16346.43
619.611	16332.65
619.967	16426.88
620.323	16392.54
620.678	16355.25
621.034	16252.2
621.39	16224.86
621.746	16365.42
622.101	16524.28
622.457	16280.67
622.812	16314.8
623.168	16357.73
623.523	16346.21
623.879	16364.97
624.234	16242.03
624.589	16303.72
624.945	16302.14
625.3	16418.98
625.655	16289.26
626.01	16290.84
626.365	16317.06
626.72	16355.02
627.075	16345.53
627.43	16364.29
627.785	16289.94
628.14	16319.54
628.495	16381.01
628.85	16273.22
629.205	16238.19
629.559	16340.11
629.914	16328.58
630.269	16272.76
630.623	16272.54
630.978	16222.6
631.332	16300.11
631.687	16290.16
632.041	16181.24
632.396	16169.49
632.75	16103.5
633.104	16205.87
633.459	16040.68
633.813	16087.23
634.167	16160.68
634.521	16006.56
634.875	16101.24
635.229	16046.78
635.583	15891.98
635.937	15976.73
636.291	15970.63
636.645	15947.12
636.999	15908.25
637.352	15911.19
637.706	15888.59
638.06	15933.79
638.413	15806.34
638.767	15781.48
639.121	15790.97
639.474	15723.85
639.828	15762.95
640.181	15815.15
640.534	15784.87
640.888	15785.55
641.241	15703.06
641.594	15811.08
641.947	15672.78
642.301	15651.76
642.654	15693.12
643.007	15666.9
643.36	15716.85
643.713	15767.92
644.066	15676.17
644.419	15555.27
644.771	15567.25
645.124	15309.17
645.477	15412.22
645.83	15321.83
646.182	15153.02
646.535	15183.75
646.888	15101.95
647.24	15028.5
647.593	15165.67
647.945	15184.43
648.298	14977.21
648.65	15057.2
649.002	15060.82
649.355	15106.92
649.707	15159.57
650.059	15179.91
650.411	15322.51
650.763	15368.61
651.115	15469.4
651.467	15501.71
651.819	15423.07
652.171	15364.31
652.523	15444.54
652.875	15348.27
653.227	15408.15
653.578	15482.05
653.93	15378.32
654.282	15311.43
654.633	15401.37
654.985	15405.89
655.337	15423.3
655.688	15434.37
656.039	15484.54
656.391	15384.43
656.742	15386.46
657.094	15492.45
657.445	15529.73
657.796	15356.63
658.147	15385.33
658.498	15374.26
658.849	15465.1
659.2	15457.42
659.551	15392.34
659.902	15412.22
660.253	15410.41
660.604	15463.29
660.955	15337.42
661.306	15422.84
661.656	15442.05
662.007	15421.94
662.358	15377.87
662.708	15369.06
663.059	15474.14
663.409	15384.43
663.76	15446.35
664.11	15436.85
664.461	15450.86
664.811	15478.66
665.161	15517.08
665.511	15426.01
665.862	15443.18
666.212	15548.04
666.562	15459
666.912	15472.79
667.262	15450.41
667.612	15459
667.962	15489.73
668.312	15420.13
668.662	15480.47
669.011	15369.74
669.361	15432.79
669.711	15468.94
670.06	15413.13
670.41	15382.39
670.76	15406.8
671.109	15445.67
671.459	15344.65
671.808	15348.04
672.157	15401.15
672.507	15217.88
672.856	15306.01
673.205	15261.04
673.554	15424.42
673.904	15297.87
674.253	15423.75
674.602	15341.26
674.951	15113.7
675.3	14910.31
675.649	15248.16
675.998	15198.22
676.346	15259.01
676.695	15242.28
677.044	15106.02
677.393	15168.61
677.741	15236.18
678.09	15117.99
678.438	15122.96
678.787	15144.88
679.135	15084.55
679.484	14977.66
679.832	15067.37
680.181	14899.24
680.529	14954.15
680.877	14992.12
681.225	14902.18
681.573	15057.2
681.922	14904.44
682.27	14805.91
682.618	14849.07
682.966	14813.14
683.314	14836.64
683.661	14815.4
684.009	14703.99
684.357	14767.04
684.705	14786.93
685.053	14756.65
685.4	14671.9
685.748	14621.28
686.095	14560.94
686.443	14535.18
686.79	14529.31
687.138	14525.92
687.485	14432.81
687.832	14380.61
688.18	14390.1
688.527	14313.49
688.874	14313.49
689.221	14240.5
689.568	14188.98
689.915	14239.15
690.262	14222.65
690.609	14121.63
690.956	14010.45
691.303	14109.21
691.65	13939.72
691.997	13970.23
692.344	13807.52
692.69	13865.6
693.037	13778.37
693.383	13783.79
693.73	13713.96
694.077	13653.62
694.423	13639.61
694.769	13702.44
695.116	13578.6
695.462	13548.09
695.808	13513.51
696.155	13500.18
696.501	13367.98
696.847	13395.78
697.193	13328.66
697.539	13254.54
697.885	13270.36
698.231	13172.96
698.577	13177.93
698.923	13080.31
699.269	13084.15
699.614	13094.32
699.96	12967.99
700.306	12960.53
700.651	12817.94
700.997	12806.64
701.342	12795.34
701.688	12749.02
702.033	12743.14
702.379	12694.1
702.724	12623.37
703.069	12615.01
703.415	12529.36
703.76	12394.45
704.105	12512.41
704.45	12418.4
704.795	12321.68
705.14	12326.43
705.485	12247.11
705.83	12158.97
706.175	12227.22
706.52	12132.76
706.865	12151.29
707.209	12020.45
707.554	12030.62
707.899	12090.73
708.243	12053.67
708.588	11973.89
708.932	11855.25
709.277	11895.03
709.621	11934.35
709.966	11797.63
710.31	11843.28
710.654	11670.85
710.998	11741.81
711.342	11677.18
711.687	11626.78
712.031	11672.21
712.375	11604.19
712.719	11627.01
713.063	11585.2
713.407	11634.47
713.75	11526.67
714.094	11557.63
714.438	11517.86
714.782	11517.64
715.125	11417.52
715.469	11504.75
715.812	11434.47
716.156	11293.91
716.499	11286.45
716.843	11279.68
717.186	11195.84
717.53	11328.26
717.873	11349.5
718.216	11300.01
718.559	11222.5
718.902	11148.83
719.246	11181.37
719.589	11137.76
719.932	11140.7
720.275	11151.54
720.617	11136.18
720.96	11095.27
721.303	11051.88
721.646	11112
721.989	11048.72
722.331	11013.47
722.674	11069.06
723.016	11072.22
723.359	11074.48
723.701	11078.78
724.044	10937.09
724.386	10972.56
724.729	10968.27
725.071	11020.92
725.413	10988.84
725.755	10952.68
726.097	10884.66
726.439	10865.67
726.782	10848.73
727.124	10957.65
727.465	10937.99
727.807	10818.67
728.149	10860.03
728.491	10805.79
728.833	10823.87
729.175	10842.4
729.516	10840.82
729.858	10883.3
730.199	10816.41
730.541	10802.85
730.882	10741.84
731.224	10780.48
731.565	10762.63
731.906	10742.06
732.248	10704.55
732.589	10735.28
732.93	10635.62
733.271	10683.76
733.612	10753.36
733.953	10803.08
734.294	10712.01
734.635	10664.32
734.976	10717.43
735.317	10666.13
735.658	10792.46
735.999	10653.93
736.339	10694.61
736.68	10780.71
737.021	10728.5
737.361	10692.35
737.702	10766.47
738.042	10745.9
738.383	10725.11
738.723	10740.71
739.063	10783.87
739.404	10792.68
739.744	10741.84
740.084	10719.46
740.424	10722.63
740.764	10778.9
741.104	10847.14
741.444	10770.99
741.784	10804.43
742.124	10832.23
742.464	10828.39
742.804	10903.41
743.143	10931.89
743.483	10909.74
743.823	10926.69
744.162	10923.07
744.502	11010.76
744.841	10926.69
745.181	11048.95
745.52	10989.29
745.86	11107.7
746.199	11067.25
746.538	11062.28
746.877	11215.72
747.216	11330.07
747.556	11286.23
747.895	11423.85
748.234	11403.97
748.573	11434.47
748.911	11523.74
749.25	11584.07
749.589	11537.75
749.928	11688.25
750.267	11787.23
750.605	11830.4
750.944	11883.05
751.283	11974.57
751.621	12154.91
751.96	12138.18
752.298	12191.29
752.636	12372.75
752.975	12410.72
753.313	12441.45
753.651	12699.52
753.989	12735.23
754.327	12857.94
754.666	12922.8
755.004	13010.93
755.342	13212.05
755.679	13351.71
756.017	13344.71
