Data from hue_260_FLMS001491_00069.txt Node
Date: Tue Feb 07 15:59:25 GMT 2017
User: dcchb
Spectrometer: FLMS00149
Trigger mode: 0
Integration Time (sec): 2.000000E-2
Scans to average: 10
Electric dark correction enabled: true
Nonlinearity correction enabled: false
Boxcar width: 0
XAxis mode: Wavelengths
Number of Pixels in Spectrum: 2048
>>>>>Begin Spectral Data<<<<<
341.393	-19.76
341.776	-19.76
342.16	-19.76
342.543	-51.17
342.927	-73.54
343.31	-64.05
343.693	-60.21
344.077	-72.19
344.46	-54.56
344.843	-60.44
345.226	-26.09
345.61	-39.65
345.993	-5.52
346.376	-7.56
346.759	9.62
347.142	27.25
347.525	42.16
347.908	57.75
348.291	63.4
348.674	78.54
349.057	111.54
349.44	124.64
349.823	154.02
350.206	158.09
350.588	195.15
350.971	193.12
351.354	209.84
351.737	208.26
352.119	230.86
352.502	231.76
352.884	274.7
353.267	273.11
353.65	277.41
354.032	290.97
354.414	306.11
354.797	300.46
355.179	324.41
355.562	331.87
355.944	312.21
356.326	320.57
356.709	319.89
357.091	329.61
357.473	334.36
357.855	338.2
358.238	323.51
358.62	345.2
359.002	336.16
359.384	337.29
359.766	332.32
360.148	332.1
360.53	318.31
360.912	313.34
361.294	314.47
361.676	302.49
362.057	306.79
362.439	323.51
362.821	326.22
363.203	337.52
363.584	325.32
363.966	322.6
364.348	310.4
364.729	311.98
365.111	314.7
365.493	314.24
365.874	310.18
366.256	313.79
366.637	294.36
367.019	318.54
367.4	325.99
367.781	300.68
368.163	303.85
368.544	303.62
368.925	312.66
369.306	311.31
369.688	290.97
370.069	309.05
370.45	291.64
370.831	301.36
371.212	311.08
371.593	310.4
371.974	302.27
372.355	298.2
372.736	309.05
373.117	299.78
373.498	321.02
373.879	324.64
374.26	317.18
374.641	324.41
375.021	317.63
375.402	293.45
375.783	324.86
376.163	315.83
376.544	324.64
376.925	311.98
377.305	305.2
377.686	324.64
378.066	318.99
378.447	324.86
378.827	324.64
379.208	325.77
379.588	323.73
379.968	330.06
380.349	314.92
380.729	331.87
381.109	322.15
381.489	324.64
381.87	333.68
382.25	338.2
382.63	327.8
383.01	346.33
383.39	325.54
383.77	338.2
384.15	339.33
384.53	339.33
384.91	340.68
385.29	340.46
385.67	335.03
386.049	338.42
386.429	323.28
386.809	342.72
387.189	344.75
387.568	356.95
387.948	365.32
388.328	373.22
388.707	365.54
389.087	348.82
389.466	382.94
389.846	370.29
390.225	364.19
390.605	372.55
390.984	356.05
391.363	365.54
391.743	360.12
392.122	369.16
392.501	387.91
392.881	376.16
393.26	380.68
393.639	361.25
394.018	363.96
394.397	376.84
394.776	376.39
395.155	376.84
395.534	372.77
395.913	365.77
396.292	380
396.671	394.47
397.05	391.76
397.429	401.02
397.808	383.85
398.186	397.86
398.565	395.82
398.944	396.73
399.323	395.14
399.701	409.38
400.08	398.31
400.458	417.52
400.837	418.65
401.215	411.42
401.594	414.58
401.972	415.26
402.351	419.33
402.729	411.87
403.107	423.62
403.486	420
403.864	419.78
404.242	423.62
404.62	434.24
404.999	441.92
405.377	429.95
405.755	439.89
406.133	470.17
406.511	444.41
406.889	448.02
407.267	458.87
407.645	455.03
408.023	465.43
408.401	453.9
408.779	459.78
409.156	490.06
409.534	504.29
409.912	488.25
410.29	500.9
410.667	505.88
411.045	518.31
411.422	510.85
411.8	520.79
412.178	530.73
412.555	514.69
412.933	543.39
413.31	538.64
413.687	560.34
414.065	556.04
414.442	589.94
414.819	559.89
415.197	589.26
415.574	601.92
415.951	588.59
416.328	603.5
416.705	618.19
417.082	623.84
417.46	605.76
417.837	619.32
418.214	621.35
418.591	640.34
418.967	648.7
419.344	669.94
419.721	663.39
420.098	660.22
420.475	683.5
420.852	686.21
421.228	690.96
421.605	697.51
421.982	701.35
422.358	732.99
422.735	731.86
423.111	753.33
423.488	744.51
423.864	728.7
424.241	788.81
424.617	808.69
424.994	784.06
425.37	804.85
425.746	815.25
426.123	823.61
426.499	835.36
426.875	867
427.251	854.12
427.627	865.19
428.003	881.69
428.379	878.75
428.756	881.23
429.132	916.26
429.507	910.16
429.883	916.94
430.259	918.97
430.635	915.58
431.011	938.63
431.387	971.18
431.763	992.64
432.138	987.45
432.514	1004.85
432.89	1004.62
433.265	1035.58
433.641	1037.39
434.016	1073.55
434.392	1075.35
434.767	1127.33
435.143	1118.29
435.518	1098.86
435.894	1137.5
436.269	1189.25
436.644	1166.2
437.02	1178.4
437.395	1218.17
437.77	1267.89
438.145	1238.29
438.52	1272.18
438.895	1272.64
439.271	1283.94
439.646	1307.66
440.021	1314.89
440.395	1307.89
440.77	1338.4
441.145	1336.59
441.52	1375.46
441.895	1386.08
442.27	1408.9
442.645	1403.25
443.019	1427.21
443.394	1437.15
443.769	1454.33
444.143	1431.95
444.518	1457.94
444.892	1478.28
445.267	1533.65
445.641	1485.96
446.016	1517.15
446.39	1525.06
446.764	1521.9
447.139	1525.96
447.513	1557.83
447.887	1553.98
448.262	1566.64
448.636	1603.47
449.01	1598.05
449.384	1593.53
449.758	1622.68
450.132	1634.89
450.506	1673.98
450.88	1659.74
451.254	1645.96
451.628	1686.86
452.002	1725.96
452.376	1727.54
452.75	1734.09
453.123	1712.4
453.497	1747.65
453.871	1753.08
454.244	1834.43
454.618	1820.42
454.992	1865.39
455.365	1804.83
455.739	1883.02
456.112	1874.65
456.486	1906.74
456.859	1917.59
457.232	1968.44
457.606	1909.68
457.979	1969.34
458.352	2008.66
458.725	2056.8
459.099	2050.92
459.472	2093.63
459.845	2075.1
460.218	2111.26
460.591	2177.25
460.964	2127.08
461.337	2148.09
461.71	2213.85
462.083	2232.16
462.456	2221.31
462.829	2272.38
463.201	2286.62
463.574	2291.14
463.947	2339.05
464.32	2391.48
464.692	2348.54
465.065	2408.65
465.438	2428.54
465.81	2462.89
466.183	2492.26
466.555	2532.26
466.928	2532.94
467.3	2548.31
467.672	2584.24
468.045	2625.59
468.417	2610.23
468.789	2636.22
469.161	2698.59
469.534	2728.64
469.906	2776.33
470.278	2774.29
470.65	2837.79
471.022	2857
471.394	2895.87
471.766	2971.8
472.138	2975.42
472.51	2984.68
472.882	3048.86
473.253	3113.49
473.625	3101.74
473.997	3155.07
474.369	3201.62
474.74	3242.08
475.112	3264.9
475.484	3307.84
475.855	3331.79
476.227	3389.19
476.598	3444.33
476.97	3498.11
477.341	3530.88
477.713	3590.32
478.084	3610.2
478.455	3690.43
478.827	3767.71
479.198	3809.74
479.569	3814.94
479.94	3884.77
480.311	3939.68
480.682	4030.3
481.053	4080.92
481.424	4136.52
481.795	4160.7
482.166	4239.79
482.537	4270.52
482.908	4366.57
483.279	4384.42
483.65	4426
484.021	4544.64
484.391	4568.37
484.762	4555.26
485.133	4604.07
485.503	4710.06
485.874	4810.62
486.244	4788.02
486.615	4911.86
486.985	4952.77
487.356	5002.03
487.726	4988.92
488.097	5139.65
488.467	5164.29
488.837	5183.27
489.207	5250.84
489.578	5401.57
489.948	5410.15
490.318	5440.44
490.688	5466.65
491.058	5541.22
491.428	5621
491.798	5607.89
492.168	5706.87
492.538	5737.15
492.908	5778.73
493.278	5858.5
493.648	5788.9
494.017	5906.19
494.387	5954.55
494.757	5926.75
495.126	6006.75
495.496	6060.53
495.866	6162.68
496.235	6161.32
496.605	6191.83
496.974	6156.58
497.344	6249.68
497.713	6311.15
498.082	6331.03
498.452	6391.37
498.821	6419.17
499.19	6364.48
499.559	6414.42
499.928	6523.35
500.298	6516.57
500.667	6528.54
501.036	6516.34
501.405	6616
501.774	6615.09
502.143	6652.38
502.512	6635.43
502.88	6744.58
503.249	6704.13
503.618	6712.72
503.987	6741.42
504.356	6792.04
504.724	6770.12
505.093	6831.13
505.462	6876.33
505.83	6874.75
506.199	6902.77
506.567	7003.78
506.936	6969.66
507.304	7029.77
507.672	6979.6
508.041	7034.97
508.409	7072.48
508.777	7118.13
509.145	7111.35
509.514	7178.47
509.882	7180.05
510.25	7198.81
510.618	7201.07
510.986	7224.8
511.354	7205.81
511.722	7244.91
512.09	7262.99
512.458	7289.43
512.826	7399.93
513.193	7315.64
513.561	7384.34
513.929	7387.96
514.297	7476.99
514.664	7522.87
515.032	7486.71
515.4	7502.53
515.767	7532.58
516.135	7482.87
516.502	7453.04
516.869	7585.46
517.237	7570.78
517.604	7499.59
517.972	7624.11
518.339	7643.77
518.706	7621.85
519.073	7611.9
519.44	7659.59
519.808	7691
520.175	7654.16
520.542	7711.34
520.909	7796.31
521.276	7660.94
521.643	7784.56
522.009	7816.87
522.376	7817.1
522.743	7811.9
523.11	7907.26
523.477	7910.43
523.843	7952.01
524.21	7944.78
524.577	7997.2
524.943	7966.25
525.31	8015.28
525.676	8040.82
526.043	8067.71
526.409	8079.91
526.776	8059.12
527.142	8050.76
527.508	8114.04
527.874	8144.32
528.241	8182.96
528.607	8210.53
528.973	8190.87
529.339	8249.63
529.705	8217.09
530.071	8209.18
530.437	8230.87
530.803	8230.42
531.169	8185
531.535	8265.67
531.901	8178.22
532.267	8295.73
532.632	8307.48
532.998	8302.73
533.364	8306.12
533.73	8253.47
534.095	8344.77
534.461	8311.1
534.826	8367.82
535.192	8224.54
535.557	8383.18
535.923	8319.46
536.288	8300.02
536.653	8312.22
537.019	8266.8
537.384	8284.2
537.749	8356.07
538.114	8318.55
538.479	8303.19
538.845	8291.43
539.21	8319.46
539.575	8274.94
539.94	8253.02
540.305	8300.7
540.67	8275.16
541.034	8206.92
541.399	8244.2
541.764	8277.88
542.129	8250.53
542.494	8262.28
542.858	8283.07
543.223	8188.61
543.587	8250.31
543.952	8197.2
544.316	8209.85
544.681	8200.82
545.045	8285.56
545.41	8246.46
545.774	8203.08
546.138	8152.23
546.503	8202.62
546.867	8200.36
547.231	8226.58
547.595	8196.97
547.959	8139.8
548.324	8118.33
548.688	8167.6
549.052	8154.26
549.416	8134.83
549.779	8162.85
550.143	8140.03
550.507	8160.14
550.871	8137.31
551.235	8152.46
551.599	8146.35
551.962	8099.12
552.326	8174.15
552.689	8140.48
553.053	8121.5
553.417	8066.13
553.78	8245.11
554.143	8114.94
554.507	8159.23
554.87	8177.31
555.234	8163.98
555.597	8102.96
555.96	8124.89
556.323	8149.97
556.686	8142.06
557.05	8119.46
557.413	8184.77
557.776	8142.29
558.139	8180.7
558.502	8159.69
558.865	8158.56
559.228	8201.04
559.59	8228.61
559.953	8248.95
560.316	8259.12
560.679	8246.46
561.041	8257.54
561.404	8271.77
561.767	8258.89
562.129	8274.26
562.492	8326.91
562.854	8280.81
563.217	8281.94
563.579	8331.21
563.941	8372.56
564.304	8437.19
564.666	8473.58
565.028	8404.2
565.39	8486.01
565.753	8463.63
566.115	8477.64
566.477	8495.27
566.839	8544.31
567.201	8570.52
567.563	8461.37
567.925	8641.48
568.287	8615.95
568.648	8612.78
569.01	8619.34
569.372	8673.57
569.734	8569.85
570.095	8712.89
570.457	8697.07
570.819	8726.23
571.18	8698.43
571.542	8770.07
571.903	8821.82
572.265	8823.4
572.626	8818.65
572.987	8801.93
573.349	8769.39
573.71	8867.46
574.071	8846.45
574.432	8860.01
574.794	8869.95
575.155	8880.8
575.516	8922.6
575.877	8964.19
576.238	8999.66
576.599	9022.94
576.96	9035.14
577.32	9094.13
577.681	9131.86
578.042	9143.62
578.403	9148.14
578.763	9127.8
579.124	9098.87
579.485	9173.22
579.845	9209.83
580.206	9155.59
580.566	9132.54
580.927	9232.2
581.287	9275.36
581.648	9266.55
582.008	9225.2
582.368	9308.36
582.728	9315.14
583.089	9407.11
583.449	9358.53
583.809	9278.53
584.169	9369.6
584.529	9348.36
584.889	9477.17
585.249	9402.14
585.609	9394
585.969	9483.95
586.329	9439.43
586.688	9450.95
587.048	9461.35
587.408	9466.09
587.768	9508.13
588.127	9497.28
588.487	9472.65
588.846	9598.07
589.206	9484.85
589.565	9508.13
589.925	9643.72
590.284	9599.65
590.643	9608.91
591.003	9620.67
591.362	9634.45
591.721	9606.43
592.08	9637.61
592.44	9647.78
592.799	9660.89
593.158	9673.77
593.517	9661.12
593.876	9710.83
594.235	9718.74
594.593	9731.62
594.952	9705.41
595.311	9744.28
595.67	9784.28
596.029	9801.9
596.387	9742.7
596.746	9752.41
597.104	9788.34
597.463	9767.1
597.822	9836.03
598.18	9766.88
598.538	9693.66
598.897	9886.65
599.255	9727.1
599.613	9887.32
599.972	9864.27
600.33	9880.09
600.688	9838.51
601.046	9843.26
601.404	9882.35
601.762	9896.36
602.12	9920.77
602.478	9961.22
602.836	9953.99
603.194	9913.54
603.552	9942.01
603.91	9867.44
604.268	9883.26
604.625	9916.25
604.983	9963.93
605.341	9828.8
605.698	10011.84
606.056	9997.15
606.413	9991.73
606.771	10048.9
607.128	9955.8
607.485	9903.6
607.843	9951.5
608.2	9940.66
608.557	9994.67
608.914	9978.62
609.272	10025.85
609.629	10066.98
609.986	10033.31
610.343	10006.19
610.7	10081.22
611.057	10024.95
611.414	10030.15
611.771	10133.65
612.127	10134.32
612.484	10149.24
612.841	10200.54
613.198	10129.13
613.554	10039.64
613.911	10083.48
614.267	10074.44
614.624	10101.78
614.98	10146.3
615.337	10180.88
615.693	10107.88
616.05	10206.41
616.406	10256.58
616.762	10225.17
617.118	10204.15
617.475	10151.05
617.831	10248.22
618.187	10190.14
618.543	10241.21
618.899	10234.43
619.255	10261.33
619.611	10208.45
619.967	10240.99
620.323	10304.49
620.678	10292.06
621.034	10280.99
621.39	10256.58
621.746	10275.34
622.101	10340.42
622.457	10247.09
622.812	10229.69
623.168	10305.39
623.523	10353.75
623.879	10275.79
624.234	10229.46
624.589	10280.53
624.945	10304.26
625.3	10243.93
625.655	10293.87
626.01	10251.38
626.365	10331.61
626.72	10259.29
627.075	10289.57
627.43	10215.9
627.785	10228.56
628.14	10313.53
628.495	10333.64
628.85	10165.74
629.205	10199.86
629.559	10262.23
629.914	10187.88
630.269	10191.27
630.623	10195.34
630.978	10220.42
631.332	10230.59
631.687	10222.91
632.041	10167.32
632.396	10214.77
632.75	10137.94
633.104	10204.83
633.459	10126.87
633.813	10095.91
634.167	10082.35
634.521	10036.47
634.875	10087.09
635.229	10085.51
635.583	10016.36
635.937	10054.78
636.291	9998.06
636.645	9972.97
636.999	10012.52
637.352	10010.03
637.706	9959.87
638.06	9975.23
638.413	9970.71
638.767	9955.8
639.121	9972.07
639.474	9894.78
639.828	9918.06
640.181	9923.26
640.534	9911.05
640.888	9866.76
641.241	9779.76
641.594	9765.97
641.947	9880.77
642.301	9786.31
642.654	9764.84
643.007	9755.58
643.36	9799.19
643.713	9790.6
644.066	9805.97
644.419	9779.98
644.771	9706.09
645.124	9665.86
645.477	9629.93
645.83	9541.57
646.182	9515.58
646.535	9511.97
646.888	9513.78
647.24	9455.47
647.593	9496.83
647.945	9516.49
648.298	9453.66
648.65	9376.6
649.002	9404.17
649.355	9490.73
649.707	9420.67
650.059	9488.69
650.411	9605.3
650.763	9619.99
651.115	9693.43
651.467	9641.68
651.819	9643.26
652.171	9712.41
652.523	9676.48
652.875	9629.03
653.227	9575.69
653.578	9630.38
653.93	9694.34
654.282	9654.34
654.633	9609.37
654.985	9636.26
655.337	9599.42
655.688	9662.92
656.039	9666.99
656.391	9608.24
656.742	9613.43
657.094	9541.8
657.445	9669.48
657.796	9643.49
658.147	9602.59
658.498	9582.47
658.849	9682.81
659.2	9585.86
659.551	9577.73
659.902	9636.26
660.253	9622.25
660.604	9537.96
660.955	9545.19
661.306	9643.49
661.656	9673.55
662.007	9590.16
662.358	9604.39
662.708	9659.99
663.059	9685.3
663.409	9561.46
663.76	9682.36
664.11	9686.65
664.461	9669.03
664.811	9671.51
665.161	9636.03
665.511	9603.04
665.862	9588.58
666.212	9617.05
666.562	9682.81
666.912	9672.87
667.262	9634.22
667.612	9634.45
667.962	9636.94
668.312	9643.49
668.662	9562.81
669.011	9575.24
669.361	9617.28
669.711	9563.72
670.06	9590.38
670.41	9556.26
670.76	9568.24
671.109	9584.28
671.459	9614.79
671.808	9581.12
672.157	9523.27
672.507	9562.14
672.856	9519.2
673.205	9475.36
673.554	9576.82
673.904	9558.07
674.253	9516.71
674.602	9577.73
674.951	9399.43
675.3	9372.31
675.649	9473.78
675.998	9490.95
676.346	9445.75
676.695	9475.58
677.044	9422.48
677.393	9476.26
677.741	9464.74
678.09	9449.14
678.438	9455.02
678.787	9376.15
679.135	9353.55
679.484	9336.38
679.832	9354.68
680.181	9306.1
680.529	9362.37
680.877	9262.03
681.225	9260.9
681.573	9338.41
681.922	9269.49
682.27	9226.33
682.618	9247.57
682.966	9221.13
683.314	9179.77
683.661	9151.07
684.009	9172.32
684.357	9135.03
684.705	9112.66
685.053	9092.77
685.4	9144.97
685.748	9119.21
686.095	8975.48
686.443	9057.29
686.79	8960.8
687.138	9017.74
687.485	8942.26
687.832	8962.83
688.18	8957.18
688.527	8919.89
688.874	8894.13
689.221	8848.93
689.568	8813
689.915	8790.4
690.262	8801.03
690.609	8755.83
690.956	8663.18
691.303	8747.47
691.65	8632.89
691.997	8655.94
692.344	8652.33
692.69	8633.35
693.037	8692.1
693.383	8522.84
693.73	8575.27
694.077	8462.5
694.423	8456.85
694.769	8485.78
695.116	8432.45
695.462	8474.03
695.808	8405.56
696.155	8370.98
696.501	8341.38
696.847	8288.72
697.193	8236.29
697.539	8296.86
697.885	8232.45
698.231	8200.59
698.577	8162.62
698.923	8156.75
699.269	8154.71
699.614	8063.42
699.96	8102.06
700.306	8049.86
700.651	7974.83
700.997	7964.66
701.342	7918.56
701.688	7921.95
702.033	7930.54
702.379	7852.8
702.724	7860.71
703.069	7853.71
703.415	7762.63
703.76	7754.27
704.105	7698
704.45	7745.46
704.795	7685.57
705.14	7651.45
705.485	7679.47
705.83	7603.32
706.175	7622.3
706.52	7576.88
706.865	7561.06
707.209	7605.8
707.554	7498.91
707.899	7535.97
708.243	7455.07
708.588	7394.06
708.932	7396.54
709.277	7428.41
709.621	7447.16
709.966	7379.82
710.31	7352.25
710.654	7305.92
710.998	7353.61
711.342	7315.64
711.687	7306.15
712.031	7243.1
712.375	7277.9
712.719	7164.46
713.063	7167.17
713.407	7194.74
713.75	7152.93
714.094	7162.65
714.438	7134.4
714.782	7133.95
715.125	7066.61
715.469	7097.79
715.812	7146.15
716.156	7044.69
716.499	7054.4
716.843	7054.63
717.186	7019.6
717.53	7028.87
717.873	7034.07
718.216	7033.61
718.559	7039.26
718.902	6958.36
719.246	6939.61
719.589	6907.97
719.932	6976.21
720.275	6871.81
720.617	6924.01
720.96	6922.66
721.303	6865.48
721.646	6939.38
721.989	6861.87
722.331	6860.74
722.674	6932.83
723.016	6881.08
723.359	6883.79
723.701	6841.98
724.044	6805.15
724.386	6775.54
724.729	6838.82
725.071	6808.08
725.413	6804.02
725.755	6813.73
726.097	6747.29
726.439	6724.92
726.782	6758.14
727.124	6755.66
727.465	6752.04
727.807	6768.54
728.149	6737.13
728.491	6737.13
728.833	6726.05
729.175	6778.93
729.516	6655.32
729.858	6741.64
730.199	6720.4
730.541	6673.4
730.882	6675.43
731.224	6744.58
731.565	6679.05
731.906	6759.27
732.248	6689.89
732.589	6610.12
732.93	6656
733.271	6645.38
733.612	6731.7
733.953	6659.61
734.294	6660.52
734.635	6665.71
734.976	6753.17
735.317	6652.83
735.658	6643.34
735.999	6696.67
736.339	6641.08
736.68	6677.47
737.021	6641.53
737.361	6667.52
737.702	6710.91
738.042	6732.38
738.383	6702.32
738.723	6700.06
739.063	6690.12
739.404	6679.73
739.744	6687.63
740.084	6705.49
740.424	6762.89
740.764	6755.2
741.104	6787.97
741.444	6772.6
741.784	6763.34
742.124	6745.49
742.464	6781.64
742.804	6795.65
743.143	6796.78
743.483	6789.78
743.823	6809.21
744.162	6789.1
744.502	6781.64
744.841	6839.72
745.181	6880.17
745.52	6898.25
745.86	6978.25
746.199	6957.91
746.538	6987.97
746.877	7026.61
747.216	7049.43
747.556	7059.15
747.895	7085.82
748.234	7115.42
748.573	7132.14
748.911	7229.32
749.25	7318.13
749.589	7279.71
749.928	7357
750.267	7388.86
750.605	7393.38
750.944	7500.72
751.283	7484
751.621	7628.63
751.96	7707.72
752.298	7739.13
752.636	7881.5
752.975	7883.08
753.313	7897.77
753.651	8049.86
753.989	8064.55
754.327	8170.99
754.666	8263.41
755.004	8324.43
755.342	8398.32
755.679	8519
756.017	8542.28
756.355	8766
756.693	8843.74
757.031	8925.09
757.368	9042.6
757.706	9134.35
758.044	9234.69
758.381	9260.22
758.719	9432.2
759.056	9557.84
759.394	9627.22
759.731	9730.04
760.068	9829.93
760.405	9994.67
760.743	10150.14
761.08	10192.85
761.417	10352.85
761.754	10473.52
762.091	10564.37
762.428	10705.61
762.765	10768.88
763.102	10953.51
763.438	11036.9
763.775	11173.17
764.112	11324.12
764.449	11470.33
764.785	11588.3
765.122	11640.72
765.458	11802.08
765.795	11896.76
766.131	11927.72
766.467	12107.61
766.804	12268.05
767.14	12212.46
767.476	12411.78
767.812	12387.82
