Data from hue_120_FLMS001491_00080.txt Node
Date: Tue Feb 07 16:59:58 GMT 2017
User: dcchb
Spectrometer: FLMS00149
Trigger mode: 0
Integration Time (sec): 2.000000E-2
Scans to average: 10
Electric dark correction enabled: true
Nonlinearity correction enabled: false
Boxcar width: 0
XAxis mode: Wavelengths
Number of Pixels in Spectrum: 2048
>>>>>Begin Spectral Data<<<<<
341.393	1.93
341.776	1.93
342.16	1.93
342.543	-71.51
342.927	-65.86
343.31	-57.95
343.693	-80.77
344.077	-54.79
344.46	-69.93
344.843	-35.35
345.226	-47.56
345.61	-24.28
345.993	-16.82
346.376	-19.31
346.759	6.45
347.142	3.97
347.525	35.61
347.908	58.43
348.291	87.13
348.674	107.02
349.057	108.15
349.44	127.36
349.823	138.2
350.206	188.37
350.588	189.95
350.971	229.95
351.354	225.21
351.737	225.88
352.119	231.31
352.502	257.97
352.884	271.53
353.267	281.02
353.65	281.7
354.032	299.33
354.414	304.3
354.797	293.23
355.179	320.12
355.562	339.55
355.944	326.67
356.326	331.42
356.709	348.14
357.091	333.23
357.473	347.24
357.855	333.23
358.238	334.13
358.62	325.32
359.002	322.6
359.384	339.55
359.766	371.42
360.148	342.49
360.53	354.47
360.912	323.51
361.294	342.72
361.676	312.44
362.057	334.81
362.439	328.03
362.821	326.67
363.203	321.7
363.584	309.27
363.966	324.19
364.348	332.32
364.729	321.02
365.111	315.6
365.493	320.8
365.874	326.45
366.256	294.36
366.637	307.92
367.019	300.91
367.4	313.11
367.781	312.89
368.163	305.2
368.544	318.31
368.925	321.02
369.306	321.47
369.688	316.28
370.069	317.41
370.45	312.44
370.831	346.11
371.212	323.51
371.593	325.99
371.974	345.2
372.355	310.85
372.736	317.18
373.117	328.25
373.498	283.96
373.879	328.93
374.26	321.02
374.641	328.71
375.021	311.31
375.402	329.84
375.783	316.73
376.163	325.99
376.544	323.96
376.925	330.29
377.305	330.97
377.686	324.64
378.066	341.14
378.447	331.42
378.827	322.83
379.208	339.1
379.588	321.25
379.968	345.88
380.349	341.81
380.729	361.25
381.109	338.88
381.489	326.22
381.87	354.24
382.25	329.61
382.63	340.91
383.01	351.76
383.39	346.78
383.77	334.36
384.15	343.39
384.53	334.81
384.91	350.85
385.29	345.88
385.67	356.73
386.049	357.86
386.429	359.89
386.809	349.5
387.189	358.08
387.568	355.6
387.948	369.61
388.328	346.78
388.707	382.04
389.087	376.84
389.466	371.87
389.846	367.35
390.225	369.61
390.605	381.81
390.984	385.43
391.363	387.69
391.743	372.09
392.122	376.39
392.501	390.4
392.881	387.69
393.26	380.91
393.639	389.95
394.018	384.98
394.397	380
394.776	392.43
395.155	387.46
395.534	390.85
395.913	378.65
396.292	379.55
396.671	406.44
397.05	415.26
397.429	392.43
397.808	408.03
398.186	409.83
398.565	411.42
398.944	416.39
399.323	410.96
399.701	445.77
400.08	432.43
400.458	417.74
400.837	397.86
401.215	418.42
401.594	426.33
401.972	417.74
402.351	423.62
402.729	414.58
403.107	453.22
403.486	452.32
403.864	456.61
404.242	416.16
404.62	435.14
404.999	456.39
405.377	435.82
405.755	464.97
406.133	457.29
406.511	463.39
406.889	441.25
407.267	457.29
407.645	470.85
408.023	462.49
408.401	462.71
408.779	462.49
409.156	466.56
409.534	486.44
409.912	464.75
410.29	471.53
410.667	503.84
411.045	494.13
411.422	503.39
411.8	499.32
412.178	510.4
412.555	511.75
412.933	524.41
413.31	513.79
413.687	521.92
414.065	527.12
414.442	527.12
414.819	508.14
415.197	523.28
415.574	528.02
415.951	516.5
416.328	523.05
416.705	527.12
417.082	544.97
417.46	547.91
417.837	555.82
418.214	532.54
418.591	542.49
418.967	547.68
419.344	580.45
419.721	573.45
420.098	581.81
420.475	582.26
420.852	577.97
421.228	587.91
421.605	577.51
421.982	581.13
422.358	605.76
422.735	600.11
423.111	624.97
423.488	578.87
423.864	601.69
424.241	616.38
424.617	616.38
424.994	614.35
425.37	640.56
425.746	612.54
426.123	628.59
426.499	634.01
426.875	638.75
427.251	638.75
427.627	640.11
428.003	669.26
428.379	666.55
428.756	688.47
429.132	666.32
429.507	700
429.883	678.75
430.259	709.26
430.635	693.67
431.011	707.91
431.387	721.46
431.763	728.47
432.138	724.85
432.514	729.6
432.89	726.44
433.265	752.2
433.641	732.09
434.016	756.04
434.392	760.56
434.767	751.97
435.143	765.76
435.518	808.02
435.894	784.51
436.269	810.73
436.644	812.08
437.02	809.6
437.395	809.37
437.77	797.85
438.145	815.7
438.52	850.27
438.895	851.18
439.271	854.12
439.646	865.19
440.021	888.69
440.395	876.26
440.77	874.23
441.145	876.71
441.52	901.12
441.895	883.49
442.27	932.76
442.645	911.06
443.019	906.77
443.394	934.57
443.769	891.86
444.143	919.42
444.518	919.2
444.892	904.06
445.267	938.18
445.641	963.27
446.016	950.38
446.39	959.88
446.764	964.85
447.139	969.59
447.513	979.99
447.887	961.46
448.262	994.45
448.636	1016.6
449.01	1016.15
449.384	1043.04
449.758	1029.7
450.132	1038.07
450.506	1029.25
450.88	1052.3
451.254	1043.04
451.628	1066.31
452.002	1074.22
452.376	1073.55
452.75	1097.05
453.123	1127.78
453.497	1096.37
453.871	1143.37
454.244	1117.61
454.618	1120.1
454.992	1167.33
455.365	1176.37
455.739	1217.95
456.112	1179.53
456.486	1212.3
456.859	1240.77
457.232	1261.11
457.606	1256.82
457.979	1285.07
458.352	1277.61
458.725	1306.53
459.099	1298.17
459.472	1333.43
459.845	1335.69
460.218	1338.17
460.591	1367.55
460.964	1403.03
461.337	1414.55
461.71	1448
462.083	1452.07
462.456	1488.68
462.829	1447.09
463.201	1478.51
463.574	1493.87
463.947	1539.3
464.32	1536.81
464.692	1571.84
465.065	1575.9
465.438	1626.07
465.81	1634.21
466.183	1643.47
466.555	1697.48
466.928	1745.17
467.3	1750.14
467.672	1774.77
468.045	1787.88
468.417	1816.35
468.789	1851.15
469.161	1859.97
469.534	1906.52
469.906	1939.96
470.278	1974.99
470.65	1994.65
471.022	2032.62
471.394	2084.37
471.766	2075.33
472.138	2156.91
472.51	2212.05
472.882	2245.72
473.253	2285.26
473.625	2350.12
473.997	2378.37
474.369	2406.17
474.74	2454.3
475.112	2509.21
475.484	2579.95
475.855	2654.97
476.227	2711.24
476.598	2788.98
476.97	2821.3
477.341	2886.15
477.713	2946.26
478.084	3039.82
478.455	3161.85
478.827	3161.17
479.198	3300.83
479.569	3334.28
479.94	3450.66
480.311	3537.66
480.682	3627.38
481.053	3723.87
481.424	3790.76
481.795	3924.32
482.166	4039.57
482.537	4112.79
482.908	4233.91
483.279	4283.63
483.65	4463.51
484.021	4597.07
484.391	4678.87
484.762	4788.48
485.133	4886.33
485.503	4969.04
485.874	5201.8
486.244	5292.42
486.615	5432.75
486.985	5546.87
487.356	5746.64
487.726	5817.6
488.097	5981.21
488.467	6070.93
488.837	6235.22
489.207	6402.44
489.578	6568.99
489.948	6652.61
490.318	6850.79
490.688	6948.87
491.058	7152.03
491.428	7210.33
491.798	7402.87
492.168	7599.7
492.538	7721.73
492.908	7877.89
493.278	8012.57
493.648	8128.27
494.017	8254.6
494.387	8377.53
494.757	8587.47
495.126	8736.85
495.496	8850.06
495.866	9004.41
496.235	9107.68
496.605	9272.88
496.974	9371.18
497.344	9486.88
497.713	9616.6
498.082	9746.09
498.452	9885.52
498.821	10032.18
499.19	10065.4
499.559	10180.88
499.928	10372.96
500.298	10441.21
500.667	10596.68
501.036	10611.37
501.405	10829.9
501.774	10805.04
502.143	10961.42
502.512	11110.57
502.88	11244.13
503.249	11231.02
503.618	11319.83
503.987	11372.71
504.356	11574.29
504.724	11613.16
505.093	11627.62
505.462	11736.32
505.83	11916.88
506.199	11934.5
506.567	12179.24
506.936	12100.37
507.304	12302.85
507.672	12380.59
508.041	12485.67
508.409	12516.63
508.777	12623.98
509.145	12741.71
509.514	12806.57
509.882	12887.92
510.25	12804.99
510.618	13029.84
510.986	12992.55
511.354	13153
511.722	13254.02
512.09	13379.44
512.458	13329.72
512.826	13418.53
513.193	13490.85
513.561	13478.87
513.929	13597.06
514.297	13711.86
514.664	13662.14
515.032	13790.95
515.4	13865.53
515.767	13894.23
516.135	13903.26
516.502	13851.51
516.869	14089.47
517.237	14092.19
517.604	13970.61
517.972	14148
518.339	14252.86
518.706	14299.86
519.073	14243.59
519.44	14354.55
519.808	14420.54
520.175	14362.69
520.542	14526.75
520.909	14616.24
521.276	14532.85
521.643	14641.1
522.009	14800.64
522.376	14763.58
522.743	14823.47
523.11	14858.95
523.477	14907.76
523.843	14979.39
524.21	15094.19
524.577	15196.56
524.943	15130.12
525.31	15246.28
525.676	15273.62
526.043	15301.65
526.409	15296.67
526.776	15444.92
527.142	15392.49
527.508	15393.62
527.874	15478.59
528.241	15451.7
528.607	15433.39
528.973	15517.91
529.339	15499.15
529.705	15608.76
530.071	15664.35
530.437	15613.05
530.803	15682.65
531.169	15688.75
531.535	15594.75
531.901	15602.88
532.267	15666.38
532.632	15705.48
532.998	15667.74
533.364	15745.02
533.73	15646.95
534.095	15745.48
534.461	15660.05
534.826	15846.04
535.192	15662.54
535.557	15757.23
535.923	15679.04
536.288	15644.01
536.653	15705.48
537.019	15604.24
537.384	15633.61
537.749	15638.59
538.114	15527.85
538.479	15519.27
538.845	15552.49
539.21	15451.47
539.575	15542.09
539.94	15547.97
540.305	15522.2
540.67	15521.07
541.034	15407.41
541.399	15518.82
541.764	15405.15
542.129	15455.54
542.494	15431.13
542.858	15305.71
543.223	15298.48
543.587	15307.3
543.952	15305.26
544.316	15253.06
544.681	15180.97
545.045	15179.61
545.41	15162.67
545.774	15166.28
546.138	15096.23
546.503	15086.28
546.867	15027.75
547.231	15092.16
547.595	15028.66
547.959	15082.67
548.324	15038.15
548.688	14933.29
549.052	14957.47
549.416	14888.1
549.779	14827.99
550.143	14812.62
550.507	14929.9
550.871	14872.05
551.235	14778.27
551.599	14845.39
551.962	14781.21
552.326	14800.87
552.689	14758.38
553.053	14693.07
553.417	14646.97
553.78	14792.28
554.143	14661.21
554.507	14693.98
554.87	14601.1
555.234	14753.19
555.597	14651.27
555.96	14605.17
556.323	14628.22
556.686	14712.96
557.05	14706.18
557.413	14676.8
557.776	14659.63
558.139	14647.2
558.502	14649.91
558.865	14635.45
559.228	14557.48
559.59	14664.6
559.953	14603.13
560.316	14724.71
560.679	14642.23
561.041	14691.27
561.404	14671.15
561.767	14795.67
562.129	14664.37
562.492	14798.38
562.854	14738.27
563.217	14638.61
563.579	14705.5
563.941	14823.24
564.304	14810.36
564.666	14834.31
565.028	14891.26
565.39	14826.63
565.753	14891.49
566.115	14945.5
566.477	14911.6
566.839	14916.12
567.201	15014.65
567.563	14921.99
567.925	15033.63
568.287	14984.14
568.648	15050.8
569.01	15144.59
569.372	15110.46
569.734	15061.2
570.095	15161.08
570.457	15095.1
570.819	15159.95
571.18	15084.93
571.542	15142.1
571.903	15206.05
572.265	15250.35
572.626	15248.54
572.987	15211.7
573.349	15346.16
573.71	15256
574.071	15259.39
574.432	15345.71
574.794	15378.03
575.155	15273.4
575.516	15248.54
575.877	15377.8
576.238	15383.45
576.599	15381.42
576.96	15461.64
577.32	15423.68
577.681	15442.88
578.042	15440.85
578.403	15382.32
578.763	15455.31
579.124	15479.27
579.485	15490.79
579.845	15480.85
580.206	15408.08
580.566	15573.73
580.927	15392.04
581.287	15456.44
581.648	15456.67
582.008	15467.07
582.368	15369.21
582.728	15516.56
583.089	15403.11
583.449	15496.22
583.809	15480.62
584.169	15495.99
584.529	15407.18
584.889	15528.98
585.249	15511.13
585.609	15348.88
585.969	15509.78
586.329	15406.05
586.688	15413.73
587.048	15355.2
587.408	15338.48
587.768	15364.47
588.127	15401.08
588.487	15257.35
588.846	15442.21
589.206	15228.65
589.565	15374.64
589.925	15354.3
590.284	15293.28
590.643	15375.77
591.003	15314.3
591.362	15314.07
591.721	15285.83
592.08	15340.97
592.44	15377.35
592.799	15302.32
593.158	15315.66
593.517	15202.44
593.876	15321.08
594.235	15274.98
594.593	15268.2
594.952	15238.6
595.311	15219.84
595.67	15359.72
596.029	15307.97
596.387	15338.25
596.746	15312.27
597.104	15230.24
597.463	15275.43
597.822	15196.79
598.18	15185.26
598.538	15304.36
598.897	15295.32
599.255	15103.46
599.613	15350.68
599.972	15180.29
600.33	15341.64
600.688	15176
601.046	15321.31
601.404	15272.49
601.762	15288.99
602.12	15384.13
602.478	15376.67
602.836	15279.05
603.194	15211.93
603.552	15235.66
603.91	15133.97
604.268	15291.93
604.625	15264.36
604.983	15359.72
605.341	15181.2
605.698	15284.92
606.056	15393.39
606.413	15271.14
606.771	15447.86
607.128	15404.92
607.485	15266.84
607.843	15270.01
608.2	15372.38
608.557	15511.36
608.914	15321.31
609.272	15456.44
609.629	15450.57
609.986	15540.51
610.343	15492.38
610.7	15575.76
611.057	15426.61
611.414	15577.57
611.771	15506.61
612.127	15544.58
612.484	15494.18
612.841	15566.05
613.198	15474.97
613.554	15531.24
613.911	15597.23
614.267	15573.95
614.624	15498.25
614.98	15519.95
615.337	15622.99
615.693	15580.51
616.05	15625.93
616.406	15752.93
616.762	15627.96
617.118	15674.29
617.475	15622.99
617.831	15635.87
618.187	15700.28
618.543	15814.4
618.899	15847.39
619.255	15767.17
619.611	15769.2
619.967	15879.03
620.323	15862.99
620.678	15812.37
621.034	15752.48
621.39	15784.57
621.746	15599.26
622.101	15902.99
622.457	15810.33
622.812	15803.55
623.168	15817.34
623.523	15836.55
623.879	15815.98
624.234	15732.37
624.589	15799.94
624.945	15813.95
625.3	15913.16
625.655	15886.94
626.01	15767.62
626.365	15740.05
626.72	15760.62
627.075	15798.13
627.43	15776.89
627.785	15711.35
628.14	15755.65
628.495	15863.44
628.85	15801.75
629.205	15682.2
629.559	15752.26
629.914	15727.62
630.269	15707.74
630.623	15612.37
630.978	15709.32
631.332	15653.95
631.687	15684.01
632.041	15606.5
632.396	15709.09
632.75	15602.2
633.104	15591.58
633.459	15567.85
633.813	15546.16
634.167	15606.04
634.521	15474.75
634.875	15634.74
635.229	15570.57
635.583	15476.78
635.937	15434.3
636.291	15439.04
636.645	15415.77
636.999	15388.88
637.352	15397.69
637.706	15387.29
638.06	15367.63
638.413	15401.08
638.767	15281.76
639.121	15286.96
639.474	15292.15
639.828	15278.6
640.181	15262.1
640.534	15260.74
640.888	15216
641.241	15181.87
641.594	15200.18
641.947	15197.47
642.301	15154.98
642.654	15232.27
643.007	15086.96
643.36	15137.13
643.713	15114.08
644.066	15138.26
644.419	14994.99
644.771	15008.32
645.124	14872.73
645.477	14912.73
645.83	14638.84
646.182	14673.87
646.535	14618.27
646.888	14658.95
647.24	14561.55
647.593	14755.9
647.945	14598.61
648.298	14536.02
648.65	14552.74
649.002	14406.3
649.355	14594.55
649.707	14562.91
650.059	14710.02
650.411	14840.41
650.763	14807.2
651.115	14884.48
651.467	14965.38
651.819	14980.75
652.171	14939.17
652.523	14984.59
652.875	14799.96
653.227	14749.12
653.578	14937.81
653.93	14943.01
654.282	14877.25
654.633	14836.57
654.985	14974.42
655.337	14902.56
655.688	14879.51
656.039	14922.9
656.391	14872.28
656.742	14857.82
657.094	14865.05
657.445	14928.77
657.796	14842.22
658.147	14853.07
658.498	14865.5
658.849	14905.05
659.2	14855.1
659.551	14854.43
659.902	14861.66
660.253	14916.12
660.604	14830.02
660.955	14873.18
661.306	14844.71
661.656	14827.53
662.007	14960.41
662.358	14969.68
662.708	14900.3
663.059	14919.51
663.409	14888.78
663.76	14930.81
664.11	14886.06
664.461	14867.98
664.811	14874.76
665.161	14924.93
665.511	14870.02
665.862	14922.9
666.212	14975.55
666.562	14909.11
666.912	14924.25
667.262	14878.61
667.612	14897.81
667.962	14999.96
668.312	14941.66
668.662	14974.42
669.011	14880.64
669.361	14869.57
669.711	14900.53
670.06	14901.2
670.41	14843.13
670.76	14805.39
671.109	14921.77
671.459	14877.7
671.808	14840.41
672.157	14822.34
672.507	14670.02
672.856	14806.97
673.205	14845.61
673.554	14781.89
673.904	14740.08
674.253	14776.91
674.602	14774.43
674.951	14605.17
675.3	14462.57
675.649	14720.42
675.998	14675.22
676.346	14723.58
676.695	14684.03
677.044	14607.43
677.393	14686.07
677.741	14633.64
678.09	14642.68
678.438	14576.24
678.787	14687.88
679.135	14645.84
679.484	14538.28
679.832	14587.77
680.181	14473.19
680.529	14494.66
680.877	14475.9
681.225	14461.89
681.573	14458.5
681.922	14316.13
682.27	14354.33
682.618	14409.92
682.966	14268.45
683.314	14377.38
683.661	14332.86
684.009	14296.47
684.357	14266.19
684.705	14280.43
685.053	14209.92
685.4	14187.55
685.748	14079.3
686.095	14137.61
686.443	14017.39
686.79	14023.71
687.138	14048.12
687.485	13924.96
687.832	13975.8
688.18	14030.72
688.527	13833.66
688.874	13898.97
689.221	13794.57
689.568	13695.81
689.915	13755.7
690.262	13642.03
690.609	13658.3
690.956	13633.21
691.303	13542.6
691.65	13517.06
691.997	13510.73
692.344	13455.14
692.69	13389.38
693.037	13351.64
693.383	13211.98
693.73	13357.06
694.077	13189.61
694.423	13232.77
694.769	13175.83
695.116	13146.22
695.462	13125.66
695.808	13039.56
696.155	13105.77
696.501	12980.12
696.847	12898.55
697.193	12864.87
697.539	12875.72
697.885	12745.78
698.231	12692.22
698.577	12703.07
698.923	12641.15
699.269	12651.77
699.614	12540.36
699.96	12514.83
700.306	12522.06
700.651	12388.05
700.997	12362.29
701.342	12372.01
701.688	12334.94
702.033	12250.65
702.379	12183.31
702.724	12183.76
703.069	12279.58
703.415	12132.46
703.76	12045.69
704.105	12003.88
704.45	11918.46
704.795	11956.42
705.14	11889.53
705.485	11883.66
705.83	11861.06
706.175	11768.41
706.52	11763.66
706.865	11751.91
707.209	11718.69
707.554	11657.9
707.899	11760.27
708.243	11560.95
708.588	11570.22
708.932	11522.54
709.277	11556.21
709.621	11489.09
709.966	11403.9
710.31	11440.96
710.654	11324.12
710.998	11431.01
711.342	11394.86
711.687	11308.76
712.031	11234.41
712.375	11207.74
712.719	11264.92
713.063	11183.11
713.407	11233.28
713.75	11200.74
714.094	11162.09
714.438	11079.38
714.782	11146.05
715.125	11110.8
715.469	11045.94
715.812	11023.11
716.156	10981.08
716.499	10947.64
716.843	10983.12
717.186	10879.16
717.53	10952.83
717.873	10992.83
718.216	10898.37
718.559	10890.69
718.902	10823.8
719.246	10821.54
719.589	10867.64
719.932	10803.01
720.275	10748.77
720.617	10801.88
720.96	10753.97
721.303	10820.18
721.646	10792.84
721.989	10684.37
722.331	10746.96
722.674	10753.06
723.016	10731.14
723.359	10658.38
723.701	10723.46
724.044	10593.52
724.386	10547.42
724.729	10714.65
725.071	10598.04
725.413	10636.46
725.755	10539.29
726.097	10575.89
726.439	10499.74
726.782	10528.21
727.124	10619.96
727.465	10504.26
727.807	10514.65
728.149	10462.9
728.491	10469.23
728.833	10569.34
729.175	10467.65
729.516	10484.37
729.858	10506.07
730.199	10450.02
730.541	10437.14
730.882	10412.06
731.224	10509.46
731.565	10354.43
731.906	10424.94
732.248	10394.2
732.589	10336.13
732.93	10381.78
733.271	10334.77
733.612	10396.69
733.953	10388.78
734.294	10276.24
734.635	10340.42
734.976	10344.26
735.317	10346.07
735.658	10310.14
735.999	10402.34
736.339	10362.34
736.68	10416.35
737.021	10368.89
737.361	10246.64
737.702	10421.55
738.042	10377.48
738.383	10355.56
738.723	10340.42
739.063	10362.34
739.404	10430.36
739.744	10397.59
740.084	10365.73
740.424	10365.73
740.764	10345.84
741.104	10429.68
741.444	10361.21
741.784	10377.48
742.124	10377.93
742.464	10464.26
742.804	10450.25
743.143	10495.67
743.483	10510.36
743.823	10437.37
744.162	10486.63
744.502	10599.17
744.841	10584.26
745.181	10699.73
745.52	10613.18
745.86	10675.55
746.199	10744.03
746.538	10758.04
746.877	10835.32
747.216	10870.12
747.556	10877.36
747.895	10969.33
748.234	10966.39
748.573	10978.6
748.911	11065.15
749.25	11192.15
749.589	11225.82
749.928	11296.55
750.267	11381.52
750.605	11454.52
750.944	11417.68
751.283	11442.76
751.621	11678.92
751.96	11633.95
752.298	11777.44
752.636	11874.39
752.975	11896.31
753.313	11986.7
753.651	12203.2
753.989	12272.12
754.327	12309.63
754.666	12431.89
755.004	12583.75
755.342	12692.45
755.679	12813.8
