Data from hue_40_FLMS001491_69.txt Node
Date: Mon Feb 06 15:08:17 GMT 2017
User: dcchb
Spectrometer: FLMS00149
Trigger mode: 0
Integration Time (sec): 2.000000E-2
Scans to average: 10
Electric dark correction enabled: true
Nonlinearity correction enabled: false
Boxcar width: 0
XAxis mode: Wavelengths
Number of Pixels in Spectrum: 2048
>>>>>Begin Spectral Data<<<<<
341.393	-3.59
341.776	-3.59
342.16	-3.59
342.543	-59.63
342.927	-80.42
343.31	-68.44
343.693	-89.69
344.077	-49.01
344.46	-37.26
344.843	-60.31
345.226	-48.33
345.61	-40.42
345.993	-16.02
346.376	0.71
346.759	8.62
347.142	47.71
347.525	32.8
347.908	67.15
348.291	62.63
348.674	84.32
349.057	105.56
349.44	136.75
349.823	127.48
350.206	165.9
350.588	202.96
350.971	206.8
351.354	216.07
351.737	238.89
352.119	246.8
352.502	255.84
352.884	280.92
353.267	290.87
353.65	294.26
354.032	308.95
354.414	293.58
354.797	301.04
355.179	315.95
355.562	327.93
355.944	326.57
356.326	323.64
356.709	356.4
357.091	321.6
357.473	324.31
357.855	348.27
358.238	341.71
358.62	324.54
359.002	347.59
359.384	337.65
359.766	344.65
360.148	342.17
360.53	332.67
360.912	333.8
361.294	338.78
361.676	348.49
362.057	340.58
362.439	336.06
362.821	325.67
363.203	320.25
363.584	329.06
363.966	341.94
364.348	347.59
364.729	327.48
365.111	338.32
365.493	321.6
365.874	334.48
366.256	329.74
366.637	310.53
367.019	339.91
367.4	323.64
367.781	334.71
368.163	334.03
368.544	329.29
368.925	335.16
369.306	320.25
369.688	308.27
370.069	317.08
370.45	316.63
370.831	309.85
371.212	339.91
371.593	311.66
371.974	313.69
372.355	322.05
372.736	311.88
373.117	329.06
373.498	328.38
373.879	322.73
374.26	312.34
374.641	308.49
375.021	329.06
375.402	330.64
375.783	310.98
376.163	335.84
376.544	342.39
376.925	325.44
377.305	323.41
377.686	328.16
378.066	341.26
378.447	336.06
378.827	326.57
379.208	348.95
379.588	337.65
379.968	345.56
380.349	353.47
380.729	345.78
381.109	343.52
381.489	326.57
381.87	332
382.25	337.87
382.63	350.53
383.01	357.76
383.39	344.65
383.77	346.69
384.15	373.8
384.53	358.66
384.91	350.98
385.29	368.15
385.67	357.53
386.049	339
386.429	374.93
386.809	361.37
387.189	362.96
387.568	352.34
387.948	362.05
388.328	368.15
388.707	366.8
389.087	362.28
389.466	378.32
389.846	372.45
390.225	371.54
390.605	372.45
390.984	365.89
391.363	377.19
391.743	389.4
392.122	388.27
392.501	384.2
392.881	396.18
393.26	366.57
393.639	375.16
394.018	365.22
394.397	389.17
394.776	406.57
395.155	389.17
395.534	382.62
395.913	387.14
396.292	382.84
396.671	403.18
397.05	415.16
397.429	414.03
397.808	385.55
398.186	396.85
398.565	401.37
398.944	395.72
399.323	416.74
399.701	416.29
400.08	418.1
400.458	410.86
400.837	388.27
401.215	431.88
401.594	416.51
401.972	449.06
402.351	426.23
402.729	432.79
403.107	419.9
403.486	451.32
403.864	419.45
404.242	420.13
404.62	429.17
404.999	431.2
405.377	416.06
405.755	430.07
406.133	446.8
406.511	452.45
406.889	438.66
407.267	445.21
407.645	461.71
408.023	458.55
408.401	453.8
408.779	444.99
409.156	454.93
409.534	465.55
409.912	464.2
410.29	475.04
410.667	485.44
411.045	478.43
411.422	467.81
411.8	479.11
412.178	494.93
412.555	492.22
412.933	492.44
413.31	519.11
413.687	524.53
414.065	506
414.442	531.09
414.819	521.6
415.197	515.49
415.574	538.32
415.951	532.44
416.328	516.85
416.705	519.56
417.082	541.26
417.46	540.8
417.837	543.52
418.214	527.92
418.591	531.99
418.967	561.6
419.344	546.91
419.721	582.39
420.098	550.3
420.475	573.57
420.852	554.36
421.228	559.56
421.605	563.63
421.982	555.95
422.358	584.65
422.735	572.67
423.111	586.23
423.488	597.3
423.864	576.06
424.241	566.57
424.617	605.44
424.994	591.65
425.37	615.61
425.746	588.71
426.123	605.44
426.499	629.16
426.875	612.89
427.251	642.5
427.627	625.32
428.003	630.52
428.379	635.27
428.756	642.05
429.132	647.02
429.507	654.47
429.883	661.93
430.259	679.33
430.635	654.47
431.011	671.87
431.387	680.46
431.763	660.58
432.138	686.56
432.514	670.75
432.89	697.64
433.265	714.13
433.641	713.23
434.016	717.07
434.392	726.79
434.767	729.73
435.143	731.76
435.518	736.05
435.894	767.92
436.269	757.3
436.644	761.36
437.02	747.81
437.395	762.04
437.77	771.99
438.145	791.19
438.52	808.59
438.895	805.2
439.271	807.01
439.646	809.05
440.021	845.2
440.395	841.59
440.77	796.84
441.145	844.07
441.52	832.32
441.895	825.09
442.27	856.28
442.645	836.84
443.019	840.68
443.394	876.39
443.769	879.55
444.143	869.61
444.518	872.32
444.892	862.15
445.267	880.91
445.641	894.47
446.016	915.26
446.39	905.54
446.764	908.25
447.139	897.63
447.513	908.7
447.887	906.45
448.262	898.54
448.636	940.12
449.01	926.33
449.384	938.31
449.758	947.8
450.132	934.24
450.506	971.53
450.88	954.35
451.254	995.26
451.628	1000.23
452.002	986.22
452.376	987.8
452.75	989.15
453.123	979.89
453.497	1023.5
453.871	1034.35
454.244	1059.89
454.618	1049.49
454.992	1068.93
455.365	1067.8
455.739	1068.25
456.112	1091.75
456.486	1122.94
456.859	1110.96
457.232	1145.08
457.606	1150.05
457.979	1150.05
458.352	1175.59
458.725	1194.57
459.099	1188.25
459.472	1199.77
459.845	1209.49
460.218	1242.93
460.591	1240.67
460.964	1234.35
461.337	1253.1
461.71	1265.76
462.083	1298.75
462.456	1293.78
462.829	1330.16
463.201	1312.08
463.574	1355.02
463.947	1377.62
464.32	1383.95
464.692	1386.88
465.065	1423.27
465.438	1417.62
465.81	1430.27
466.183	1472.08
466.555	1491.97
466.928	1524.96
467.3	1534.9
467.672	1569.25
468.045	1611.96
468.417	1580.33
468.789	1632.53
469.161	1641.79
469.534	1681.79
469.906	1668.23
470.278	1714.79
470.65	1741.23
471.022	1785.74
471.394	1817.38
471.766	1872.97
472.138	1895.35
472.51	1881.79
472.882	1963.82
473.253	1955.01
473.625	2025.29
473.997	2046.3
474.369	2063.02
474.74	2098.05
475.112	2155
475.484	2195.9
475.855	2252.4
476.227	2260.31
476.598	2382.34
476.97	2456.23
477.341	2469.34
477.713	2539.17
478.084	2549.79
478.455	2594.31
478.827	2687.87
479.198	2775.77
479.569	2802.44
479.94	2869.56
480.311	2923.79
480.682	3045.37
481.053	3118.82
481.424	3180.28
481.795	3261.86
482.166	3313.84
482.537	3391.35
482.908	3527.39
483.279	3557
483.65	3635.41
484.021	3787.05
484.391	3891.23
484.762	3960.15
485.133	4000.6
485.503	4083.08
485.874	4255.06
486.244	4306.58
486.615	4426.58
486.985	4519.91
487.356	4651.43
487.726	4731.66
488.097	4867.47
488.467	4923.29
488.837	5062.49
489.207	5182.72
489.578	5323.73
489.948	5356.95
490.318	5519.43
490.688	5569.37
491.058	5698.86
491.428	5882.13
491.798	5981.11
492.168	6172.07
492.538	6180.2
492.908	6313.08
493.278	6438.28
493.648	6521.44
494.017	6574.32
494.387	6779.74
494.757	6848.44
495.126	6944.25
495.496	7045.04
495.866	7179.73
496.235	7293.62
496.605	7364.35
496.974	7506.05
497.344	7616.1
497.713	7719.83
498.082	7814.96
498.452	7879.82
498.821	7970.44
499.19	8077.1
499.559	8256.53
499.928	8305.12
500.298	8381.95
500.667	8542.18
501.036	8560.26
501.405	8644.55
501.774	8751.21
502.143	8863.75
502.512	8902.39
502.88	9019
503.249	9072.78
503.618	9210.86
503.987	9241.59
504.356	9353.68
504.724	9454.69
505.093	9514.13
505.462	9564.52
505.83	9630.96
506.199	9776.49
506.567	9907.56
506.936	9938.3
507.304	10192.53
507.672	10154.34
508.041	10231.17
508.409	10424.61
508.777	10378.29
509.145	10528.11
509.514	10539.64
509.882	10670.03
510.25	10708.45
510.618	10806.07
510.986	10833.19
511.354	10978.27
511.722	11096.23
512.09	11206.06
512.458	11221.43
512.826	11390.01
513.193	11405.6
513.561	11446.51
513.929	11619.84
514.297	11691.02
514.664	11706.61
515.032	11847.63
515.4	11933.73
515.767	11949.77
516.135	12087.17
516.502	11954.97
516.869	12198.13
517.237	12226.83
517.604	12256.88
517.972	12387.05
518.339	12446.48
518.706	12521.73
519.073	12557.21
519.44	12633.59
519.808	12845.57
520.175	12803.53
520.542	12950.87
520.909	13057.09
521.276	12999.01
521.643	13181.83
522.009	13304.09
522.376	13312.22
522.743	13441.48
523.11	13559.67
523.477	13660.01
523.843	13753.56
524.21	13950.17
524.577	13883.73
524.943	14062.94
525.31	14063.61
525.676	14303.61
526.043	14388.12
526.409	14510.61
526.776	14600.1
527.142	14541.57
527.508	14709.92
527.874	14763.93
528.241	14832.41
528.607	14830.6
528.973	15047.09
529.339	15132.29
529.705	15191.72
530.071	15364.14
530.437	15399.17
530.803	15557.13
531.169	15586.51
531.535	15539.96
531.901	15678.71
532.267	15744.47
532.632	15819.5
532.998	15886.16
533.364	15978.59
533.73	16049.1
534.095	16206.61
534.461	16234.4
534.826	16321.18
535.192	16385.13
535.557	16454.06
535.923	16482.76
536.288	16650.44
536.653	16612.7
537.019	16666.71
537.384	16716.42
537.749	16828.29
538.114	16902.18
538.479	16956.87
538.845	17046.36
539.21	17060.14
539.575	17002.52
539.94	17177.2
540.305	17361.83
540.67	17327.48
541.034	17444.77
541.399	17505.33
541.764	17522.96
542.129	17577.19
542.494	17548.72
542.858	17748.49
543.223	17674.82
543.587	17910.29
543.952	17851.31
544.316	17877.3
544.681	17978.99
545.045	18011.98
545.41	18141.7
545.774	18198.19
546.138	18311.64
546.503	18316.16
546.867	18411.3
547.231	18591.63
547.595	18577.84
547.959	18649.93
548.324	18540.56
548.688	18671.4
549.052	18839.98
549.416	18861.45
549.779	18903.03
550.143	18924.5
550.507	19078.62
550.871	19067.78
551.235	19126.08
551.599	19293.31
551.962	19228
552.326	19249.01
552.689	19503.92
553.053	19388.9
553.417	19425.73
553.78	19878.6
554.143	19672.05
554.507	19743.01
554.87	19717.48
555.234	19958.83
555.597	19948.2
555.96	19943.68
556.323	20152.94
556.686	20062.55
557.05	20316.33
557.413	20215.32
557.776	20387.29
558.139	20451.69
558.502	20422.99
558.865	20511.13
559.228	20670.9
559.59	20726.04
559.953	20703.21
560.316	20925.81
560.679	21083.99
561.041	21184.33
561.404	21118.34
561.767	21403.99
562.129	21268.62
562.492	21530.08
562.854	21458.9
563.217	21446.7
563.579	21632.23
563.941	21773.92
564.304	21833.13
564.666	21961.26
565.028	21989.05
565.39	21964.42
565.753	22135.49
566.115	22232.66
566.477	22324.41
566.839	22410.96
567.201	22359.44
567.563	22599.66
567.925	22765.31
568.287	22647.34
568.648	22809.6
569.01	22929.14
569.372	23128.23
569.734	23044.62
570.095	23230.15
570.457	23312.64
570.819	23337.72
571.18	23382.69
571.542	23548.56
571.903	23604.15
572.265	23632.18
572.626	23837.82
572.987	23854.09
573.349	23991.71
573.71	24031.94
574.071	24205.72
574.432	24346.96
574.794	24491.14
575.155	24522.77
575.516	24494.07
575.877	24644.58
576.238	24784.69
576.599	24936.77
576.96	24985.59
577.32	25176.99
577.681	25195.07
578.042	25524.1
578.403	25514.61
578.763	25549.19
579.124	25726.81
579.485	25941.27
579.845	26014.26
580.206	26132.9
580.566	26317.75
580.927	26356.62
581.287	26646.11
581.648	26698.99
582.008	26845.65
582.368	27004.29
582.728	27101.01
583.089	27192.08
583.449	27371.96
583.809	27503.94
584.169	27842.91
584.529	27867.77
584.889	28091.49
585.249	28258.04
585.609	28322
585.969	28625.72
586.329	28598.37
586.688	28868.42
587.048	29117.45
587.408	29242.42
587.768	29372.59
588.127	29532.81
588.487	29637.89
588.846	30119.91
589.206	30079.69
589.565	30198.1
589.925	30530.52
590.284	30534.37
590.643	30914.47
591.003	31093.45
591.362	31374.57
591.721	31543.15
592.08	31498.18
592.44	31802.81
592.799	32027.89
593.158	32205.28
593.517	32332.96
593.876	32506.52
594.235	32534.09
594.593	32906.06
594.952	33066.05
595.311	33165.94
595.67	33387.62
596.029	33665.36
596.387	33786.03
596.746	34008.17
597.104	33977.21
597.463	34179.47
597.822	34442.51
598.18	34536.75
598.538	34608.16
598.897	35033.68
599.255	34938.54
599.613	35422.15
599.972	35264.64
600.33	35704.85
600.688	35651.07
601.046	35936.71
601.404	36083.83
601.762	36196.82
602.12	36512.97
602.478	36554.77
602.836	36773.07
603.194	36644.71
603.552	36851.94
603.91	36832.28
604.268	37256.68
604.625	37207.41
604.983	37372.83
605.341	37337.8
605.698	37733.05
606.056	37829.77
606.413	37853.5
606.771	38065.24
607.128	38218.01
607.485	38152.02
607.843	38159.7
608.2	38575.29
608.557	38604.21
608.914	38701.61
609.272	38901.15
609.629	39063.86
609.986	39261.14
610.343	39274.25
610.7	39574.81
611.057	39606.67
611.414	39515.37
611.771	39805.76
612.127	39952.2
612.484	40041.46
612.841	40147.9
613.198	39989.94
613.554	40222.02
613.911	40438.06
614.267	40435.35
614.624	40570.49
614.98	40711.95
615.337	40778.17
615.693	40826.75
616.05	41010.48
616.406	41118.04
616.762	41002.11
617.118	41093.41
617.475	41093.86
617.831	41319.39
618.187	41361.65
618.543	41488.65
618.899	41844.8
619.255	41793.73
619.611	41694.98
619.967	41946.04
620.323	42131.12
620.678	41928.64
621.034	41882.77
621.39	41959.15
621.746	42031.69
622.101	42426.03
622.457	42151.91
622.812	42202.08
623.168	42461.28
623.523	42379.7
623.879	42534.96
624.234	42274.85
624.589	42471.45
624.945	42609.08
625.3	42564.78
625.655	42602.98
626.01	42628.06
626.365	42758.23
626.72	42687.27
627.075	42732.24
627.43	42755.97
627.785	42828.05
628.14	42966.13
628.495	43087.48
628.85	42890.43
629.205	42729.75
629.559	43127.71
629.914	42970.42
630.269	42873.48
630.623	42788.28
630.978	42776.08
631.332	42926.13
631.687	43103.08
632.041	42895.62
632.396	42922.97
632.75	42765.23
633.104	42921.39
633.459	42809.98
633.813	42797.77
634.167	42784.21
634.521	42716.65
634.875	42877.54
635.229	42814.5
635.583	42545.8
635.937	42686.82
636.291	42797.1
636.645	42687.04
636.999	42764.33
637.352	42770.2
637.706	42379.25
638.06	42716.87
638.413	42640.04
638.767	42534.73
639.121	42552.13
639.474	42385.81
639.828	42360.5
640.181	42452.02
640.534	42451.34
640.888	42333.6
641.241	42146.94
641.594	42344
641.947	42382.64
642.301	42240.27
642.654	42418.35
643.007	42273.49
643.36	42267.17
643.713	42146.49
644.066	42348.75
644.419	42119.6
644.771	41988.08
645.124	41477.36
645.477	41427.41
645.83	41254.76
646.182	41167.53
646.535	40948.78
646.888	41052.96
647.24	40690.94
647.593	41094.54
647.945	40917.37
648.298	40763.93
648.65	40714.44
649.002	40648.22
649.355	40885.73
649.707	40703.59
650.059	40862.23
650.411	41326.85
650.763	41510.35
651.115	41760.74
651.467	41796.44
651.819	41672.6
652.171	41579.5
652.523	41466.96
652.875	41602.32
653.227	41447.98
653.578	41636
653.93	41663.57
654.282	41369.11
654.633	41252.73
654.985	41371.6
655.337	41446.17
655.688	41356.91
656.039	41405.04
656.391	41235.78
656.742	41256.34
657.094	41186.29
657.445	41329.34
657.796	41219.74
658.147	41078.04
658.498	41112.85
658.849	41262.9
659.2	41346.96
659.551	41096.57
659.902	41330.69
660.253	41239.85
660.604	41169.57
660.955	41030.14
661.306	41144.03
661.656	41032.62
662.007	41137.48
662.358	41073.52
662.708	40935.22
663.059	41032.17
663.409	40716.25
663.76	41053.19
664.11	41063.36
664.461	41083.69
664.811	41056.8
665.161	40967.76
665.511	40950.14
665.862	40898.84
666.212	40936.13
666.562	40977.03
666.912	40970.02
667.262	40798.73
667.612	40891.38
667.962	40806.41
668.312	40954.43
668.662	41036.46
669.011	40834.89
669.361	40829.92
669.711	40887.09
670.06	40820.88
670.41	40766.87
670.76	40759.41
671.109	40908.33
671.459	40824.04
671.808	40752.18
672.157	40724.61
672.507	40598.96
672.856	40629.47
673.205	40619.07
673.554	40723.03
673.904	40596.25
674.253	40824.27
674.602	40675.57
674.951	39990.16
675.3	39891.86
675.649	40546.53
675.998	40506.08
676.346	40545.63
676.695	40549.7
677.044	40279.65
677.393	40392.64
677.741	40456.59
678.09	40396.25
678.438	40306.31
678.787	40305.86
679.135	40309.93
679.484	40006.89
679.832	40149.03
680.181	39939.54
680.529	40105.19
680.877	40106.54
681.225	39987.68
681.573	40236.26
681.922	39761.47
682.27	39710.4
682.618	39831.52
682.966	39610.96
683.314	39811.86
683.661	39782.94
684.009	39377.07
684.357	39420.23
684.705	39438.77
685.053	39448.48
685.4	39327.13
685.748	39181.14
686.095	39232.67
686.443	38965.33
686.79	38939.34
687.138	39136.17
687.485	39103.86
687.832	38871.32
688.18	38911.55
688.527	38807.37
688.874	38651.67
689.221	38565.12
689.568	38589.3
689.915	38466.81
690.262	38570.31
690.609	38349.08
690.956	38230.44
691.303	38215.07
691.65	38088.97
691.997	38108.86
692.344	37822.31
692.69	37789.54
693.037	37673.39
693.383	37572.15
693.73	37642.43
694.077	37427.74
694.423	37422.55
694.769	37297.58
695.116	37196.34
695.462	37252.38
695.808	36990.92
696.155	37081.31
696.501	36761.32
696.847	36798.16
697.193	36545.06
697.539	36655.11
697.885	36243.6
698.231	36320.88
698.577	36283.14
698.923	36307.55
699.269	36159.08
699.614	35968.57
699.96	35944.62
700.306	35954.79
700.651	36023.49
700.997	35800.67
701.342	35759.54
701.688	35674.57
702.033	35494.01
702.379	35312.77
702.724	35294.69
703.069	35415.59
703.415	34927.92
703.76	34944.19
704.105	34927.92
704.45	34984.42
704.795	34753.92
705.14	34647.03
705.485	34709.4
705.83	34425.56
706.175	34628.04
706.52	34470.53
706.865	34285.45
707.209	34324.78
707.554	34106.48
707.899	34244.78
708.243	33948.97
708.588	34043.88
708.932	33630.56
709.277	33701.97
709.621	33740.61
709.966	33570.67
710.31	33701.29
710.654	33354.18
710.998	33384.01
711.342	33382.2
711.687	33404.57
712.031	33266.72
712.375	33055.66
712.719	33133.62
713.063	33047.29
713.407	33104.24
713.75	32912.84
714.094	32992.16
714.438	32864.93
714.782	32837.81
715.125	32707.87
715.469	32617.25
715.812	32468.33
716.156	32418.61
716.499	32345.62
716.843	32470.59
717.186	32086.64
717.53	32392.85
717.873	32295.22
718.216	32224.04
718.559	32096.59
718.902	31923.93
719.246	31953.99
719.589	31905.18
719.932	31767.33
720.275	31798.97
720.617	31745.18
720.96	31547.67
721.303	31572.98
721.646	31717.39
721.989	31489.37
722.331	31379.77
722.674	31416.38
723.016	31421.8
723.359	31275.59
723.701	31359.88
724.044	31002.38
724.386	30921.93
724.729	31144.97
725.071	30996.28
725.413	31027.24
725.755	31062.04
726.097	30789.73
726.439	30627.47
726.782	30726.45
727.124	30823.17
727.465	30581.37
727.807	30643.06
728.149	30507.47
728.491	30432.45
728.833	30581.6
729.175	30405.56
729.516	30358.33
729.858	30370.3
730.199	30309.97
730.541	30078.79
730.882	30240.14
731.224	30370.08
731.565	30055.96
731.906	30138.9
732.248	30081.05
732.589	29948.62
732.93	29841.28
733.271	29832.92
733.612	29777.55
733.953	29845.57
734.294	29752.01
734.635	29721.51
734.976	29869.3
735.317	29704.11
735.658	29605.58
735.999	29614.16
736.339	29467.5
736.68	29583.43
737.021	29350.89
737.361	29267.51
737.702	29479.03
738.042	29336.21
738.383	29243.33
738.723	29300.27
739.063	29259.82
739.404	29330.1
739.744	29134.18
740.084	29035.65
740.424	29100.28
740.764	28926.05
741.104	29144.57
741.444	28857.57
741.784	28930.57
742.124	28958.14
742.464	28777.58
742.804	28720.85
743.143	28611.25
743.483	28705.71
743.823	28514.08
744.162	28497.13
744.502	28577.81
744.841	28400.19
745.181	28620.97
745.52	28381.65
745.86	28425.5
746.199	28256.46
746.538	28292.84
746.877	28231.83
747.216	28344.14
747.556	28231.83
747.895	28232.05
748.234	28065.28
748.573	27976.02
748.911	27995.9
749.25	27930.37
749.589	27782.8
749.928	27969.69
750.267	27817.83
750.605	27708.68
750.944	27584.16
751.283	27639.98
751.621	27671.62
751.96	27548.46
752.298	27555.24
752.636	27495.12
752.975	27375.81
753.313	27228.01
753.651	27493.09
753.989	27213.32
754.327	27111.18
754.666	27011.97
755.004	27076.6
755.342	27121.12
755.679	27015.59
756.017	26834.8
756.355	26904.63
756.693	26764.07
