Data from hue_26_FLMS001491_00025.txt Node
Date: Tue Feb 07 17:13:46 GMT 2017
User: dcchb
Spectrometer: FLMS00149
Trigger mode: 0
Integration Time (sec): 2.000000E-2
Scans to average: 10
Electric dark correction enabled: true
Nonlinearity correction enabled: false
Boxcar width: 0
XAxis mode: Wavelengths
Number of Pixels in Spectrum: 2048
>>>>>Begin Spectral Data<<<<<
341.393	10.37
341.776	10.37
342.16	10.37
342.543	-54.72
342.927	-63.3
343.31	-63.3
343.693	-71.89
344.077	-70.31
344.46	-52.91
344.843	-66.69
345.226	-42.06
345.61	-12.01
345.993	2.01
346.376	-5.68
346.759	1.78
347.142	25.06
347.525	29.58
347.908	59.41
348.291	61.89
348.674	96.69
349.057	108.44
349.44	129.69
349.823	139.4
350.206	164.94
350.588	199.51
350.971	198.84
351.354	231.15
351.737	231.6
352.119	253.07
352.502	260.08
352.884	265.28
353.267	273.18
353.65	290.81
354.032	297.59
354.414	332.62
354.797	320.64
355.179	312.51
355.562	329.45
355.944	323.13
356.326	312.05
356.709	347.76
357.091	339.17
357.473	332.39
357.855	336.23
358.238	326.97
358.62	359.28
359.002	324.26
359.384	349.57
359.766	342.79
360.148	345.73
360.53	329.91
360.912	354.31
361.294	339.62
361.676	350.92
362.057	315.44
362.439	328.32
362.821	329.23
363.203	324.93
363.584	319.51
363.966	305.05
364.348	337.36
364.729	321.32
365.111	312.05
365.493	326.97
365.874	322.22
366.256	322.45
366.637	338.95
367.019	316.57
367.4	310.7
367.781	301.43
368.163	317.93
368.544	329.23
368.925	309.34
369.306	307.53
369.688	330.13
370.069	327.42
370.45	316.35
370.831	301.88
371.212	306.4
371.593	287.42
371.974	325.61
372.355	296.69
372.736	319.29
373.117	333.97
373.498	333.75
373.879	305.95
374.26	316.8
374.641	336.23
375.021	309.79
375.402	336.91
375.783	333.07
376.163	323.58
376.544	314.09
376.925	295.56
377.305	332.39
377.686	338.95
378.066	318.16
378.447	314.99
378.827	328.32
379.208	323.81
379.588	328.78
379.968	333.07
380.349	335.1
380.729	341.88
381.109	317.03
381.489	324.71
381.87	348.89
382.25	327.42
382.63	347.08
383.01	352.73
383.39	327.42
383.77	341.88
384.15	352.96
384.53	337.82
384.91	346.86
385.29	347.99
385.67	344.6
386.049	360.19
386.429	353.86
386.809	360.87
387.189	345.05
387.568	353.63
387.948	366.29
388.328	356.35
388.707	385.5
389.087	361.09
389.466	340.08
389.846	347.53
390.225	367.65
390.605	373.75
390.984	378.49
391.363	376.69
391.743	371.04
392.122	360.87
392.501	355.44
392.881	376.91
393.26	352.05
393.639	374.2
394.018	373.75
394.397	390.24
394.776	376.46
395.155	363.35
395.534	381.2
395.913	369
396.292	386.85
396.671	382.33
397.05	390.24
397.429	384.37
397.808	380.07
398.186	375.56
398.565	381.66
398.944	379.4
399.323	390.7
399.701	373.75
400.08	386.4
400.458	388.21
400.837	385.05
401.215	398.61
401.594	381.2
401.972	405.61
402.351	387.31
402.729	416.91
403.107	432.5
403.486	419.85
403.864	408.55
404.242	407.87
404.62	437.47
404.999	417.81
405.377	413.07
405.755	432.28
406.133	411.71
406.511	427.31
406.889	403.58
407.267	434.08
407.645	426.85
408.023	447.64
408.401	425.5
408.779	452.16
409.156	439.28
409.534	439.28
409.912	434.08
410.29	443.58
410.667	445.61
411.045	451.94
411.422	463.46
411.8	451.03
412.178	453.07
412.555	477.47
412.933	456
413.31	463.46
413.687	459.39
414.065	487.87
414.442	459.39
414.819	483.8
415.197	475.67
415.574	476.12
415.951	501.2
416.328	487.42
416.705	495.78
417.082	481.32
417.46	490.13
417.837	503.24
418.214	498.04
418.591	498.72
418.967	490.81
419.344	516.34
419.721	511.6
420.098	513.4
420.475	518.6
420.852	519.73
421.228	525.61
421.605	551.82
421.982	512.05
422.358	540.75
422.735	531.48
423.111	538.26
423.488	529.22
423.864	537.81
424.241	560.18
424.617	554.53
424.994	556.12
425.37	555.44
425.746	539.62
426.123	556.12
426.499	542.33
426.875	549.11
427.251	557.47
427.627	560.63
428.003	583.69
428.379	563.12
428.756	597.47
429.132	580.75
429.507	591.14
429.883	583.23
430.259	608.77
430.635	608.54
431.011	621.88
431.387	651.71
431.763	634.76
432.138	636.79
432.514	660.97
432.89	620.52
433.265	632.05
433.641	675.43
434.016	626.4
434.392	654.87
434.767	658.94
435.143	653.06
435.518	651.71
435.894	673.63
436.269	688.54
436.644	646.06
437.02	666.39
437.395	671.82
437.77	705.94
438.145	739.16
438.52	711.37
438.895	696.22
439.271	712.5
439.646	710.01
440.021	715.43
440.395	722.21
440.77	715.21
441.145	735.09
441.52	770.35
441.895	740.29
442.27	740.29
442.645	742.78
443.019	753.17
443.394	769.67
443.769	751.14
444.143	784.81
444.518	785.26
444.892	772.61
445.267	769.22
445.641	794.98
446.016	798.37
446.39	788.2
446.764	774.41
447.139	806.05
447.513	835.2
447.887	791.82
448.262	796.56
448.636	821.42
449.01	824.13
449.384	797.46
449.758	843.57
450.132	836.33
450.506	828.2
450.88	853.73
451.254	834.53
451.628	868.2
452.002	854.41
452.376	892.15
452.75	868.88
453.123	857.58
453.497	873.85
453.871	903.68
454.244	922.43
454.618	911.59
454.992	933.96
455.365	909.33
455.739	956.33
456.112	938.48
456.486	937.35
456.859	955.2
457.232	950.23
457.606	978.93
457.979	992.94
458.352	1001.98
458.725	1005.14
459.099	1008.08
459.472	1014.18
459.845	1038.81
460.218	1038.81
460.591	1032.94
460.964	1066.84
461.337	1078.81
461.71	1099.38
462.083	1098.7
462.456	1083.11
462.829	1123.33
463.201	1147.51
463.574	1139.38
463.947	1131.24
464.32	1166.04
464.692	1191.35
465.065	1208.3
465.438	1218.47
465.81	1227.96
466.183	1211.92
466.555	1232.26
466.928	1240.17
467.3	1265.25
467.672	1293.05
468.045	1287.4
468.417	1288.98
468.789	1309.99
469.161	1324.23
469.534	1346.15
469.906	1380.73
470.278	1382.31
470.65	1425.7
471.022	1431.35
471.394	1434.96
471.766	1494.4
472.138	1494.4
472.51	1501.85
472.882	1552.47
473.253	1578.46
473.625	1583.21
473.997	1621.17
474.369	1624.34
474.74	1674.73
475.112	1694.39
475.484	1712.92
475.855	1752.92
476.227	1756.54
476.598	1815.74
476.97	1822.52
477.341	1876.76
477.713	1915.63
478.084	1931.45
478.455	1995.63
478.827	2007.6
479.198	2041.95
479.569	2058.45
479.94	2127.37
480.311	2123.98
480.682	2173.47
481.053	2284.88
481.424	2281.49
481.795	2323.98
482.166	2386.35
482.537	2401.94
482.908	2457.99
483.279	2477.65
483.65	2529.17
484.021	2611.88
484.391	2662.27
484.762	2685.32
485.133	2728.49
485.503	2753.8
485.874	2815.72
486.244	2836.96
486.615	2911.53
486.985	2933.45
487.356	2975.94
487.726	3053.9
488.097	3095.94
488.467	3152.21
488.837	3206.44
489.207	3226.33
489.578	3292.77
489.948	3317.85
490.318	3388.13
490.688	3455.47
491.058	3477.17
491.428	3542.93
491.798	3576.6
492.168	3613.21
492.538	3664.73
492.908	3715.35
493.278	3732.75
493.648	3767.78
494.017	3859.98
494.387	3889.59
494.757	3921.22
495.126	3974.33
495.496	3996.93
495.866	4061.33
496.235	4103.14
496.605	4153.08
496.974	4159.64
497.344	4181.78
497.713	4236.7
498.082	4253.65
498.452	4339.74
498.821	4290.03
499.19	4342.68
499.559	4424.04
499.928	4460.87
500.298	4477.14
500.667	4508.55
501.036	4514.2
501.405	4584.03
501.774	4587.87
502.143	4577.03
502.512	4629
502.88	4649.57
503.249	4677.81
503.618	4721.43
503.987	4725.27
504.356	4759.17
504.724	4841.65
505.093	4819.96
505.462	4875.32
505.83	4882.1
506.199	4966.62
506.567	4987.64
506.936	4948.99
507.304	5031.25
507.672	5041.87
508.041	5071.93
508.409	5072.15
508.777	5171.36
509.145	5137.92
509.514	5153.06
509.882	5174.3
510.25	5227.86
510.618	5213.62
510.986	5271.92
511.354	5311.47
511.722	5319.38
512.09	5359.15
512.458	5353.96
512.826	5385.14
513.193	5449.55
513.561	5418.59
513.929	5484.8
514.297	5496.55
514.664	5558.02
515.032	5567.28
515.4	5568.19
515.767	5647.28
516.135	5637.34
516.502	5596.43
516.869	5712.59
517.237	5746.71
517.604	5651.8
517.972	5786.26
518.339	5759.82
518.706	5766.15
519.073	5769.31
519.44	5815.86
519.808	5876.88
520.175	5887.73
520.542	5960.04
520.909	5933.15
521.276	5919.36
521.643	6007.5
522.009	6042.07
522.376	6023.77
522.743	6092.69
523.11	6150.54
523.477	6214.27
523.843	6184.44
524.21	6228.96
524.577	6270.77
524.943	6276.64
525.31	6345.57
525.676	6377.88
526.043	6392.12
526.409	6425.11
526.776	6479.35
527.142	6500.82
527.508	6498.33
527.874	6613.13
528.241	6614.04
528.607	6646.12
528.973	6672.56
529.339	6641.61
529.705	6762.28
530.071	6771.77
530.437	6840.92
530.803	6851.99
531.169	6868.94
531.535	6931.09
531.901	6886.12
532.267	6950.52
532.632	6992.78
532.998	7009.5
533.364	7024.42
533.73	7033.46
534.095	7146.68
534.461	7128.82
534.826	7188.26
535.192	7197.3
535.557	7248.14
535.923	7287.92
536.288	7263.28
536.653	7321.36
537.019	7263.74
537.384	7358.42
537.749	7417.18
538.114	7421.47
538.479	7401.36
538.845	7397.97
539.21	7457.85
539.575	7407.91
539.94	7493.33
540.305	7551.19
540.67	7546.67
541.034	7613.33
541.399	7649.26
541.764	7699.2
542.129	7781.24
542.494	7696.94
542.858	7847.22
543.223	7807.68
543.587	7856.04
543.952	7863.04
544.316	7907.11
544.681	7930.61
545.045	7944.85
545.41	7979.2
545.774	7996.6
546.138	8099.19
546.503	8068.91
546.867	8054.22
547.231	8159.53
547.595	8150.94
547.959	8258.29
548.324	8173.54
548.688	8248.79
549.052	8286.53
549.416	8347.32
549.779	8310.04
550.143	8271.62
550.507	8403.59
550.871	8423.03
551.235	8402.69
551.599	8461.67
551.962	8527.66
552.326	8520.43
552.689	8578.28
553.053	8491.95
553.417	8555.9
553.78	8699.4
554.143	8632.29
554.507	8672.96
554.87	8706.41
555.234	8775.56
555.597	8717.71
555.96	8820.3
556.323	8787.54
556.686	8876.8
557.05	8913.41
557.413	8837.03
557.776	8933.75
558.139	8943.01
558.502	8956.35
558.865	8990.02
559.228	9050.58
559.59	9074.31
559.953	9155.66
560.316	9159.73
560.679	9180.3
561.041	9267.52
561.404	9264.59
561.767	9374.19
562.129	9232.95
562.492	9399.05
562.854	9368.99
563.217	9407.18
563.579	9441.08
563.941	9481.3
564.304	9520.4
564.666	9588.42
565.028	9572.15
565.39	9606.72
565.753	9658.93
566.115	9656.89
566.477	9714.52
566.839	9740.51
567.201	9827.06
567.563	9801.75
567.925	9829.09
568.287	9935.3
568.648	9845.81
569.01	9947.05
569.372	10052.14
569.734	10029.54
570.095	10047.84
570.457	10100.72
570.819	10107.05
571.18	10236.76
571.542	10240.61
571.903	10275.18
572.265	10335.29
572.626	10329.64
572.987	10407.83
573.349	10467.95
573.71	10540.71
574.071	10623.65
574.432	10698.67
574.794	10772.8
575.155	10849.63
575.516	10773.93
575.877	10911.32
576.238	10953.58
576.599	11018.21
576.96	11083.52
577.32	11141.6
577.681	11241.03
578.042	11457.75
578.403	11422.27
578.763	11489.61
579.124	11631.3
579.485	11791.98
579.845	11845.99
580.206	11902.03
580.566	12042.59
580.927	12163.49
581.287	12274.68
581.648	12401.91
582.008	12572.07
582.368	12757.38
582.728	12897.94
583.089	13057.26
583.449	13244.14
583.809	13339.51
584.169	13556.68
584.529	13628.77
584.889	13995.08
585.249	14040.28
585.609	14192.14
585.969	14474.62
586.329	14659.47
586.688	14912.57
587.048	15002.52
587.408	15209.97
587.768	15560.92
588.127	15726.56
588.487	15954.13
588.846	16269.6
589.206	16413.78
589.565	16753.88
589.925	16994.78
590.284	17237.03
590.643	17433.86
591.003	17805.83
591.362	18145.03
591.721	18399.94
592.08	18544.12
592.44	18975.29
592.799	19250.77
593.158	19401.95
593.517	19733.92
593.876	20007.13
594.235	20297.74
594.593	20488.47
594.952	20947.67
595.311	21148.79
595.67	21478.96
596.029	21940.19
596.387	22186.73
596.746	22488.87
597.104	22703.78
597.463	22955.53
597.822	23415.18
598.18	23653.81
598.538	23911.89
598.897	24327.24
599.255	24395.71
599.613	24997.05
599.972	25143.49
600.33	25385.52
600.688	25675.45
601.046	26010.14
601.404	26479.5
601.762	26540.97
602.12	27044.23
602.478	27277.67
602.836	27559.47
603.194	27673.37
603.552	27963.3
603.91	28115.84
604.268	28657.07
604.625	28710.4
604.983	29212.09
605.341	29344.74
605.698	29679.42
606.056	29946.3
606.413	30120.31
606.771	30330.02
607.128	30660.63
607.485	30772.95
607.843	31096.1
608.2	31459.03
608.557	31689.53
608.914	31814.95
609.272	32123.65
609.629	32343.98
609.986	32730.86
610.343	32562.28
610.7	33154.58
611.057	33317.06
611.414	33456.27
611.771	33827.78
612.127	34006.99
612.484	34062.35
612.841	34379.41
613.198	34477.03
613.554	34738.04
613.911	35026.17
614.267	35096.45
614.624	35282.43
614.98	35507.96
615.337	35866.15
615.693	35782.53
616.05	36020.04
616.406	36312.69
616.762	36358.56
617.118	36440.82
617.475	36695.05
617.831	36819.12
618.187	36807.82
618.543	37060.92
618.899	37363.96
619.255	37485.09
619.611	37550.85
619.967	37789.49
620.323	37951.06
620.678	37879.88
621.034	37998.52
621.39	38059.99
621.746	38076.26
622.101	38623.36
622.457	38486.87
622.812	38530.48
623.168	38760.08
623.523	38909.46
623.879	39074.65
624.234	38867.65
624.589	39108.77
624.945	39051.15
625.3	39264.93
625.655	39288.43
626.01	39379.73
626.365	39533.17
626.72	39614.07
627.075	39620.85
627.43	39686.16
627.785	39695.43
628.14	39905.82
628.495	40064.91
628.85	39909.2
629.205	39877.34
629.559	40113.49
629.914	39874.86
630.269	40156.43
630.623	40025.13
630.978	39980.62
631.332	40274.62
631.687	40341.96
632.041	40197.33
632.396	40421.96
632.75	40147.16
633.104	40343.77
633.459	40068.3
633.813	40301.74
634.167	40311.45
634.521	40398.68
634.875	40435.29
635.229	40234.17
635.583	40206.37
635.937	40252.7
636.291	40248.86
636.645	40361.4
636.999	40249.31
637.352	40359.36
637.706	40134.06
638.06	40446.59
638.413	40210.67
638.767	40175.19
639.121	40284.79
639.474	40122.31
639.828	40071.91
640.181	40242.08
640.534	40331.57
640.888	40067.17
641.241	39976.55
641.594	40176.54
641.947	40226.94
642.301	40157.11
642.654	40196.65
643.007	40176.99
643.36	40200.72
643.713	40125.02
644.066	40450.21
644.419	40117.33
644.771	39808.42
645.124	39504.7
645.477	39407.75
645.83	39191.48
646.182	39148.32
646.535	39000.98
646.888	39088.21
647.24	38962.34
647.593	39095.67
647.945	39013.86
648.298	38894.32
648.65	38836.69
649.002	38780.65
649.355	39013.18
649.707	38794.21
650.059	39072.16
650.411	39561.64
650.763	39685.93
651.115	39884.35
651.467	39749.21
651.819	39897.45
652.171	39732.49
652.523	39630.34
652.875	39726.38
653.227	39563.23
653.578	39782.43
653.93	39882.54
654.282	39546.05
654.633	39450.46
654.985	39639.38
655.337	39674.63
655.688	39631.7
656.039	39671.02
656.391	39521.64
656.742	39526.16
657.094	39528.88
657.445	39602.09
657.796	39480.06
658.147	39517.35
658.498	39424.02
658.849	39593.96
659.2	39510.35
659.551	39471.48
659.902	39531.59
660.253	39367.98
660.604	39661.08
660.955	39279.16
661.306	39400.74
661.656	39368.2
662.007	39388.77
662.358	39520.06
662.708	39399.61
663.059	39394.42
663.409	39214.31
663.76	39545.6
664.11	39432.38
664.461	39474.41
664.811	39363.68
665.161	39439.84
665.511	39405.94
665.862	39328.88
666.212	39400.07
666.562	39415.43
666.912	39353.74
667.262	39453.4
667.612	39337.69
667.962	39462.44
668.312	39336.56
668.662	39470.35
669.011	39250.24
669.361	39249.11
669.711	39334.3
670.06	39198.49
670.41	39078.94
670.76	39024.26
671.109	39266.06
671.459	39284.36
671.808	39169.11
672.157	39251.6
672.507	38784.71
672.856	39020.64
673.205	38961.43
673.554	39236
673.904	39055.22
674.253	39177.25
674.602	39203.46
674.951	38543.59
675.3	38428.34
675.649	38916.69
675.998	38925.28
676.346	38916.69
676.695	38904.94
677.044	38706.98
677.393	38906.52
677.741	38973.18
678.09	38811.38
678.438	38709.46
678.787	38825.39
679.135	38920.3
679.484	38645.96
679.832	38675.56
680.181	38575.45
680.529	38632.4
680.877	38549.92
681.225	38477.38
681.573	38659.52
681.922	38406.42
682.27	38379.98
682.618	38300.43
682.966	38278.74
683.314	38325.97
683.661	38097.73
684.009	37925.53
684.357	38088.01
684.705	37881.91
685.053	38078.29
685.4	37880.56
685.748	37827.68
686.095	37718.3
686.443	37576.84
686.79	37683.95
687.138	37664.74
687.485	37573.9
687.832	37495.03
688.18	37468.82
688.527	37405.54
688.874	37198.09
689.221	37161.93
689.568	37151.31
689.915	37004.42
690.262	36993.12
690.609	36880.13
690.956	36749.06
691.303	36771.21
691.65	36536.19
691.997	36633.36
692.344	36263.65
692.69	36434.72
693.037	36433.36
693.383	36075.86
693.73	36124.45
694.077	36018.46
694.423	35956.54
694.769	35904.34
695.116	35865.92
695.462	35882.42
695.808	35673.38
696.155	35934.62
696.501	35484.24
696.847	35500.06
697.193	35215.09
697.539	35360.17
697.885	35185.26
698.231	35069.78
698.577	35159.73
698.923	35015.1
699.269	34786.4
699.614	34626.86
699.96	34515.22
700.306	34647.42
700.651	34509.57
700.997	34524.94
701.342	34400.2
701.688	34324.94
702.033	34142.8
702.379	34152.29
702.724	34056.7
703.069	34023.03
703.415	33760.89
703.76	33719.76
704.105	33652.42
704.45	33644.51
704.795	33517.73
705.14	33366.55
705.485	33440.67
705.83	33324.97
706.175	33306.44
706.52	33140.57
706.865	33037.75
707.209	33013.34
707.554	32973.57
707.899	33077.75
708.243	32749.17
708.588	32745.1
708.932	32652.22
709.277	32456.75
709.621	32497.42
709.966	32313.47
710.31	32388.95
710.654	32032.58
710.998	32113.03
711.342	32096.98
711.687	32160.93
712.031	31954.61
712.375	31905.57
712.719	31955.52
713.063	31917.32
713.407	31972.24
713.75	31713.04
714.094	31627.61
714.438	31494.51
714.782	31611.12
715.125	31425.81
715.469	31552.81
715.812	31294.29
716.156	31217.46
716.499	31149.21
716.843	31192.82
717.186	31031.47
717.53	31172.71
717.873	31257.91
718.216	31136.1
718.559	30946.28
718.902	30815.88
719.246	30835.77
719.589	30752.84
719.932	30654.31
720.275	30542.22
720.617	30631.71
720.96	30575.21
721.303	30528.21
721.646	30446.18
721.989	30213.87
722.331	30495.67
722.674	30301.32
723.016	30338.61
723.359	30233.3
723.701	30265.39
724.044	30056.13
724.386	29890.03
724.729	30080.31
725.071	29987.88
725.413	30057.03
725.755	29989.92
726.097	29776.82
726.439	29665.63
726.782	29589.02
727.124	29769.13
727.465	29612.98
727.807	29617.5
728.149	29486.65
728.491	29361.01
728.833	29530.04
729.175	29269.03
729.516	29387
729.858	29291.4
730.199	29316.49
730.541	29177.51
730.882	29071.07
731.224	29303.83
731.565	29000.79
731.906	29011.86
732.248	29106.78
732.589	28943.84
732.93	28897.97
733.271	28851.19
733.612	28802.83
733.953	28852.09
734.294	28664.98
734.635	28833.56
734.976	28748.82
735.317	28581.37
735.658	28505.44
735.999	28567.58
736.339	28409.85
736.68	28591.54
737.021	28418.43
737.361	28436.29
737.702	28531.2
738.042	28364.2
738.383	28347.93
738.723	28340.47
739.063	28312.45
739.404	28416.85
739.744	28243.75
740.084	28137.54
740.424	28126.24
740.764	28097.99
741.104	28169.17
741.444	28112.45
741.784	28026.35
742.124	28020.48
742.464	27866.13
742.804	27855.96
743.143	27792.69
743.483	27853.7
743.823	27623.43
744.162	27613.48
744.502	27732.58
744.841	27553.37
745.181	27584.11
745.52	27658
745.86	27588.62
746.199	27431.11
746.538	27410.55
746.877	27570.55
747.216	27397.67
747.556	27460.04
747.895	27345.69
748.234	27215.75
748.573	27322.19
748.911	27281.74
749.25	27242.87
749.589	27097.11
749.928	27112.48
750.267	27173.95
750.605	27121.07
750.944	26971.24
751.283	26927.85
751.621	26971.69
751.96	26834.52
752.298	26852.6
752.636	26763.56
752.975	26633.4
753.313	26614.41
753.651	26715.88
753.989	26545.04
754.327	26507.3
754.666	26426.4
755.004	26608.31
755.342	26491.25
755.679	26357.02
756.017	26181.43
756.355	26293.29
756.693	26162
757.031	26238.38
757.368	26120.64
757.706	25983.7
758.044	25949.57
758.381	25949.35
758.719	25869.35
759.056	25838.16
759.394	25849.46
759.731	25613.54
760.068	25587.77
