Data from hue_330_FLMS001491_69.txt Node
Date: Mon Feb 06 15:45:44 GMT 2017
User: dcchb
Spectrometer: FLMS00149
Trigger mode: 0
Integration Time (sec): 2.000000E-2
Scans to average: 10
Electric dark correction enabled: true
Nonlinearity correction enabled: false
Boxcar width: 0
XAxis mode: Wavelengths
Number of Pixels in Spectrum: 2048
>>>>>Begin Spectral Data<<<<<
341.393	4.99
341.776	4.99
342.16	4.99
342.543	-46.09
342.927	-39.98
343.31	-73.43
343.693	-66.2
344.077	-82.47
344.46	-63.26
344.843	-57.39
345.226	-42.92
345.61	-25.07
345.993	-28.23
346.376	-11.06
346.759	16.96
347.142	29.39
347.525	31.88
347.908	52.22
348.291	95.83
348.674	96.73
349.057	127.02
349.44	137.86
349.823	129.05
350.206	162.72
350.588	180.35
350.971	216.51
351.354	225.54
351.737	230.06
352.119	228.48
352.502	252.21
352.884	280.46
353.267	276.84
353.65	283.62
354.032	297.18
354.414	300.35
354.797	303.06
355.179	299.22
355.562	319.33
355.944	320.46
356.326	337.63
356.709	333.56
357.091	342.83
357.473	347.35
357.855	348.93
358.238	324.75
358.62	348.03
359.002	336.73
359.384	354.13
359.766	334.92
360.148	338.08
360.53	331.08
360.912	345.77
361.294	337.41
361.676	331.76
362.057	308.48
362.439	328.14
362.821	329.5
363.203	323.17
363.584	340.57
363.966	329.95
364.348	324.75
364.729	320.91
365.111	329.27
365.493	309.84
365.874	312.55
366.256	316.84
366.637	313.68
367.019	305.32
367.4	317.75
367.781	297.86
368.163	309.61
368.544	322.72
368.925	298.76
369.306	314.58
369.688	297.18
370.069	312.1
370.45	318.88
370.831	314.81
371.212	308.71
371.593	303.51
371.974	311.64
372.355	311.42
372.736	322.94
373.117	311.64
373.498	320.23
373.879	327.69
374.26	323.4
374.641	310.29
375.021	332.89
375.402	299.22
375.783	307.35
376.163	315.03
376.544	337.86
376.925	339.44
377.305	320.46
377.686	333.56
378.066	328.82
378.447	324.75
378.827	328.82
379.208	335.82
379.588	342.83
379.968	330.4
380.349	328.14
380.729	332.21
381.109	333.11
381.489	323.62
381.87	343.28
382.25	322.49
382.63	334.02
383.01	328.59
383.39	335.15
383.77	343.28
384.15	335.15
384.53	336.5
384.91	350.51
385.29	354.81
385.67	351.64
386.049	355.03
386.429	368.14
386.809	358.65
387.189	346.9
387.568	345.99
387.948	346.22
388.328	363.62
388.707	362.94
389.087	362.26
389.466	367.01
389.846	358.42
390.225	345.99
390.605	352.77
390.984	368.37
391.363	354.13
391.743	355.26
392.122	371.76
392.501	355.94
392.881	367.91
393.26	370.17
393.639	374.47
394.018	360.91
394.397	374.69
394.776	390.74
395.155	357.74
395.534	377.86
395.913	371.08
396.292	375.82
396.671	369.72
397.05	375.37
397.429	384.86
397.808	397.52
398.186	358.87
398.565	374.24
398.944	385.77
399.323	397.29
399.701	397.29
400.08	383.05
400.458	386.22
400.837	406.78
401.215	418.53
401.594	396.61
401.972	394.13
402.351	374.47
402.729	407.69
403.107	414.01
403.486	427.57
403.864	405.43
404.242	421.92
404.62	414.47
404.999	426.22
405.377	412.88
405.755	391.87
406.133	421.92
406.511	429.16
406.889	440
407.267	440.68
407.645	438.42
408.023	440.68
408.401	429.38
408.779	448.14
409.156	459.66
409.534	441.81
409.912	445.65
410.29	438.87
410.667	489.72
411.045	475.71
411.422	472.32
411.8	458.53
412.178	488.14
412.555	499.66
412.933	485.43
413.31	504.86
413.687	503.96
414.065	512.54
414.442	512.32
414.819	527.46
415.197	527.23
415.574	525.88
415.951	534.92
416.328	520.45
416.705	539.21
417.082	543.5
417.46	544.18
417.837	548.47
418.214	583.73
418.591	568.13
418.967	589.38
419.344	571.07
419.721	588.02
420.098	612.43
420.475	577.4
420.852	614.91
421.228	613.11
421.605	624.18
421.982	621.24
422.358	625.99
422.735	623.05
423.111	628.25
423.488	651.07
423.864	652.65
424.241	658.75
424.617	662.14
424.994	650.62
425.37	654.91
425.746	654.23
426.123	687.23
426.499	696.04
426.875	695.59
427.251	689.94
427.627	682.03
428.003	714.57
428.379	726.77
428.756	717.74
429.132	717.06
429.507	750.5
429.883	750.5
430.259	738.53
430.635	743.27
431.011	780.33
431.387	764.06
431.763	786.21
432.138	781.24
432.514	788.92
432.89	811.07
433.265	800.22
433.641	827.34
434.016	836.83
434.392	852.42
434.767	845.64
435.143	856.26
435.518	883.15
435.894	857.84
436.269	844.74
436.644	886.54
437.02	873.66
437.395	901.91
437.77	909.59
438.145	909.14
438.52	907.33
438.895	922.48
439.271	912.53
439.646	966.54
440.021	959.54
440.395	931.06
440.77	948.24
441.145	947.33
441.52	959.54
441.895	963.6
442.27	958.63
442.645	1019.87
443.019	1000.89
443.394	988.91
443.769	994.34
444.143	999.76
444.518	1002.25
444.892	979.65
445.267	1013.32
445.641	1006.77
446.016	1007.45
446.39	1025.3
446.764	1030.95
447.139	1041.12
447.513	1032.08
447.887	1043.15
448.262	1016.48
448.636	1030.95
449.01	1051.06
449.384	1037.73
449.758	1075.69
450.132	1068.46
450.506	1080.21
450.88	1068.69
451.254	1075.47
451.628	1078.86
452.002	1084.51
452.376	1086.77
452.75	1120.66
453.123	1103.94
453.497	1117.27
453.871	1103.26
454.244	1167.22
454.618	1140.1
454.992	1125.18
455.365	1144.62
455.739	1183.71
456.112	1188.68
456.486	1180.77
456.859	1178.51
457.232	1218.29
457.606	1196.82
457.979	1220.32
458.352	1208.34
458.725	1233.88
459.099	1268.91
459.472	1251.28
459.845	1284.5
460.218	1272.3
460.591	1278.62
460.964	1287.89
461.337	1299.87
461.71	1333.09
462.083	1327.66
462.456	1332.86
462.829	1320.43
463.201	1379.19
463.574	1373.09
463.947	1357.94
464.32	1386.87
464.692	1397.49
465.065	1413.99
465.438	1430.26
465.81	1431.16
466.183	1457.38
466.555	1454.44
466.928	1462.57
467.3	1468.22
467.672	1504.61
468.045	1499.18
468.417	1484.95
468.789	1525.62
469.161	1534.66
469.534	1563.36
469.906	1602.91
470.278	1588.22
470.65	1628.9
471.022	1621.67
471.394	1634.77
471.766	1653.3
472.138	1664.15
472.51	1681.78
472.882	1695.34
473.253	1726.52
473.625	1743.7
473.997	1766.97
474.369	1797.03
474.74	1790.93
475.112	1779.63
475.484	1822.34
475.855	1845.84
476.227	1886.97
476.598	1926.29
476.97	1884.94
477.341	1983.92
477.713	1994.31
478.084	1959.28
478.455	2006.52
478.827	2006.29
479.198	2072.95
479.569	2078.6
479.94	2112.05
480.311	2129.68
480.682	2205.15
481.053	2213.74
481.424	2253.06
481.795	2263.46
482.166	2303.91
482.537	2320.86
482.908	2342.78
483.279	2388.65
483.65	2424.36
484.021	2418.26
484.391	2456.22
484.762	2436.56
485.133	2482.43
485.503	2517.69
485.874	2552.49
486.244	2557.46
486.615	2597.91
486.985	2622.09
487.356	2642.88
487.726	2672.71
488.097	2692.37
488.467	2735.99
488.837	2782.77
489.207	2810.34
489.578	2822.54
489.948	2870
490.318	2856.66
490.688	2910.22
491.058	2960.61
491.428	2975.53
491.798	2997.9
492.168	3051.23
492.538	3075.87
492.908	3096.88
493.278	3108.63
493.648	3129.88
494.017	3142.76
494.387	3161.96
494.757	3187.95
495.126	3162.87
495.496	3185.92
495.866	3206.48
496.235	3287.84
496.605	3295.75
496.974	3310.89
497.344	3301.62
497.713	3366.93
498.082	3345.46
498.452	3373.71
498.821	3342.3
499.19	3383.65
499.559	3441.73
499.928	3449.41
500.298	3480.37
500.667	3529.86
501.036	3519.47
501.405	3487.83
501.774	3511.56
502.143	3536.87
502.512	3589.07
502.88	3579.36
503.249	3563.99
503.618	3593.14
503.987	3611.22
504.356	3619.13
504.724	3632.91
505.093	3638.79
505.462	3627.72
505.83	3706.36
506.199	3695.51
506.567	3731.22
506.936	3699.13
507.304	3747.49
507.672	3721.27
508.041	3767.15
508.409	3761.27
508.777	3819.57
509.145	3822.74
509.514	3817.09
509.882	3841.95
510.25	3827.94
510.618	3880.14
510.986	3864.77
511.354	3858.9
511.722	3864.77
512.09	3930.08
512.458	3916.3
512.826	3948.84
513.193	3952
513.561	3951.55
513.929	3968.95
514.297	3974.37
514.664	4000.36
515.032	4015.28
515.4	4031.55
515.767	3999.91
516.135	4054.37
516.502	4064.77
516.869	4051.21
517.237	4077.65
517.604	4053.92
517.972	4076.07
518.339	4143.41
518.706	4055.73
519.073	4101.83
519.44	4119
519.808	4158.55
520.175	4128.95
520.542	4227.25
520.909	4204.65
521.276	4175.95
521.643	4183.41
522.009	4217.98
522.376	4214.37
522.743	4236.29
523.11	4254.59
523.477	4289.84
523.843	4354.25
524.21	4346.79
524.577	4371.65
524.943	4350.41
525.31	4401.03
525.676	4417.98
526.043	4440.12
526.409	4464.3
526.776	4456.39
527.142	4488.94
527.508	4493
527.874	4549.27
528.241	4543.17
528.607	4585.88
528.973	4637.18
529.339	4566.67
529.705	4675.15
530.071	4669.04
530.437	4701.81
530.803	4709.49
531.169	4779.1
531.535	4786.78
531.901	4754.24
532.267	4756.05
532.632	4809.83
532.998	4797.4
533.364	4836.95
533.73	4823.16
534.095	4866.55
534.461	4896.61
534.826	4941.35
535.192	4911.52
535.557	5035.14
535.923	4964.18
536.288	4990.62
536.653	4992.2
537.019	5019.77
537.384	5026.77
537.749	5072.2
538.114	5075.81
538.479	5081.01
538.845	5114
539.21	5157.17
539.575	5178.18
539.94	5187.22
540.305	5218.41
540.67	5166.43
541.034	5274.68
541.399	5235.58
541.764	5232.64
542.129	5289.82
542.494	5335.92
542.858	5317.16
543.223	5361.46
543.587	5412.98
543.952	5416.59
544.316	5391.96
544.681	5437.16
545.045	5416.37
545.41	5534.33
545.774	5468.34
546.138	5513.99
546.503	5534.33
546.867	5558.06
547.231	5596.25
547.595	5636.48
547.959	5617.49
548.324	5643.03
548.688	5659.53
549.052	5702.24
549.416	5681.67
549.779	5681.45
550.143	5694.1
550.507	5735.46
550.871	5777.04
551.235	5763.25
551.599	5864.94
551.962	5811.39
552.326	5855
552.689	5903.81
553.053	5878.5
553.417	5871.05
553.78	5972.74
554.143	5965.06
554.507	5942.46
554.87	5925.96
555.234	5986.75
555.597	5962.8
555.96	6006.86
556.323	6028.56
556.686	6011.61
557.05	6101.32
557.413	6115.79
557.776	6072.85
558.139	6182.45
558.502	6120.53
558.865	6189
559.228	6221.32
559.59	6231.94
559.953	6211.38
560.316	6266.06
560.679	6290.02
561.041	6328.21
561.404	6307.87
561.767	6335.89
562.129	6336.34
562.492	6424.7
562.854	6419.96
563.217	6378.6
563.579	6361.88
563.941	6458.6
564.304	6434.87
564.666	6501.99
565.028	6486.62
565.39	6460.86
565.753	6588.99
566.115	6583.12
566.477	6547.41
566.839	6581.99
567.201	6644.81
567.563	6653.17
567.925	6755.32
568.287	6742.44
568.648	6665.83
569.01	6738.59
569.372	6801.87
569.734	6760.74
570.095	6837.8
570.457	6889.1
570.819	6850.91
571.18	6898.14
571.542	6967.51
571.903	6978.14
572.265	7007.97
572.626	7022.65
572.987	7073.73
573.349	7156.66
573.71	7164.35
574.071	7181.97
574.432	7277.79
574.794	7294.51
575.155	7355.07
575.516	7316.88
575.877	7409.31
576.238	7496.77
576.599	7559.59
576.96	7606.14
577.32	7717.1
577.681	7706.93
578.042	7807.04
578.403	7889.07
578.763	7983.31
579.124	8081.38
579.485	8230.53
579.845	8275.73
580.206	8359.57
580.566	8473.92
580.927	8614.25
581.287	8725.66
581.648	8806.34
582.008	8943.28
582.368	9083.62
582.728	9212.43
583.089	9324.51
583.449	9475.7
583.809	9659.87
584.169	9796.14
584.529	9986.64
584.889	10182.12
585.249	10345.73
585.609	10511.83
585.969	10696.46
586.329	10872.72
586.688	11138.03
587.048	11347.51
587.408	11486.49
587.768	11721.74
588.127	11904.56
588.487	12153.14
588.846	12376.64
589.206	12577.31
589.565	12840.58
589.925	13109.73
590.284	13376.39
590.643	13576.83
591.003	13962.81
591.362	14249.36
591.721	14406.87
592.08	14647.99
592.44	15008.21
592.799	15248.65
593.158	15422.43
593.517	15701.75
593.876	16081.85
594.235	16320.04
594.593	16658.33
594.952	16948.04
595.311	17272.78
595.67	17556.39
596.029	17923.84
596.387	18252.19
596.746	18437.04
597.104	18636.59
597.463	19041.77
597.822	19263.69
598.18	19513.63
598.538	19731.02
598.897	20148.86
599.255	20336.43
599.613	20777.55
599.972	21016.41
600.33	21408.72
600.688	21538.66
601.046	21913.34
601.404	22284.4
601.762	22475.58
602.12	22756.93
602.478	23023.82
602.836	23262
603.194	23437.14
603.552	23692.05
603.91	23941.98
604.268	24296.32
604.625	24365.7
604.983	24849.08
605.341	24980.15
605.698	25303.3
606.056	25511.43
606.413	25760.69
606.771	26038.88
607.128	26326.78
607.485	26372.88
607.843	26825.75
608.2	26905.75
608.557	27211.95
608.914	27364.04
609.272	27776.68
609.629	27924.7
609.986	28334.41
610.343	28270.46
610.7	28792.48
611.057	28870.22
611.414	29034.5
611.771	29112.69
612.127	29507.49
612.484	29742.28
612.841	29757.42
613.198	29865.44
613.554	30059.11
613.911	30448.25
614.267	30607.12
614.624	30685.99
614.98	30970.5
615.337	31222.92
615.693	31204.62
616.05	31352.86
616.406	31796.01
616.762	31681.89
617.118	31804.38
617.475	31984.26
617.831	32163.69
618.187	32395.32
618.543	32461.99
618.899	32710.34
619.255	32790.34
619.611	32874.86
619.967	33050.44
620.323	33247.5
620.678	33220.16
621.034	33332.47
621.39	33333.37
621.746	33467.83
622.101	33911.89
622.457	33793.02
622.812	33865.11
623.168	34029.63
623.523	34211.77
623.879	34312.78
624.234	34057.88
624.589	34277.53
624.945	34375.16
625.3	34548.48
625.655	34551.42
626.01	34723.39
626.365	34882.71
626.72	34835.93
627.075	34858.76
627.43	34907.34
627.785	34996.38
628.14	35143.27
628.495	35063.05
628.85	35129.49
629.205	35087
629.559	35397.5
629.914	35426.88
630.269	35479.76
630.623	35358.63
630.978	35274.34
631.332	35584.39
631.687	35739.41
632.041	35499.42
632.396	35644.95
632.75	35526.31
633.104	35650.83
633.459	35499.65
633.813	35563.15
634.167	35525.63
634.521	35547.33
634.875	35624.61
635.229	35630.94
635.583	35552.53
635.937	35565.86
636.291	35547.78
636.645	35558.18
636.999	35635.46
637.352	35583.26
637.706	35484.28
638.06	35802.46
638.413	35635.69
638.767	35672.97
639.121	35696.48
639.474	35474.11
639.828	35557.5
640.181	35618.51
640.534	35607.44
640.888	35518.63
641.241	35462.81
641.594	35527.89
641.947	35564.73
642.301	35456.93
642.654	35675.46
643.007	35565.63
643.36	35612.86
643.713	35499.65
644.066	35698.51
644.419	35373.32
644.771	35248.8
645.124	34777.18
645.477	34889.72
645.83	34561.14
646.182	34515.72
646.535	34510.97
646.888	34505.55
647.24	34421.48
647.593	34649.72
647.945	34556.62
648.298	34410.86
648.65	34244.54
649.002	34244.76
649.355	34498.09
649.707	34368.38
650.059	34490.41
650.411	35006.78
650.763	34854.69
651.115	35331.97
651.467	35138.98
651.819	35327.45
652.171	35083.39
652.523	35185.08
652.875	35126.55
653.227	34959.09
653.578	35235.47
653.93	35119.77
654.282	34957.29
654.633	34989.83
654.985	35196.15
655.337	34953.67
655.688	34916.16
656.039	35185.3
656.391	34801.13
656.742	34979.89
657.094	34904.86
657.445	35038.19
657.796	34846.33
658.147	34864.86
658.498	34930.17
658.849	35140.33
659.2	34897.85
659.551	34852.88
659.902	34983.5
660.253	34918.87
660.604	34882.94
660.955	34821.25
661.306	34911.86
661.656	34829.83
662.007	34729.95
662.358	34717.52
662.708	34865.54
663.059	34800
663.409	34548.71
663.76	34828.93
664.11	34771.76
664.461	34750.29
664.811	34806.56
665.161	34840.45
665.511	34710.29
665.862	34634.36
666.212	34748.48
666.562	34828.25
666.912	34814.01
667.262	34817.18
667.612	34842.04
667.962	34772.66
668.312	34670.06
668.662	34851.98
669.011	34831.87
669.361	34664.64
669.711	34739.44
670.06	34564.53
670.41	34547.35
670.76	34585.77
671.109	34751.87
671.459	34673.9
671.808	34597.3
672.157	34608.37
672.507	34434.59
672.856	34560.46
673.205	34675.49
673.554	34547.81
673.904	34420.13
674.253	34637.75
674.602	34443.63
674.951	34048.84
675.3	33841.61
675.649	34384.42
675.998	34496.51
676.346	34420.8
676.695	34602.04
677.044	34194.37
677.393	34398.66
677.741	34239.34
678.09	34236.63
678.438	34195.27
678.787	34268.72
679.135	34410.41
679.484	34072.56
679.832	34249.28
680.181	33974.49
680.529	34211.32
680.877	34011.1
681.225	33971.78
681.573	34230.3
681.922	33988.5
682.27	33849.29
682.618	33843.87
682.966	33804.1
683.314	33778.56
683.661	33799.58
684.009	33578.57
684.357	33442.98
684.705	33425.35
685.053	33390.77
685.4	33417.21
685.748	33385.13
686.095	33233.94
686.443	33220.84
686.79	33152.36
687.138	33235.98
687.485	33189.65
687.832	33125.24
688.18	33064.91
688.527	32834.41
688.874	32798.25
689.221	32863.33
689.568	32703.79
689.915	32669.44
690.262	32744.46
690.609	32617.01
690.956	32601.42
691.303	32560.06
691.65	32337.24
691.997	32290.46
692.344	32221.99
692.69	32185.16
693.037	32205.27
693.383	31905.62
693.73	32082.33
694.077	31991.26
694.423	31871.27
694.769	31770.25
695.116	31611.84
695.462	31615.45
695.808	31596.7
696.155	31530.94
696.501	31317.38
696.847	31372.75
697.193	31168.46
697.539	31277.84
697.885	30961.46
698.231	30923.95
698.577	30931.4
698.923	30792.42
699.269	30755.82
699.614	30589.49
699.96	30564.63
700.306	30511.98
700.651	30460.91
700.997	30281.7
701.342	30251.65
701.688	30192.89
702.033	30098.21
702.379	30070.86
702.724	30097.98
703.069	30130.3
703.415	29776.86
703.76	29842.39
704.105	29821.83
704.45	29712.45
704.795	29578.9
705.14	29585
705.485	29498.45
705.83	29394.95
706.175	29391.56
706.52	29241.73
706.865	29169.87
707.209	29153.82
707.554	29086.71
707.899	29114.5
708.243	28998.35
708.588	28838.58
708.932	28749.54
709.277	28744.57
709.621	28680.84
709.966	28547.51
710.31	28648.75
710.654	28410.57
710.998	28374.64
711.342	28427.97
711.687	28334.41
712.031	28210.12
712.375	28138.03
712.719	28267.29
713.063	28053.74
713.407	28263.23
713.75	28010.13
714.094	27944.14
714.438	27941.43
714.782	27925.16
715.125	27622.79
715.469	27780.75
715.812	27541.89
716.156	27621.43
716.499	27528.56
716.843	27612.17
717.186	27387.77
717.53	27601.1
717.873	27483.13
718.216	27352.97
718.559	27207.66
718.902	27144.39
719.246	27174.67
719.589	27090.83
719.932	27060.77
720.275	26964.5
720.617	26952.53
720.96	26933.54
721.303	26949.81
721.646	26830.27
721.989	26618.98
722.331	26789.82
722.674	26701.23
723.016	26839.31
723.359	26611.29
723.701	26609.48
724.044	26447.68
724.386	26378.3
724.729	26462.14
725.071	26437.96
725.413	26371.52
725.755	26323.39
726.097	26162.72
726.439	26174.47
726.782	26188.93
727.124	26230.96
727.465	26100.57
727.807	26033.23
728.149	25953.68
728.491	26067.8
728.833	25925.43
729.175	25940.35
729.516	25941.93
729.858	25751.2
730.199	25860.35
730.541	25774.03
730.882	25805.44
731.224	25829.84
731.565	25654.25
731.906	25674.59
732.248	25656.74
732.589	25480.25
732.93	25487.25
733.271	25421.27
733.612	25504.43
733.953	25456.52
734.294	25262.85
734.635	25286.13
734.976	25295.39
735.317	25197.32
735.658	25169.3
735.999	25256.07
736.339	25206.81
736.68	25117.32
737.021	25101.95
737.361	24944.67
737.702	25041.62
738.042	25076.64
738.383	24954.84
738.723	25052.24
739.063	24851.79
739.404	24956.42
739.744	24757.78
740.084	24744.22
740.424	24806.37
740.764	24745.13
741.104	24780.15
741.444	24635.3
741.784	24404.12
742.124	24564.79
742.464	24463.33
742.804	24549.43
743.143	24379.71
743.483	24520.5
743.823	24333.39
744.162	24313.95
744.502	24369.54
744.841	24174.75
745.181	24322.31
745.52	24146.72
745.86	24236.44
746.199	24239.6
746.538	24189.43
746.877	24233.28
747.216	24148.31
747.556	24124.13
747.895	24085.71
748.234	23948.76
748.573	23867.64
748.911	23891.14
749.25	23878.48
749.589	23760.07
749.928	23873.51
750.267	23834.19
750.605	23702.67
750.944	23713.51
751.283	23509.45
751.621	23657.92
751.96	23465.16
752.298	23358.04
752.636	23405.27
752.975	23335.45
753.313	23276.01
753.651	23377.03
753.989	23218.61
754.327	23148.33
754.666	23009.58
755.004	23069.92
755.342	23082.12
755.679	23036.92
756.017	22965.06
756.355	22946.53
756.693	22900.43
757.031	22878.96
757.368	22814.78
757.706	22847.32
758.044	22605.97
758.381	22537.73
758.719	22561.45
759.056	22585.63
759.394	22445.75
759.731	22311.74
