Data from hue_240_FLMS001491_00061.txt Node
Date: Tue Feb 07 16:35:47 GMT 2017
User: dcchb
Spectrometer: FLMS00149
Trigger mode: 0
Integration Time (sec): 2.000000E-2
Scans to average: 10
Electric dark correction enabled: true
Nonlinearity correction enabled: false
Boxcar width: 0
XAxis mode: Wavelengths
Number of Pixels in Spectrum: 2048
>>>>>Begin Spectral Data<<<<<
341.393	-8.3
341.776	-8.3
342.16	-8.3
342.543	-45.82
342.927	-50.56
343.31	-57.57
343.693	-65.25
344.077	-89.21
344.46	-43.78
344.843	-41.3
345.226	-48.76
345.61	-41.07
345.993	-16.44
346.376	-22.32
346.759	14.52
347.142	28.76
347.525	52.48
347.908	52.71
348.291	65.37
348.674	94.52
349.057	117.34
349.44	117.12
349.823	143.78
350.206	175.19
350.588	183.33
350.971	204.8
351.354	193.05
351.737	230.78
352.119	239.6
352.502	258.35
352.884	283.21
353.267	289.31
353.65	269.2
354.032	291.12
354.414	315.53
354.797	303.55
355.179	314.62
355.562	322.31
355.944	326.6
356.326	342.42
356.709	334.96
357.091	344.91
357.473	336.32
357.855	337
358.238	329.99
358.62	339.03
359.002	318.92
359.384	337.67
359.766	325.7
360.148	328.18
360.53	315.08
360.912	326.6
361.294	333.61
361.676	336.32
362.057	329.09
362.439	328.86
362.821	332.7
363.203	308.75
363.584	331.8
363.966	312.82
364.348	318.69
364.729	308.07
365.111	331.8
365.493	320.27
365.874	320.27
366.256	319.82
366.637	321.4
367.019	306.49
367.4	310.1
367.781	306.04
368.163	308.07
368.544	318.47
368.925	311.46
369.306	303.33
369.688	305.13
370.069	305.59
370.45	302.2
370.831	317.56
371.212	308.75
371.593	311.01
371.974	314.85
372.355	311.46
372.736	306.04
373.117	307.62
373.498	302.87
373.879	307.62
374.26	311.01
374.641	299.94
375.021	314.4
375.402	327.51
375.783	329.77
376.163	318.69
376.544	327.51
376.925	305.36
377.305	333.16
377.686	306.72
378.066	318.01
378.447	316.43
378.827	322.53
379.208	326.15
379.588	309.65
379.968	325.7
380.349	330.44
380.729	335.87
381.109	329.99
381.489	345.36
381.87	314.17
382.25	336.09
382.63	345.13
383.01	337.45
383.39	342.19
383.77	334.74
384.15	327.73
384.53	362.31
384.91	339.93
385.29	336.77
385.67	357.11
386.049	344.91
386.429	352.14
386.809	359.82
387.189	347.17
387.568	354.4
387.948	354.4
388.328	357.56
388.707	354.17
389.087	362.08
389.466	354.17
389.846	367.5
390.225	361.63
390.605	374.06
390.984	356.43
391.363	353.27
391.743	379.48
392.122	378.8
392.501	370.44
392.881	387.62
393.26	366.37
393.639	384.23
394.018	389.88
394.397	397.79
394.776	376.09
395.155	389.65
395.534	394.62
395.913	377.45
396.292	395.07
396.671	367.05
397.05	384
397.429	407.73
397.808	407.96
398.186	393.04
398.565	402.31
398.944	408.18
399.323	391.23
399.701	385.36
400.08	424
400.458	406.15
400.837	413.15
401.215	417.67
401.594	408.86
401.972	398.92
402.351	421.29
402.729	415.64
403.107	434.85
403.486	424.23
403.864	420.38
404.242	435.75
404.62	445.69
404.999	433.04
405.377	447.73
405.755	427.62
406.133	444.56
406.511	437.11
406.889	465.13
407.267	463.1
407.645	479.14
408.023	475.75
408.401	483.66
408.779	471.91
409.156	478.01
409.534	485.92
409.912	491.79
410.29	515.98
410.667	488.18
411.045	486.82
411.422	515.07
411.8	516.43
412.178	516.43
412.555	555.52
412.933	531.34
413.31	565.92
413.687	550.78
414.065	543.77
414.442	573.83
414.819	561.62
415.197	578.57
415.574	578.12
415.951	587.61
416.328	597.33
416.705	590.55
417.082	599.36
417.46	605.69
417.837	617.89
418.214	634.16
418.591	620.61
418.967	633.26
419.344	656.31
419.721	640.94
420.098	642.53
420.475	647.95
420.852	669.19
421.228	673.49
421.605	683.2
421.982	670.55
422.358	718
422.735	705.8
423.111	721.39
423.488	731.34
423.864	744.22
424.241	748.29
424.617	746.48
424.994	770.43
425.37	780.6
425.746	747.38
426.123	784.89
426.499	807.27
426.875	776.08
427.251	831.67
427.627	838
428.003	845.68
428.379	851.79
428.756	853.14
429.132	864.89
429.507	868.06
429.883	868.73
430.259	893.59
430.635	899.24
431.011	918
431.387	912.35
431.763	935.4
432.138	945.12
432.514	951.67
432.89	967.49
433.265	967.71
433.641	1000.03
434.016	1018.79
434.392	1012.91
434.767	1022.85
435.143	1054.27
435.518	1067.37
435.894	1064.89
436.269	1080.25
436.644	1104.89
437.02	1117.99
437.395	1103.53
437.77	1157.99
438.145	1136.98
438.52	1178.56
438.895	1197.77
439.271	1212.23
439.646	1205.22
440.021	1254.26
440.395	1235.73
440.77	1241.61
441.145	1260.59
441.52	1301.27
441.895	1271.89
442.27	1287.03
442.645	1313.92
443.019	1306.91
443.394	1321.38
443.769	1359.79
444.143	1361.38
444.518	1379.23
444.892	1360.92
445.267	1363.86
445.641	1414.03
446.016	1404.54
446.39	1434.14
446.764	1412.9
447.139	1394.82
447.513	1470.53
447.887	1407.03
448.262	1464.88
448.636	1468.94
449.01	1471.88
449.384	1493.35
449.758	1496.06
450.132	1515.04
450.506	1532.45
450.88	1500.58
451.254	1527.47
451.628	1571.99
452.002	1578.55
452.376	1580.35
452.75	1619.45
453.123	1595.27
453.497	1631.88
453.871	1635.72
454.244	1681.59
454.618	1696.06
454.992	1683.85
455.365	1687.92
455.739	1717.75
456.112	1765.89
456.486	1779.9
456.859	1786.9
457.232	1832.1
457.606	1814.7
457.979	1836.84
458.352	1884.98
458.725	1862.38
459.099	1893.79
459.472	1967.69
459.845	1941.93
460.218	1956.39
460.591	1993.68
460.964	1993.68
461.337	2006.33
461.71	2027.57
462.083	2066.89
462.456	2057.4
462.829	2060.12
463.201	2102.37
463.574	2120.23
463.947	2153.67
464.32	2168.36
464.692	2192.32
465.065	2219.21
465.438	2281.35
465.81	2288.36
466.183	2286.32
466.555	2321.35
466.928	2345.98
467.3	2312.76
467.672	2418.52
468.045	2422.14
468.417	2448.58
468.789	2471.63
469.161	2468.92
469.534	2505.08
469.906	2583.94
470.278	2571.74
470.65	2605.64
471.022	2647.22
471.394	2712.53
471.766	2722.24
472.138	2751.62
472.51	2784.16
472.882	2815.12
473.253	2867.33
473.625	2865.07
473.997	2915.01
474.369	2931.73
474.74	3007.66
475.112	3051.5
475.484	3076.36
475.855	3111.39
476.227	3143.25
476.598	3199.75
476.97	3226.41
477.341	3285.17
477.713	3347.77
478.084	3367.88
478.455	3448.78
478.827	3447.42
479.198	3538.04
479.569	3579.85
479.94	3632.05
480.311	3642.9
480.682	3745.27
481.053	3800.41
481.424	3848.09
481.795	3876.11
482.166	3931.7
482.537	3970.8
482.908	4019.61
483.279	4104.81
483.65	4213.73
484.021	4185.94
484.391	4289.21
484.762	4275.2
485.133	4318.36
485.503	4402.2
485.874	4450.33
486.244	4517.9
486.615	4563.1
486.985	4627.05
487.356	4678.13
487.726	4715.41
488.097	4784.34
488.467	4854.17
488.837	4898.91
489.207	4943.88
489.578	5001.51
489.948	5012.13
490.318	5098.91
490.688	5107.04
491.058	5123.76
491.428	5232.91
491.798	5286.47
492.168	5369.41
492.538	5388.84
492.908	5430.42
493.278	5522.62
493.648	5515.84
494.017	5537.76
494.387	5615.95
494.757	5632.45
495.126	5656.86
495.496	5747.93
495.866	5777.08
496.235	5777.53
496.605	5866.79
496.974	5887.36
497.344	5878.32
497.713	5900.47
498.082	5911.54
498.452	5946.11
498.821	6039.9
499.19	6027.47
499.559	6067.47
499.928	6101.59
500.298	6190.85
500.667	6128.26
501.036	6189.5
501.405	6231.76
501.774	6255.26
502.143	6283.96
502.512	6275.82
502.88	6339.32
503.249	6345.88
503.618	6363.73
503.987	6414.8
504.356	6423.84
504.724	6433.79
505.093	6479.43
505.462	6491.64
505.83	6483.73
506.199	6573.67
506.567	6600.56
506.936	6608.02
507.304	6720.11
507.672	6669.94
508.041	6696.6
508.409	6717.85
508.777	6781.12
509.145	6838.97
509.514	6752.2
509.882	6857.73
510.25	6863.6
510.618	6873.32
510.986	6934.11
511.354	6905.64
511.722	6921.23
512.09	7031.74
512.458	6948.35
512.826	7004.62
513.193	7030.38
513.561	7029.48
513.929	7122.36
514.297	7099.3
514.664	7127.1
515.032	7143.37
515.4	7179.98
515.767	7175.24
516.135	7237.38
516.502	7196.25
516.869	7265.85
517.237	7307.43
517.604	7159.19
517.972	7270.6
518.339	7332.07
518.706	7304.27
519.073	7314.21
519.44	7367.09
519.808	7399.18
520.175	7373.87
520.542	7412.06
520.909	7509.24
521.276	7452.06
521.643	7451.84
522.009	7591.04
522.376	7570.25
522.743	7530.71
523.11	7600.53
523.477	7669.23
523.843	7641.21
524.21	7651.83
524.577	7753.52
524.943	7756.46
525.31	7748.1
525.676	7816.8
526.043	7812.05
526.409	7780.87
526.776	7851.15
527.142	7814.31
527.508	7835.56
527.874	7937.02
528.241	7974.54
528.607	7920.98
528.973	7930.02
529.339	7969.11
529.705	8042.78
530.071	8103.8
530.437	8066.96
530.803	8059.28
531.169	8098.37
531.535	8066.29
531.901	8010.92
532.267	8045.72
532.632	8063.35
532.998	8039.62
533.364	8071.26
533.73	8083.46
534.095	8114.19
534.461	8123.91
534.826	8148.09
535.192	8158.49
535.557	8189.67
535.923	8119.62
536.288	8106.28
536.653	8119.62
537.019	8083.69
537.384	8083.46
537.749	8074.65
538.114	8123.46
538.479	8146.51
538.845	8123.91
539.21	8167.98
539.575	8081.43
539.94	8081.2
540.305	8158.71
540.67	8048.43
541.034	8099.5
541.399	8045.27
541.764	8075.55
542.129	8114.65
542.494	8108.09
542.858	8078.94
543.223	8053.18
543.587	8090.01
543.952	8081.2
544.316	8029.9
544.681	8040.07
545.045	8057.02
545.41	8061.99
545.774	8118.94
546.138	8055.89
546.503	8033.07
546.867	8022.9
547.231	8126.17
547.595	8070.8
547.959	8023.57
548.324	8000.52
548.688	8002.11
549.052	8021.31
549.416	7990.81
549.779	8020.18
550.143	8002.33
550.507	8106.96
550.871	8042.1
551.235	7989.45
551.599	8081.65
551.962	8028.32
552.326	8031.26
552.689	8105.38
553.053	7991.03
553.417	8003.91
553.78	8036.68
554.143	7982.9
554.507	8024.7
554.87	8025.83
555.234	8070.58
555.597	7972.5
555.96	8088.66
556.323	8038.26
556.686	8029.68
557.05	8050.92
557.413	8090.47
557.776	8064.03
558.139	8127.75
558.502	8122.33
558.865	8097.7
559.228	8126.17
559.59	8118.71
559.953	8113.52
560.316	8185.38
560.679	8191.71
561.041	8180.41
561.404	8175.43
561.767	8221.76
562.129	8232.16
562.492	8247.52
562.854	8264.25
563.217	8238.03
563.579	8236
563.941	8321.65
564.304	8321.42
564.666	8358.48
565.028	8345.83
565.39	8396.9
565.753	8441.87
566.115	8428.31
566.477	8469.21
566.839	8471.92
567.201	8570
567.563	8558.48
567.925	8520.51
568.287	8533.17
568.648	8581.3
569.01	8628.98
569.372	8683.67
569.734	8602.09
570.095	8578.14
570.457	8678.02
570.819	8704.46
571.18	8672.82
571.542	8705.59
571.903	8755.98
572.265	8781.97
572.626	8737.91
572.987	8811.8
573.349	8786.72
573.71	8845.25
574.071	8866.49
574.432	8871.24
574.794	8941.97
575.155	8932.48
575.516	8895.42
575.877	8913.95
576.238	8958.69
576.599	8995.3
576.96	8989.2
577.32	9049.76
577.681	8995.53
578.042	9085.69
578.403	9064.45
578.763	9105.13
579.124	9085.69
579.485	9082.3
579.845	9158.23
580.206	9169.31
580.566	9108.74
580.927	9128.18
581.287	9242.98
581.648	9169.31
582.008	9265.35
582.368	9240.49
582.728	9237.78
583.089	9289.3
583.449	9254.28
583.809	9263.54
584.169	9298.34
584.529	9330.43
584.889	9362.75
585.249	9324.78
585.609	9242.07
585.969	9346.93
586.329	9335.63
586.688	9366.82
587.048	9386.02
587.408	9321.17
587.768	9358.68
588.127	9324.56
588.487	9311.68
588.846	9406.14
589.206	9344.44
589.565	9334.95
589.925	9369.08
590.284	9339.25
590.643	9404.78
591.003	9477.32
591.362	9482.07
591.721	9457.43
592.08	9473.25
592.44	9447.27
592.799	9478.45
593.158	9468.06
593.517	9487.04
593.876	9448.85
594.235	9461.05
594.593	9569.97
594.952	9576.53
595.311	9527.94
595.67	9511.67
596.029	9498.56
596.387	9534.72
596.746	9563.65
597.104	9478.23
597.463	9520.94
597.822	9581.73
598.18	9552.57
598.538	9514.61
598.897	9570.65
599.255	9535.17
599.613	9645.68
599.972	9603.87
600.33	9613.82
600.688	9605.45
601.046	9598.22
601.404	9687.49
601.762	9574.27
602.12	9706.24
602.478	9710.76
602.836	9683.64
603.194	9623.31
603.552	9665.79
603.91	9630.76
604.268	9668.05
604.625	9612.46
604.983	9690.2
605.341	9636.19
605.698	9664.89
606.056	9681.84
606.413	9669.41
606.771	9656.98
607.128	9689.52
607.485	9663.08
607.843	9715.73
608.2	9710.08
608.557	9809.52
608.914	9728.84
609.272	9717.77
609.629	9797.31
609.986	9811.32
610.343	9769.07
610.7	9811.78
611.057	9803.41
611.414	9797.54
611.771	9729.52
612.127	9815.84
612.484	9816.3
612.841	9887.03
613.198	9744.21
613.554	9798.22
613.911	9841.83
614.267	9879.8
614.624	9855.84
614.98	9912.56
615.337	9957.76
615.693	9899.91
616.05	9924.99
616.406	9920.25
616.762	9938.78
617.118	9947.82
617.475	9963.18
617.831	10005.9
618.187	9981.04
618.543	9983.07
618.899	10097.64
619.255	10007.93
619.611	9977.2
619.967	10015.84
620.323	10064.2
620.678	10027.14
621.034	9995.05
621.39	10012.45
621.746	9974.03
622.101	10099.23
622.457	9935.84
622.812	10044.76
623.168	10052.9
623.523	10009.96
623.879	10101.71
624.234	9961.38
624.589	10040.02
624.945	9995.5
625.3	9994.82
625.655	9991.88
626.01	10043.86
626.365	10071.2
626.72	10009.74
627.075	9943.52
627.43	9991.66
627.785	9969.96
628.14	9991.88
628.495	10014.48
628.85	10022.39
629.205	9946.24
629.559	10076.4
629.914	9910.53
630.269	9970.64
630.623	9959.34
630.978	9896.97
631.332	9936.97
631.687	9922.96
632.041	9923.19
632.396	9957.99
632.75	9841.15
633.104	9882.73
633.459	9852.68
633.813	9832.11
634.167	9889.06
634.521	9835.5
634.875	9868.72
635.229	9832.57
635.583	9754.38
635.937	9847.48
636.291	9788.95
636.645	9788.27
636.999	9697.88
637.352	9745.34
637.706	9728.84
638.06	9777.88
638.413	9721.83
638.767	9719.12
639.121	9705.34
639.474	9661.5
639.828	9730.87
640.181	9670.54
640.534	9659.92
640.888	9667.37
641.241	9577.21
641.594	9624.21
641.947	9655.4
642.301	9610.2
642.654	9588.05
643.007	9625.57
643.36	9569.3
643.713	9590.31
644.066	9552.12
644.419	9521.16
644.771	9462.41
645.124	9396.19
645.477	9366.82
645.83	9266.25
646.182	9252.69
646.535	9216.76
646.888	9285.46
647.24	9161.17
647.593	9249.98
647.945	9236.42
648.298	9170.66
648.65	9159.36
649.002	9125.01
649.355	9172.7
649.707	9170.66
650.059	9263.99
650.411	9337.66
650.763	9331.34
651.115	9419.7
651.467	9415.85
651.819	9386.25
652.171	9398.91
652.523	9383.76
652.875	9381.5
653.227	9302.64
653.578	9384.22
653.93	9336.08
654.282	9355.74
654.633	9301.28
654.985	9374.05
655.337	9375.4
655.688	9377.21
656.039	9419.92
656.391	9286.37
656.742	9354.61
657.094	9372.24
657.445	9348.51
657.796	9360.04
658.147	9376.53
658.498	9402.07
658.849	9341.51
659.2	9379.7
659.551	9349.19
659.902	9351.68
660.253	9311
660.604	9369.98
660.955	9301.05
661.306	9359.36
661.656	9398
662.007	9374.95
662.358	9400.71
662.708	9340.83
663.059	9325.24
663.409	9274.39
663.76	9374.95
664.11	9326.36
664.461	9405.01
664.811	9363.65
665.161	9365.46
665.511	9307.83
665.862	9363.65
666.212	9407.49
666.562	9429.41
666.912	9361.17
667.262	9271.68
667.612	9359.13
667.962	9392.35
668.312	9331.79
668.662	9427.61
669.011	9386.02
669.361	9334.95
669.711	9257.44
670.06	9383.54
670.41	9287.27
670.76	9210.21
671.109	9309.87
671.459	9293.15
671.808	9341.05
672.157	9314.61
672.507	9249.53
672.856	9308.51
673.205	9295.63
673.554	9310.09
673.904	9215.63
674.253	9282.98
674.602	9268.74
674.951	9130.44
675.3	9088.86
675.649	9216.99
675.998	9228.74
676.346	9208.18
676.695	9245.92
677.044	9161.85
677.393	9238.01
677.741	9267.84
678.09	9150.78
678.438	9121.4
678.787	9125.24
679.135	9115.3
679.484	9165.69
679.832	9183.77
680.181	9006.15
680.529	9161.4
680.877	9045.69
681.225	9052.93
681.573	9111
681.922	9075.98
682.27	8951.91
682.618	9038.69
682.966	8960.95
683.314	8962.31
683.661	8937
684.009	8929.54
684.357	8935.87
684.705	8852.25
685.053	8839.6
685.4	8894.96
685.748	8815.42
686.095	8821.07
686.443	8746.72
686.79	8749.88
687.138	8747.4
687.485	8801.41
687.832	8757.11
688.18	8676.66
688.527	8634.18
688.874	8644.12
689.221	8671.69
689.568	8582.88
689.915	8603.45
690.262	8562.54
690.609	8577.68
690.956	8563.45
691.303	8489.78
691.65	8490.45
691.997	8499.04
692.344	8395.09
692.69	8447.29
693.037	8406.39
693.383	8292.95
693.73	8315.32
694.077	8359.16
694.423	8308.99
694.769	8239.84
695.116	8310.8
695.462	8238.03
695.808	8210.24
696.155	8191.48
696.501	8112.84
696.847	8149.9
697.193	7998.26
697.539	8049.56
697.885	8000.52
698.231	7962.11
698.577	7956.68
698.923	7992.61
699.269	7922.56
699.614	7835.56
699.96	7840.53
700.306	7904.26
700.651	7805.05
700.997	7788.78
701.342	7848.44
701.688	7739.74
702.033	7732.06
702.379	7753.07
702.724	7645.05
703.069	7659.06
703.415	7598.73
703.76	7573.19
704.105	7625.62
704.45	7557.6
704.795	7562.12
705.14	7574.09
705.485	7506.53
705.83	7510.82
706.175	7515.57
706.52	7420.65
706.865	7397.15
707.209	7375.68
707.554	7320.32
707.899	7362.8
708.243	7389.92
708.588	7340.65
708.932	7322.12
709.277	7217.72
709.621	7246.65
709.966	7200.77
710.31	7240.77
710.654	7199.19
710.998	7215.46
711.342	7241
711.687	7129.36
712.031	7159.64
712.375	7103.82
712.719	7151.96
713.063	7059.76
713.407	7110.6
713.75	7047.78
714.094	7025.86
714.438	7037.39
714.782	7036.48
715.125	6988.8
715.469	7049.81
715.812	6984.05
716.156	6944.51
716.499	6954
716.843	6952.64
717.186	6876.71
717.53	6972.3
717.873	6923.72
718.216	6866.32
718.559	6877.39
718.902	6863.38
719.246	6866.99
719.589	6858.41
719.932	6775.7
720.275	6811.63
720.617	6873.1
720.96	6851.4
721.303	6781.57
721.646	6810.27
721.989	6748.81
722.331	6863.6
722.674	6754.68
723.016	6744.51
723.359	6755.59
723.701	6750.16
724.044	6705.42
724.386	6672.65
724.729	6733.44
725.071	6724.63
725.413	6689.15
725.755	6696.83
726.097	6666.1
726.439	6633.78
726.782	6658.64
727.124	6731.18
727.465	6638.07
727.807	6676.27
728.149	6648.24
728.491	6617.51
728.833	6630.62
729.175	6559.88
729.516	6629.94
729.858	6652.76
730.199	6640.79
730.541	6596.72
730.882	6590.17
731.224	6571.64
731.565	6622.93
731.906	6590.84
732.248	6567.57
732.589	6553.33
732.93	6575.02
733.271	6597.4
733.612	6578.19
733.953	6643.27
734.294	6528.47
734.635	6520.56
734.976	6535.7
735.317	6560.34
735.658	6527.57
735.999	6582.71
736.339	6549.94
736.68	6563.73
737.021	6587.68
737.361	6537.74
737.702	6575.7
738.042	6617.06
738.383	6499.09
738.723	6567.12
739.063	6585.19
739.404	6589.49
739.744	6530.51
740.084	6492.54
740.424	6586.1
740.764	6561.24
741.104	6607.34
741.444	6572.09
741.784	6622.93
742.124	6608.02
742.464	6606.89
742.804	6602.14
743.143	6625.19
743.483	6593.78
743.823	6611.86
744.162	6650.28
744.502	6668.81
744.841	6672.88
745.181	6627.9
745.52	6724.85
745.86	6747.68
746.199	6798.07
746.538	6749.48
746.877	6806.21
747.216	6851.85
747.556	6916.94
747.895	6892.76
748.234	6857.28
748.573	6918.29
748.911	7003.71
749.25	7006.65
749.589	6989.93
749.928	7019.08
750.267	7175.01
750.605	7169.13
750.944	7160.55
751.283	7125.97
751.621	7272.41
751.96	7272.63
752.298	7353.54
752.636	7372.29
752.975	7433.53
753.313	7536.36
753.651	7599.18
753.989	7623.13
754.327	7651.61
754.666	7724.6
755.004	7781.77
755.342	7859.06
755.679	7954.65
756.017	7962.78
756.355	8127.07
756.693	8179.95
757.031	8263.57
757.368	8334.3
757.706	8445.71
758.044	8535.2
758.381	8697.68
758.719	8686.16
759.056	8753.5
759.394	8913.27
759.731	8936.54
760.068	9053.38
760.405	9015.41
760.743	9145.35
761.08	9301.96
761.417	9367.72
761.754	9472.8
762.091	9553.48
762.428	9659.46
762.765	9721.38
763.102	9846.13
763.438	9836.86
763.775	9969.06
764.112	10062.84
764.449	10182.16
764.785	10253.12
765.122	10268.71
765.458	10357.3
765.795	10387.13
766.131	10522.27
766.467	10550.74
766.804	10618.99
767.14	10741.92
767.476	10760.23
767.812	10774.46
768.148	10926.32
768.485	10950.73
768.821	10982.59
769.157	11102.82
769.492	11170.61
