Data from hue_90_FLMS001491_49.txt Node
Date: Mon Feb 06 15:25:12 GMT 2017
User: dcchb
Spectrometer: FLMS00149
Trigger mode: 0
Integration Time (sec): 2.000000E-2
Scans to average: 10
Electric dark correction enabled: true
Nonlinearity correction enabled: false
Boxcar width: 0
XAxis mode: Wavelengths
Number of Pixels in Spectrum: 2048
>>>>>Begin Spectral Data<<<<<
341.393	-12.43
341.776	-12.43
342.16	-12.43
342.543	-49.04
342.927	-69.6
343.31	-76.83
343.693	-68.92
344.077	-74.12
344.46	-70.96
344.843	-47.68
345.226	-42.26
345.61	-37.51
345.993	-7.23
346.376	1.13
346.759	10.17
347.142	23.28
347.525	64.63
347.908	69.83
348.291	71.86
348.674	73.9
349.057	110.73
349.44	121.13
349.823	146.21
350.206	166.1
350.588	198.41
350.971	201.58
351.354	228.92
351.737	241.8
352.119	246.32
352.502	262.59
352.884	272.08
353.267	249.94
353.65	278.64
354.032	302.36
354.414	313.44
354.797	319.54
355.179	336.94
355.562	315.7
355.944	327.9
356.326	321.8
356.709	327.45
357.091	330.61
357.473	314.79
357.855	325.87
358.238	332.19
358.62	336.04
359.002	338.97
359.384	325.64
359.766	332.65
360.148	352.99
360.53	343.04
360.912	328.8
361.294	340.33
361.676	310.05
362.057	337.39
362.439	321.35
362.821	328.35
363.203	322.93
363.584	309.82
363.966	321.35
364.348	325.19
364.729	302.59
365.111	315.02
365.493	330.39
365.874	304.85
366.256	312.08
366.637	318.41
367.019	310.05
367.4	308.69
367.781	297.17
368.163	308.01
368.544	323.61
368.925	322.03
369.306	311.63
369.688	310.5
370.069	322.25
370.45	294.23
370.831	309.14
371.212	321.57
371.593	290.61
371.974	299.43
372.355	319.77
372.736	295.13
373.117	328.58
373.498	317.28
373.879	302.14
374.26	303.72
374.641	314.79
375.021	317.05
375.402	318.86
375.783	316.15
376.163	324.96
376.544	342.82
376.925	328.13
377.305	307.79
377.686	339.43
378.066	317.28
378.447	314.34
378.827	341.46
379.208	321.8
379.588	329.71
379.968	324.96
380.349	318.86
380.729	328.58
381.109	337.62
381.489	349.6
381.87	331.06
382.25	318.86
382.63	331.74
383.01	306.21
383.39	332.19
383.77	345.53
384.15	330.39
384.53	350.95
384.91	357.05
385.29	347.34
385.67	358.86
386.049	357.28
386.429	339.88
386.809	353.21
387.189	342.82
387.568	370.16
387.948	358.86
388.328	342.82
388.707	363.61
389.087	358.63
389.466	390.95
389.846	359.76
390.225	378.97
390.605	359.99
390.984	374
391.363	348.01
391.743	376.71
392.122	377.62
392.501	367.22
392.881	360.44
393.26	386.66
393.639	374
394.018	371.29
394.397	388.46
394.776	378.97
395.155	394.34
395.534	384.17
395.913	368.8
396.292	373.55
396.671	376.94
397.05	393.44
397.429	375.81
397.808	383.94
398.186	388.92
398.565	388.24
398.944	406.99
399.323	411.97
399.701	394.79
400.08	391.85
400.458	409.93
400.837	405.19
401.215	387.33
401.594	398.63
401.972	408.12
402.351	427.11
402.729	408.12
403.107	429.82
403.486	418.07
403.864	415.58
404.242	434.11
404.62	431.18
404.999	409.48
405.377	430.05
405.755	426.2
406.133	423.72
406.511	441.57
406.889	439.54
407.267	422.59
407.645	447.45
408.023	432.76
408.401	448.12
408.779	425.98
409.156	451.51
409.534	464.17
409.912	469.14
410.29	465.75
410.667	457.84
411.045	456.49
411.422	469.14
411.8	458.75
412.178	484.73
412.555	489.25
412.933	474.11
413.31	457.16
413.687	491.29
414.065	480.89
414.442	485.64
414.819	475.69
415.197	498.29
415.574	506.88
415.951	503.49
416.328	508.91
416.705	514.11
417.082	504.62
417.46	499.65
417.837	508.24
418.214	515.92
418.591	499.2
418.967	541
419.344	530.16
419.721	539.42
420.098	515.24
420.475	527.67
420.852	533.09
421.228	517.95
421.605	534.68
421.982	507.78
422.358	541.45
422.735	555.47
423.111	556.6
423.488	574.22
423.864	557.27
424.241	563.83
424.617	545.75
424.994	592.98
425.37	590.49
425.746	583.26
426.123	583.04
426.499	591.17
426.875	588.01
427.251	594.11
427.627	592.75
428.003	607.44
428.379	606.54
428.756	593.2
429.132	606.09
429.507	629.14
429.883	607.67
430.259	637.27
430.635	653.09
431.011	641.34
431.387	646.76
431.763	659.19
432.138	668.01
432.514	647.21
432.89	678.4
433.265	642.24
433.641	672.07
434.016	681.11
434.392	680.21
434.767	679.08
435.143	691.28
435.518	695.8
435.894	716.59
436.269	724.95
436.644	722.01
437.02	729.92
437.395	720.89
437.77	714.56
438.145	752.07
438.52	746.65
438.895	757.04
439.271	724.73
439.646	751.17
440.021	770.83
440.395	785.52
440.77	770.15
441.145	792.07
441.52	776.93
441.895	802.69
442.27	802.69
442.645	789.13
443.019	811.96
443.394	801.11
443.769	807.89
444.143	828.9
444.518	853.08
444.892	815.8
445.267	820.09
445.641	851.95
446.016	834.55
446.39	856.93
446.764	862.35
447.139	828
447.513	876.59
447.887	872.29
448.262	848.11
448.636	857.15
449.01	881.33
449.384	875.91
449.758	887.66
450.132	879.07
450.506	896.47
450.88	915.68
451.254	938.05
451.628	954.33
452.002	935.34
452.376	944.38
452.75	961.33
453.123	932.63
453.497	970.14
453.871	969.69
454.244	996.36
454.618	988.67
454.992	1019.18
455.365	1002.69
455.739	1035.23
456.112	1039.07
456.486	1065.06
456.859	1081.55
457.232	1051.72
457.606	1073.64
457.979	1093.08
458.352	1093.76
458.725	1122
459.099	1141.21
459.472	1152.74
459.845	1153.42
460.218	1183.47
460.591	1160.65
460.964	1178.05
461.337	1204.04
461.71	1253.3
462.083	1250.36
462.456	1237.93
462.829	1282.68
463.201	1270.7
463.574	1311.6
463.947	1321.1
464.32	1335.56
464.692	1334.2
465.065	1359.74
465.438	1408.32
465.81	1415.1
466.183	1421.66
466.555	1447.19
466.928	1473.86
467.3	1498.04
467.672	1480.87
468.045	1514.76
468.417	1554.99
468.789	1592.05
469.161	1592.95
469.534	1635.44
469.906	1622.1
470.278	1680.86
470.65	1692.61
471.022	1706.17
471.394	1769.9
471.766	1776.22
472.138	1817.81
472.51	1876.33
472.882	1917.24
473.253	1936.9
473.625	2003.11
473.997	2064.58
474.369	2050.12
474.74	2110.23
475.112	2159.04
475.484	2195.65
475.855	2234.29
476.227	2280.84
476.598	2364.68
476.97	2401.74
477.341	2500.27
477.713	2531.01
478.084	2582.3
478.455	2651.91
478.827	2734.17
479.198	2805.35
479.569	2840.15
479.94	2925.12
480.311	3009.64
480.682	3101.16
481.053	3218.9
481.424	3282.4
481.795	3370.53
482.166	3443.98
482.537	3542.28
482.908	3620.7
483.279	3725.1
483.65	3781.14
484.021	3935.49
484.391	4020.91
484.762	4101.59
485.133	4230.62
485.503	4346.33
485.874	4435.14
486.244	4571.41
486.615	4715.58
486.985	4830.83
487.356	4955.58
487.726	5058.17
488.097	5195.12
488.467	5310.14
488.837	5456.81
489.207	5553.3
489.578	5700.42
489.948	5844.82
490.318	5962.33
490.688	6070.8
491.058	6245.94
491.428	6333.84
491.798	6500.85
492.168	6702.42
492.538	6803.21
492.908	6914.17
493.278	7054.28
493.648	7101.73
494.017	7313.25
494.387	7435.28
494.757	7528.39
495.126	7675.05
495.496	7771.55
495.866	7923.41
496.235	8043.18
496.605	8189.39
496.974	8281.36
497.344	8434.81
497.713	8511.19
498.082	8630.51
498.452	8770.84
498.821	8886.32
499.19	8895.36
499.559	9063.26
499.928	9249.7
500.298	9312.75
500.667	9399.75
501.036	9448.11
501.405	9586.87
501.774	9705.28
502.143	9844.71
502.512	9874.54
502.88	9925.16
503.249	9967.87
503.618	10136.23
503.987	10207.64
504.356	10321.31
504.724	10380.07
505.093	10500.06
505.462	10470.91
505.83	10619.83
506.199	10655.31
506.567	10799.04
506.936	10850.79
507.304	10980.95
507.672	11093.49
508.041	11066.83
508.409	11201.74
508.777	11269.08
509.145	11373.26
509.514	11355.41
509.882	11414.84
510.25	11481.05
510.618	11495.06
510.986	11625.68
511.354	11688.96
511.722	11824.32
512.09	11882.63
512.458	11813.47
512.826	11961.04
513.193	11995.62
513.561	12067.93
513.929	12079.46
514.297	12116.07
514.664	12236.51
515.032	12327.81
515.4	12333.46
515.767	12339.34
516.135	12492.33
516.502	12368.71
516.869	12454.14
517.237	12578.2
517.604	12481.03
517.972	12608.26
518.339	12639.89
518.706	12669.5
519.073	12689.16
519.44	12731.87
519.808	12815.26
520.175	12713.56
520.542	12854.13
520.909	12951.75
521.276	12970.51
521.643	12963.27
522.009	12923.95
522.376	13073.78
522.743	13139.99
523.11	13238.75
523.477	13229.03
523.843	13217.96
524.21	13327.11
524.577	13427.9
524.943	13336.15
525.31	13375.02
525.676	13503.15
526.043	13541.79
526.409	13507.67
526.776	13582.92
527.142	13563.94
527.508	13592.64
527.874	13658.17
528.241	13643.03
528.607	13624.27
528.973	13698.17
529.339	13673.09
529.705	13665.86
530.071	13757.15
530.437	13703.82
530.803	13795.34
531.169	13649.13
531.535	13732.29
531.901	13736.36
532.267	13688.91
532.632	13742.92
532.998	13799.19
533.364	13789.02
533.73	13701.56
534.095	13713.99
534.461	13758.51
534.826	13765.29
535.192	13710.83
535.557	13748.34
535.923	13715.12
536.288	13687.32
536.653	13787.66
537.019	13578.17
537.384	13614.78
537.749	13629.92
538.114	13612.98
538.479	13547.67
538.845	13543.37
539.21	13474.45
539.575	13455.92
539.94	13471.06
540.305	13492.53
540.67	13424.51
541.034	13366.88
541.399	13414.56
541.764	13350.84
542.129	13343.6
542.494	13311.51
542.858	13268.8
543.223	13272.42
543.587	13303.83
543.952	13204.17
544.316	13135.47
544.681	13054.57
545.045	13123.72
545.41	13114.46
545.774	13128.69
546.138	12994.91
546.503	13044.85
546.867	12937.29
547.231	13008.7
547.595	12984.52
547.959	12947.46
548.324	12852.54
548.688	12818.87
549.052	12822.49
549.416	12757.4
549.779	12789.72
550.143	12742.94
550.507	12735.03
550.871	12785.88
551.235	12705.43
551.599	12697.07
551.962	12710.17
552.326	12682.6
552.689	12623.17
553.053	12569.16
553.417	12535.94
553.78	12548.37
554.143	12545.66
554.507	12480.58
554.87	12408.04
555.234	12537.3
555.597	12498.43
555.96	12454.14
556.323	12403.97
556.686	12422.5
557.05	12403.06
557.413	12448.71
557.776	12389.05
558.139	12389.73
558.502	12394.02
558.865	12308.15
559.228	12407.36
559.59	12397.41
559.953	12401.26
560.316	12457.75
560.679	12383.63
561.041	12404.65
561.404	12460.92
561.767	12452.78
562.129	12406.45
562.492	12436.06
562.854	12379.56
563.217	12436.51
563.579	12382.27
563.941	12377.53
564.304	12489.62
564.666	12434.02
565.028	12494.13
565.39	12392.89
565.753	12584.98
566.115	12463.18
566.477	12572.32
566.839	12531.65
567.201	12548.37
567.563	12583.4
567.925	12636.5
568.287	12581.14
568.648	12593.34
569.01	12626.33
569.372	12611.19
569.734	12537.98
570.095	12697.52
570.457	12708.82
570.819	12682.15
571.18	12685.54
571.542	12748.59
571.903	12754.24
572.265	12747.01
572.626	12723.51
572.987	12758.53
573.349	12761.7
573.71	12791.98
574.071	12705.43
574.432	12740
574.794	12865.2
575.155	12872.66
575.516	12840.57
575.877	12834.46
576.238	12832.43
576.599	12843.96
576.96	12842.83
577.32	12869.94
577.681	12879.44
578.042	12923.28
578.403	12867.01
578.763	12764.86
579.124	12826.1
579.485	12872.88
579.845	12943.16
580.206	12847.12
580.566	12883.05
580.927	12877.18
581.287	12946.33
581.648	12888.02
582.008	12899.32
582.368	12817.29
582.728	12899.55
583.089	12793.34
583.449	12873.56
583.809	12816.84
584.169	12792.43
584.529	12811.19
584.889	12874.92
585.249	12820
585.609	12741.59
585.969	12834.46
586.329	12795.82
586.688	12719.89
587.048	12702.49
587.408	12743.17
587.768	12761.92
588.127	12718.08
588.487	12715.37
588.846	12825.43
589.206	12664.75
589.565	12638.76
589.925	12768.48
590.284	12723.96
590.643	12690.06
591.003	12754.24
591.362	12747.01
591.721	12652.77
592.08	12652.77
592.44	12662.27
592.799	12635.37
593.158	12607.13
593.517	12625.66
593.876	12677.41
594.235	12692.32
594.593	12620.23
594.952	12600.35
595.311	12568.03
595.67	12631.98
596.029	12601.02
596.387	12645.77
596.746	12574.81
597.104	12612.1
597.463	12524.64
597.822	12543.4
598.18	12565.55
598.538	12538.65
598.897	12558.99
599.255	12501.82
599.613	12635.37
599.972	12441.03
600.33	12586.56
600.688	12532.33
601.046	12602.15
601.404	12579.56
601.762	12584.53
602.12	12623.17
602.478	12547.01
602.836	12606
603.194	12524.42
603.552	12535.26
603.91	12491.65
604.268	12516.28
604.625	12503.4
604.983	12597.41
605.341	12494.59
605.698	12549.95
606.056	12604.87
606.413	12593.12
606.771	12587.01
607.128	12588.14
607.485	12507.24
607.843	12642.83
608.2	12597.41
608.557	12660.01
608.914	12608.26
609.272	12661.59
609.629	12680.57
609.986	12682.83
610.343	12609.84
610.7	12708.59
611.057	12637.18
611.414	12670.85
611.771	12648.71
612.127	12819.1
612.484	12773.22
612.841	12717.86
613.198	12603.51
613.554	12687.12
613.911	12768.7
614.267	12756.27
614.624	12692.55
614.98	12779.78
615.337	12755.37
615.693	12816.61
616.05	12836.5
616.406	12818.19
616.762	12845.99
617.118	12838.53
617.475	12801.25
617.831	12896.38
618.187	12832.43
618.543	12855.71
618.899	13008.47
619.255	12890.06
619.611	12879.44
619.967	12940.45
620.323	12984.74
620.678	12933.45
621.034	12867.01
621.39	12863.62
621.746	12864.97
622.101	13058.64
622.457	12897.29
622.812	12958.98
623.168	13012.54
623.523	12897.97
623.879	13006.44
624.234	12911.3
624.589	12942.94
624.945	12945.42
625.3	12892.54
625.655	12976.61
626.01	13048.47
626.365	12944.97
626.72	12868.36
627.075	12991.07
627.43	12893.45
627.785	12902.49
628.14	12884.41
628.495	12897.97
628.85	12853.67
629.205	12915.37
629.559	12874.46
629.914	12857.97
630.269	12833.79
630.623	12831.75
630.978	12732.32
631.332	12804.86
631.687	12866.1
632.041	12754.01
632.396	12922.82
632.75	12793.34
633.104	12800.34
633.459	12751.53
633.813	12716.05
634.167	12709.72
634.521	12728.03
634.875	12706.56
635.229	12736.84
635.583	12685.99
635.937	12735.03
636.291	12651.42
636.645	12608.93
636.999	12574.36
637.352	12614.36
637.706	12592.89
638.06	12619.1
638.413	12588.82
638.767	12520.35
639.121	12514.02
639.474	12444.87
639.828	12468.82
640.181	12429.05
640.534	12460.69
640.888	12460.01
641.241	12339.11
641.594	12368.94
641.947	12417.53
642.301	12364.87
642.654	12398.77
643.007	12389.28
643.36	12347.7
643.713	12286.23
644.066	12370.75
644.419	12314.03
644.771	12311.31
645.124	12165.56
645.477	12047.82
645.83	11991.55
646.182	11981.83
646.535	11943.87
646.888	12050.08
647.24	11924.43
647.593	11988.39
647.945	12024.54
648.298	11945.45
648.65	11920.82
649.002	11923.3
649.355	11945
649.707	11890.76
650.059	11979.35
650.411	12155.61
650.763	12086.69
651.115	12249.17
651.467	12197.65
651.819	12203.52
652.171	12182.5
652.523	12139.12
652.875	12147.93
653.227	12122.62
653.578	12228.15
653.93	12104.77
654.282	12177.31
654.633	12038.33
654.985	12222.05
655.337	12206.01
655.688	12244.88
656.039	12212.79
656.391	12164.43
656.742	12203.52
657.094	12176.4
657.445	12200.13
657.796	12131.66
658.147	12220.24
658.498	12152.22
658.849	12203.97
659.2	12189.51
659.551	12192.9
659.902	12217.76
660.253	12135.95
660.604	12269.96
660.955	12213.69
661.306	12286.68
661.656	12190.19
662.007	12209.85
662.358	12231.54
662.708	12282.39
663.059	12235.84
663.409	12187.25
663.76	12288.26
664.11	12241.03
664.461	12234.93
664.811	12305.44
665.161	12248.27
665.511	12230.19
665.862	12226.57
666.212	12231.09
666.562	12312.9
666.912	12213.01
667.262	12256.85
667.612	12318.09
667.962	12188.83
668.312	12227.25
668.662	12360.35
669.011	12281.48
669.361	12256.63
669.711	12267.47
670.06	12213.01
670.41	12284.42
670.76	12257.53
671.109	12308.38
671.459	12301.6
671.808	12283.29
672.157	12265.21
672.507	12147.03
672.856	12164.2
673.205	12254.82
673.554	12207.36
673.904	12208.94
674.253	12293.91
674.602	12124.88
674.951	11973.47
675.3	11899.12
675.649	12153.13
675.998	12127.36
676.346	12152.67
676.695	12105.9
677.044	12058.44
677.393	12059.12
677.741	12087.59
678.09	12013.47
678.438	11942.28
678.787	12080.13
679.135	12002.4
679.484	11947.26
679.832	11946.13
680.181	11887.6
680.529	11927.6
680.877	11939.12
681.225	11878.78
681.573	11979.8
681.922	11836.75
682.27	11834.94
682.618	11864.09
682.966	11768.5
683.314	11739.13
683.661	11755.85
684.009	11720.82
684.357	11642.41
684.705	11637.43
685.053	11690.09
685.4	11587.72
685.748	11646.47
686.095	11492.35
686.443	11502.75
686.79	11519.92
687.138	11535.97
687.485	11460.72
687.832	11477.21
688.18	11404.67
688.527	11408.74
688.874	11359.93
689.221	11342.3
689.568	11292.13
689.915	11277.44
690.262	11261.17
690.609	11203.32
690.956	11142.76
691.303	11127.62
691.65	11071.57
691.997	11081.29
692.344	10983.21
692.69	11005.36
693.037	10970.11
693.383	10848.08
693.73	10886.72
694.077	10882.88
694.423	10857.12
694.769	10760.62
695.116	10776.21
695.462	10720.4
695.808	10676.56
696.155	10772.15
696.501	10609.21
696.847	10574.19
697.193	10561.53
697.539	10540.06
697.885	10429.33
698.231	10448.31
698.577	10446.28
698.923	10437.92
699.269	10257.13
699.614	10218.04
699.96	10212.84
700.306	10231.37
700.651	10160.18
700.997	10118.6
701.342	10090.36
701.688	10124.93
702.033	10013.3
702.379	10065.72
702.724	9978.04
703.069	9995.44
703.415	9870.02
703.76	9919.29
704.105	9817.14
704.45	9825.5
704.795	9823.92
705.14	9744.83
705.485	9773.08
705.83	9631.61
706.175	9710.71
706.52	9706.86
706.865	9574.44
707.209	9568.11
707.554	9570.82
707.899	9606.08
708.243	9515.68
708.588	9462.58
708.932	9400.43
709.277	9327.21
709.621	9359.3
709.966	9308.46
710.31	9334.44
710.654	9271.39
710.998	9274.33
711.342	9399.98
711.687	9228.01
712.031	9204.05
712.375	9162.24
712.719	9196.14
713.063	9199.31
713.407	9165.18
713.75	9138.52
714.094	9133.55
714.438	9050.84
714.782	9024.17
715.125	9053.77
715.469	9084.51
715.812	8993.66
716.156	8973.1
716.499	8941.69
716.843	8984.17
717.186	8970.84
717.53	8934.23
717.873	8985.98
718.216	8945.53
718.559	8903.04
718.902	8842.71
719.246	8896.49
719.589	8840.67
719.932	8843.16
720.275	8823.95
720.617	8810.39
720.96	8876.38
721.303	8889.94
721.646	8850.61
721.989	8801.12
722.331	8781.69
722.674	8740.34
723.016	8700.56
723.359	8745.76
723.701	8691.07
724.044	8657.4
724.386	8673.67
724.729	8689.94
725.071	8713.67
725.413	8662.82
725.755	8637.06
726.097	8583.73
726.439	8614.91
726.782	8622.37
727.124	8604.52
727.465	8539.44
727.807	8589.83
728.149	8552.54
728.491	8558.65
728.833	8590.51
729.175	8551.64
729.516	8545.54
729.858	8553.67
730.199	8545.31
730.541	8492.66
730.882	8549.15
731.224	8603.62
731.565	8541.92
731.906	8574.01
732.248	8555.93
732.589	8554.13
732.93	8485.65
733.271	8504.18
733.612	8584.41
733.953	8626.21
734.294	8530.62
734.635	8440.91
734.976	8490.17
735.317	8489.27
735.658	8535.37
735.999	8606.55
736.339	8519.78
736.68	8577.85
737.021	8504.18
737.361	8482.71
737.702	8576.95
738.042	8598.64
738.383	8508.7
738.723	8571.53
739.063	8551.64
739.404	8635.25
739.744	8586.67
740.084	8556.61
740.424	8598.87
740.764	8605.2
741.104	8707.12
741.444	8656.5
741.784	8583.96
742.124	8685.2
742.464	8640.22
742.804	8723.61
743.143	8740.11
743.483	8743.95
743.823	8698.75
744.162	8746.44
744.502	8762.93
744.841	8793.89
745.181	8893.33
745.52	8855.81
745.86	8903.95
746.199	8894.68
746.538	8990.5
746.877	9056.49
747.216	9082.02
747.556	9109.82
747.895	9224.39
748.234	9198.85
748.573	9289.7
748.911	9264.62
749.25	9317.27
749.589	9360.43
749.928	9431.16
750.267	9539.64
750.605	9607.21
750.944	9666.86
751.283	9717.71
751.621	9866.41
751.96	9915.22
752.298	9996.35
752.636	10100.98
752.975	10147.76
753.313	10215.1
753.651	10381.2
753.989	10383.91
754.327	10531.47
754.666	10569.89
755.004	10781.19
755.342	10832.94
755.679	11000.61
756.017	11054.62
756.355	11256.2
756.693	11333.49
757.031	11558.34
757.368	11563.76
757.706	11794.94
758.044	11882.17
758.381	12023.41
758.719	12094.15
759.056	12367.36
