Data from hue_220_FLMS001491_00003.txt Node
Date: Tue Feb 07 16:38:27 GMT 2017
User: dcchb
Spectrometer: FLMS00149
Trigger mode: 0
Integration Time (sec): 2.000000E-2
Scans to average: 10
Electric dark correction enabled: true
Nonlinearity correction enabled: false
Boxcar width: 0
XAxis mode: Wavelengths
Number of Pixels in Spectrum: 2048
>>>>>Begin Spectral Data<<<<<
341.393	-7.99
341.776	-7.99
342.16	-7.99
342.543	-79.86
342.927	-59.52
343.31	-58.61
343.693	-82.57
344.077	-42.34
344.46	-68.33
344.843	-50.93
345.226	-46.64
345.61	-28.78
345.993	-39.41
346.376	11.67
346.759	16.19
347.142	25.9
347.525	36.3
347.908	48.73
348.291	63.42
348.674	94.38
349.057	121.04
349.44	139.35
349.823	148.84
350.206	157.43
350.588	182.74
350.971	208.95
351.354	213.02
351.737	239.68
352.119	258.21
352.502	255.05
352.884	266.57
353.267	293.92
353.65	293.69
354.032	309.96
354.414	316.74
354.797	301.6
355.179	296.4
355.562	325.78
355.944	320.36
356.326	325.56
356.709	319.68
357.091	328.04
357.473	349.51
357.855	345.89
358.238	338.89
358.62	337.99
359.002	342.73
359.384	338.21
359.766	321.94
360.148	337.76
360.53	346.35
360.912	335.95
361.294	349.74
361.676	329.17
362.057	340.25
362.439	346.35
362.821	337.53
363.203	321.26
363.584	333.69
363.966	334.14
364.348	317.2
364.729	317.65
365.111	318.1
365.493	331.88
365.874	306.57
366.256	307.93
366.637	316.07
367.019	300.02
367.4	316.97
367.781	317.2
368.163	326.69
368.544	314.26
368.925	324.65
369.306	321.49
369.688	283.75
370.069	333.69
370.45	309.96
370.831	306.8
371.212	309.96
371.593	304.77
371.974	320.58
372.355	310.42
372.736	321.04
373.117	296.86
373.498	316.74
373.879	307.7
374.26	305.9
374.641	308.61
375.021	319.23
375.402	323.52
375.783	328.27
376.163	327.14
376.544	308.38
376.925	323.3
377.305	328.04
377.686	340.7
378.066	333.47
378.447	326.91
378.827	320.36
379.208	319.23
379.588	354.71
379.968	347.02
380.349	333.92
380.729	330.53
381.109	334.14
381.489	330.75
381.87	330.08
382.25	344.76
382.63	318.32
383.01	351.77
383.39	342.51
383.77	348.61
384.15	342.05
384.53	339.79
384.91	361.94
385.29	359.91
385.67	348.61
386.049	341.6
386.429	370.53
386.809	323.97
387.189	349.96
387.568	350.64
387.948	352.45
388.328	338.66
388.707	359.23
389.087	338.44
389.466	373.69
389.846	354.48
390.225	375.27
390.605	357.42
390.984	347.93
391.363	359.91
391.743	375.27
392.122	379.34
392.501	375.5
392.881	387.02
393.26	383.63
393.639	391.77
394.018	385.89
394.397	389.74
394.776	390.41
395.155	392.67
395.534	375.5
395.913	402.39
396.292	385.67
396.671	406.91
397.05	397.87
397.429	403.75
397.808	414.82
398.186	399
398.565	403.52
398.944	419.11
399.323	408.49
399.701	412.79
400.08	408.04
400.458	429.28
400.837	410.3
401.215	416.85
401.594	419.79
401.972	432.67
402.351	448.27
402.729	433.8
403.107	458.89
403.486	433.58
403.864	446.01
404.242	448.72
404.62	455.5
404.999	465.89
405.377	454.37
405.755	462.05
406.133	470.41
406.511	468.6
406.889	479.45
407.267	477.64
407.645	494.59
408.023	485.78
408.401	493.01
408.779	503.63
409.156	507.02
409.534	505.21
409.912	524.42
410.29	535.95
410.667	537.3
411.045	525.78
411.422	543.86
411.8	576.17
412.178	567.36
412.555	573.46
412.933	593.35
413.31	580.92
413.687	602.84
414.065	609.62
414.442	601.71
414.819	611.88
415.197	648.03
415.574	642.84
415.951	655.72
416.328	673.57
416.705	655.94
417.082	671.76
417.46	675.83
417.837	672.67
418.214	700.69
418.591	687.13
418.967	720.57
419.344	718.31
419.721	730.74
420.098	733.23
420.475	763.06
420.852	774.58
421.228	760.8
421.605	772.55
421.982	782.95
422.358	811.42
422.735	797.86
423.111	827.69
423.488	869.27
423.864	890.97
424.241	883.73
424.617	864.98
424.994	914.47
425.37	956.27
425.746	939.78
426.123	934.81
426.499	953.34
426.875	970.96
427.251	984.52
427.627	1011.19
428.003	1016.39
428.379	1043.73
428.756	1034.24
429.132	1082.6
429.507	1058.19
429.883	1078.53
430.259	1070.17
430.635	1107.46
431.011	1113.78
431.387	1116.04
431.763	1159.88
432.138	1174.8
432.514	1178.87
432.89	1191.75
433.265	1234.01
433.641	1197.17
434.016	1244.63
434.392	1288.69
434.767	1327.79
435.143	1312.65
435.518	1339.77
435.894	1366.88
436.269	1375.7
436.644	1400.78
437.02	1433.78
437.395	1461.57
437.77	1459.09
438.145	1509.71
438.52	1502.25
438.895	1519.65
439.271	1552.19
439.646	1586.31
440.021	1614.56
440.395	1615.47
440.77	1622.25
441.145	1660.89
441.52	1676.93
441.895	1694.79
442.27	1711.28
442.645	1719.87
443.019	1729.36
443.394	1753.54
443.769	1782.24
444.143	1796.93
444.518	1810.94
444.892	1821.11
445.267	1849.13
445.641	1870.37
446.016	1862.24
446.39	1882.13
446.764	1905.63
447.139	1904.72
447.513	1944.95
447.887	1902.01
448.262	1961.67
448.636	1949.47
449.01	1960.99
449.384	1993.99
449.758	1999.64
450.132	2031.95
450.506	2035.12
450.88	2059.3
451.254	2063.14
451.628	2085.28
452.002	2109.46
452.376	2094.78
452.75	2141.55
453.123	2172.74
453.497	2198.28
453.871	2190.14
454.244	2222.91
454.618	2268.56
454.992	2300.65
455.365	2267.2
455.739	2344.94
456.112	2361.21
456.486	2380.64
456.859	2386.97
457.232	2405.73
457.606	2428.33
457.979	2436.24
458.352	2496.35
458.725	2520.75
459.099	2545.16
459.472	2569.11
459.845	2613.41
460.218	2622.9
460.591	2662.22
460.964	2652.95
461.337	2680.3
461.71	2745.38
462.083	2744.7
462.456	2799.62
462.829	2753.74
463.201	2860.41
463.574	2874.64
463.947	2881.42
464.32	2945.15
464.692	2948.76
465.065	2957.8
465.438	3041.19
465.81	3083.22
466.183	3083.45
466.555	3163.22
466.928	3159.61
467.3	3168.42
467.672	3223.11
468.045	3285.48
468.417	3287.29
468.789	3317.57
469.161	3368.87
469.534	3438.24
469.906	3467.17
470.278	3473.5
470.65	3508.3
471.022	3584.91
471.394	3620.39
471.766	3611.8
472.138	3671.23
472.51	3776.54
472.882	3806.14
473.253	3825.13
473.625	3891.34
473.997	3965.46
474.369	3997.78
474.74	4012.69
475.112	4018.11
475.484	4140.15
475.855	4217.66
476.227	4213.59
476.598	4309.18
476.97	4374.26
477.341	4425.11
477.713	4459.23
478.084	4490.87
478.455	4644.76
478.827	4612
479.198	4748.26
479.569	4722.73
479.94	4842.05
480.311	4899.45
480.682	4984.64
481.053	5101.02
481.424	5122.04
481.795	5197.74
482.166	5263.51
482.537	5307.57
482.908	5362.03
483.279	5483.16
483.65	5548.02
484.021	5611.97
484.391	5651.29
484.762	5729.26
485.133	5740.78
485.503	5860.33
485.874	5991.85
486.244	5964.28
486.615	6092.64
486.985	6048.8
487.356	6197.27
487.726	6254.67
488.097	6353.87
488.467	6342.35
488.837	6520.87
489.207	6488.56
489.578	6575.56
489.948	6634.32
490.318	6741.43
490.688	6762.22
491.058	6877.02
491.428	6947.76
491.798	6944.14
492.168	7101.42
492.538	7132.61
492.908	7185.04
493.278	7225.71
493.648	7214.19
494.017	7305.26
494.387	7356.56
494.757	7375.31
495.126	7487.4
495.496	7506.61
495.866	7502.54
496.235	7637.91
496.605	7657.79
496.974	7645.14
497.344	7691.69
497.713	7747.73
498.082	7771.69
498.452	7832.93
498.821	7857.56
499.19	7865.7
499.559	7982.98
499.928	7992.47
500.298	8048.97
500.667	8084.9
501.036	8078.57
501.405	8137.33
501.774	8115.86
502.143	8208.29
502.512	8179.59
502.88	8256.42
503.249	8228.63
503.618	8269.3
503.987	8241.51
504.356	8373.25
504.724	8349.53
505.093	8365.35
505.462	8407.6
505.83	8431.56
506.199	8488.51
506.567	8542.97
506.936	8481.27
507.304	8594.27
507.672	8579.35
508.041	8674.94
508.409	8711.1
508.777	8643.76
509.145	8687.6
509.514	8746.35
509.882	8686.69
510.25	8699.57
510.618	8782.96
510.986	8805.79
511.354	8820.25
511.722	8843.07
512.09	8907.48
512.458	8848.27
512.826	8893.69
513.193	8903.41
513.561	8946.35
513.929	8879.68
514.297	8949.28
514.664	9032.9
515.032	8941.83
515.4	9016.85
515.767	9074.93
516.135	9092.11
516.502	8987.7
516.869	9104.31
517.237	9076.06
517.604	9018.21
517.972	9052.56
518.339	9130.07
518.706	9135.27
519.073	9107.92
519.44	9103.63
519.808	9221.14
520.175	9176.4
520.542	9257.75
520.909	9259.11
521.276	9216.17
521.643	9252.78
522.009	9227.92
522.376	9260.24
522.743	9274.7
523.11	9359.67
523.477	9332.55
523.843	9344.08
524.21	9444.64
524.577	9453.23
524.943	9435.83
525.31	9428.37
525.676	9530.51
526.043	9493
526.409	9542.26
526.776	9527.57
527.142	9455.03
527.508	9543.62
527.874	9450.74
528.241	9604.63
528.607	9515.37
528.973	9584.97
529.339	9520.79
529.705	9584.52
530.071	9619.32
530.437	9547.23
530.803	9652.54
531.169	9611.41
531.535	9512.66
531.901	9567.12
532.267	9588.59
532.632	9587.23
532.998	9540.68
533.364	9558.31
533.73	9575.93
534.095	9585.2
534.461	9573.22
534.826	9552.66
535.192	9520.34
535.557	9594.47
535.923	9511.3
536.288	9551.08
536.653	9550.4
537.019	9457.97
537.384	9450.06
537.749	9468.82
538.114	9477.41
538.479	9487.12
538.845	9421.59
539.21	9454.58
539.575	9390.4
539.94	9414.13
540.305	9455.49
540.67	9363.06
541.034	9324.42
541.399	9338.2
541.764	9310.18
542.129	9332.1
542.494	9291.2
542.858	9280.58
543.223	9193.8
543.587	9244.19
543.952	9249.39
544.316	9208.03
544.681	9215.49
545.045	9243.29
545.41	9143.63
545.774	9173.46
546.138	9121.71
546.503	9161.93
546.867	9068.15
547.231	9209.16
547.595	9057.08
547.959	9078.55
548.324	8989.28
548.688	8998.55
549.052	9020.24
549.416	8975.5
549.779	8997.42
550.143	8955.39
550.507	8996.97
550.871	8958.78
551.235	8896.63
551.599	8998.32
551.962	8872.22
552.326	8818.67
552.689	8905.9
553.053	8743.64
553.417	8812.34
553.78	8932.79
554.143	8762.85
554.507	8800.59
554.87	8843.75
555.234	8862.96
555.597	8803.53
555.96	8751.55
556.323	8757.65
556.686	8713.81
557.05	8797.2
557.413	8702.96
557.776	8768.05
558.139	8786.58
558.502	8761.27
558.865	8767.59
559.228	8827.03
559.59	8812.56
559.953	8734.6
560.316	8824.99
560.679	8789.29
561.041	8796.52
561.404	8867.25
561.767	8822.28
562.129	8804.66
562.492	8809.85
562.854	8837.42
563.217	8808.72
563.579	8782.96
563.941	8931.88
564.304	8862.28
564.666	8936.18
565.028	8943.63
565.39	8897.53
565.753	8963.52
566.115	8965.1
566.477	8973.01
566.839	8986.57
567.201	8990.87
567.563	8993.58
567.925	8983.86
568.287	9018.89
568.648	9062.28
569.01	9108.15
569.372	9069.96
569.734	9086.46
570.095	9161.03
570.457	9110.86
570.819	9143.18
571.18	9174.59
571.542	9106.57
571.903	9203.06
572.265	9238.99
572.626	9269.5
572.987	9236.96
573.349	9230.63
573.71	9276.96
574.071	9309.05
574.432	9341.36
574.794	9397.86
575.155	9339.56
575.516	9397.18
575.877	9384.3
576.238	9443.51
576.599	9485.99
576.96	9457.07
577.32	9452.55
577.681	9535.94
578.042	9536.16
578.403	9523.28
578.763	9509.72
579.124	9558.76
579.485	9656.16
579.845	9651.64
580.206	9605.54
580.566	9642.15
580.927	9619.32
581.287	9756.95
581.648	9676.05
582.008	9677.4
582.368	9703.84
582.728	9742.48
583.089	9814.8
583.449	9746.1
583.809	9828.13
584.169	9774.35
584.529	9768.25
584.889	9855.7
585.249	9838.07
585.609	9840.11
585.969	9883.72
586.329	9902.93
586.688	9955.13
587.048	9937.06
587.408	9892.76
587.768	9914.91
588.127	9947.22
588.487	9860.67
588.846	10018.18
589.206	9967.79
589.565	9961.46
589.925	10109.93
590.284	10017.28
590.643	10036.49
591.003	10095.24
591.362	10062.02
591.721	10115.36
592.08	10137.05
592.44	10163.49
592.799	10128.69
593.158	10122.36
593.517	10121.01
593.876	10125.98
594.235	10116.26
594.593	10141.57
594.952	10112.42
595.311	10136.6
595.67	10223.6
596.029	10358.96
596.387	10277.84
596.746	10235.58
597.104	10191.29
597.463	10263.83
597.822	10269.25
598.18	10231.96
598.538	10260.66
598.897	10266.76
599.255	10224.96
599.613	10307.44
599.972	10258.18
600.33	10314.22
600.688	10314.67
601.046	10282.58
601.404	10391.73
601.762	10310.38
602.12	10440.32
602.478	10378.4
602.836	10394.9
603.194	10384.05
603.552	10330.94
603.91	10352.64
604.268	10413.65
604.625	10342.24
604.983	10424.27
605.341	10395.35
605.698	10358.06
606.056	10358.29
606.413	10434.67
606.771	10426.31
607.128	10438.96
607.485	10533.88
607.843	10466.76
608.2	10494.1
608.557	10463.14
608.914	10445.52
609.272	10558.73
609.629	10574.55
609.986	10551.28
610.343	10544.72
610.7	10625.4
611.057	10463.82
611.414	10610.03
611.771	10551.5
612.127	10596.7
612.484	10583.82
612.841	10644.16
613.198	10594.44
613.554	10586.98
613.911	10629.92
614.267	10683.7
614.624	10661.56
614.98	10616.13
615.337	10675.79
615.693	10658.17
616.05	10674.66
616.406	10767.09
616.762	10713.98
617.118	10695.91
617.475	10746.3
617.831	10785.85
618.187	10775
618.543	10800.08
618.899	10814.55
619.255	10798.28
619.611	10742.68
619.967	10817.03
620.323	10840.08
620.678	10744.27
621.034	10780.42
621.39	10762.8
621.746	10729.58
622.101	10892.28
622.457	10775.45
622.812	10828.11
623.168	10841.21
623.523	10783.36
623.879	10904.94
624.234	10803.92
624.589	10800.54
624.945	10795.34
625.3	10863.13
625.655	10784.04
626.01	10796.69
626.365	10819.74
626.72	10787.88
627.075	10764.38
627.43	10763.25
627.785	10782
628.14	10802.34
628.495	10792.4
628.85	10768.67
629.205	10733.87
629.559	10819.97
629.914	10682.12
630.269	10815.22
630.623	10636.7
630.978	10718.5
631.332	10701.55
631.687	10738.84
632.041	10723.7
632.396	10675.11
632.75	10666.75
633.104	10659.75
633.459	10603.93
633.813	10616.81
634.167	10597.38
634.521	10608
634.875	10600.77
635.229	10626.75
635.583	10572.07
635.937	10574.33
636.291	10561.45
636.645	10523.93
636.999	10518.96
637.352	10531.84
637.706	10422.24
638.06	10545.85
638.413	10485.52
638.767	10497.72
639.121	10471.05
639.474	10386.31
639.828	10405.07
640.181	10440.32
640.534	10443.93
640.888	10360.32
641.241	10329.14
641.594	10340.43
641.947	10403.48
642.301	10374.11
642.654	10390.15
643.007	10384.95
643.36	10350.38
643.713	10361.22
644.066	10361.22
644.419	10287.1
644.771	10252.75
645.124	10202.58
645.477	10132.76
645.83	10026.77
646.182	10061.57
646.535	9970.05
646.888	10060.22
647.24	9971.63
647.593	10042.82
647.945	9935.7
648.298	9945.42
648.65	9986.32
649.002	9985.42
649.355	9988.13
649.707	9958.52
650.059	10006.43
650.411	10114.68
650.763	10154.45
651.115	10232.41
651.467	10182.47
651.819	10204.39
652.171	10219.53
652.523	10248.46
652.875	10216.37
653.227	10129.37
653.578	10172.53
653.93	10260.21
654.282	10163.04
654.633	10145.41
654.985	10177.95
655.337	10200.55
655.688	10198.52
656.039	10171.63
656.391	10188.35
656.742	10163.04
657.094	10178.18
657.445	10225.18
657.796	10209.36
658.147	10153.55
658.498	10179.53
658.849	10200.55
659.2	10193.77
659.551	10195.81
659.902	10273.09
660.253	10192.42
660.604	10185.86
660.955	10141.12
661.306	10263.83
661.656	10199.2
662.007	10240.55
662.358	10248.46
662.708	10245.3
663.059	10229.02
663.409	10151.51
663.76	10243.49
664.11	10278.74
664.461	10227.89
664.811	10281.23
665.161	10258.63
665.511	10234.22
665.862	10274
666.212	10271.96
666.562	10338.17
666.912	10319.87
667.262	10295.46
667.612	10292.98
667.962	10246.65
668.312	10231.28
668.662	10326.2
669.011	10245.75
669.361	10236.93
669.711	10215.01
670.06	10264.28
670.41	10286.88
670.76	10167.33
671.109	10228.35
671.459	10241.23
671.808	10150.83
672.157	10249.36
672.507	10160.55
672.856	10167.78
673.205	10151.29
673.554	10219.99
673.904	10157.39
674.253	10159.87
674.602	10116.26
674.951	10029.26
675.3	9885.53
675.649	10139.99
675.998	10077.16
676.346	10107.67
676.695	10129.14
677.044	10100.89
677.393	10055.92
677.741	10076.71
678.09	10103.15
678.438	9991.97
678.787	10011.4
679.135	10038.75
679.484	10001.01
679.832	10010.95
680.181	9951.74
680.529	10009.14
680.877	9936.6
681.225	9962.59
681.573	9936.6
681.922	9881.46
682.27	9813.44
682.618	9838.3
682.966	9791.97
683.314	9882.59
683.661	9794.23
684.009	9769.15
684.357	9752.2
684.705	9696.38
685.053	9692.77
685.4	9771.64
685.748	9605.76
686.095	9620
686.443	9574.8
686.79	9615.48
687.138	9662.71
687.485	9684.41
687.832	9544.52
688.18	9542.94
688.527	9472.66
688.874	9534.81
689.221	9453.23
689.568	9401.02
689.915	9417.75
690.262	9364.19
690.609	9354.47
690.956	9331.42
691.303	9313.57
691.65	9291.87
691.997	9266.11
692.344	9162.61
692.69	9153.35
693.037	9208.94
693.383	9058.21
693.73	9090.07
694.077	9041.94
694.423	9077.19
694.769	9024.76
695.116	8999.45
695.462	8967.59
695.808	8895.73
696.155	8914.03
696.501	8880.13
696.847	8845.78
697.193	8736.86
697.539	8813.47
697.885	8733.92
698.231	8635.39
698.577	8628.16
698.923	8657.99
699.269	8620.71
699.614	8525.79
699.96	8567.15
700.306	8636.07
700.651	8492.35
700.997	8463.2
701.342	8441.05
701.688	8405.57
702.033	8414.84
702.379	8373.93
702.724	8339.36
703.069	8299.36
703.415	8241.05
703.76	8216.87
704.105	8242.86
704.45	8241.96
704.795	8139.14
705.14	8142.98
705.485	8087.84
705.83	8105.46
706.175	8113.37
706.52	8023.43
706.865	7999.7
707.209	8030.89
707.554	7954.73
707.899	7984.56
708.243	7881.97
708.588	7891.46
708.932	7889.43
709.277	7847.62
709.621	7858.01
709.966	7791.8
710.31	7829.31
710.654	7738.02
710.998	7753.61
711.342	7729.66
711.687	7755.42
712.031	7710.67
712.375	7630.68
712.719	7716.1
713.063	7704.35
713.407	7639.94
713.75	7601.07
714.094	7623.22
714.438	7605.36
714.782	7583.9
715.125	7544.8
715.469	7569.43
715.812	7532.82
716.156	7456.22
716.499	7438.36
716.843	7537.12
717.186	7465.26
717.53	7474.29
717.873	7436.56
718.216	7476.78
718.559	7476.78
718.902	7462.77
719.246	7395.88
719.589	7380.74
719.932	7325.15
720.275	7321.98
720.617	7288.09
720.96	7329.89
721.303	7352.49
721.646	7316.79
721.989	7233.62
722.331	7334.64
722.674	7334.41
723.016	7251.7
723.359	7274.98
723.701	7348.65
724.044	7282.66
724.386	7286.05
724.729	7290.8
725.071	7243.11
725.413	7253.96
725.755	7258.03
726.097	7263.45
726.439	7242.89
726.782	7145.26
727.124	7186.62
727.465	7210.12
727.807	7210.12
728.149	7200.4
728.491	7132.38
728.833	7223.23
729.175	7184.36
729.516	7140.29
729.858	7184.81
730.199	7146.17
730.541	7193.17
730.882	7152.5
731.224	7170.35
731.565	7155.89
731.906	7163.57
732.248	7171.03
732.589	7181.65
732.93	7134.87
733.271	7067.75
733.612	7101.42
733.953	7123.34
734.294	7176.22
734.635	7110.01
734.976	7144.59
735.317	7140.07
735.658	7141.87
735.999	7124.93
736.339	7161.53
736.68	7193.85
737.021	7173.06
737.361	7119.95
737.702	7242.21
738.042	7178.71
738.383	7194.75
738.723	7175.32
739.063	7203.79
739.404	7150.01
739.744	7293.28
740.084	7180.97
740.424	7281.08
740.764	7273.4
741.104	7265.71
741.444	7244.02
741.784	7298.03
742.124	7312.49
742.464	7311.14
742.804	7292.15
743.143	7347.97
743.483	7404.01
743.823	7335.32
744.162	7444.01
744.502	7460.06
744.841	7430.45
745.181	7505.03
745.52	7545.93
745.86	7530.11
746.199	7623.44
746.538	7657.12
746.877	7714.29
747.216	7734.18
747.556	7747.96
747.895	7794.29
748.234	7785.25
748.573	7880.39
748.911	7975.98
749.25	8012.36
749.589	8073.38
749.928	8119.93
750.267	8206.48
750.605	8254.16
750.944	8315.63
751.283	8421.84
751.621	8454.38
751.96	8551.78
752.298	8617.99
752.636	8703.64
752.975	8721.72
753.313	8898.21
753.651	9010.98
753.989	9084.2
754.327	9221.82
754.666	9316.96
755.004	9421.81
755.342	9512.66
755.679	9687.57
756.017	9853.44
756.355	9943.38
756.693	10102.25
757.031	10213.66
757.368	10349.93
757.706	10474.22
758.044	10545.4
758.381	10823.81
758.719	10984.94
759.056	11126.63
759.394	11279.62
759.731	11372.95
760.068	11626.28
760.405	11730.91
760.743	11870.11
761.08	12106.49
761.417	12231.68
761.754	12397.1
762.091	12667.38
762.428	12729.75
762.765	12858.33
763.102	13131.55
763.438	13382.39
763.775	13445.21
