Data from hue_350_FLMS001491_49.txt Node
Date: Mon Feb 06 15:38:05 GMT 2017
User: dcchb
Spectrometer: FLMS00149
Trigger mode: 0
Integration Time (sec): 2.000000E-2
Scans to average: 10
Electric dark correction enabled: true
Nonlinearity correction enabled: false
Boxcar width: 0
XAxis mode: Wavelengths
Number of Pixels in Spectrum: 2048
>>>>>Begin Spectral Data<<<<<
341.393	-0.95
341.776	-0.95
342.16	-0.95
342.543	-36.65
342.927	-68.74
343.31	-74.39
343.693	-72.58
344.077	-71.9
344.46	-38.69
344.843	-50.21
345.226	-25.35
345.61	-31.45
345.993	-22.41
346.376	-16.09
346.759	1.77
347.142	13.29
347.525	42.89
347.908	51.03
348.291	82.44
348.674	96.9
349.057	114.76
349.44	124.25
349.823	149.78
350.206	168.09
350.588	213.29
350.971	225.26
351.354	218.71
351.737	237.01
352.119	250.8
352.502	270.91
352.884	263.23
353.267	287.86
353.65	306.62
354.032	299.38
354.414	301.87
354.797	320.85
355.179	332.15
355.562	327.86
355.944	324.02
356.326	331.93
356.709	326.5
357.091	371.02
357.473	353.62
357.855	339.84
358.238	332.38
358.62	359.95
359.002	338.71
359.384	345.03
359.766	332.83
360.148	347.97
360.53	338.48
360.912	327.63
361.294	328.31
361.676	327.86
362.057	348.2
362.439	336.9
362.821	320.63
363.203	328.54
363.584	323.11
363.966	325.37
364.348	342.77
364.729	313.17
365.111	313.85
365.493	303.9
365.874	306.16
366.256	313.62
366.637	329.44
367.019	319.27
367.4	331.7
367.781	308.42
368.163	309.33
368.544	321.31
368.925	328.54
369.306	310.91
369.688	311.36
370.069	303.68
370.45	307.29
370.831	301.19
371.212	308.88
371.593	298.71
371.974	310.01
372.355	324.47
372.736	305.94
373.117	312.94
373.498	326.28
373.879	304.81
374.26	315.43
374.641	307.29
375.021	325.37
375.402	316.56
375.783	320.63
376.163	325.37
376.544	340.51
376.925	344.13
377.305	315.43
377.686	328.08
378.066	325.6
378.447	335.54
378.827	333.73
379.208	314.98
379.588	323.56
379.968	330.12
380.349	349.33
380.729	319.5
381.109	326.95
381.489	337.58
381.87	329.67
382.25	328.54
382.63	316.79
383.01	315.66
383.39	344.81
383.77	351.59
384.15	319.05
384.53	346.39
384.91	359.04
385.29	344.13
385.67	347.29
386.049	350.68
386.429	356.33
386.809	355.65
387.189	321.76
387.568	359.72
387.948	360.63
388.328	358.14
388.707	354.98
389.087	358.59
389.466	347.75
389.846	357.24
390.225	377.8
390.605	364.24
390.984	363.56
391.363	369.89
391.743	341.87
392.122	367.18
392.501	348.88
392.881	368.76
393.26	377.35
393.639	366.95
394.018	370.8
394.397	372.38
394.776	380.29
395.155	382.32
395.534	359.04
395.913	357.01
396.292	382.09
396.671	382.77
397.05	357.01
397.429	373.28
397.808	361.3
398.186	382.09
398.565	384.13
398.944	411.25
399.323	386.61
399.701	374.19
400.08	385.03
400.458	405.14
400.837	378.7
401.215	398.14
401.594	388.65
401.972	406.05
402.351	408.08
402.729	407.86
403.107	400.85
403.486	390
403.864	390.46
404.242	394.07
404.62	396.33
404.999	418.03
405.377	409.66
405.755	400.4
406.133	415.31
406.511	431.58
406.889	410.57
407.267	407.63
407.645	424.13
408.023	396.56
408.401	425.03
408.779	431.81
409.156	445.82
409.534	441.3
409.912	441.53
410.29	446.5
410.667	455.31
411.045	457.8
411.422	445.6
411.8	440.85
412.178	438.36
412.555	478.82
412.933	452.6
413.31	448.08
413.687	484.46
414.065	439.95
414.442	481.98
414.819	474.52
415.197	476.33
415.574	470.23
415.951	485.82
416.328	487.85
416.705	514.29
417.082	495.54
417.46	484.69
417.837	489.66
418.214	499.38
418.591	505.26
418.967	503.67
419.344	477.91
419.721	526.72
420.098	529.44
420.475	530.34
420.852	524.69
421.228	537.57
421.605	538.7
421.982	523.79
422.358	524.92
422.735	534.41
423.111	545.25
423.488	532.82
423.864	538.47
424.241	545.25
424.617	561.75
424.994	532.37
425.37	556.33
425.746	573.73
426.123	559.49
426.499	566.72
426.875	572.6
427.251	563.78
427.627	578.02
428.003	586.16
428.379	605.37
428.756	593.61
429.132	599.26
429.507	605.37
429.883	611.02
430.259	615.31
430.635	613.95
431.011	631.81
431.387	650.79
431.763	642.65
432.138	632.03
432.514	649.66
432.89	639.71
433.265	645.36
433.641	649.88
434.016	653.95
434.392	679.49
434.767	682.65
435.143	701.41
435.518	695.08
435.894	693.95
436.269	698.02
436.644	698.02
437.02	711.35
437.395	691.69
437.77	696.66
438.145	718.58
438.52	720.39
438.895	740.05
439.271	707.96
439.646	743.44
440.021	714.97
440.395	751.12
440.77	728.98
441.145	750.67
441.52	768.3
441.895	758.81
442.27	772.37
442.645	769.2
443.019	760.16
443.394	787.96
443.769	793.61
444.143	785.7
444.518	787.28
444.892	801.29
445.267	790.45
445.641	797.45
446.016	805.59
446.39	791.58
446.764	798.13
447.139	806.94
447.513	817.56
447.887	839.03
448.262	837.45
448.636	808.07
449.01	853.04
449.384	848.97
449.758	848.52
450.132	858.92
450.506	852.59
450.88	855.3
451.254	847.62
451.628	847.39
452.002	864.79
452.376	894.4
452.75	873.61
453.123	900.95
453.497	878.13
453.871	915.19
454.244	917
454.618	898.92
454.992	928.75
455.365	931.23
455.739	930.1
456.112	949.99
456.486	932.81
456.859	938.92
457.232	980.5
457.606	977.11
457.979	974.85
458.352	999.03
458.725	1037.44
459.099	995.41
459.472	1006.71
459.845	1021.4
460.218	1075.86
460.591	1044.9
460.964	1046.48
461.337	1065.92
461.71	1078.57
462.083	1094.39
462.456	1078.8
462.829	1069.53
463.201	1086.71
463.574	1120.83
463.947	1121.51
464.32	1148.63
464.692	1148.85
465.065	1148.4
465.438	1162.41
465.81	1172.58
466.183	1193.6
466.555	1218.23
466.928	1211.68
467.3	1212.13
467.672	1233.15
468.045	1279.92
468.417	1275.63
468.789	1260.04
469.161	1291.68
469.534	1300.49
469.906	1354.5
470.278	1352.01
470.65	1353.59
471.022	1371.9
471.394	1401.28
471.766	1423.87
472.138	1413.93
472.51	1453.7
472.882	1471.78
473.253	1498.22
473.625	1496.87
473.997	1536.64
474.369	1528.28
474.74	1580.03
475.112	1574.15
475.484	1635.39
475.855	1622.29
476.227	1661.16
476.598	1697.99
476.97	1665.45
477.341	1720.82
477.713	1753.81
478.084	1728.05
478.455	1813.7
478.827	1826.35
479.198	1896.86
479.569	1893.02
479.94	1933.01
480.311	2003.75
480.682	1980.24
481.053	2024.99
481.424	2074.48
481.795	2078.1
482.166	2075.84
482.537	2145.44
482.908	2182.73
483.279	2217.98
483.65	2232.44
484.021	2266.11
484.391	2307.24
484.762	2354.7
485.133	2350.18
485.503	2404.64
485.874	2455.03
486.244	2481.25
486.615	2517.86
486.985	2549.04
487.356	2599.66
487.726	2615.93
488.097	2649.15
488.467	2643.5
488.837	2752.2
489.207	2770.96
489.578	2812.54
489.948	2869.03
490.318	2860.45
490.688	2884.63
491.058	2925.98
491.428	2985.19
491.798	3014.57
492.168	3014.12
492.538	3094.57
492.908	3105.41
493.278	3162.59
493.648	3176.37
494.017	3179.76
494.387	3213.66
494.757	3295.24
495.126	3258.85
495.496	3298.63
495.866	3305.41
496.235	3412.3
496.605	3393.09
496.974	3424.95
497.344	3452.97
497.713	3487.1
498.082	3500.88
498.452	3538.62
498.821	3535.68
499.19	3565.74
499.559	3591.05
499.928	3661.78
500.298	3582.01
500.667	3653.42
501.036	3651.61
501.405	3692.97
501.774	3742.01
502.143	3725.06
502.512	3732.97
502.88	3805.73
503.249	3760.99
503.618	3777.26
503.987	3767.09
504.356	3836.69
504.724	3875.34
505.093	3882.34
505.462	3855
505.83	3896.13
506.199	3952.62
506.567	3959.63
506.936	3940.64
507.304	4048.66
507.672	4037.59
508.041	4040.76
508.409	4034.43
508.777	4123.01
509.145	4116.01
509.514	4070.81
509.882	4132.05
510.25	4154.88
510.618	4177.02
510.986	4148.78
511.354	4189.68
511.722	4241.88
512.09	4231.71
512.458	4256.12
512.826	4248.21
513.193	4234.2
513.561	4276.46
513.929	4297.47
514.297	4360.97
514.664	4335.21
515.032	4337.47
515.4	4367.3
515.767	4371.82
516.135	4390.35
516.502	4385.83
516.869	4472.83
517.237	4450.91
517.604	4434.19
517.972	4469.67
518.339	4499.05
518.706	4478.71
519.073	4493.62
519.44	4508.09
519.808	4586.96
520.175	4536.34
520.542	4621.53
520.909	4629.21
521.276	4593.74
521.643	4705.14
522.009	4697.01
522.376	4711.25
522.743	4732.26
523.11	4767.29
523.477	4757.57
523.843	4762.09
524.21	4811.81
524.577	4835.31
524.943	4858.13
525.31	4877.8
525.676	4903.11
526.043	4924.8
526.409	4905.14
526.776	4965.7
527.142	4968.64
527.508	5075.3
527.874	5077.79
528.241	5057.9
528.607	5077.56
528.973	5113.04
529.339	5109.2
529.705	5179.71
530.071	5196.88
530.437	5201.85
530.803	5232.59
531.169	5293.83
531.535	5298.35
531.901	5340.61
532.267	5303.77
532.632	5290.44
532.998	5351.23
533.364	5369.53
533.73	5403.43
534.095	5427.16
534.461	5425.8
534.826	5509.42
535.192	5483.43
535.557	5480.04
535.923	5496.54
536.288	5564.11
536.653	5550.32
537.019	5591.9
537.384	5601.62
537.749	5630.77
538.114	5653.59
538.479	5653.82
538.845	5689.07
539.21	5652.24
539.575	5714.61
539.94	5715.29
540.305	5772.69
540.67	5786.02
541.034	5807.71
541.399	5835.74
541.764	5807.94
542.129	5894.72
542.494	5936.98
542.858	5978.56
543.223	5921.16
543.587	5994.6
543.952	5989.86
544.316	6006.58
544.681	6002.96
545.045	6052.91
545.41	6151.43
545.774	6169.06
546.138	6185.56
546.503	6167.03
546.867	6172.68
547.231	6266.69
547.595	6223.52
547.959	6264.88
548.324	6239.34
548.688	6279.79
549.052	6287.7
549.416	6366.34
549.779	6316.63
550.143	6368.6
550.507	6415.83
550.871	6445.89
551.235	6472.56
551.599	6453.12
551.962	6484.98
552.326	6526.57
552.689	6530.86
553.053	6547.58
553.417	6581.03
553.78	6607.69
554.143	6610.41
554.507	6634.36
554.87	6630.07
555.234	6701.7
555.597	6680.69
555.96	6693.79
556.323	6741.02
556.686	6737.41
557.05	6723.4
557.413	6785.09
557.776	6795.26
558.139	6837.52
558.502	6828.7
558.865	6838.87
559.228	6892.66
559.59	6926.33
559.953	6929.49
560.316	6919.1
560.679	7038.19
561.041	7007.23
561.404	7120.67
561.767	7113.67
562.129	7093.33
562.492	7155.25
562.854	7166.32
563.217	7157.96
563.579	7141.01
563.941	7253.78
564.304	7200.9
564.666	7274.79
565.028	7295.13
565.39	7266.21
565.753	7334.68
566.115	7336.26
566.477	7389.14
566.839	7371.52
567.201	7510.04
567.563	7532.19
567.925	7454.22
568.287	7507.1
568.648	7477.73
569.01	7545.75
569.372	7639.76
569.734	7576.48
570.095	7645.41
570.457	7703.26
570.819	7678.85
571.18	7714.33
571.542	7814.89
571.903	7827.55
572.265	7862.12
572.626	7914.55
572.987	7950.48
573.349	7993.42
573.71	8067.54
574.071	8068.22
574.432	8114.32
574.794	8252.85
575.155	8231.15
575.516	8326.52
575.877	8289.23
576.238	8377.59
576.599	8490.13
576.96	8529.45
577.32	8547.98
577.681	8660.97
578.042	8734.64
578.403	8799.27
578.763	8933.06
579.124	8949.78
579.485	9072.49
579.845	9189.09
580.206	9212.6
580.566	9329.43
580.927	9459.37
581.287	9563.1
581.648	9713.6
582.008	9818.91
582.368	9860.94
582.728	10065.46
583.089	10184.55
583.449	10352.23
583.809	10476.97
584.169	10661.15
584.529	10778.21
584.889	11006.22
585.249	11148.37
585.609	11165.54
585.969	11519.88
586.329	11719.2
586.688	11842.13
587.048	12125.51
587.408	12264.95
587.768	12454.77
588.127	12708.32
588.487	12935.66
588.846	13197.58
589.206	13384.46
589.565	13605.25
589.925	13894.28
590.284	14131.34
590.643	14324.1
591.003	14715.28
591.362	14984.2
591.721	15163.4
592.08	15451.3
592.44	15760
592.799	15907.11
593.158	16292.64
593.517	16518.62
593.876	16789.12
594.235	16971.49
594.593	17430.69
594.952	17714.52
595.311	17850.34
595.67	18268.4
596.029	18698.68
596.387	18921.72
596.746	19267.7
597.104	19370.52
597.463	19740.91
597.822	20088.92
598.18	20271.97
598.538	20489.36
598.897	20891.16
599.255	21144.03
599.613	21683.23
599.972	21798.25
600.33	22087.06
600.688	22289.09
601.046	22670.1
601.404	23019.01
601.762	23269.4
602.12	23640.24
602.478	23909.16
602.836	24252.43
603.194	24284.97
603.552	24642.47
603.91	24860.77
604.268	25180.76
604.625	25310.7
604.983	25694.65
605.341	25871.82
605.698	26172.15
606.056	26510.45
606.413	26699.14
606.771	27064.33
607.128	27213.71
607.485	27385.45
607.843	27571.89
608.2	27953.12
608.557	28208.48
608.914	28369.16
609.272	28655.25
609.629	28913.32
609.986	29290.49
610.343	29239.41
610.7	29698.39
611.057	29838.72
611.414	30015.44
611.771	30280.52
612.127	30511.47
612.484	30679.83
612.841	30912.37
613.198	31017.22
613.554	31159.14
613.911	31644.55
614.267	31683.19
614.624	31825.34
614.98	31981.72
615.337	32328.6
615.693	32331.08
616.05	32428.71
616.406	32699.44
616.762	32725.65
617.118	32919.77
617.475	33110.5
617.831	33425.07
618.187	33521.34
618.543	33604.72
618.899	34014.2
619.255	33879.52
619.611	34185.95
619.967	34269.34
620.323	34472.5
620.678	34363.12
621.034	34440.41
621.39	34633.62
621.746	34691.7
622.101	35179.15
622.457	35033.84
622.812	35032.03
623.168	35437.44
623.523	35437.44
623.879	35618.23
624.234	35363.55
624.589	35453.71
624.945	35681.73
625.3	35964.66
625.655	35910.43
626.01	36056.64
626.365	36140.48
626.72	36168.5
627.075	36272.45
627.43	36297.99
627.785	36345.22
628.14	36437.19
628.495	36553.8
628.85	36464.99
629.205	36464.08
629.559	36755.38
629.914	36614.14
630.269	36662.95
630.623	36593.57
630.978	36498.88
631.332	36903.62
631.687	36986.33
632.041	36709.95
632.396	36908.14
632.75	36868.59
633.104	36842.15
633.459	36818.42
633.813	36864.07
634.167	36906.78
634.521	36934.81
634.875	37102.26
635.229	36945.88
635.583	36873.34
635.937	36850.06
636.291	36850.29
636.645	36941.59
636.999	36824.75
637.352	36992.66
637.706	36764.41
638.06	37053.22
638.413	36937.07
638.767	36869.72
639.121	36916.95
639.474	36729.61
639.828	36685.32
640.181	36957.4
640.534	36883.51
640.888	36790.85
641.241	36761.02
641.594	36910.4
641.947	36824.07
642.301	36909.72
642.654	36841.25
643.007	36929.16
643.36	36748.14
643.713	36845.77
644.066	36988.82
644.419	36704.76
644.771	36542.5
645.124	36219.8
645.477	36211.66
645.83	35922.63
646.182	35845.57
646.535	35806.7
646.888	35835.85
647.24	35654.84
647.593	35854.16
647.945	35856.19
648.298	35746.36
648.65	35528.51
649.002	35449.87
649.355	35661.39
649.707	35736.87
650.059	35741.16
650.411	36167.37
650.763	36093.47
651.115	36516.51
651.467	36318.78
651.819	36350.87
652.171	36455.72
652.523	36314.26
652.875	36360.58
653.227	36142.96
653.578	36522.84
653.93	36390.19
654.282	36128.95
654.633	36061.16
654.985	36208.5
655.337	36324.65
655.688	36336.4
656.039	36449.17
656.391	36093.47
656.742	36171.89
657.094	36252.34
657.445	36239.68
657.796	36194.26
658.147	36203.3
658.498	36086.92
658.849	36239.91
659.2	36186.8
659.551	36071.33
659.902	36221.83
660.253	36166.92
660.604	36167.14
660.955	35978.45
661.306	36106.13
661.656	35900.48
662.007	35973.48
662.358	36059.57
662.708	35946.81
663.059	35887.15
663.409	35950.42
663.76	36145.9
664.11	36106.13
664.461	36206.69
664.811	36057.77
665.161	35909.07
665.511	35908.17
665.862	35969.63
666.212	36066.58
666.562	36012.8
666.912	35826.81
667.262	35933.48
667.612	35958.56
667.962	36029.97
668.312	35794.5
668.662	36147.71
669.011	35919.47
669.361	36007.37
669.711	35940.03
670.06	35952.23
670.41	35876.08
670.76	35730.32
671.109	36004.89
671.459	35860.71
671.808	35801.95
672.157	35985.68
672.507	35637.66
672.856	35621.39
673.205	35858
673.554	35816.19
673.904	35755.85
674.253	35780.71
674.602	35644.44
674.951	35235.64
675.3	35059.15
675.649	35596.76
675.998	35469.76
676.346	35668.17
676.695	35754.5
677.044	35458.69
677.393	35619.36
677.741	35675.4
678.09	35539.36
678.438	35352.47
678.787	35500.49
679.135	35469.53
679.484	35276.77
679.832	35256.43
680.181	35156.1
680.529	35279.03
680.877	35299.37
681.225	35089.43
681.573	35416.88
681.922	35088.07
682.27	35079.49
682.618	34927.63
682.966	34843.79
683.314	34924.69
683.661	34907.29
684.009	34730.8
684.357	34616.67
684.705	34643.11
685.053	34614.41
685.4	34466.17
685.748	34456.45
686.095	34532.38
686.443	34322.44
686.79	34156.8
687.138	34371.48
687.485	34355.44
687.832	34151.83
688.18	34198.15
688.527	34157.48
688.874	33958.84
689.221	33996.13
689.568	33823.25
689.915	33836.13
690.262	33816.92
690.609	33761.78
690.956	33650.15
691.303	33681.11
691.65	33503.48
691.997	33432.3
692.344	33232.53
692.69	33322.92
693.037	33206.09
693.383	33008.13
693.73	33170.16
694.077	32903.73
694.423	32835.93
694.769	32795.71
695.116	32613.11
695.462	32741.47
695.808	32586.67
696.155	32658.31
696.501	32293.57
696.847	32371.31
697.193	32153.24
697.539	32191.65
697.885	31985.11
698.231	31945.11
698.577	32003.18
698.923	31914.15
699.269	31875.73
699.614	31556.42
699.96	31607.71
700.306	31497.43
700.651	31435.97
700.997	31330.66
701.342	31353.48
701.688	31181.28
702.033	31165.47
702.379	31106.94
702.724	30981.52
703.069	31050.67
703.415	30713.27
703.76	30651.58
704.105	30833.27
704.45	30753.5
704.795	30447.07
705.14	30482.32
705.485	30425.37
705.83	30307.86
706.175	30327.97
706.52	30228.99
706.865	30174.08
707.209	29993.29
707.554	30044.59
707.899	30027.87
708.243	29878.49
708.588	29894.99
708.932	29649.35
709.277	29635.79
709.621	29633.98
709.966	29448.67
710.31	29588.11
710.654	29382.91
710.998	29461.1
711.342	29318.28
711.687	29301.11
712.031	29163.26
712.375	29008.91
712.719	29134.11
713.063	28917.84
713.407	29078.29
713.75	28946.09
714.094	28938.86
714.438	28687.79
714.782	28830.39
715.125	28520.11
715.469	28721.46
715.812	28480.79
716.156	28445.99
716.499	28415.03
716.843	28404.41
717.186	28342.26
717.53	28427.46
717.873	28459.77
718.216	28180.91
718.559	28177.3
718.902	27992.22
719.246	28131.87
719.589	28017.07
719.932	27855.04
720.275	27910.18
720.617	27843.07
720.96	27824.76
721.303	27835.84
721.646	27734.37
721.989	27532.12
722.331	27639.23
722.674	27685.56
723.016	27532.34
723.359	27481.27
723.701	27468.39
724.044	27200.37
724.386	27238.34
724.729	27372.35
725.071	27220.48
725.413	27189.3
725.755	27343.19
726.097	27083.09
726.439	27071.79
726.782	26914.96
727.124	27179.81
727.465	26935.75
727.807	26978.23
728.149	26840.61
728.491	26859.14
728.833	26854.39
729.175	26715.19
729.516	26667.28
729.858	26625.02
730.199	26726.71
730.541	26586.83
730.882	26598.58
731.224	26602.65
731.565	26382.99
731.906	26425.03
732.248	26357.68
732.589	26382.09
732.93	26120.85
733.271	26191.81
733.612	26211.02
733.953	26279.27
734.294	26085.6
734.635	26143.23
734.976	26088.54
735.317	26041.98
735.658	25916.11
735.999	25984.36
736.339	25915.43
736.68	26034.98
737.021	25934.64
737.361	25727.19
737.702	25852.39
738.042	25828.21
738.383	25694.2
738.723	25704.59
739.063	25628.89
739.404	25600.87
739.744	25638.83
740.084	25436.35
740.424	25653.29
740.764	25500.53
741.104	25545.95
741.444	25387.31
741.784	25277.26
742.124	25428.22
742.464	25303.93
742.804	25288.78
743.143	25120.65
743.483	25314.55
743.823	25093.31
744.162	25119.52
744.502	25185.51
744.841	25032.52
745.181	25094.67
745.52	24896.03
745.86	25046.76
746.199	25064.84
746.538	24911.62
746.877	24940.77
747.216	24965.63
747.556	24872.75
747.895	24825.29
748.234	24806.76
748.573	24754.56
748.911	24571.51
749.25	24631.85
749.589	24585.98
749.928	24515.92
750.267	24570.61
750.605	24433.21
750.944	24393.44
751.283	24363.61
751.621	24256.04
751.96	24279.55
752.298	24247
752.636	24355.7
752.975	24123.17
753.313	24109.15
753.651	24141.47
753.989	24042.26
754.327	23926.56
754.666	23883.62
755.004	23868.48
755.342	23968.14
755.679	23833
756.017	23596.63
756.355	23745.32
756.693	23607.7
757.031	23760.91
757.368	23438.21
757.706	23486.8
758.044	23349.63
758.381	23398.44
758.719	23336.97
759.056	23305.79
759.394	23172
759.731	23149.41
760.068	23090.42
760.405	23018.34
760.743	22977.66
761.08	22940.6
