Data from hue_28_FLMS001491_00039.txt Node
Date: Tue Feb 07 17:17:12 GMT 2017
User: dcchb
Spectrometer: FLMS00149
Trigger mode: 0
Integration Time (sec): 2.000000E-2
Scans to average: 10
Electric dark correction enabled: true
Nonlinearity correction enabled: false
Boxcar width: 0
XAxis mode: Wavelengths
Number of Pixels in Spectrum: 2048
>>>>>Begin Spectral Data<<<<<
341.393	1.41
341.776	1.41
342.16	1.41
342.543	-42.43
342.927	-58.02
343.31	-69.77
343.693	-64.8
344.077	-74.97
344.46	-44.46
344.843	-48.98
345.226	-53.5
345.61	-40.62
345.993	-11.69
346.376	-11.69
346.759	25.37
347.142	23.78
347.525	54.29
347.908	51.35
348.291	83.9
348.674	86.38
349.057	95.42
349.44	117.34
349.823	151.92
350.206	191.01
350.588	204.8
350.971	216.77
351.354	221.29
351.737	223.1
352.119	252.71
352.502	260.39
352.884	280.95
353.267	290.9
353.65	311.46
354.032	318.24
354.414	322.76
354.797	314.62
355.179	335.19
355.562	319.14
355.944	313.04
356.326	342.65
356.709	359.14
357.091	334.74
357.473	357.56
357.855	343.78
358.238	322.53
358.62	343.55
359.002	330.9
359.384	331.35
359.766	336.54
360.148	354.4
360.53	334.51
360.912	346.26
361.294	330.67
361.676	361.63
362.057	330.22
362.439	334.06
362.821	348.07
363.203	329.77
363.584	327.73
363.966	345.58
364.348	331.8
364.729	315.53
365.111	334.96
365.493	325.7
365.874	317.56
366.256	318.01
366.637	325.7
367.019	321.63
367.4	316.88
367.781	322.31
368.163	322.76
368.544	316.21
368.925	313.95
369.306	307.85
369.688	323.66
370.069	307.62
370.45	320.95
370.831	325.92
371.212	306.72
371.593	317.56
371.974	326.15
372.355	313.27
372.736	311.91
373.117	321.18
373.498	332.25
373.879	310.1
374.26	323.66
374.641	315.98
375.021	311.23
375.402	329.77
375.783	321.86
376.163	329.54
376.544	339.93
376.925	332.7
377.305	348.52
377.686	325.25
378.066	337.22
378.447	326.6
378.827	342.87
379.208	327.05
379.588	308.97
379.968	329.99
380.349	345.36
380.729	334.51
381.109	339.03
381.489	327.96
381.87	320.73
382.25	339.71
382.63	345.81
383.01	332.03
383.39	332.7
383.77	347.17
384.15	358.24
384.53	327.28
384.91	361.63
385.29	344.23
385.67	352.36
386.049	377.9
386.429	366.37
386.809	355.75
387.189	362.31
387.568	351.69
387.948	374.51
388.328	355.75
388.707	363.44
389.087	377.9
389.466	381.29
389.846	344.45
390.225	366.15
390.605	373.83
390.984	390.55
391.363	370.89
391.743	369.76
392.122	385.81
392.501	358.69
392.881	388.07
393.26	382.65
393.639	386.71
394.018	389.2
394.397	364.57
394.776	388.97
395.155	373.83
395.534	385.58
395.913	383.78
396.292	389.2
396.671	409.54
397.05	382.65
397.429	386.49
397.808	384.68
398.186	402.08
398.565	404.34
398.944	386.49
399.323	409.31
399.701	402.31
400.08	401.18
400.458	390.55
400.837	409.31
401.215	399.14
401.594	412.02
401.972	413.38
402.351	399.14
402.729	401.63
403.107	426.94
403.486	419.25
403.864	428.07
404.242	422.19
404.62	425.58
404.999	410.22
405.377	428.52
405.755	410.67
406.133	395.3
406.511	426.03
406.889	438.46
407.267	427.39
407.645	428.29
408.023	438.01
408.401	442.08
408.779	421.29
409.156	434.4
409.534	435.3
409.912	456.54
410.29	436.43
410.667	454.96
411.045	435.98
411.422	443.21
411.8	461.06
412.178	476.43
412.555	452.47
412.933	463.55
413.31	479.59
413.687	481.63
414.065	477.11
414.442	492.92
414.819	483.66
415.197	493.6
415.574	492.02
415.951	494.28
416.328	481.17
416.705	492.7
417.082	468.74
417.46	504.22
417.837	488.41
418.214	513.72
418.591	499.93
418.967	523.43
419.344	508.52
419.721	510.55
420.098	508.97
420.475	525.24
420.852	516.65
421.228	528.4
421.605	528.63
421.982	535.64
422.358	521.85
422.735	515.3
423.111	521.17
423.488	540.16
423.864	568.4
424.241	541.96
424.617	551.45
424.994	553.71
425.37	556.88
425.746	540.83
426.123	547.39
426.499	554.17
426.875	555.07
427.251	569.53
427.627	547.39
428.003	578.12
428.379	582.87
428.756	618.57
429.132	600.27
429.507	595.52
429.883	607.05
430.259	616.76
430.635	616.99
431.011	600.72
431.387	618.57
431.763	621.51
432.138	621.06
432.514	628.51
432.89	634.39
433.265	651.34
433.641	644.33
434.016	664.45
434.392	652.92
434.767	649.76
435.143	642.3
435.518	663.32
435.894	684.56
436.269	664.22
436.644	684.33
437.02	677.55
437.395	683.65
437.77	727.49
438.145	685.24
438.52	705.57
438.895	718.68
439.271	712.13
439.646	713.48
440.021	721.62
440.395	720.26
440.77	713.03
441.145	734.05
441.52	757.32
441.895	745.12
442.27	756.65
442.645	753.48
443.019	748.74
443.394	738.79
443.769	765.46
444.143	769.53
444.518	781.5
444.892	744.9
445.267	792.8
445.641	779.47
446.016	795.06
446.39	785.8
446.764	791.9
447.139	777.44
447.513	786.48
447.887	802.75
448.262	784.67
448.636	806.59
449.01	829.64
449.384	818.57
449.758	817.89
450.132	833.71
450.506	836.42
450.88	836.19
451.254	856.76
451.628	866.02
452.002	861.5
452.376	883.42
452.75	862.41
453.123	868.73
453.497	869.64
453.871	892.24
454.244	892.91
454.618	898.11
454.992	910.77
455.365	927.72
455.739	947.38
456.112	931.78
456.486	943.08
456.859	955.51
457.232	970.88
457.606	966.13
457.979	996.87
458.352	998.67
458.725	1025.57
459.099	1033.7
459.472	1021.27
459.845	1049.07
460.218	1050.65
460.591	1051.55
460.964	1056.53
461.337	1068.28
461.71	1078.45
462.083	1099.91
462.456	1087.49
462.829	1101.27
463.201	1114.38
463.574	1115.28
463.947	1127.94
464.32	1147.14
464.692	1177.65
465.065	1192.12
465.438	1187.37
465.81	1188.95
466.183	1234.83
466.555	1227.14
466.928	1250.19
467.3	1255.62
467.672	1260.36
468.045	1298.78
468.417	1289.51
468.789	1279.8
469.161	1297.2
469.534	1349.85
469.906	1386.23
470.278	1381.94
470.65	1409.74
471.022	1455.39
471.394	1465.55
471.766	1460.36
472.138	1452.45
472.51	1509.62
472.882	1538.32
473.253	1558.66
473.625	1573.57
473.997	1620.58
474.369	1602.73
474.74	1638.66
475.112	1662.39
475.484	1713.68
475.855	1731.08
476.227	1775.38
476.598	1759.78
476.97	1817.64
477.341	1866.67
477.713	1874.81
478.084	1891.53
478.455	1923.62
478.827	1954.36
479.198	2052.21
479.569	2062.15
479.94	2108.25
480.311	2139.66
480.682	2196.61
481.053	2246.33
481.424	2264.18
481.795	2314.57
482.166	2379.43
482.537	2398.64
482.908	2453.55
483.279	2494.91
483.65	2534.68
484.021	2598.41
484.391	2642.47
484.762	2692.64
485.133	2694.22
485.503	2747.33
485.874	2805.41
486.244	2854.67
486.615	2933.54
486.985	2956.59
487.356	3041.78
487.726	3041.33
488.097	3109.13
488.467	3149.8
488.837	3223.93
489.207	3294.43
489.578	3350.48
489.948	3370.59
490.318	3448.1
490.688	3452.17
491.058	3523.58
491.428	3573.75
491.798	3596.12
492.168	3708.43
492.538	3734.65
492.908	3764.93
493.278	3857.36
493.648	3900.29
494.017	3933.51
494.387	3975.77
494.757	4033.17
495.126	4073.62
495.496	4083.34
495.866	4143.22
496.235	4246.72
496.605	4228.87
496.974	4255.54
497.344	4322.88
497.713	4380.73
498.082	4398.13
498.452	4452.14
498.821	4446.27
499.19	4474.97
499.559	4557
499.928	4595.64
500.298	4569.2
500.667	4614.4
501.036	4691.91
501.405	4717.67
501.774	4702.76
502.143	4746.37
502.512	4804.68
502.88	4846.71
503.249	4887.39
503.618	4882.87
503.987	4920.15
504.356	5003.09
504.724	4957.89
505.093	5057.1
505.462	5033.14
505.83	5054.61
506.199	5133.93
506.567	5215.51
506.936	5186.13
507.304	5197.43
507.672	5266.13
508.041	5218.9
508.409	5299.8
508.777	5355.62
509.145	5369.63
509.514	5349.52
509.882	5431.33
510.25	5381.16
510.618	5516.3
510.986	5439.01
511.354	5516.07
511.722	5576.63
512.09	5690.3
512.458	5626.35
512.826	5643.98
513.193	5671.55
513.561	5646.91
513.929	5715.39
514.297	5746.57
514.664	5777.98
515.032	5794.03
515.4	5848.94
515.767	5864.99
516.135	5890.98
516.502	5891.43
516.869	5921.48
517.237	5998.54
517.604	5917.42
517.972	6035.6
518.339	6049.16
518.706	6040.35
519.073	6118.09
519.44	6102.95
519.808	6158.99
520.175	6081.03
520.542	6211.64
520.909	6252.77
521.276	6206.45
521.643	6285.09
522.009	6290.74
522.376	6301.13
522.743	6382.49
523.11	6438.08
523.477	6437.85
523.843	6486.21
524.21	6560.79
524.577	6524.86
524.943	6563.73
525.31	6636.49
525.676	6630.39
526.043	6653.89
526.409	6694.34
526.776	6769.82
527.142	6857.73
527.508	6834
527.874	6912.42
528.241	6923.49
528.607	6906.54
528.973	6954
529.339	7019.53
529.705	7052.07
530.071	7088.91
530.437	7164.16
530.803	7148.8
531.169	7199.64
531.535	7169.59
531.901	7282.58
532.267	7235.57
532.632	7316.47
532.998	7305.18
533.364	7387.43
533.73	7398.28
534.095	7523.02
534.461	7486.64
534.826	7494.1
535.192	7550.37
535.557	7584.26
535.923	7617.94
536.288	7636.92
536.653	7713.75
537.019	7675.56
537.384	7695.67
537.749	7801.66
538.114	7797.82
538.479	7765.95
538.845	7823.35
539.21	7830.59
539.575	7885.27
539.94	7939.06
540.305	7964.14
540.67	7944.93
541.034	8006.85
541.399	8014.99
541.764	8095.89
542.129	8053.86
542.494	8113.29
542.858	8178.6
543.223	8190.58
543.587	8243.23
543.952	8231.03
544.316	8337.46
544.681	8357.35
545.045	8318.93
545.41	8412.72
545.774	8478.93
546.138	8470.79
546.503	8482.09
546.867	8438.93
547.231	8580.17
547.595	8571.81
547.959	8687.51
548.324	8641.64
548.688	8680.28
549.052	8711.92
549.416	8754.63
549.779	8713.73
550.143	8744.91
550.507	8781.29
550.871	8889.99
551.235	8850.9
551.599	8893.83
551.962	8946.49
552.326	8993.04
552.689	8924.57
553.053	8939.03
553.417	8968.86
553.78	9064.9
554.143	8998.01
554.507	9138.8
554.87	9193.49
555.234	9228.51
555.597	9218.35
555.96	9199.59
556.323	9291.34
556.686	9320.72
557.05	9349.19
557.413	9417.89
557.776	9381.28
558.139	9426.02
558.502	9478.9
558.865	9498.34
559.228	9609.3
559.59	9583.31
559.953	9536.75
560.316	9698.33
560.679	9690.42
561.041	9762.06
561.404	9725.45
561.767	9763.42
562.129	9762.96
562.492	9854.94
562.854	9866.46
563.217	9953.47
563.579	9926.35
563.941	9992.11
564.304	10037.08
564.666	10121.82
565.028	10075.5
565.39	10141.94
565.753	10115.72
566.115	10094.03
566.477	10234.59
566.839	10237.3
567.201	10298.09
567.563	10357.52
567.925	10437.97
568.287	10346.23
568.648	10505.32
569.01	10478.88
569.372	10532.89
569.734	10491.98
570.095	10681.58
570.457	10689.94
570.819	10708.25
571.18	10776.72
571.542	10833.44
571.903	10772.88
572.265	10879.09
572.626	10894.23
572.987	10989.6
573.349	11029.6
573.71	11033.89
574.071	11091.06
574.432	11180.55
574.794	11299.42
575.155	11355.69
575.516	11369.02
575.877	11444.95
576.238	11555.46
576.599	11531.28
576.96	11724.04
577.32	11829.58
577.681	11870.93
578.042	11943.7
578.403	12028.21
578.763	12090.59
579.124	12345.04
579.485	12382.56
579.845	12535.55
580.206	12528.99
580.566	12667.29
580.927	12822.77
581.287	13003.33
581.648	13062.09
582.008	13284.68
582.368	13410.1
582.728	13533.26
583.089	13647.61
583.449	13785.23
583.809	13937.54
584.169	14145
584.529	14321.71
584.889	14561.93
585.249	14777.52
585.609	14910.85
585.969	15173.67
586.329	15361.91
586.688	15619.76
587.048	15775.23
587.408	15998.96
587.768	16239.18
588.127	16414.31
588.487	16679.62
588.846	17130.91
589.206	17092.04
589.565	17408.86
589.925	17758.46
590.284	17967.72
590.643	18330.87
591.003	18563.86
591.362	18927.69
591.721	19003.4
592.08	19400.68
592.44	19729.93
592.799	19933.54
593.158	20232.29
593.517	20475.45
593.876	20842.9
594.235	20997.24
594.593	21351.81
594.952	21728.98
595.311	21914.51
595.67	22151.79
596.029	22664.55
596.387	23031.54
596.746	23343.85
597.104	23489.16
597.463	23850.28
597.822	24179.76
598.18	24364.61
598.538	24659.97
598.897	25064.93
599.255	25221.31
599.613	25819.72
599.972	25861.52
600.33	26205.24
600.688	26579.02
601.046	26770.2
601.404	27234.14
601.762	27371.77
602.12	27809.49
602.478	28038.87
602.836	28327
603.194	28460.78
603.552	28734.44
603.91	28895.34
604.268	29436.12
604.625	29437.93
604.983	29863.23
605.341	29938.25
605.698	30447.62
606.056	30716.76
606.413	30962.86
606.771	31345.67
607.128	31556.29
607.485	31528.94
607.843	31897.52
608.2	32151.75
608.557	32460.45
608.914	32558.75
609.272	32941.56
609.629	33086.87
609.986	33372.29
610.343	33497.03
610.7	33964.81
611.057	33977.24
611.414	34132.72
611.771	34442.09
612.127	34716.21
612.484	34924.34
612.841	35189.64
613.198	35179.02
613.554	35357.09
613.911	35790.3
614.267	35734.48
614.624	35983.52
614.98	36126.11
615.337	36658.98
615.693	36549.38
616.05	36629.6
616.406	36981.91
616.762	36995.47
617.118	37097.84
617.475	37311.84
617.831	37575.34
618.187	37701.44
618.543	37870.7
618.899	38205.61
619.255	38290.12
619.611	38235.66
619.967	38472.04
620.323	38756.1
620.678	38483.79
621.034	38581.87
621.39	38729.43
621.746	38778.92
622.101	39438.34
622.457	39019.37
622.812	39245.35
623.168	39376.2
623.523	39463.65
623.879	39704.55
624.234	39500.94
624.589	39686.02
624.945	39803.08
625.3	40019.12
625.655	39850.53
626.01	40115.16
626.365	40115.61
626.72	40200.13
627.075	40231.77
627.43	40181.15
627.785	40186.57
628.14	40372.55
628.495	40511.76
628.85	40481.03
629.205	40423.63
629.559	40767.57
629.914	40683.05
630.269	40709.04
630.623	40685.31
630.978	40648.48
631.332	40746.33
631.687	40879.66
632.041	40841.69
632.396	40868.81
632.75	40899.09
633.104	41095.47
633.459	40889.15
633.813	40949.94
634.167	40949.94
634.521	40852.77
634.875	41116.94
635.229	40968.24
635.583	40821.36
635.937	40857.29
636.291	40941.8
636.645	40954.46
636.999	40961.92
637.352	40977.28
637.706	40827.68
638.06	41084.63
638.413	41030.16
638.767	40997.4
639.121	40892.99
639.474	40736.84
639.828	40834.69
640.181	40924.86
640.534	40899.09
640.888	40713.11
641.241	40629.27
641.594	40687.35
641.947	40933.9
642.301	40802.15
642.654	40770.06
643.007	40760.57
643.36	40774.58
643.713	40767.35
644.066	40905.65
644.419	40529.61
644.771	40404.87
645.124	40104.31
645.477	40018.89
645.83	39834.49
646.182	39676.08
646.535	39570.09
646.888	39671.1
647.24	39463.2
647.593	39610.99
647.945	39722.85
648.298	39510.2
648.65	39350.21
649.002	39401.73
649.355	39505.91
649.707	39490.09
650.059	39681.27
650.411	40095.95
650.763	40153.13
651.115	40505.43
651.467	40310.18
651.819	40314.7
652.171	40192.67
652.523	40125.33
652.875	40301.6
653.227	40259.11
653.578	40431.76
653.93	40380.92
654.282	40236.51
654.633	40116.52
654.985	40205.33
655.337	40103.86
655.688	40264.31
656.039	40337.75
656.391	40029.06
656.742	40120.13
657.094	40161.26
657.445	40346.11
657.796	40217.76
658.147	40159.9
658.498	40080.58
658.849	40272.9
659.2	40159.68
659.551	40133.24
659.902	40156.06
660.253	39996.07
660.604	40132.11
660.955	39817.09
661.306	40142.96
661.656	40140.92
662.007	40123.07
662.358	40112.9
662.708	39962.85
663.059	39996.29
663.409	39720.82
663.76	40045.78
664.11	40002.17
664.461	40073.81
664.811	39919.01
665.161	40040.13
665.511	39889.86
665.862	39940.02
666.212	40042.85
666.562	39968.5
666.912	39939.35
667.262	39884.21
667.612	39902.28
667.962	39790.87
668.312	39897.76
668.662	40098.66
669.011	39922.85
669.361	39878.33
669.711	39812.57
670.06	39913.13
670.41	39807.6
670.76	39666.81
671.109	39764.89
671.459	39717.88
671.808	39719.92
672.157	39708.62
672.507	39592.69
672.856	39436.53
673.205	39662.52
673.554	39779.8
673.904	39671.56
674.253	39832
674.602	39771.67
674.951	39199.25
675.3	38901.18
675.649	39560.6
675.998	39518.34
676.346	39577.32
676.695	39690.09
677.044	39321.28
677.393	39535.06
677.741	39519.92
678.09	39586.36
678.438	39380.26
678.787	39486.25
679.135	39445.8
679.484	39156.99
679.832	39274.05
680.181	39002.19
680.529	39223.66
680.877	39107.95
681.225	39080.84
681.573	39296.88
681.922	39045.58
682.27	38976.88
682.618	38985.47
682.966	38688.3
683.314	38891.46
683.661	38870.22
684.009	38583.67
684.357	38561.75
684.705	38520.85
685.053	38617.8
685.4	38548.65
685.748	38315.89
686.095	38296.45
686.443	38169
686.79	38197.7
687.138	38209.9
687.485	38070.92
687.832	37954.31
688.18	38037.02
688.527	37946.18
688.874	37864.15
689.221	37731.72
689.568	37639.52
689.915	37553.65
690.262	37672.96
690.609	37459.41
690.956	37511.61
691.303	37439.75
691.65	37183.26
691.997	37220.77
692.344	37023.94
692.69	37018.74
693.037	37053.77
693.383	36785.53
693.73	36891.52
694.077	36652.43
694.423	36705.53
694.769	36501.7
695.116	36491.98
695.462	36443.84
695.808	36202.49
696.155	36387.12
696.501	36034.82
696.847	36164.08
697.193	35843.18
697.539	35978.55
697.885	35722.73
698.231	35770.42
698.577	35634.15
698.923	35516.18
699.269	35349.86
699.614	35135.86
699.96	35227.83
700.306	35148.28
700.651	34988.97
700.997	34949.19
701.342	34831.23
701.688	34840.04
702.033	34749.65
702.379	34613.38
702.724	34494.29
703.069	34595.08
703.415	34341.07
703.76	34283.22
704.105	34383.56
704.45	34253.39
704.795	33972.5
705.14	34058.37
705.485	34014.53
705.83	33679.4
706.175	33921.2
706.52	33729.57
706.865	33496.58
707.209	33630.36
707.554	33436.69
707.899	33512.17
708.243	33272.18
708.588	33331.16
708.932	33161.22
709.277	33144.5
709.621	33113.76
709.966	32928.23
710.31	32994.22
710.654	32627.22
710.998	32857.95
711.342	32745.18
711.687	32623.15
712.031	32563.49
712.375	32444.4
712.719	32561.46
713.063	32382.48
713.407	32379.77
713.75	32281.24
714.094	32253.67
714.438	32031.76
714.782	32109.95
715.125	31937.97
715.469	31955.83
715.812	31805.32
716.156	31661.6
716.499	31780.92
716.843	31704.53
717.186	31496.86
717.53	31663.4
717.873	31645.33
718.216	31573.46
718.559	31535.05
718.902	31270.87
719.246	31282.17
719.589	31177.99
719.932	31220.48
720.275	31159.46
720.617	31039.24
720.96	30982.97
721.303	31067.04
721.646	31064.78
721.989	30723.09
722.331	30960.37
722.674	30870.21
723.016	30817.55
723.359	30780.94
723.701	30820.49
724.044	30560.38
724.386	30520.16
724.729	30581.85
725.071	30583.89
725.413	30443.32
725.755	30368.07
726.097	30357.9
726.439	30261.41
726.782	30245.14
727.124	30346.6
727.465	30229.77
727.807	30237.45
728.149	30024.8
728.491	30020.06
728.833	30069.32
729.175	29860.97
729.516	29996.78
729.858	29817.35
730.199	29845.6
730.541	29843.11
730.882	29594.08
731.224	29788.43
731.565	29593.18
731.906	29543.01
732.248	29584.14
732.589	29522.67
732.93	29418.72
733.271	29409.68
733.612	29375.33
733.953	29437.02
734.294	29319.74
734.635	29142.57
734.976	29309.79
735.317	29150.25
735.658	29149.35
735.999	29017.37
736.339	29017.82
736.68	29117.93
737.021	29021.21
737.361	28875.23
737.702	29032.29
738.042	28911.16
738.383	28832.97
738.723	28871.61
739.063	28790.94
739.404	28724.05
739.744	28805.85
740.084	28533.77
740.424	28580.32
740.764	28456.94
741.104	28682.47
741.444	28444.96
741.784	28443.83
742.124	28511.62
742.464	28464.84
742.804	28313.21
743.143	28239.09
743.483	28289.71
743.823	28139.66
744.162	28147.56
744.502	28139.88
744.841	28001.58
745.181	28113.67
745.52	28061.69
745.86	28020.56
746.199	27974.01
746.538	28002.71
746.877	28030.73
747.216	27944.63
747.556	27858.98
747.895	27873.9
748.234	27763.62
748.573	27737.41
748.911	27785.99
749.25	27681.36
749.589	27534.02
749.928	27522.27
750.267	27570.63
750.605	27567.02
750.944	27499.9
751.283	27351.88
751.621	27381.94
751.96	27356.63
752.298	27246.35
752.636	27294.03
752.975	27182.84
753.313	26946.01
753.651	27200.92
753.989	27012.68
754.327	26833.25
754.666	26893.13
755.004	26888.62
755.342	26907.6
755.679	26871.21
756.017	26644.1
756.355	26739.24
756.693	26502.18
757.031	26599.81
757.368	26446.37
757.706	26537.44
758.044	26393.26
758.381	26412.92
758.719	26233.72
759.056	26332.47
759.394	26201.18
759.731	26130.44
