Data from hue_330_FLMS001491_80.txt Node
Date: Mon Feb 06 15:45:53 GMT 2017
User: dcchb
Spectrometer: FLMS00149
Trigger mode: 0
Integration Time (sec): 2.000000E-2
Scans to average: 10
Electric dark correction enabled: true
Nonlinearity correction enabled: false
Boxcar width: 0
XAxis mode: Wavelengths
Number of Pixels in Spectrum: 2048
>>>>>Begin Spectral Data<<<<<
341.393	-12.95
341.776	-12.95
342.16	-12.95
342.543	-72.39
342.927	-52.95
343.31	-90.46
343.693	-54.76
344.077	-61.54
344.46	-64.25
344.843	-47.75
345.226	-24.7
345.61	-34.19
345.993	-21.54
346.376	0.61
346.759	6.93
347.142	34.5
347.525	33.37
347.908	55.3
348.291	63.2
348.674	86.03
349.057	119.25
349.44	135.07
349.823	165.8
350.206	184.11
350.588	198.57
350.971	200.15
351.354	241.5
351.737	259.13
352.119	243.31
352.502	265.91
352.884	271.79
353.267	257.55
353.65	295.06
354.032	314.95
354.414	291.67
354.797	315.18
355.179	302.07
355.562	332.8
355.944	326.7
356.326	336.42
356.709	331.67
357.091	350.65
357.473	340.26
357.855	344.55
358.238	338.45
358.62	349.75
359.002	350.65
359.384	341.84
359.766	318.34
360.148	367.6
360.53	340.26
360.912	324.21
361.294	338.23
361.676	322.18
362.057	310.88
362.439	335.74
362.821	323.99
363.203	328.06
363.584	318.11
363.966	330.99
364.348	301.84
364.729	317.44
365.111	330.32
365.493	308.85
365.874	309.98
366.256	308.17
366.637	312.46
367.019	313.37
367.4	329.86
367.781	316.31
368.163	324.44
368.544	325.34
368.925	330.77
369.306	337.32
369.688	302.07
370.069	304.33
370.45	319.92
370.831	319.02
371.212	324.67
371.593	322.41
371.974	309.75
372.355	302.75
372.736	324.21
373.117	317.21
373.498	297.77
373.879	328.96
374.26	331.22
374.641	316.53
375.021	320.15
375.402	321.73
375.783	310.66
376.163	324.89
376.544	334.84
376.925	320.15
377.305	345.01
377.686	335.29
378.066	325.34
378.447	317.21
378.827	335.29
379.208	329.41
379.588	348.62
379.968	331.22
380.349	352.46
380.729	323.08
381.109	322.41
381.489	333.03
381.87	332.8
382.25	347.49
382.63	358.56
383.01	315.85
383.39	342.97
383.77	345.01
384.15	344.1
384.53	338.9
384.91	361.73
385.29	358.11
385.67	340.71
386.049	342.29
386.429	347.49
386.809	352.46
387.189	349.52
387.568	353.59
387.948	365.57
388.328	348.17
388.707	362.63
389.087	353.37
389.466	384.55
389.846	344.1
390.225	372.8
390.605	380.03
390.984	365.57
391.363	355.17
391.743	368.06
392.122	370.77
392.501	358.34
392.881	392.91
393.26	377.09
393.639	394.72
394.018	392.01
394.397	386.13
394.776	372.35
395.155	385.68
395.534	382.97
395.913	395.4
396.292	404.21
396.671	389.3
397.05	372.57
397.429	387.49
397.808	382.74
398.186	394.72
398.565	386.59
398.944	388.85
399.323	396.76
399.701	418.68
400.08	402.63
400.458	392.24
400.837	414.61
401.215	406.92
401.594	404.66
401.972	403.08
402.351	405.12
402.729	413.25
403.107	426.58
403.486	401.95
403.864	420.48
404.242	430.88
404.62	431.33
404.999	443.99
405.377	432.91
405.755	450.76
406.133	440.14
406.511	444.89
406.889	451.67
407.267	430.2
407.645	455.96
408.023	446.7
408.401	450.99
408.779	437.21
409.156	468.39
409.534	483.98
409.912	483.08
410.29	471.78
410.667	477.88
411.045	484.66
411.422	463.87
411.8	487.37
412.178	525.34
412.555	494.83
412.933	525.34
413.31	520.82
413.687	539.12
414.065	522.18
414.442	512.91
414.819	575.73
415.197	516.75
415.574	533.02
415.951	577.09
416.328	580.93
416.705	549.75
417.082	573.93
417.46	572.8
417.837	585
418.214	602.85
418.591	596.52
418.967	587.94
419.344	605.11
419.721	614.6
420.098	611.21
420.475	625.68
420.852	645.79
421.228	666.8
421.605	625.22
421.982	655.96
422.358	646.47
422.735	667.48
423.111	680.82
423.488	692.11
423.864	672
424.241	694.37
424.617	691.66
424.994	680.82
425.37	699.35
425.746	699.8
426.123	726.46
426.499	705.22
426.875	748.84
427.251	752
427.627	742.28
428.003	757.65
428.379	770.08
428.756	781.38
429.132	761.72
429.507	777.99
429.883	773.92
430.259	793.13
430.635	813.24
431.011	839.23
431.387	838.1
431.763	845.33
432.138	824.54
432.514	853.92
432.89	850.75
433.265	884.88
433.641	877.87
434.016	862.05
434.392	917.65
434.767	899.11
435.143	910.64
435.518	933.24
435.894	923.52
436.269	938.21
436.644	963.75
437.02	955.84
437.395	962.39
437.77	948.61
438.145	984.31
438.52	1002.84
438.895	989.06
439.271	1022.73
439.646	1003.74
440.021	1009.85
440.395	1018.66
440.77	1038.32
441.145	1018.89
441.52	1052.56
441.895	1055.95
442.27	1056.85
442.645	1078.32
443.019	1071.31
443.394	1062.5
443.769	1081.03
444.143	1057.75
444.518	1074.48
444.892	1075.61
445.267	1085.55
445.641	1094.59
446.016	1107.7
446.39	1132.78
446.764	1117.19
447.139	1132.55
447.513	1143.18
447.887	1116.51
448.262	1149.05
448.636	1128.26
449.01	1155.15
449.384	1161.25
449.758	1177.53
450.132	1190.18
450.506	1165.32
450.88	1194.7
451.254	1192.44
451.628	1204.87
452.002	1211.87
452.376	1196.96
452.75	1203.97
453.123	1234.02
453.497	1213
453.871	1250.07
454.244	1252.55
454.618	1255.94
454.992	1273.34
455.365	1285.55
455.739	1288.71
456.112	1311.08
456.486	1302.49
456.859	1322.61
457.232	1337.75
457.606	1344.3
457.979	1351.98
458.352	1361.7
458.725	1380.91
459.099	1371.87
459.472	1408.93
459.845	1374.81
460.218	1443.28
460.591	1419.78
460.964	1445.99
461.337	1429.27
461.71	1476.95
462.083	1496.16
462.456	1454.58
462.829	1490.29
463.201	1508.14
463.574	1508.36
463.947	1553.79
464.32	1548.36
464.692	1524.41
465.065	1573
465.438	1591.07
465.81	1599.89
466.183	1610.51
466.555	1633.11
466.928	1655.25
467.3	1639.89
467.672	1666.78
468.045	1686.66
468.417	1700.9
468.789	1710.39
469.161	1763.5
469.534	1760.56
469.906	1797.85
470.278	1809.37
470.65	1805.76
471.022	1809.6
471.394	1875.13
471.766	1885.3
472.138	1923.49
472.51	1932.31
472.882	1946.09
473.253	1942.93
473.625	2002.14
473.997	2030.84
474.369	2011.85
474.74	2068.8
475.112	2075.36
475.484	2094.56
475.855	2156.71
476.227	2142.25
476.598	2214.33
476.97	2225.86
477.341	2228.8
477.713	2250.04
478.084	2280.55
478.455	2304.95
478.827	2365.74
479.198	2390.15
479.569	2365.97
479.94	2457.04
480.311	2469.69
480.682	2535.46
481.053	2556.7
481.424	2595.34
481.795	2616.36
482.166	2648
482.537	2666.07
482.908	2721.67
483.279	2706.3
483.65	2797.82
484.021	2810.25
484.391	2889.12
484.762	2873.3
485.133	2907.65
485.503	2959.4
485.874	2957.82
486.244	2970.02
486.615	3052.5
486.985	3082.56
487.356	3115.33
487.726	3183.35
488.097	3217.7
488.467	3217.7
488.837	3262.89
489.207	3261.31
489.578	3324.81
489.948	3375.43
490.318	3392.16
490.688	3445.26
491.058	3469.44
491.428	3503.79
491.798	3522.1
492.168	3599.16
492.538	3576.78
492.908	3620.85
493.278	3650.45
493.648	3697.46
494.017	3716.22
494.387	3722.09
494.757	3746.5
495.126	3817
495.496	3830.34
495.866	3852.48
496.235	3897.91
496.605	3899.94
496.974	3898.36
497.344	3956.89
497.713	3924.12
498.082	4006.38
498.452	4044.12
498.821	3999.37
499.19	4066.94
499.559	4075.53
499.928	4083.66
500.298	4090.44
500.667	4148.07
501.036	4098.35
501.405	4171.12
501.774	4162.31
502.143	4227.84
502.512	4235.75
502.88	4227.16
503.249	4274.39
503.618	4320.72
503.987	4301.29
504.356	4318.23
504.724	4332.7
505.093	4351
505.462	4361.4
505.83	4420.6
506.199	4403.2
506.567	4413.15
506.936	4453.6
507.304	4465.57
507.672	4472.13
508.041	4525.01
508.409	4506.7
508.777	4520.04
509.145	4546.25
509.514	4513.26
509.882	4572.92
510.25	4667.38
510.618	4648.17
510.986	4670.54
511.354	4667.6
511.722	4717.32
512.09	4720.94
512.458	4732.69
512.826	4744.21
513.193	4749.86
513.561	4769.97
513.929	4782.63
514.297	4803.87
514.664	4854.49
515.032	4808.16
515.4	4830.76
515.767	4870.31
516.135	4833.93
516.502	4864.66
516.869	4919.8
517.237	4931.1
517.604	4858.56
517.972	4935.62
518.339	4955.51
518.706	5000.02
519.073	4934.71
519.44	5021.27
519.808	5047.25
520.175	5024.43
520.542	5085.67
520.909	5041.15
521.276	5115.95
521.643	5048.84
522.009	5117.76
522.376	5147.36
522.743	5150.3
523.11	5194.82
523.477	5236.4
523.843	5298.55
524.21	5266.91
524.577	5354.14
524.943	5350.3
525.31	5366.34
525.676	5404.08
526.043	5432.78
526.409	5417.41
526.776	5535.83
527.142	5447.7
527.508	5530.63
527.874	5545.55
528.241	5594.36
528.607	5620.12
528.973	5659.89
529.339	5597.07
529.705	5651.76
530.071	5742.15
530.437	5670.29
530.803	5776.05
531.169	5788.25
531.535	5775.37
531.901	5795.71
532.267	5894.46
532.632	5862.83
532.998	5904.41
533.364	5898.76
533.73	5969.94
534.095	6030.96
534.461	5995.93
534.826	5973.11
535.192	6090.39
535.557	6114.57
535.923	6083.84
536.288	6140.78
536.653	6158.19
537.019	6154.12
537.384	6193.89
537.749	6275.24
538.114	6268.01
538.479	6287.45
538.845	6283.38
539.21	6270.72
539.575	6341.91
539.94	6368.58
540.305	6371.97
540.67	6396.6
541.034	6349.59
541.399	6479.31
541.764	6502.58
542.129	6476.37
542.494	6512.07
542.858	6569.47
543.223	6582.81
543.587	6608.12
543.952	6621.45
544.316	6695.8
544.681	6642.92
545.045	6724.27
545.41	6745.06
545.774	6769.69
546.138	6766.53
546.503	6830.26
546.867	6869.13
547.231	6896.25
547.595	6887.88
547.959	6919.07
548.324	6940.54
548.688	6983.02
549.052	6973.98
549.416	6986.86
549.779	6992.74
550.143	7051.04
550.507	7158.16
550.871	7036.35
551.235	7085.39
551.599	7197.93
551.962	7232.06
552.326	7152.06
552.689	7233.86
553.053	7197.48
553.417	7279.06
553.78	7329.45
554.143	7254.43
554.507	7349.79
554.87	7330.58
555.234	7392.05
555.597	7343.47
555.96	7423.91
556.323	7435.89
556.686	7444.71
557.05	7462.33
557.413	7509.34
557.776	7590.24
558.139	7544.14
558.502	7585.94
558.865	7609.22
559.228	7668.65
559.59	7639.73
559.953	7717.92
560.316	7702.33
560.679	7699.16
561.041	7815.77
561.404	7768.54
561.767	7827.07
562.129	7818.71
562.492	7838.37
562.854	7849.21
563.217	7907.52
563.579	7952.49
563.941	7961.75
564.304	7959.72
564.666	8043.33
565.028	8116.1
565.39	8086.95
565.753	8109.77
566.115	8102.09
566.477	8242.88
566.839	8159.04
567.201	8224.35
567.563	8209.21
567.925	8273.16
568.287	8343.21
568.648	8325.13
569.01	8358.13
569.372	8425.47
569.734	8429.31
570.095	8470.67
570.457	8480.61
570.819	8534.62
571.18	8552.47
571.542	8600.38
571.903	8670.21
572.265	8647.84
572.626	8790.88
572.987	8756.31
573.349	8830.88
573.71	8849.64
574.071	8914.72
574.432	8963.99
574.794	9071.1
575.155	9095.74
575.516	9192.91
575.877	9254.38
576.238	9227.48
576.599	9460.47
576.96	9382.51
577.32	9492.34
577.681	9592.45
578.042	9737.3
578.403	9796.06
578.763	9888.26
579.124	9953.34
579.485	10066.78
579.845	10110.17
580.206	10312.65
580.566	10395.14
580.927	10439.43
581.287	10610.5
581.648	10740.66
582.008	10943.82
582.368	11048.68
582.728	11250.03
583.089	11332.51
583.449	11541.32
583.809	11694.54
584.169	11953.06
584.529	12042.32
584.889	12395.08
585.249	12439.15
585.609	12664.68
585.969	12933.15
586.329	13091.79
586.688	13349.18
587.048	13541.95
587.408	13741.71
587.768	14032.33
588.127	14191.42
588.487	14283.85
588.846	14733.55
589.206	14905.98
589.565	15209.92
589.925	15460.09
590.284	15783.47
590.643	16003.35
591.003	16270.91
591.362	16514.98
591.721	16728.53
592.08	17118.8
592.44	17427.72
592.799	17599.24
593.158	17905
593.517	18162.39
593.876	18429.73
594.235	18787.91
594.593	18924.18
594.952	19348.35
595.311	19676.02
595.67	19917.15
596.029	20317.36
596.387	20631.7
596.746	20935.88
597.104	21153.5
597.463	21355.98
597.822	21743.54
598.18	21941.95
598.538	22244.77
598.897	22582.61
599.255	22724.76
599.613	23225.08
599.972	23423.27
600.33	23762.02
600.688	23934.22
601.046	24298.5
601.404	24629.34
601.762	24776.68
602.12	25203.79
602.478	25450.11
602.836	25662.98
603.194	25823.66
603.552	26068.62
603.91	26261.61
604.268	26593.58
604.625	26774.59
604.983	27138.42
605.341	27249.38
605.698	27540.67
606.056	27869.48
606.413	28039.42
606.771	28405.96
607.128	28549.46
607.485	28584.26
607.843	28957.59
608.2	29353.96
608.557	29534.75
608.914	29669.66
609.272	29941.06
609.629	30131.34
609.986	30470.77
610.343	30540.82
610.7	30971.09
611.057	31101.48
611.414	31195.04
611.771	31456.28
612.127	31790.28
612.484	31907.56
612.841	32172.42
613.198	32156.15
613.554	32352.75
613.911	32614.67
614.267	32689.01
614.624	32764.27
614.98	33049.91
615.337	33430.46
615.693	33408.77
616.05	33488.54
616.406	33858.25
616.762	33818.7
617.118	34044.01
617.475	34161.52
617.831	34324
618.187	34618.91
618.543	34592.24
618.899	34888.96
619.255	34942.74
619.611	34861.39
619.967	35183.41
620.323	35326.91
620.678	35343.63
621.034	35288.95
621.39	35361.49
621.746	35594.47
622.101	35954.46
622.457	35905.43
622.812	36032.65
623.168	36111.07
623.523	36218.86
623.879	36325.75
624.234	36163.95
624.589	36543.83
624.945	36644.16
625.3	36711.96
625.655	36725.07
626.01	36796.02
626.365	36923.03
626.72	37051.84
627.075	36869.47
627.43	36971.61
627.785	37104.04
628.14	37166.64
628.495	37366.4
628.85	37253.64
629.205	37278.05
629.559	37305.84
629.914	37277.14
630.269	37467.87
630.623	37342.68
630.978	37285.73
631.332	37564.14
631.687	37742.21
632.041	37478.49
632.396	37633.97
632.75	37523.91
633.104	37732.27
633.459	37442.33
633.813	37565.72
634.167	37660.63
634.521	37616.34
634.875	37738.15
635.229	37645.04
635.583	37624.7
635.937	37646.4
636.291	37548.32
636.645	37613.63
636.999	37546.06
637.352	37707.64
637.706	37540.41
638.06	37713.06
638.413	37641.88
638.767	37534.54
639.121	37707.64
639.474	37554.87
639.828	37544.7
640.181	37599.84
640.534	37518.72
640.888	37487.76
641.241	37483.92
641.594	37461.09
641.947	37655.89
642.301	37478.04
642.654	37590.81
643.007	37680.29
643.36	37569.11
643.713	37464.93
644.066	37671.03
644.419	37391.49
644.771	37252.06
645.124	36872.63
645.477	36813.65
645.83	36630.38
646.182	36586.54
646.535	36372.08
646.888	36494.56
647.24	36241.69
647.593	36536.37
647.945	36412.08
648.298	36391.06
648.65	36297.51
649.002	36213.67
649.355	36366.88
649.707	36347.22
650.059	36605.75
650.411	36917.15
650.763	36932.52
651.115	37304.26
651.467	37270.36
651.819	37144.72
652.171	37158.5
652.523	37139.97
652.875	37052.97
653.227	36847.32
653.578	37190.82
653.93	37257.93
654.282	36977.26
654.633	36810.71
654.985	37070.82
655.337	36983.36
655.688	36986.98
656.039	36908.34
656.391	36783.14
656.742	36916.25
657.094	36853.65
657.445	37042.8
657.796	36997.37
658.147	36897.49
658.498	36909.47
658.849	36895.68
659.2	36771.84
659.551	36731.17
659.902	37057.03
660.253	36870.37
660.604	36964.16
660.955	36777.27
661.306	36884.84
661.656	36831.5
662.007	36726.65
662.358	36709.25
662.708	36702.92
663.059	36707.66
663.409	36546.54
663.76	36746.08
664.11	36573.21
664.461	36837.83
664.811	36803.71
665.161	36808.45
665.511	36827.89
665.862	36771.62
666.212	36817.27
666.562	36777.49
666.912	36737.27
667.262	36661.11
667.612	36669.93
667.962	36734.56
668.312	36656.14
668.662	36870.15
669.011	36755.8
669.361	36659.76
669.711	36543.38
670.06	36590.15
670.41	36536.37
670.76	36500.44
671.109	36649.14
671.459	36650.72
671.808	36467.22
672.157	36654.33
672.507	36351.52
672.856	36347
673.205	36469.25
673.554	36700.21
673.904	36408.01
674.253	36723.94
674.602	36550.15
674.951	35988.59
675.3	35733
675.649	36406.88
675.998	36326.88
676.346	36260.44
676.695	36462.02
677.044	36071.52
677.393	36230.62
677.741	36250.73
678.09	36168.24
678.438	36239.2
678.787	36229.49
679.135	36244.17
679.484	35896.84
679.832	36140.45
680.181	35924.63
680.529	36001.47
680.877	35867.01
681.225	35826.78
681.573	36202.14
681.922	35827.24
682.27	35883.05
682.618	35775.94
682.966	35576.4
683.314	35842.38
683.661	35760.8
684.009	35495.72
684.357	35426.12
684.705	35378.21
685.053	35445.55
685.4	35374.37
685.748	35368.72
686.095	35267.93
686.443	35160.36
686.79	35055.05
687.138	35199
687.485	35131.89
687.832	34924.89
688.18	34947.71
688.527	34827.26
688.874	34778.22
689.221	34742.29
689.568	34596.31
689.915	34749.75
690.262	34499.59
690.609	34599.92
690.956	34449.42
691.303	34350.66
691.65	34115.19
691.997	34262.31
692.344	33867.06
692.69	34022.76
693.037	34033.84
693.383	33736.22
693.73	33885.82
694.077	33586.84
694.423	33562.66
694.769	33586.39
695.116	33530.57
695.462	33484.02
695.808	33338.04
696.155	33377.36
696.501	33103.24
696.847	33107.31
697.193	32835
697.539	33074.54
697.885	32782.12
698.231	32679.07
698.577	32725.4
698.923	32663.48
699.269	32503.03
699.614	32406.08
699.96	32411.51
700.306	32289.7
700.651	32192.08
700.997	32087.22
701.342	32080.22
701.688	32056.26
702.033	32049.03
702.379	32017.62
702.724	31861.24
703.069	31905.76
703.415	31570.62
703.76	31531.53
704.105	31699.43
704.45	31473
704.795	31394.13
705.14	31325.21
705.485	31236.62
705.83	31072.33
706.175	31115.95
706.52	31096.96
706.865	30882.28
707.209	30822.17
707.554	30686.13
707.899	30921.38
708.243	30555.96
708.588	30647.26
708.932	30345.35
709.277	30452.01
709.621	30506.7
709.966	30315.06
710.31	30275.29
710.654	30109.19
710.998	30073.94
711.342	30004.11
711.687	29987.84
712.031	29968.18
712.375	29775.64
712.719	29886.83
713.063	29809.99
713.407	29863.32
713.75	29668.08
714.094	29671.24
714.438	29532.71
714.782	29541.98
715.125	29464.24
715.469	29393.05
715.812	29287.97
716.156	29123.91
716.499	29173.85
716.843	29206.17
717.186	28958.94
717.53	29147.86
717.873	29112.16
718.216	29068.54
718.559	28960.07
718.902	28712.62
719.246	28817.25
719.589	28794.88
719.932	28575.9
720.275	28683.47
720.617	28547.65
720.96	28530.48
721.303	28524.6
721.646	28489.35
721.989	28230.15
722.331	28494.32
722.674	28279.19
723.016	28426.07
723.359	28186.08
723.701	28135.01
724.044	28079.42
724.386	27932.53
724.729	28028.34
725.071	28025.86
725.413	27954.22
725.755	27988.8
726.097	27984.73
726.439	27758.52
726.782	27626.55
727.124	27821.57
727.465	27639.43
727.807	27628.81
728.149	27597.62
728.491	27577.06
728.833	27499.77
729.175	27514.01
729.516	27415.25
729.858	27355.82
730.199	27322.83
730.541	27357.4
730.882	27345.43
731.224	27273.11
731.565	27100.46
731.906	27105.43
732.248	27139.33
732.589	27077.18
732.93	26892.56
733.271	27077.64
733.612	26939.56
733.953	26872.67
734.294	26759
734.635	26817.08
734.976	26961.48
735.317	26715.39
735.658	26755.84
735.999	26643.07
736.339	26679
736.68	26599.23
737.021	26523.3
737.361	26447.6
737.702	26631.77
738.042	26559.01
738.383	26486.24
738.723	26426.13
739.063	26418.22
739.404	26434.71
739.744	26354.26
740.084	26232.91
740.424	26291.44
740.764	26103.65
741.104	26239.69
741.444	26102.07
741.784	26106.14
742.124	26055.97
742.464	26099.58
742.804	25941.85
743.143	25978
743.483	25963.09
743.823	25773.26
744.162	25769.2
744.502	25789.76
744.841	25776.2
745.181	25744.56
745.52	25596.32
745.86	25636.32
746.199	25605.36
746.538	25558.13
746.877	25709.76
747.216	25595.41
747.556	25403.33
747.895	25384.35
748.234	25325.82
748.573	25307.51
748.911	25263.67
749.25	25248.08
749.589	25122.88
749.928	25167.63
750.267	25231.36
750.605	25022.1
750.944	25030.46
751.283	24898.94
751.621	25003.79
751.96	24813.29
752.298	24813.74
752.636	24924.47
752.975	24762.44
753.313	24604.03
753.651	24699.17
753.989	24590.47
754.327	24469.34
754.666	24484.94
755.004	24419.63
755.342	24481.77
755.679	24386.63
756.017	24382.34
756.355	24337.14
756.693	24206.07
757.031	24129.01
757.368	24024.61
757.706	24098.05
758.044	23962.01
758.381	23964.5
758.719	23927.89
759.056	23855.57
759.394	23792.3
759.731	23612.87
760.068	23742.58
