Data from hue_350_FLMS001491_38.txt Node
Date: Mon Feb 06 15:37:57 GMT 2017
User: dcchb
Spectrometer: FLMS00149
Trigger mode: 0
Integration Time (sec): 2.000000E-2
Scans to average: 10
Electric dark correction enabled: true
Nonlinearity correction enabled: false
Boxcar width: 0
XAxis mode: Wavelengths
Number of Pixels in Spectrum: 2048
>>>>>Begin Spectral Data<<<<<
341.393	-34.94
341.776	-34.94
342.16	-34.94
342.543	-86.01
342.927	-75.85
343.31	-65
343.693	-76.52
344.077	-65.68
344.46	-50.99
344.843	-61.61
345.226	-60.25
345.61	-45.34
345.993	-14.38
346.376	10.71
346.759	15.45
347.142	27.43
347.525	48.67
347.908	65.62
348.291	56.58
348.674	92.96
349.057	122.34
349.44	128.44
349.823	149.91
350.206	154.88
350.588	199.18
350.971	209.34
351.354	223.13
351.737	207.31
352.119	240.08
352.502	247.99
352.884	278.95
353.267	271.72
353.65	300.19
354.032	276.91
354.414	291.38
354.797	311.94
355.179	308.1
355.562	310.81
355.944	313.75
356.326	348.1
356.709	338.83
357.091	335.9
357.473	325.27
357.855	334.99
358.238	344.93
358.62	334.99
359.002	350.58
359.384	328.44
359.766	338.15
360.148	302.9
360.53	314.2
360.912	323.69
361.294	332.51
361.676	330.47
362.057	328.44
362.439	311.26
362.821	322.56
363.203	311.04
363.584	321.88
363.966	308.33
364.348	309.23
364.729	303.58
365.111	310.13
365.493	309.23
365.874	319.85
366.256	310.36
366.637	319.17
367.019	307.65
367.4	299.06
367.781	316.69
368.163	322.79
368.544	314.43
368.925	325.73
369.306	313.75
369.688	314.43
370.069	294.77
370.45	296.8
370.831	305.61
371.212	293.64
371.593	294.54
371.974	313.07
372.355	285.5
372.736	302.9
373.117	317.59
373.498	316.46
373.879	302
374.26	284.37
374.641	292.28
375.021	322.34
375.402	324.14
375.783	297.48
376.163	307.65
376.544	316.23
376.925	306.07
377.305	300.64
377.686	320.53
378.066	318.27
378.447	313.52
378.827	313.97
379.208	309
379.588	299.96
379.968	317.82
380.349	332.96
380.729	314.2
381.109	332.96
381.489	323.69
381.87	328.44
382.25	298.83
382.63	337.03
383.01	333.41
383.39	345.84
383.77	320.98
384.15	341.54
384.53	342
384.91	325.27
385.29	331.38
385.67	347.42
386.049	337.93
386.429	344.03
386.809	341.09
387.189	324.82
387.568	331.6
387.948	329.12
388.328	327.99
388.707	345.39
389.087	333.86
389.466	358.72
389.846	362.34
390.225	337.48
390.605	368.21
390.984	359.17
391.363	333.18
391.743	356.69
392.122	349.23
392.501	352.17
392.881	337.93
393.26	349.23
393.639	355.56
394.018	348.55
394.397	353.97
394.776	361.66
395.155	355.33
395.534	355.33
395.913	355.56
396.292	379.96
396.671	358.49
397.05	351.94
397.429	353.75
397.808	354.43
398.186	369.11
398.565	379.74
398.944	371.6
399.323	384.71
399.701	371.37
400.08	372.28
400.458	379.74
400.837	368.89
401.215	364.14
401.594	354.88
401.972	389.91
402.351	385.84
402.729	391.71
403.107	391.71
403.486	407.76
403.864	397.81
404.242	392.62
404.62	408.44
404.999	389.23
405.377	397.81
405.755	387.87
406.133	399.62
406.511	407.76
406.889	398.49
407.267	389.23
407.645	412.96
408.023	387.65
408.401	412.05
408.779	402.33
409.156	415.67
409.534	417.7
409.912	423.12
410.29	424.25
410.667	416.34
411.045	407.53
411.422	421.32
411.8	432.84
412.178	436.91
412.555	423.12
412.933	440.53
413.31	463.8
413.687	455.89
414.065	454.99
414.442	432.62
414.819	461.99
415.197	462.67
415.574	461.54
415.951	433.75
416.328	470.13
416.705	463.12
417.082	474.87
417.46	482.78
417.837	493.41
418.214	471.03
418.591	469.68
418.967	480.98
419.344	485.27
419.721	502.9
420.098	523.69
420.475	506.29
420.852	492.73
421.228	478.72
421.605	507.42
421.982	495.66
422.358	515.33
422.735	511.26
423.111	496.57
423.488	537.92
423.864	538.38
424.241	518.72
424.617	506.06
424.994	513.74
425.37	540.18
425.746	533.4
426.123	543.35
426.499	556.23
426.875	557.81
427.251	562.1
427.627	559.39
428.003	552.61
428.379	583.8
428.756	577.02
429.132	565.27
429.507	605.04
429.883	578.83
430.259	561.65
430.635	579.5
431.011	595.55
431.387	586.74
431.763	623.35
432.138	610.24
432.514	628.32
432.89	607.75
433.265	606.85
433.641	633.97
434.016	633.06
434.392	633.06
434.767	674.64
435.143	644.59
435.518	650.69
435.894	668.54
436.269	650.24
436.644	642.33
437.02	679.84
437.395	670.35
437.77	693.85
438.145	668.54
438.52	705.6
438.895	694.98
439.271	711.48
439.646	710.35
440.021	718.71
440.395	718.94
440.77	719.61
441.145	704.92
441.52	737.92
441.895	706.73
442.27	731.82
442.645	720.52
443.019	737.24
443.394	763.68
443.769	738.6
444.143	741.53
444.518	748.77
444.892	743.34
445.267	742.66
445.641	757.8
446.016	763.91
446.39	756.22
446.764	784.7
447.139	757.35
447.513	785.15
447.887	788.54
448.262	797.58
448.636	796.67
449.01	780.86
449.384	784.92
449.758	780.63
450.132	812.49
450.506	801.65
450.88	796.67
451.254	775.88
451.628	830.57
452.002	806.84
452.376	846.84
452.75	833.51
453.123	839.16
453.497	859.05
453.871	847.07
454.244	871.7
454.618	855.66
454.992	868.99
455.365	871.7
455.739	858.82
456.112	891.59
456.486	906.73
456.859	896.11
457.232	912.15
457.606	905.37
457.979	936.78
458.352	941.98
458.725	931.13
459.099	930.91
459.472	930.68
459.845	969.55
460.218	984.24
460.591	984.01
460.964	961.64
461.337	998.25
461.71	994.86
462.083	1016.56
462.456	1008.42
462.829	1019.04
463.201	1026.27
463.574	1049.55
463.947	1074.41
464.32	1077.57
464.692	1068.76
465.065	1082.32
465.438	1104.91
465.81	1130.45
466.183	1158.02
466.555	1133.61
466.928	1137.68
467.3	1139.49
467.672	1149.43
468.045	1150.79
468.417	1186.04
468.789	1186.95
469.161	1216.1
469.534	1221.75
469.906	1233.5
470.278	1248.19
470.65	1265.81
471.022	1287.51
471.394	1285.25
471.766	1314.4
472.138	1319.15
472.51	1324.57
472.882	1350.33
473.253	1374.29
473.625	1401.86
473.997	1424.91
474.369	1430.33
474.74	1462.87
475.112	1482.98
475.484	1481.63
475.855	1535.41
476.227	1566.6
476.598	1562.08
476.97	1586.94
477.341	1598.46
477.713	1641.17
478.084	1658.35
478.455	1694.05
478.827	1700.15
479.198	1778.8
479.569	1795.29
479.94	1798.68
480.311	1830.55
480.682	1846.82
481.053	1903.09
481.424	1893.82
481.795	1959.81
482.166	1980.6
482.537	2022.18
482.908	2064.66
483.279	2075.74
483.65	2120.03
484.021	2151.21
484.391	2215.17
484.762	2218.78
485.133	2212
485.503	2279.12
485.874	2295.62
486.244	2308.27
486.615	2375.39
486.985	2377.2
487.356	2446.8
487.726	2466.91
488.097	2524.76
488.467	2556.63
488.837	2580.81
489.207	2632.33
489.578	2680.24
489.948	2703.29
490.318	2744.19
490.688	2736.28
491.058	2794.59
491.428	2830.97
491.798	2849.95
492.168	2909.16
492.538	2932.66
492.908	2954.81
493.278	3015.37
493.648	3004.98
494.017	3080.23
494.387	3082.94
494.757	3100.12
495.126	3153.22
495.496	3182.15
495.866	3182.15
496.235	3225.99
496.605	3237.97
496.974	3275.48
497.344	3273.67
497.713	3320.45
498.082	3336.49
498.452	3351.18
498.821	3360.9
499.19	3375.36
499.559	3456.27
499.928	3480.45
500.298	3463.72
500.667	3522.25
501.036	3514.12
501.405	3511.4
501.774	3544.4
502.143	3569.03
502.512	3578.52
502.88	3587.56
503.249	3630.95
503.618	3677.05
503.987	3635.02
504.356	3681.8
504.724	3709.14
505.093	3734.45
505.462	3720.89
505.83	3780.55
506.199	3783.49
506.567	3841.11
506.936	3779.19
507.304	3850.38
507.672	3869.59
508.041	3851.51
508.409	3863.71
508.777	3940.77
509.145	3889.47
509.514	3942.35
509.882	4003.6
510.25	3987.1
510.618	4046.76
510.986	4013.76
511.354	4053.76
511.722	4059.64
512.09	4114.33
512.458	4024.61
512.826	4119.75
513.193	4114.78
513.561	4135.8
513.929	4113.87
514.297	4166.53
514.664	4188.9
515.032	4193.87
515.4	4247.66
515.767	4224.15
516.135	4247.2
516.502	4204.95
516.869	4270.93
517.237	4295.11
517.604	4285.17
517.972	4334.43
518.339	4323.59
518.706	4325.85
519.073	4331.04
519.44	4356.35
519.808	4416.01
520.175	4380.76
520.542	4427.76
520.909	4436.58
521.276	4456.92
521.643	4473.64
522.009	4507.99
522.376	4524.49
522.743	4541.21
523.11	4535.11
523.477	4594.09
523.843	4587.99
524.21	4648.1
524.577	4643.35
524.943	4679.06
525.31	4705.5
525.676	4721.09
526.043	4772.61
526.409	4737.14
526.776	4793.63
527.142	4798.83
527.508	4857.13
527.874	4847.19
528.241	4894.87
528.607	4851.48
528.973	4946.17
529.339	4914.98
529.705	4965.6
530.071	4985.26
530.437	5006.28
530.803	5061.42
531.169	5132.15
531.535	5034.53
531.901	5066.84
532.267	5100.97
532.632	5148.88
532.998	5203.79
533.364	5219.38
533.73	5198.59
534.095	5253.73
534.461	5294.41
534.826	5258.48
535.192	5313.39
535.557	5306.84
535.923	5310.91
536.288	5399.04
536.653	5383.22
537.019	5382.99
537.384	5404.46
537.749	5454.63
538.114	5451.01
538.479	5413.28
538.845	5496.89
539.21	5425.48
539.575	5554.06
539.94	5547.96
540.305	5601.75
540.67	5580.05
541.034	5583.21
541.399	5657.79
541.764	5655.08
542.129	5690.56
542.494	5709.77
542.858	5716.77
543.223	5770.33
543.587	5743.44
543.952	5844
544.316	5821.17
544.681	5833.6
545.045	5880.83
545.41	5870.66
545.774	5904.56
546.138	5907.95
546.503	5961.74
546.867	5974.84
547.231	5982.53
547.595	6085.57
547.959	6071.79
548.324	6072.69
548.688	6072.47
549.052	6121.05
549.416	6065.91
549.779	6112.47
550.143	6171.45
550.507	6161.28
550.871	6248.73
551.235	6188.62
551.599	6307.04
551.962	6274.5
552.326	6289.41
552.689	6311.56
553.053	6337.32
553.417	6314.72
553.78	6369.18
554.143	6425.68
554.507	6428.16
554.87	6391.56
555.234	6487.15
555.597	6410.76
555.96	6453.02
556.323	6557.88
556.686	6496.19
557.05	6521.04
557.413	6535.96
557.776	6552
558.139	6617.09
558.502	6633.13
558.865	6651.89
559.228	6679.23
559.59	6759.46
559.953	6741.6
560.316	6795.39
560.679	6797.19
561.041	6810.3
561.404	6819.34
561.767	6877.42
562.129	6801.94
562.492	6923.74
562.854	6886.01
563.217	6893.01
563.579	6924.87
563.941	6939.11
564.304	6923.97
564.666	6940.02
565.028	7022.5
565.39	7083.51
565.753	7080.8
566.115	7107.02
566.477	7131.65
566.839	7191.76
567.201	7193.34
567.563	7211.87
567.925	7247.13
568.287	7279.44
568.648	7319.44
569.01	7347.24
569.372	7349.5
569.734	7351.53
570.095	7434.24
570.457	7423.17
570.819	7501.36
571.18	7475.37
571.542	7517.4
571.903	7620.9
572.265	7620.45
572.626	7676.49
572.987	7651.63
573.349	7764.85
573.71	7768.24
574.071	7811.86
574.432	7873.1
574.794	7998.29
575.155	7978.18
575.516	7950.84
575.877	8036.26
576.238	8095.92
576.599	8181.56
576.96	8289.36
577.32	8276.48
577.681	8399.86
578.042	8443.03
578.403	8472.18
578.763	8644.6
579.124	8719.86
579.485	8842.11
579.845	8876.46
580.206	8918.72
580.566	9113.52
580.927	9122.1
581.287	9327.52
581.648	9411.81
582.008	9527.29
582.368	9639.38
582.728	9830.33
583.089	9857
583.449	10005.7
583.809	10225.8
584.169	10368.85
584.529	10452.92
584.889	10722.06
585.249	10758.45
585.609	10946.24
585.969	11236.85
586.329	11396.85
586.688	11610.4
587.048	11808.36
587.408	11988.7
587.768	12238.86
588.127	12409.25
588.487	12573.99
588.846	12943.25
589.206	12997.48
589.565	13308.66
589.925	13577.35
590.284	13747.07
590.643	14045.37
591.003	14286.49
591.362	14660.26
591.721	14740.04
592.08	15056.19
592.44	15422.28
592.799	15640.8
593.158	15917.86
593.517	16141.81
593.876	16525.75
594.235	16688.69
594.593	17041.22
594.952	17384.26
595.311	17479.17
595.67	17908.99
596.029	18304.46
596.387	18561.4
596.746	18778.12
597.104	18938.57
597.463	19261.73
597.822	19718.44
598.18	19823.52
598.538	20131.08
598.897	20473.67
599.255	20628.02
599.613	21171.05
599.972	21381.67
600.33	21638.39
600.688	21806.52
601.046	22238.82
601.404	22555.42
601.762	22791.35
602.12	23110.21
602.478	23330.09
602.836	23634.04
603.194	23718.33
603.552	24066.8
603.91	24271.54
604.268	24599.44
604.625	24845.99
604.983	25202.13
605.341	25259.76
605.698	25672.86
606.056	25990.81
606.413	26085.5
606.771	26498.37
607.128	26792.15
607.485	26778.59
607.843	27119.82
608.2	27402.08
608.557	27685.68
608.914	27788.96
609.272	28247.48
609.629	28447.25
609.986	28685.88
610.343	28684.53
610.7	29156.61
611.057	29250.62
611.414	29461.46
611.771	29527.67
612.127	29852.18
612.484	30051.27
612.841	30269.12
613.198	30310.25
613.554	30536.46
613.911	30999.5
614.267	31029.78
614.624	31145.71
614.98	31338.47
615.337	31528.07
615.693	31674.28
616.05	31779.36
616.406	32096.87
616.762	32076.3
617.118	32304.55
617.475	32369.86
617.831	32636.29
618.187	32700.24
618.543	32974.81
618.899	33198.99
619.255	33292.32
619.611	33328.02
619.967	33579.31
620.323	33697.73
620.678	33636.49
621.034	33651.86
621.39	33857.05
621.746	33869.48
622.101	34381.1
622.457	34139.75
622.812	34349.01
623.168	34520.53
623.523	34544.94
623.879	34754.2
624.234	34548.55
624.589	34918.71
624.945	34905.83
625.3	34997.13
625.655	35128.65
626.01	35259.95
626.365	35350.34
626.72	35209.55
627.075	35306.28
627.43	35409.55
627.785	35366.61
628.14	35395.76
628.495	35532.03
628.85	35646.83
629.205	35496.78
629.559	35799.6
629.914	35857
630.269	35861.51
630.623	35785.81
630.978	35758.92
631.332	36068.06
631.687	36100.15
632.041	35916.88
632.396	36047.95
632.75	35969.53
633.104	36062.19
633.459	35952.36
633.813	35963.66
634.167	36023.32
634.521	36092.24
634.875	36100.15
635.229	36054.73
635.583	36016.54
635.937	36000.49
636.291	36102.19
636.645	36097.21
636.999	36052.24
637.352	36148.29
637.706	35952.13
638.06	36183.54
638.413	36133.6
638.767	35953.49
639.121	36062.41
639.474	35922.98
639.828	35992.58
640.181	36047.27
640.534	36058.8
640.888	36052.7
641.241	35886.82
641.594	35939.48
641.947	36169.08
642.301	36017.89
642.654	35921.4
643.007	36018.8
643.36	36016.54
643.713	35976.77
644.066	36120.72
644.419	35911.23
644.771	35697.9
645.124	35269.21
645.477	35285.48
645.83	35164.58
646.182	34903.35
646.535	34927.53
646.888	34982.22
647.24	34697.93
647.593	35090.91
647.945	34871.26
648.298	34848.21
648.65	34676.24
649.002	34681.66
649.355	34856.12
649.707	34820.19
650.059	34880.07
650.411	35295.88
650.763	35310.57
651.115	35636.66
651.467	35621.52
651.819	35719.15
652.171	35624.01
652.523	35561.18
652.875	35567.06
653.227	35384.69
653.578	35603.67
653.93	35553.27
654.282	35422.88
654.633	35403.67
654.985	35430.34
655.337	35411.36
655.688	35408.65
656.039	35511.24
656.391	35136.56
656.742	35283.9
657.094	35296.11
657.445	35493.61
657.796	35290
658.147	35265.6
658.498	35171.14
658.849	35153.51
659.2	35242.32
659.551	35142.21
659.902	35287.29
660.253	35235.09
660.604	35284.81
660.955	35071.48
661.306	35323
661.656	35145.15
662.007	35115.77
662.358	35194.41
662.708	35046.85
663.059	35146.51
663.409	34972.27
663.76	35110.12
664.11	35171.14
664.461	35312.15
664.811	35185.6
665.161	35101.53
665.511	35116.68
665.862	35137.01
666.212	35134.75
666.562	35203.23
666.912	35159.16
667.262	35001.65
667.612	35050.46
667.962	35063.57
668.312	35052.5
668.662	35308.31
669.011	35041.2
669.361	34844.37
669.711	35006.62
670.06	35075.09
670.41	34927.3
670.76	34831.26
671.109	34985.61
671.459	34946.96
671.808	34964.82
672.157	35062.21
672.507	34851.15
672.856	34881.88
673.205	34971.59
673.554	34986.06
673.904	34781.32
674.253	34956.68
674.602	34809.11
674.951	34392.63
675.3	34171.39
675.649	34738.83
675.998	34822.45
676.346	34798.04
676.695	34877.59
677.044	34624.03
677.393	34727.99
677.741	34667.65
678.09	34659.29
678.438	34565.05
678.787	34598.05
679.135	34675.11
679.484	34375.45
679.832	34588.33
680.181	34339.52
680.529	34410.71
680.877	34423.81
681.225	34384.04
681.573	34501.1
681.922	34289.8
682.27	34297.71
682.618	34322.35
682.966	34015.69
683.314	34253.87
683.661	34087.32
684.009	33959.19
684.357	33899.76
684.705	33772.3
685.053	33864.96
685.4	33828.12
685.748	33648.92
686.095	33605.75
686.443	33542.71
686.79	33421.58
687.138	33601.69
687.485	33472.42
687.832	33445.31
688.18	33434.23
688.527	33154.92
688.874	33287.12
689.221	33154.02
689.568	33029.05
689.915	32909.05
690.262	33048.03
690.609	32924.64
690.956	32727.81
691.303	32810.07
691.65	32500.93
691.997	32644.42
692.344	32341.38
692.69	32340.25
693.037	32494.37
693.383	32144.32
693.73	32285.11
694.077	32107.04
694.423	32231.1
694.769	31990.66
695.116	31977.78
695.462	31856.2
695.808	31775.29
696.155	31812.81
696.501	31503.89
696.847	31596.09
697.193	31439.03
697.539	31432.7
697.885	31153.84
698.231	31159.04
698.577	31091.24
698.923	31122.2
699.269	31005.15
699.614	30789.11
699.96	30810.57
700.306	30777.35
700.651	30735.55
700.997	30651.03
701.342	30556.57
701.688	30446.74
702.033	30407.87
702.379	30341.66
702.724	30329.68
703.069	30225.96
703.415	29968.79
703.76	29956.36
704.105	30075.45
704.45	29944.38
704.795	29738.51
705.14	29653.77
705.485	29709.81
705.83	29542.13
706.175	29626.2
706.52	29461.91
706.865	29468.46
707.209	29374
707.554	29263.27
707.899	29269.82
708.243	29068.47
708.588	29109.38
708.932	28971.3
709.277	28972.88
709.621	28990.96
709.966	28750.74
710.31	28807.91
710.654	28514.36
710.998	28811.08
711.342	28580.12
711.687	28454.03
712.031	28421.48
712.375	28362.28
712.719	28312.56
713.063	28353.69
713.407	28326.35
713.75	28076.18
714.094	28177.2
714.438	28076.18
714.782	28120.48
715.125	27965.23
715.469	27966.13
715.812	27841.16
716.156	27683.2
716.499	27749.19
716.843	27633.93
717.186	27524.33
717.53	27760.26
717.873	27716.87
718.216	27515.07
718.559	27482.07
718.902	27306.49
719.246	27313.49
719.589	27236.43
719.932	27286.15
720.275	27311.01
720.617	27208.86
720.96	27033.27
721.303	26975.19
721.646	27097.9
721.989	26924.35
722.331	27068.75
722.674	26812.94
723.016	26925.7
723.359	26798.02
723.701	26865.37
724.044	26670.12
724.386	26493.17
724.729	26614.75
725.071	26546.51
725.413	26619.27
725.755	26531.14
726.097	26418.6
726.439	26371.82
726.782	26264.7
727.124	26409.11
727.465	26316.68
727.807	26283.91
728.149	26156.69
728.491	26165.05
728.833	26130.47
729.175	26062
729.516	25883.7
729.858	26023.81
730.199	26003.69
730.541	25981.77
730.882	25859.29
731.224	25972.74
731.565	25795.79
731.906	25828.33
732.248	25811.61
732.589	25643.93
732.93	25595.34
733.271	25589.92
733.612	25628.34
733.953	25636.7
734.294	25559.86
734.635	25426.31
734.976	25541.11
735.317	25365.97
735.658	25296.37
735.999	25389.02
736.339	25312.19
736.68	25366.42
737.021	25185.64
737.361	24989.71
737.702	25189.03
738.042	25138.86
738.383	25130.27
738.723	25184.73
739.063	25036.94
739.404	25002.59
739.744	24986.77
740.084	24986.55
740.424	24972.31
740.764	24866.55
741.104	24851.63
741.444	24741.36
741.784	24631.98
742.124	24796.72
742.464	24563.28
742.804	24658.87
743.143	24517.63
743.483	24470.18
743.823	24398.09
744.162	24435.15
744.502	24461.81
744.841	24377.07
745.181	24564.18
745.52	24429.95
745.86	24375.49
746.199	24310.18
746.538	24417.3
746.877	24377.97
747.216	24331.2
747.556	24228.37
747.895	24209.17
748.234	24151.77
748.573	24098.21
748.911	24015.27
749.25	24055.95
749.589	23862.28
749.928	24004.43
750.267	23924.65
750.605	23915.16
750.944	23870.19
751.283	23843.07
751.621	23820.25
751.96	23695.05
752.298	23556.75
752.636	23615.96
752.975	23543.65
753.313	23453.25
753.651	23674.49
753.989	23394.27
754.327	23385.46
754.666	23258.46
755.004	23373.03
755.342	23314.5
755.679	23289.42
756.017	23093.26
756.355	23215.75
756.693	23067.05
757.031	23105.01
757.368	22958.13
757.706	23002.19
758.044	22929.65
758.381	22889.43
758.719	22854.4
759.056	22777.34
759.394	22703.89
759.731	22501.87
760.068	22417.12
760.405	22357.46
760.743	22287.41
761.08	22410.12
