Data from hue_310_FLMS001491_2.txt Node
Date: Mon Feb 06 15:48:22 GMT 2017
User: dcchb
Spectrometer: FLMS00149
Trigger mode: 0
Integration Time (sec): 2.000000E-2
Scans to average: 10
Electric dark correction enabled: true
Nonlinearity correction enabled: false
Boxcar width: 0
XAxis mode: Wavelengths
Number of Pixels in Spectrum: 2048
>>>>>Begin Spectral Data<<<<<
341.393	-3.91
341.776	-3.91
342.16	-3.91
342.543	-73.97
342.927	-61.99
343.31	-91.82
343.693	-74.87
344.077	-68.77
344.46	-61.76
344.843	-52.27
345.226	-60.41
345.61	-23.8
345.993	-25.83
346.376	-5.04
346.759	10.55
347.142	35.63
347.525	51
347.908	70.89
348.291	81.06
348.674	106.37
349.057	109.08
349.44	126.93
349.823	145.01
350.206	139.59
350.588	208.29
350.971	201.28
351.354	227.95
351.737	238.34
352.119	278.57
352.502	263.2
352.884	284.22
353.267	280.37
353.65	290.09
354.032	282.18
354.414	323.08
354.797	313.14
355.179	308.85
355.562	305.68
355.944	327.83
356.326	318.11
356.709	318.11
357.091	336.19
357.473	334.84
357.855	346.13
358.238	341.62
358.62	334.84
359.002	325.57
359.384	337.55
359.766	347.04
360.148	349.75
360.53	353.59
360.912	345.46
361.294	335.74
361.676	338.68
362.057	325.8
362.439	329.86
362.821	293.26
363.203	344.55
363.584	329.19
363.966	322.18
364.348	323.54
364.729	321.73
365.111	318.11
365.493	305.91
365.874	318.34
366.256	317.44
366.637	345.46
367.019	312.01
367.4	294.61
367.781	307.04
368.163	319.24
368.544	312.69
368.925	311.79
369.306	309.53
369.688	310.2
370.069	314.27
370.45	333.48
370.831	297.55
371.212	304.55
371.593	298.23
371.974	306.36
372.355	299.36
372.736	325.8
373.117	311.33
373.498	311.11
373.879	311.11
374.26	319.92
374.641	319.47
375.021	325.34
375.402	336.42
375.783	296.42
376.163	335.51
376.544	305.23
376.925	315.18
377.305	323.08
377.686	334.84
378.066	310.43
378.447	326.25
378.827	319.69
379.208	335.97
379.588	315.4
379.968	334.16
380.349	331.22
380.729	347.49
381.109	346.81
381.489	333.25
381.87	308.4
382.25	342.97
382.63	316.08
383.01	343.42
383.39	341.16
383.77	354.72
384.15	346.36
384.53	329.86
384.91	346.81
385.29	365.57
385.67	348.39
386.049	369.19
386.429	349.3
386.809	345.91
387.189	340.71
387.568	352.91
387.948	361.28
388.328	361.73
388.707	347.94
389.087	377.09
389.466	352.24
389.846	353.82
390.225	379.58
390.605	358.34
390.984	378.9
391.363	399.01
391.743	400.6
392.122	366.47
392.501	370.54
392.881	369.86
393.26	355.63
393.639	374.16
394.018	357.66
394.397	382.29
394.776	371.67
395.155	399.47
395.534	378.45
395.913	376.19
396.292	390.2
396.671	389.07
397.05	390.2
397.429	391.11
397.808	402.4
398.186	395.63
398.565	386.81
398.944	399.47
399.323	390.43
399.701	408.28
400.08	406.7
400.458	413.03
400.837	395.17
401.215	416.87
401.594	401.05
401.972	429.52
402.351	402.4
402.729	417.32
403.107	415.74
403.486	430.65
403.864	390.43
404.242	401.95
404.62	439.24
404.999	448.73
405.377	432.69
405.755	440.82
406.133	448.28
406.511	447.6
406.889	464.55
407.267	468.17
407.645	483.98
408.023	449.64
408.401	491.44
408.779	486.02
409.156	468.84
409.534	491.22
409.912	481.27
410.29	509.52
410.667	504.1
411.045	525.79
411.422	527.83
411.8	510.65
412.178	531.89
412.555	545
412.933	540.71
413.31	545.68
413.687	542.06
414.065	597.43
414.442	570.99
414.819	576.86
415.197	579.8
415.574	584.09
415.951	602.4
416.328	622.51
416.705	612.79
417.082	619.12
417.46	621.38
417.837	635.39
418.214	627.26
418.591	656.41
418.967	679.69
419.344	666.58
419.721	672.45
420.098	683.75
420.475	695.96
420.852	713.36
421.228	706.35
421.605	708.16
421.982	728.05
422.358	725.33
422.735	752.68
423.111	775.73
423.488	738.67
423.864	759.91
424.241	803.07
424.617	798.55
424.994	763.75
425.37	789.29
425.746	786.8
426.123	822.28
426.499	832.68
426.875	801.26
427.251	831.77
427.627	843.97
428.003	858.21
428.379	862.05
428.756	857.99
429.132	907.93
429.507	884.2
429.883	887.36
430.259	926.91
430.635	917.65
431.011	935.05
431.387	936.4
431.763	946.8
432.138	966.46
432.514	958.55
432.89	989.28
433.265	996.06
433.641	1039.45
434.016	1015.27
434.392	1033.57
434.767	1076.29
435.143	1049.17
435.518	1064.53
435.894	1087.13
436.269	1099.34
436.644	1095.72
437.02	1104.76
437.395	1122.39
437.77	1114.7
438.145	1147.24
438.52	1140.92
438.895	1161.25
439.271	1175.49
439.646	1167.13
440.021	1173.68
440.395	1200.35
440.77	1196.06
441.145	1203.29
441.52	1207.58
441.895	1231.76
442.27	1216.17
442.645	1187.47
443.019	1237.86
443.394	1246.22
443.769	1274.92
444.143	1246.68
444.518	1264.3
444.892	1249.39
445.267	1228.15
445.641	1296.39
446.016	1273.34
446.39	1291.42
446.764	1270.63
447.139	1297.3
447.513	1309.73
447.887	1300.01
448.262	1327.8
448.636	1314.47
449.01	1306.79
449.384	1354.02
449.758	1333.91
450.132	1366
450.506	1340.01
450.88	1374.81
451.254	1326.9
451.628	1383.85
452.002	1356.28
452.376	1373.9
452.75	1393.57
453.123	1416.39
453.497	1418.88
453.871	1391.76
454.244	1442.83
454.618	1449.61
454.992	1455.94
455.365	1450.06
455.739	1470.17
456.112	1492.09
456.486	1507.69
456.859	1497.29
457.232	1506.56
457.606	1527.8
457.979	1547.23
458.352	1568.02
458.725	1562.15
459.099	1584.52
459.472	1581.81
459.845	1590.17
460.218	1591.07
460.591	1605.08
460.964	1608.47
461.337	1637.17
461.71	1627.46
462.083	1661.58
462.456	1659.55
462.829	1690.51
463.201	1672.43
463.574	1669.72
463.947	1718.3
464.32	1723.05
464.692	1753.56
465.065	1725.76
465.438	1771.86
465.81	1777.06
466.183	1784.29
466.555	1811.63
466.928	1831.52
467.3	1824.51
467.672	1834.91
468.045	1906.09
468.417	1876.94
468.789	1872.87
469.161	1921.23
469.534	1924.17
469.906	1961.46
470.278	1961.91
470.65	1965.08
471.022	2006.2
471.394	2033.55
471.766	2057.73
472.138	2045.07
472.51	2078.29
472.882	2107.9
473.253	2099.76
473.625	2143.83
473.997	2171.85
474.369	2178.86
474.74	2201.23
475.112	2232.19
475.484	2228.35
475.855	2272.41
476.227	2286.65
476.598	2302.47
476.97	2338.62
477.341	2368.23
477.713	2353.77
478.084	2381.11
478.455	2411.84
478.827	2456.36
479.198	2511.73
479.569	2492.52
479.94	2577.71
480.311	2598.51
480.682	2592.63
481.053	2631.05
481.424	2674.44
481.795	2656.81
482.166	2711.27
482.537	2733.64
482.908	2769.35
483.279	2760.99
483.65	2832.4
484.021	2885.28
484.391	2907.42
484.762	2921.21
485.133	2899.74
485.503	2962.56
485.874	3005.5
486.244	2984.94
486.615	3058.83
486.985	3077.14
487.356	3112.39
487.726	3142.9
488.097	3176.34
488.467	3177.47
488.837	3219.73
489.207	3271.48
489.578	3294.98
489.948	3294.98
490.318	3317.81
490.688	3362.78
491.058	3414.3
491.428	3435.09
491.798	3440.29
492.168	3498.59
492.538	3522.77
492.908	3507.63
493.278	3567.07
493.648	3581.08
494.017	3613.39
494.387	3633.28
494.757	3635.77
495.126	3641.87
495.496	3678.25
495.866	3703.56
496.235	3767.51
496.605	3710.34
496.974	3750.57
497.344	3764.35
497.713	3790.34
498.082	3791.02
498.452	3808.64
498.821	3829.21
499.19	3845.48
499.559	3872.37
499.928	3892.71
500.298	3897.23
500.667	3944.01
501.036	3921.41
501.405	3934.29
501.774	3938.13
502.143	4021.74
502.512	3981.29
502.88	4019.03
503.249	4032.14
503.618	4074.4
503.987	4078.69
504.356	4094.06
504.724	4082.31
505.093	4098.58
505.462	4081.4
505.83	4111.23
506.199	4123.21
506.567	4155.07
506.936	4149.65
507.304	4203.66
507.672	4222.87
508.041	4242.08
508.409	4244.79
508.777	4304.9
509.145	4258.8
509.514	4291.12
509.882	4334.05
510.25	4319.59
510.618	4305.58
510.986	4320.04
511.354	4321.4
511.722	4431.68
512.09	4467.38
512.458	4400.04
512.826	4407.05
513.193	4471.45
513.561	4427.16
513.929	4429.42
514.297	4520.04
514.664	4513.48
515.032	4487.72
515.4	4508.51
515.767	4517.55
516.135	4562.52
516.502	4533.37
516.869	4594.61
517.237	4581.73
517.604	4571.56
517.972	4591.45
518.339	4631.67
518.706	4619.24
519.073	4640.94
519.44	4667.15
519.808	4644.55
520.175	4674.83
520.542	4719.58
520.909	4718.9
521.276	4754.38
521.643	4747.6
522.009	4757.32
522.376	4803.87
522.743	4778.79
523.11	4814.04
523.477	4882.96
523.843	4924.32
524.21	4948.05
524.577	4974.94
524.943	4951.21
525.31	4913.25
525.676	5041.15
526.043	4997.54
526.409	5046.58
526.776	5095.39
527.142	5133.35
527.508	5103.07
527.874	5138.1
528.241	5121.83
528.607	5138.55
528.973	5209.28
529.339	5224.42
529.705	5267.36
530.071	5278.21
530.437	5226.01
530.803	5331.99
531.169	5342.16
531.535	5343.74
531.901	5322.05
532.267	5376.96
532.632	5441.14
532.998	5433.46
533.364	5430.07
533.73	5485.89
534.095	5536.51
534.461	5516.39
534.826	5532.21
535.192	5614.7
535.557	5629.39
535.923	5645.43
536.288	5625.09
536.653	5705.09
537.019	5625.09
537.384	5685.88
537.749	5736.5
538.114	5748.93
538.479	5772.88
538.845	5737.41
539.21	5774.69
539.575	5812.21
539.94	5826.89
540.305	5897.4
540.67	5942.37
541.034	5926.1
541.399	5959.09
541.764	5963.39
542.129	5981.47
542.494	5971.07
542.858	6011.07
543.223	6021.24
543.587	6054.69
543.952	6066.21
544.316	6119.32
544.681	6174.23
545.045	6153.21
545.41	6245.64
545.774	6242.48
546.138	6239.54
546.503	6274.11
546.867	6265.3
547.231	6302.81
547.595	6376.03
547.959	6302.81
548.324	6384.85
548.688	6377.84
549.052	6415.13
549.416	6472.98
549.779	6433.21
550.143	6460.32
550.507	6558.4
550.871	6537.16
551.235	6516.59
551.599	6576.25
551.962	6533.32
552.326	6625.52
552.689	6664.61
553.053	6642.92
553.417	6628
553.78	6676.59
554.143	6723.59
554.507	6682.01
554.87	6761.33
555.234	6789.13
555.597	6764.5
555.96	6808.56
556.323	6832.74
556.686	6817.6
557.05	6859.41
557.413	6895.34
557.776	6902.35
558.139	6919.75
558.502	6954.55
558.865	6979.41
559.228	6995.9
559.59	6988.67
559.953	7019.86
560.316	7060.76
560.679	7110.7
561.041	7065.51
561.404	7129.69
561.767	7147.76
562.129	7156.35
562.492	7253.52
562.854	7207.42
563.217	7266.86
563.579	7282.45
563.941	7324.03
564.304	7364.71
564.666	7376.91
565.028	7359.74
565.39	7398.6
565.753	7441.54
566.115	7457.81
566.477	7430.92
566.839	7472.73
567.201	7548.21
567.563	7532.39
567.925	7597.02
568.287	7647.19
568.648	7627.53
569.01	7665.94
569.372	7713.17
569.734	7689.44
570.095	7810.12
570.457	7808.31
570.819	7813.28
571.18	7835.2
571.542	7891.93
571.903	7927.63
572.265	7941.87
572.626	8010.79
572.987	8008.08
573.349	8117
573.71	8157.23
574.071	8165.82
574.432	8231.58
574.794	8316.32
575.155	8371.91
575.516	8372.59
575.877	8407.17
576.238	8510.67
576.599	8612.13
576.96	8616.2
577.32	8738.91
577.681	8738
578.042	8856.87
578.403	8916.31
578.763	9005.57
579.124	9090.31
579.485	9351.32
579.845	9382.96
580.206	9415.95
580.566	9576.85
580.927	9776.62
581.287	9903.85
581.648	9906.79
582.008	10052.77
582.368	10157.4
582.728	10360.11
583.089	10565.3
583.449	10682.81
583.809	10794.9
584.169	11040.32
584.529	11208.45
584.889	11419.74
585.249	11649.11
585.609	11665.61
585.969	11986.96
586.329	12217.46
586.688	12468.53
587.048	12698.35
587.408	12848.41
587.768	13136.53
588.127	13342.86
588.487	13593.92
588.846	13946.46
589.206	14121.14
589.565	14361.36
589.925	14752.76
590.284	14921.8
590.643	15236.82
591.003	15533.76
591.362	15818.72
591.721	16136.23
592.08	16457.12
592.44	16781.18
592.799	17055.3
593.158	17302.75
593.517	17535.74
593.876	17952.23
594.235	18183.41
594.593	18567.58
594.952	18853.44
595.311	19126.88
595.67	19534.56
596.029	19858.62
596.387	20120.98
596.746	20403.69
597.104	20700.18
597.463	21034.63
597.822	21399.82
598.18	21684.33
598.538	22012.68
598.897	22388.27
599.255	22517.76
599.613	23150.73
599.972	23289.03
600.33	23649.93
600.688	23928.79
601.046	24218.73
601.404	24568.32
601.762	24885.6
602.12	25247.63
602.478	25480.16
602.836	25759.03
603.194	25855.52
603.552	26293.02
603.91	26526.46
604.268	26959.67
604.625	27143.85
604.983	27486.44
605.341	27529.15
605.698	27993.54
606.056	28273.08
606.413	28556.69
606.771	28859.96
607.128	29096.34
607.485	29178.6
607.843	29444.8
608.2	29838.92
608.557	30220.6
608.914	30213.15
609.272	30721.16
609.629	30847.25
609.986	31205.44
610.343	31151.2
610.7	31679.55
611.057	31686.55
611.414	31999.09
611.771	32174.68
612.127	32472.97
612.484	32686.53
612.841	32871.61
613.198	32949.35
613.554	33116.12
613.911	33514.08
614.267	33673.17
614.624	33721.75
614.98	34050.11
615.337	34241.97
615.693	34399.25
616.05	34587.72
616.406	34839.24
616.762	34904.55
617.118	35005.34
617.475	35212.11
617.831	35429.51
618.187	35690.74
618.543	35791.98
618.899	36084.86
619.255	35993.33
619.611	36230.84
619.967	36363.49
620.323	36560.55
620.678	36581.79
621.034	36652.3
621.39	36798.06
621.746	36896.59
622.101	37260.42
622.457	37113.3
622.812	37241.21
623.168	37495.89
623.523	37465.38
623.879	37819.5
624.234	37545.61
624.589	37879.39
624.945	37944.47
625.3	38142.88
625.655	38094.75
626.01	38161.19
626.365	38314.18
626.72	38322.76
627.075	38470.33
627.43	38577.22
627.785	38481.63
628.14	38561.4
628.495	38585.58
628.85	38744.9
629.205	38616.32
629.559	38924.56
629.914	38856.76
630.269	38904.22
630.623	38911
630.978	38965.01
631.332	38989.41
631.687	39268.5
632.041	38977.21
632.396	39129.97
632.75	39036.19
633.104	39164.1
633.459	38988.28
633.813	39092.23
634.167	39073.03
634.521	39104.89
634.875	39245.68
635.229	39258.78
635.583	39088.62
635.937	39061.95
636.291	39249.52
636.645	39247.26
636.999	39127.04
637.352	39201.84
637.706	39110.31
638.06	39200.93
638.413	39112.35
638.767	39077.32
639.121	39243.19
639.474	39062.63
639.828	39138.56
640.181	39363.19
640.534	39200.03
640.888	39205.23
641.241	38991.9
641.594	39075.29
641.947	39289.29
642.301	39090.2
642.654	39205.68
643.007	39188.28
643.36	39181.95
643.713	39070.99
644.066	39173.14
644.419	38900.38
644.771	38730.89
645.124	38462.65
645.477	38479.14
645.83	38276.89
646.182	38107.63
646.535	38005.48
646.888	38072.15
647.24	37759.61
647.593	38054.07
647.945	37927.97
648.298	37809.33
648.65	37798.26
649.002	37618.38
649.355	37848.65
649.707	37894.75
650.059	37934.3
650.411	38482.08
650.763	38466.71
651.115	38788.74
651.467	38600.72
651.819	38703.09
652.171	38653.15
652.523	38614.06
652.875	38493.61
653.227	38440.73
653.578	38725.69
653.93	38652.92
654.282	38486.83
654.633	38389.2
654.985	38518.01
655.337	38491.12
655.688	38408.19
656.039	38641.4
656.391	38302.88
656.742	38318.7
657.094	38298.36
657.445	38509.65
657.796	38425.81
658.147	38434.17
658.498	38333.38
658.849	38440.5
659.2	38503.78
659.551	38235.99
659.902	38283.89
660.253	38306.72
660.604	38480.73
660.955	38190.34
661.306	38389.2
661.656	38349.66
662.007	38308.3
662.358	38187.4
662.708	38202.31
663.059	38378.13
663.409	38167.29
663.76	38317.79
664.11	38303.1
664.461	38307.4
664.811	38345.36
665.161	38371.8
665.511	38171.36
665.862	38300.39
666.212	38257.23
666.562	38318.02
666.912	38295.65
667.262	38155.76
667.612	38150.34
667.962	38399.15
668.312	38307.17
668.662	38409.99
669.011	38201.86
669.361	38123.9
669.711	38205.25
670.06	38007.97
670.41	38009.1
670.76	38074.86
671.109	38171.13
671.459	38053.17
671.808	37976.11
672.157	38227.85
672.507	37878.48
672.856	37818.37
673.205	38056.1
673.554	38175.65
673.904	37886.39
674.253	38083.45
674.602	38079.38
674.951	37538.38
675.3	37332.51
675.649	37931.36
675.998	37841.42
676.346	37884.58
676.695	38057.69
677.044	37734.53
677.393	37799.84
677.741	37830.12
678.09	37723.46
678.438	37690.69
678.787	37761.87
679.135	37784.25
679.484	37477.36
679.832	37565.95
680.181	37263.13
680.529	37582.9
680.877	37520.98
681.225	37429.91
681.573	37650.01
681.922	37334.09
682.27	37167.09
682.618	37177.48
682.966	37103.59
683.314	37303.36
683.661	37089.12
684.009	36947.21
684.357	36950.82
684.705	36791.28
685.053	37016.36
685.4	36923.25
685.748	36652.07
686.095	36713.99
686.443	36737.27
686.79	36550.83
687.138	36494.56
687.485	36631.73
687.832	36490.04
688.18	36502.47
688.527	36161.24
688.874	36285.3
689.221	36227.68
689.568	36092.09
689.915	35881.92
690.262	35961.02
690.609	35810.74
690.956	35779.33
691.303	35760.8
691.65	35657.97
691.997	35517.87
692.344	35529.62
692.69	35369.17
693.037	35361.94
693.383	35104.32
693.73	35305.44
694.077	35010.99
694.423	34921.72
694.769	34789.52
695.116	34843.76
695.462	34786.81
695.808	34574.39
696.155	34703.42
696.501	34517.67
696.847	34450.32
697.193	34213.95
697.539	34346.6
697.885	34068.41
698.231	34118.81
698.577	34146.15
698.923	33972.14
699.269	33898.93
699.614	33726.5
699.96	33584.13
700.306	33687.41
700.651	33512.04
700.997	33452.84
701.342	33229.11
701.688	33253.74
702.033	33170.81
702.379	33188.21
702.724	32989.12
703.069	33135.33
703.415	32812.4
703.76	32820.76
704.105	32854.21
704.45	32806.3
704.795	32575.57
705.14	32341.23
705.485	32376.71
705.83	32364.73
706.175	32297.84
706.52	32378.06
706.865	32218.74
707.209	32045.19
707.554	32091.29
707.899	32108.69
708.243	32020.33
708.588	31920.45
708.932	31715.93
709.277	31673.22
709.621	31710.06
709.966	31475.71
710.31	31433.68
710.654	31388.03
710.998	31362.27
711.342	31340.57
711.687	31233.68
712.031	31087.93
712.375	30966.8
712.719	30954.82
713.063	31008.38
713.407	31026.01
713.75	30774.04
714.094	30821.04
714.438	30700.82
714.782	30676.86
715.125	30508.05
715.469	30546.47
715.812	30355.52
716.156	30331.56
716.499	30300.38
716.843	30274.16
717.186	30242.3
717.53	30250.43
717.873	30334.27
718.216	30170.89
718.559	30071.68
718.902	29879.6
719.246	29851.35
719.589	29920.72
719.932	29669.88
720.275	29719.6
720.617	29741.29
720.96	29545.59
721.303	29637.79
721.646	29696.32
721.989	29377.69
722.331	29572.26
722.674	29396.67
723.016	29320.74
723.359	29236.9
723.701	29356.45
724.044	29224.02
724.386	29079.62
724.729	29192.83
725.071	29055.44
725.413	29097.24
725.755	29028.54
726.097	28874.2
726.439	28741.09
726.782	28733.41
727.124	28956.23
727.465	28840.08
727.807	28633.3
728.149	28538.61
728.491	28615.45
728.833	28593.3
729.175	28593.08
729.516	28414.1
729.858	28376.81
730.199	28437.83
730.541	28309.02
730.882	28412.97
731.224	28354.21
731.565	28191.05
731.906	28229.92
732.248	28233.99
732.589	28051.85
732.93	27938.86
733.271	27917.84
733.612	28008.91
733.953	27989.93
734.294	27864.28
734.635	27823.83
734.976	27937.05
735.317	27757.84
735.658	27778.41
735.999	27683.04
736.339	27636.72
736.68	27858.63
737.021	27705.42
737.361	27506.32
737.702	27769.14
738.042	27554.46
738.383	27504.52
738.723	27560.56
739.063	27335.48
739.404	27275.37
739.744	27143.4
740.084	27163.73
740.424	27294.35
740.764	27181.14
741.104	27300.68
741.444	27162.83
741.784	26971.88
742.124	27099.78
742.464	27045.77
742.804	26913.12
743.143	26946.57
743.483	26871.31
743.823	26667.48
744.162	26735.95
744.502	26788.38
744.841	26510.42
745.181	26774.59
745.52	26617.31
745.86	26622.73
746.199	26638.33
746.538	26502.28
746.877	26576.18
747.216	26413.92
747.556	26427.03
747.895	26460.93
748.234	26262.29
748.573	26247.15
748.911	26215.06
749.25	26322.18
749.589	26008.29
749.928	26163.54
750.267	26166.25
750.605	26072.24
750.944	26028.85
751.283	25893.49
751.621	25940.26
751.96	25847.39
752.298	25717.22
752.636	25837.44
752.975	25549.54
753.313	25433.84
753.651	25561.29
753.989	25447.4
754.327	25493.72
754.666	25428.41
755.004	25368.3
755.342	25439.03
755.679	25278.81
756.017	25181.41
756.355	25138.93
756.693	25122.88
757.031	25079.95
757.368	24877.69
757.706	24843.8
758.044	24880.63
758.381	24858.71
758.719	24705.72
759.056	24771.03
759.394	24701.65
