Data from hue_40_FLMS001491_34.txt Node
Date: Mon Feb 06 15:07:48 GMT 2017
User: dcchb
Spectrometer: FLMS00149
Trigger mode: 0
Integration Time (sec): 2.000000E-2
Scans to average: 10
Electric dark correction enabled: true
Nonlinearity correction enabled: false
Boxcar width: 0
XAxis mode: Wavelengths
Number of Pixels in Spectrum: 2048
>>>>>Begin Spectral Data<<<<<
341.393	-16.61
341.776	-16.61
342.16	-16.61
342.543	-68.81
342.927	-87.12
343.31	-71.52
343.693	-84.63
344.077	-59.09
344.46	-66.55
344.843	-59.77
345.226	-51.19
345.61	-17.74
345.993	-34.01
346.376	-16.16
346.759	-6.21
347.142	43.28
347.525	45.08
347.908	76.72
348.291	81.47
348.674	88.47
349.057	131.86
349.44	117.4
349.823	129.15
350.206	163.72
350.588	184.29
350.971	189.03
351.354	226.55
351.737	212.99
352.119	254.8
352.502	257.96
352.884	258.41
353.267	279.2
353.65	308.81
354.032	285.08
354.414	309.48
354.797	292.53
355.179	320.56
355.562	314.91
355.944	344.06
356.326	315.58
356.709	335.92
357.091	314.91
357.473	329.37
357.855	345.41
358.238	345.64
358.62	352.65
359.002	349.71
359.384	323.27
359.766	323.95
360.148	334.12
360.53	327.34
360.912	319.2
361.294	339.99
361.676	327.11
362.057	337.73
362.439	318.07
362.821	332.53
363.203	304.51
363.584	319.2
363.966	319.88
364.348	325.75
364.729	329.82
365.111	322.36
365.493	317.39
365.874	307.9
366.256	293.21
366.637	315.81
367.019	307.9
367.4	305.19
367.781	310.61
368.163	306.09
368.544	311.52
368.925	303.16
369.306	289.37
369.688	290.5
370.069	307.45
370.45	301.8
370.831	326.88
371.212	308.58
371.593	307
371.974	308.81
372.355	276.94
372.736	296.83
373.117	312.42
373.498	316.49
373.879	311.07
374.26	299.77
374.641	310.16
375.021	320.56
375.402	293.21
375.783	305.64
376.163	307
376.544	332.53
376.925	329.37
377.305	318.75
377.686	325.75
378.066	308.81
378.447	314.23
378.827	340.44
379.208	320.1
379.588	324.62
379.968	341.8
380.349	322.14
380.729	315.81
381.109	314.68
381.489	320.33
381.87	333.66
382.25	337.28
382.63	347.9
383.01	324.4
383.39	326.21
383.77	344.06
384.15	348.35
384.53	318.97
384.91	361.91
385.29	333.66
385.67	337.51
386.049	329.82
386.429	348.13
386.809	325.3
387.189	341.35
387.568	340.22
387.948	341.57
388.328	346.09
388.707	344.51
389.087	357.17
389.466	342.48
389.846	352.87
390.225	357.17
390.605	345.64
390.984	354.23
391.363	356.26
391.743	352.65
392.122	350.39
392.501	358.75
392.881	347.45
393.26	332.76
393.639	378.86
394.018	351.06
394.397	371.85
394.776	366.88
395.155	360.56
395.534	353.1
395.913	369.37
396.292	372.31
396.671	372.53
397.05	370.27
397.429	369.37
397.808	379.54
398.186	361.69
398.565	362.82
398.944	379.09
399.323	379.09
399.701	380.44
400.08	383.83
400.458	356.71
400.837	374.34
401.215	374.34
401.594	388.13
401.972	389.26
402.351	379.99
402.729	367.56
403.107	374.34
403.486	368.69
403.864	391.97
404.242	390.61
404.62	390.84
404.999	378.18
405.377	395.36
405.755	389.26
406.133	387.45
406.511	384.51
406.889	401.46
407.267	400.33
407.645	410.5
408.023	405.3
408.401	420.89
408.779	399.65
409.156	398.75
409.534	414.79
409.912	421.8
410.29	418.86
410.667	407.79
411.045	435.36
411.422	429.25
411.8	431.97
412.178	435.13
412.555	436.49
412.933	455.02
413.31	434.9
413.687	438.97
414.065	449.82
414.442	443.49
414.819	455.92
415.197	451.4
415.574	442.14
415.951	462.93
416.328	473.77
416.705	449.82
417.082	445.98
417.46	464.73
417.837	471.06
418.214	482.13
418.591	481.91
418.967	456.15
419.344	468.12
419.721	474.9
420.098	481.46
420.475	488.24
420.852	486.2
421.228	504.28
421.605	472.42
421.982	488.24
422.358	492.3
422.735	525.97
423.111	497.73
423.488	508.12
423.864	522.36
424.241	515.81
424.617	508.57
424.994	502.47
425.37	510.83
425.746	528.69
426.123	515.13
426.499	534.56
426.875	512.42
427.251	524.17
427.627	523.72
428.003	553.77
428.379	563.04
428.756	534.79
429.132	554.9
429.507	567.78
429.883	553.09
430.259	578.18
430.635	560.55
431.011	561.45
431.387	559.87
431.763	577.05
432.138	579.76
432.514	597.84
432.89	588.35
433.265	593.77
433.641	620.44
434.016	611.17
434.392	601.91
434.767	625.18
435.143	610.49
435.518	604.62
435.894	611.85
436.269	646.88
436.644	629.93
437.02	633.77
437.395	627.89
437.77	656.37
438.145	647.78
438.52	654.56
438.895	697.72
439.271	657.27
439.646	659.08
440.021	686.2
440.395	666.31
440.77	661.11
441.145	675.58
441.52	703.6
441.895	676.48
442.27	709.7
442.645	687.33
443.019	718.29
443.394	726.87
443.769	709.02
444.143	708.34
444.518	710.6
444.892	701.79
445.267	728.23
445.641	720.77
446.016	715.12
446.39	722.13
446.764	729.81
447.139	734.56
447.513	716.25
447.887	739.75
448.262	740.43
448.636	746.08
449.01	751.28
449.384	756.25
449.758	756.25
450.132	770.94
450.506	776.59
450.88	759.64
451.254	776.59
451.628	788.11
452.002	789.92
452.376	798.96
452.75	787.21
453.123	817.49
453.497	800.77
453.871	819.98
454.244	809.13
454.618	860.66
454.992	863.14
455.365	838.28
455.739	846.42
456.112	854.55
456.486	859.98
456.859	888.9
457.232	881.9
457.606	898.85
457.979	920.31
458.352	924.38
458.725	910.6
459.099	930.71
459.472	944.27
459.845	951.5
460.218	958.96
460.591	988.11
460.964	976.58
461.337	973.87
461.71	997.83
462.083	1022.91
462.456	1011.61
462.829	1040.09
463.201	1032.4
463.574	1040.09
463.947	1055.45
464.32	1073.76
464.692	1081.44
465.065	1094.55
465.438	1119.18
465.81	1099.52
466.183	1125.06
466.555	1162.79
466.928	1159.63
467.3	1172.74
467.672	1169.57
468.045	1214.54
468.417	1230.82
468.789	1238.27
469.161	1272.85
469.534	1273.98
469.906	1296.35
470.278	1304.94
470.65	1337.03
471.022	1360.98
471.394	1402.79
471.766	1406.4
472.138	1448.44
472.51	1465.39
472.882	1462.22
473.253	1525.04
473.625	1529.56
473.997	1596.68
474.369	1568.89
474.74	1615.44
475.112	1669
475.484	1671.93
475.855	1751.71
476.227	1763.23
476.598	1795.32
476.97	1826.28
477.341	1894.07
477.713	1912.38
478.084	1950.8
478.455	2018.82
478.827	2068.76
479.198	2119.15
479.569	2176.78
479.94	2249.09
480.311	2285.25
480.682	2320.5
481.053	2411.8
481.424	2470.1
481.795	2528.63
482.166	2572.25
482.537	2654.73
482.908	2713.04
483.279	2769.98
483.65	2879.36
484.021	2905.35
484.391	3011.11
484.762	3035.29
485.133	3149.63
485.503	3203.19
485.874	3319.57
486.244	3378.56
486.615	3490.87
486.985	3581.26
487.356	3643.86
487.726	3733.35
488.097	3831.65
488.467	3918.2
488.837	4004.3
489.207	4111.87
489.578	4191.42
489.948	4270.74
490.318	4358.64
490.688	4392.77
491.058	4597.73
491.428	4634.57
491.798	4722.47
492.168	4914.79
492.538	4946.42
492.908	5047.89
493.278	5190.94
493.648	5223.25
494.017	5325.4
494.387	5441.78
494.757	5511.83
495.126	5606.52
495.496	5688.33
495.866	5769
496.235	5872.27
496.605	5941.88
496.974	5997.7
497.344	6134.87
497.713	6227.75
498.082	6332.15
498.452	6393.39
498.821	6486.72
499.19	6537.34
499.559	6656.66
499.928	6693.27
500.298	6827.96
500.667	6888.29
501.036	6957.9
501.405	7071.79
501.774	7163.77
502.143	7271.11
502.512	7269.3
502.88	7355.85
503.249	7321.73
503.618	7520.82
503.987	7530.54
504.356	7596.07
504.724	7653.92
505.093	7772.34
505.462	7815.27
505.83	7868.38
506.199	8062.5
506.567	8062.05
506.936	8184.08
507.304	8217.52
507.672	8266.11
508.041	8375.26
508.409	8429.04
508.777	8510.62
509.145	8605.08
509.514	8629.49
509.882	8711.75
510.25	8762.59
510.618	8900.44
510.986	8908.13
511.354	8986.77
511.722	9030.38
512.09	9186.31
512.458	9179.31
512.826	9222.47
513.193	9294.11
513.561	9317.16
513.929	9368
514.297	9464.04
514.664	9561.67
515.032	9575
515.4	9710.37
515.767	9797.37
516.135	9825.17
516.502	9791.27
516.869	9912.85
517.237	9987.65
517.604	9955.56
517.972	10095.89
518.339	10173.86
518.706	10149.9
519.073	10253.4
519.44	10363.91
519.808	10446.84
520.175	10425.6
520.542	10574.52
520.909	10618.36
521.276	10674.63
521.643	10709.66
522.009	10820.85
522.376	10865.14
522.743	10945.59
523.11	10987.62
523.477	11090.67
523.843	11174.06
524.21	11275.75
524.577	11365.92
524.943	11447.95
525.31	11454.28
525.676	11524.78
526.043	11643.42
526.409	11732.01
526.776	11858.56
527.142	11866.47
527.508	11982.17
527.874	12055.16
528.241	12088.16
528.607	12086.8
528.973	12174.71
529.339	12219.68
529.705	12296.51
530.071	12434.81
530.437	12485.21
530.803	12603.4
531.169	12672.1
531.535	12701.93
531.901	12729.72
532.267	12830.06
532.632	12910.73
532.998	12908.47
533.364	12965.42
533.73	13104.4
534.095	13140.56
534.461	13239.09
534.826	13291.06
535.192	13268.01
535.557	13436.14
535.923	13331.51
536.288	13459.19
536.653	13596.14
537.019	13553.65
537.384	13612.18
537.749	13702.13
538.114	13687.44
538.479	13686.53
538.845	13794.33
539.21	13788.9
539.575	13848.79
539.94	13876.36
540.305	13995.68
540.67	13990.48
541.034	14157.48
541.399	14174.2
541.764	14158.84
542.129	14227.54
542.494	14380.3
542.858	14384.59
543.223	14369.23
543.587	14493.97
543.952	14483.8
544.316	14573.06
544.681	14463.69
545.045	14629.33
545.41	14717.01
545.774	14754.53
546.138	14899.38
546.503	14906.84
546.867	14893.96
547.231	15023.45
547.595	14995.2
547.959	15033.39
548.324	15104.35
548.688	15148.64
549.052	15253.72
549.416	15226.15
549.779	15268.86
550.143	15364.45
550.507	15471.57
550.871	15473.6
551.235	15406.26
551.599	15597.44
551.962	15687.38
552.326	15719.25
552.689	15731
553.053	15749.53
553.417	15784.56
553.78	15966.7
554.143	16010.54
554.507	15997.66
554.87	16141.61
555.234	16162.85
555.597	16213.47
555.96	16267.71
556.323	16277.88
556.686	16320.59
557.05	16459.34
557.413	16549.28
557.776	16460.02
558.139	16643.07
558.502	16739.79
558.865	16736.17
559.228	16776.17
559.59	16901.82
559.953	16872.66
560.316	17078.08
560.679	17047.8
561.041	17123.73
561.404	17176.61
561.767	17326.66
562.129	17260.22
562.492	17519.65
562.854	17443.5
563.217	17429.49
563.579	17477.62
563.941	17643.72
564.304	17701.34
564.666	17869.25
565.028	17855.69
565.39	17923.26
565.753	18041.22
566.115	18119.41
566.477	18121.67
566.839	18220.88
567.201	18272.63
567.563	18325.05
567.925	18398.95
568.287	18446.86
568.648	18490.7
569.01	18613.86
569.372	18695.89
569.734	18637.59
570.095	18803.91
570.457	18919.16
570.819	18984.92
571.18	19077.13
571.542	19096.79
571.903	19203.45
572.265	19330.23
572.626	19314.86
572.987	19358.02
573.349	19492.71
573.71	19485.7
574.071	19665.13
574.432	19686.15
574.794	19800.72
575.155	19881.85
575.516	19912.58
575.877	20063.54
576.238	20096.76
576.599	20313.7
576.96	20285.23
577.32	20387.15
577.681	20440.48
578.042	20723.64
578.403	20654.71
578.763	20798.21
579.124	20852.45
579.485	21066.45
579.845	21213.57
580.206	21201.14
580.566	21336.5
580.927	21602.03
581.287	21704.4
581.648	21747.11
582.008	21945.75
582.368	22001.12
582.728	22270.49
583.089	22316.81
583.449	22491.05
583.809	22605.62
584.169	22673.42
584.529	22829.8
584.889	23157.02
585.249	23189.56
585.609	23471.13
585.969	23558.14
586.329	23750.67
586.688	23894.17
587.048	24114.06
587.408	24187.27
587.768	24217.56
588.127	24468.17
588.487	24537.77
588.846	25058.44
589.206	25044.43
589.565	25227.92
589.925	25437.18
590.284	25502.27
590.643	25779.1
591.003	25905.65
591.362	26223.38
591.721	26274.68
592.08	26466.08
592.44	26803.02
592.799	26855.23
593.158	27060.42
593.517	27238.94
593.876	27486.4
594.235	27597.58
594.593	27680.97
594.952	27921.41
595.311	28044.35
595.67	28267.84
596.029	28658.34
596.387	28812.91
596.746	28974.27
597.104	29031.44
597.463	29159.8
597.822	29466.68
598.18	29473.91
598.538	29560.92
598.897	29867.35
599.255	29851.08
599.613	30400.67
599.972	30456.04
600.33	30501.91
600.688	30432.31
601.046	30796.82
601.404	31019.41
601.762	31084.95
602.12	31396.8
602.478	31398.84
602.836	31551.37
603.194	31634.08
603.552	31718.15
603.91	31745.72
604.268	32114.52
604.625	32182.54
604.983	32368.08
605.341	32181.87
605.698	32569.65
606.056	32764.22
606.413	32771.68
606.771	32953.82
607.128	33124.67
607.485	32994.73
607.843	33180.26
608.2	33433.13
608.557	33661.83
608.914	33687.14
609.272	33957.41
609.629	34010.74
609.986	34173.23
610.343	34020.01
610.7	34355.59
611.057	34478.08
611.414	34443.95
611.771	34632.2
612.127	34972.98
612.484	34866.54
612.841	35101.34
613.198	35028.57
613.554	35004.84
613.911	35361.9
614.267	35353.99
614.624	35418.62
614.98	35440.09
615.337	35821.54
615.693	35738.61
616.05	35725.28
616.406	36035.55
616.762	35963.91
617.118	35959.62
617.475	36054.53
617.831	36253.62
618.187	36289.78
618.543	36357.35
618.899	36589.89
619.255	36639.83
619.611	36636.21
619.967	36730.67
620.323	36868.97
620.678	36793.5
621.034	36806.6
621.39	36934.96
621.746	36862.42
622.101	37184.45
622.457	37049.08
622.812	37159.14
623.168	37209.98
623.523	37256.31
623.879	37421.73
624.234	37249.3
624.589	37350.09
624.945	37557.09
625.3	37391.45
625.655	37547.37
626.01	37637.54
626.365	37679.8
626.72	37664.43
627.075	37711.66
627.43	37579.46
627.785	37701.72
628.14	37830.76
628.495	37721.83
628.85	37767.93
629.205	37651.33
629.559	37955.27
629.914	37878.67
630.269	37850.87
630.623	37694.04
630.978	37522.74
631.332	37923.64
631.687	37977.19
632.041	37893.13
632.396	37856.29
632.75	37783.53
633.104	37835.5
633.459	37811.1
633.813	37666.69
634.167	37754.83
634.521	37625.56
634.875	37874.6
635.229	37770.65
635.583	37737.88
635.937	37600.03
636.291	37578.56
636.645	37524.55
636.999	37644.55
637.352	37722.96
637.706	37499.01
638.06	37561.61
638.413	37495.85
638.767	37426.93
639.121	37598.9
639.474	37202.75
639.828	37293.14
640.181	37456.08
640.534	37487.49
640.888	37437.77
641.241	37223.77
641.594	37204.11
641.947	37411.11
642.301	37106.93
642.654	37278.91
643.007	37256.76
643.36	37237.55
643.713	37115.52
644.066	37254.05
644.419	37075.07
644.771	36833.04
645.124	36565.48
645.477	36438.93
645.83	36321.87
646.182	36192.61
646.535	36156
646.888	36227.86
647.24	35932.73
647.593	36176.56
647.945	36093.85
648.298	35828.55
648.65	35871.03
649.002	35715.11
649.355	35940.64
649.707	35837.14
650.059	36100.86
650.411	36416.78
650.763	36519.38
651.115	36729.77
651.467	36676.66
651.819	36737.45
652.171	36712.37
652.523	36649.32
652.875	36590.34
653.227	36466.05
653.578	36672.82
653.93	36503.33
654.282	36540.4
654.633	36407.97
654.985	36402.09
655.337	36445.71
655.688	36433.05
656.039	36608.42
656.391	36365.48
656.742	36313.06
657.094	36318.48
657.445	36528.19
657.796	36446.61
658.147	36363.45
658.498	36324.13
658.849	36405.48
659.2	36384.02
659.551	36229.22
659.902	36439.83
660.253	36233.74
660.604	36311.02
660.955	36240.74
661.306	36335.65
661.656	36306.95
662.007	36395.09
662.358	36213.62
662.708	36166.62
663.059	36140.63
663.409	36021.31
663.76	36194.42
664.11	36231.02
664.461	36138.37
664.811	36123.46
665.161	36202.32
665.511	36120.29
665.862	36197.13
666.212	36209.78
666.562	36283.68
666.912	36132.5
667.262	36005.72
667.612	36159.39
667.962	36126.17
668.312	36136.79
668.662	36298.37
669.011	36132.95
669.361	36101.08
669.711	36010.47
670.06	36005.72
670.41	35909.23
670.76	36045.49
671.109	36161.87
671.459	35963.46
671.808	35934.76
672.157	35970.92
672.507	35839.85
672.856	35980.18
673.205	35907.19
673.554	35871.94
673.904	35750.59
674.253	35928.66
674.602	35879.17
674.951	35386.75
675.3	35217.49
675.649	35800.53
675.998	35753.98
676.346	35701.77
676.695	35852.96
677.044	35599.85
677.393	35651.38
677.741	35756.01
678.09	35494.77
678.438	35473.98
678.787	35629.01
679.135	35647.31
679.484	35285.29
679.832	35569.35
680.181	35410.26
680.529	35483.93
680.877	35319.64
681.225	35249.13
681.573	35384.72
681.922	35262.91
682.27	34986.99
682.618	35086.42
682.966	35064.05
683.314	35130.26
683.661	34939.31
684.009	34936.6
684.357	34843.26
684.705	34838.29
685.053	34741.8
685.4	34618.41
685.748	34495.48
686.095	34477.85
686.443	34486.21
686.79	34398.76
687.138	34436.27
687.485	34438.76
687.832	34308.82
688.18	34330.51
688.527	34115.83
688.874	34216.16
689.221	34071.53
689.568	33855.49
689.915	33959.22
690.262	33906.34
690.609	33805.55
690.956	33735.95
691.303	33629.06
691.65	33516.29
691.997	33474.26
692.344	33345.68
692.69	33283.08
693.037	33433.81
693.383	33017.1
693.73	33223.42
694.077	32915.86
694.423	32923.77
694.769	32920.15
695.116	32759.7
695.462	32786.37
695.808	32718.57
696.155	32666.37
696.501	32553.16
696.847	32423.44
697.193	32274.29
697.539	32257.34
697.885	32124.92
698.231	32059.83
698.577	31938.93
698.923	31928.31
699.269	31705.72
699.614	31691.71
699.96	31670.47
700.306	31594.99
700.651	31399.97
700.997	31293.98
701.342	31362.23
701.688	31360.42
702.033	31237.71
702.379	31166.07
702.724	31100.31
703.069	31085.62
703.415	30677.95
703.76	30799.76
704.105	30724.5
704.45	30710.04
704.795	30651.96
705.14	30526.32
705.485	30557.5
705.83	30269.15
706.175	30377.62
706.52	30192.54
706.865	30117.29
707.209	30165.42
707.554	29989.83
707.899	30116.61
708.243	29899.44
708.588	29838.65
708.932	29558.88
709.277	29649.95
709.621	29635.94
709.966	29488.83
710.31	29553.23
710.654	29296.52
710.998	29409.74
711.342	29304.43
711.687	29341.49
712.031	29228.5
712.375	29001.61
712.719	29161.83
713.063	29044.77
713.407	29234.82
713.75	28950.54
714.094	28830.09
714.438	28889.97
714.782	28899.69
715.125	28623.09
715.469	28668.74
715.812	28681.39
716.156	28472.58
716.499	28525.24
716.843	28539.7
717.186	28410.21
717.53	28389.65
717.873	28471.45
718.216	28389.65
718.559	28178.13
718.902	27963.67
719.246	28070.79
719.589	27935.42
719.932	27934.97
720.275	27921.19
720.617	27762.09
720.96	27807.97
721.303	27751.7
721.646	27905.14
721.989	27593.74
722.331	27766.61
722.674	27595.09
723.016	27678.93
723.359	27532.72
723.701	27668.76
724.044	27433.06
724.386	27224.26
724.729	27521.42
725.071	27315.78
725.413	27346.96
725.755	27208.89
726.097	27134.09
726.439	27031.72
726.782	27021.32
727.124	27200.08
727.465	26924.15
727.807	26923.47
728.149	26916.92
728.491	26792.85
728.833	26926.18
729.175	26793.53
729.516	26658.62
729.858	26617.49
730.199	26763.48
730.541	26674.67
730.882	26588.79
731.224	26642.8
731.565	26368.91
731.906	26514.22
732.248	26541.11
732.589	26395.35
732.93	26139.54
733.271	26184.74
733.612	26152.42
733.953	26214.56
734.294	26199.42
734.635	26204.85
734.976	26181.35
735.317	26027
735.658	26023.84
735.999	25965.08
736.339	25973.44
736.68	25996.04
737.021	25798.98
737.361	25821.13
737.702	25895.03
738.042	25892.77
738.383	25730.51
738.723	25812.99
739.063	25787.01
739.404	25812.09
739.744	25675.14
740.084	25544.3
740.424	25596.95
740.764	25454.36
741.104	25603.51
741.444	25473.57
741.784	25294.82
742.124	25363.29
742.464	25296.17
742.804	25236.06
743.143	25216.63
743.483	25204.87
743.823	25073.35
744.162	25110.41
744.502	25201.26
744.841	24945.67
745.181	25149.28
745.52	25045.78
745.86	25027.7
746.199	24943.19
746.538	24947.03
746.877	24910.64
747.216	24786.58
747.556	24786.58
747.895	24840.82
748.234	24686.92
748.573	24878.78
748.911	24653.25
749.25	24549.3
749.589	24501.16
749.928	24565.79
750.267	24552.46
750.605	24491.22
750.944	24419.13
751.283	24365.8
751.621	24387.49
751.96	24058.92
752.298	24191.12
752.636	24255.07
752.975	24015.07
753.313	24033.38
753.651	24128.52
753.989	23908.18
754.327	24028.18
754.666	23876.55
755.004	23934.62
755.342	23825.93
755.679	23792.93
756.017	23687.85
756.355	23711.35
756.693	23641.98
757.031	23625.71
757.368	23444.47
