Data from hue_10_FLMS001491_65.txt Node
Date: Mon Feb 06 15:32:20 GMT 2017
User: dcchb
Spectrometer: FLMS00149
Trigger mode: 0
Integration Time (sec): 2.000000E-2
Scans to average: 10
Electric dark correction enabled: true
Nonlinearity correction enabled: false
Boxcar width: 0
XAxis mode: Wavelengths
Number of Pixels in Spectrum: 2048
>>>>>Begin Spectral Data<<<<<
341.393	-8.93
341.776	-8.93
342.16	-8.93
342.543	-69.04
342.927	-58.64
343.31	-65.87
343.693	-66.33
344.077	-57.74
344.46	-43.73
344.843	-40.79
345.226	-32.65
345.61	-39.89
345.993	-15.48
346.376	10.96
346.759	12.77
347.142	10.73
347.525	31.75
347.908	38.53
348.291	78.98
348.674	78.98
349.057	99.77
349.44	122.82
349.823	146.1
350.206	172.54
350.588	188.58
350.971	227.23
351.354	229.26
351.737	237.17
352.119	233.1
352.502	222.25
352.884	281.46
353.267	286.21
353.65	284.85
354.032	282.59
354.414	320.33
354.797	293.44
355.179	315.58
355.562	296.38
355.944	318.52
356.326	307.22
356.709	338.86
357.091	333.66
357.473	333.21
357.855	332.08
358.238	362.14
358.62	343.83
359.002	346.77
359.384	325.08
359.766	334.12
360.148	323.27
360.53	332.53
360.912	339.99
361.294	325.3
361.676	341.8
362.057	347.67
362.439	327.79
362.821	318.3
363.203	318.07
363.584	343.83
363.966	318.07
364.348	313.78
364.729	328.69
365.111	314.46
365.493	295.7
365.874	310.16
366.256	310.84
366.637	332.99
367.019	307.45
367.4	308.81
367.781	313.55
368.163	301.12
368.544	313.55
368.925	293.89
369.306	309.48
369.688	294.34
370.069	306.55
370.45	301.35
370.831	306.09
371.212	332.99
371.593	291.18
371.974	311.07
372.355	329.6
372.736	321.01
373.117	333.21
373.498	302.25
373.879	309.94
374.26	308.58
374.641	290.5
375.021	313.78
375.402	309.94
375.783	306.09
376.163	309.48
376.544	307.22
376.925	317.39
377.305	302.03
377.686	313.33
378.066	326.88
378.447	306.77
378.827	333.89
379.208	314.91
379.588	325.53
379.968	326.88
380.349	332.08
380.729	333.66
381.109	321.69
381.489	334.34
381.87	318.75
382.25	315.13
382.63	336.83
383.01	340.67
383.39	350.84
383.77	317.62
384.15	324.17
384.53	345.87
384.91	342.48
385.29	351.52
385.67	327.79
386.049	334.12
386.429	348.8
386.809	335.02
387.189	342.7
387.568	320.1
387.948	337.28
388.328	362.14
388.707	350.61
389.087	347.45
389.466	357.62
389.846	354.68
390.225	342.02
390.605	356.71
390.984	339.54
391.363	351.29
391.743	337.05
392.122	361.69
392.501	350.84
392.881	369.14
393.26	351.06
393.639	374.34
394.018	358.3
394.397	358.97
394.776	365.98
395.155	360.56
395.534	375.02
395.913	401.01
396.292	385.87
396.671	359.65
397.05	380.22
397.429	372.08
397.808	349.71
398.186	367.79
398.565	370.5
398.944	360.56
399.323	359.88
399.701	365.75
400.08	372.98
400.458	402.14
400.837	395.36
401.215	382.25
401.594	387.9
401.972	371.4
402.351	395.81
402.729	376.15
403.107	376.15
403.486	386.77
403.864	377.5
404.242	380.22
404.62	398.07
404.999	404.85
405.377	393.1
405.755	377.96
406.133	417.5
406.511	401.46
406.889	396.94
407.267	400.78
407.645	415.47
408.023	422.7
408.401	407.79
408.779	432.64
409.156	425.86
409.534	409.14
409.912	420.44
410.29	417.05
410.667	413.89
411.045	408.46
411.422	414.57
411.8	449.14
412.178	419.31
412.555	408.46
412.933	441.01
413.31	437.16
413.687	427.22
414.065	434
414.442	445.53
414.819	441.68
415.197	452.76
415.574	463.15
415.951	475.81
416.328	451.85
416.705	441.68
417.082	455.47
417.46	457.28
417.837	489.82
418.214	457.28
418.591	462.93
418.967	457.05
419.344	459.31
419.721	478.29
420.098	484.39
420.475	467.67
420.852	482.36
421.228	510.61
421.605	485.07
421.982	487.78
422.358	476.48
422.735	501.34
423.111	492.98
423.488	509.93
423.864	495.69
424.241	506.31
424.617	509.25
424.994	510.38
425.37	502.47
425.746	524.17
426.123	502.25
426.499	537.27
426.875	532.08
427.251	527.1
427.627	523.04
428.003	516.94
428.379	561.45
428.756	531.17
429.132	533.21
429.507	554.9
429.883	554.22
430.259	551.74
430.635	586.31
431.011	537.27
431.387	590.83
431.763	602.36
432.138	579.98
432.514	579.08
432.89	598.06
433.265	583.6
433.641	605.75
434.016	587.44
434.392	606.88
434.767	592.87
435.143	593.09
435.518	611.4
435.894	622.02
436.269	635.12
436.644	644.84
437.02	620.89
437.395	620.44
437.77	619.76
438.145	629.02
438.52	643.03
438.895	664.5
439.271	661.79
439.646	659.53
440.021	638.29
440.395	668.57
440.77	651.62
441.145	659.53
441.52	695.46
441.895	673.32
442.27	686.2
442.645	682.58
443.019	692.98
443.394	669.93
443.769	678.29
444.143	683.94
444.518	695.46
444.892	710.38
445.267	697.95
445.641	699.76
446.016	702.92
446.39	710.83
446.764	730.26
447.139	725.74
447.513	713.77
447.887	714.22
448.262	728.46
448.636	736.14
449.01	724.61
449.384	763.26
449.758	749.47
450.132	751.96
450.506	765.06
450.88	751.73
451.254	757.16
451.628	753.77
452.002	794.67
452.376	778.62
452.75	772.52
453.123	789.92
453.497	792.18
453.871	791.5
454.244	821.33
454.618	803.71
454.992	830.83
455.365	798.74
455.739	845.74
456.112	841.22
456.486	848.68
456.859	856.59
457.232	849.58
457.606	835.57
457.979	865.17
458.352	885.97
458.725	869.02
459.099	878.96
459.472	920.77
459.845	889.81
460.218	933.65
460.591	941.11
460.964	918.96
461.337	939.75
461.71	942.69
462.083	961.67
462.456	977.26
462.829	976.36
463.201	977.04
463.574	984.27
463.947	986.98
464.32	995.57
464.692	1027.43
465.065	1033.08
465.438	1029.24
465.81	1033.08
466.183	1088.67
466.555	1077.15
466.928	1084.6
467.3	1096.13
467.672	1075.56
468.045	1114.89
468.417	1141.1
468.789	1171.38
469.161	1159.4
469.534	1183.36
469.906	1197.82
470.278	1236.24
470.65	1206.18
471.022	1227.65
471.394	1249.57
471.766	1263.36
472.138	1272.85
472.51	1293.41
472.882	1307.2
473.253	1318.27
473.625	1364.14
473.997	1384.48
474.369	1377.48
474.74	1414.09
475.112	1418.15
475.484	1465.39
475.855	1466.29
476.227	1485.95
476.598	1524.14
476.97	1553.74
477.341	1563.46
477.713	1603.23
478.084	1640.3
478.455	1692.95
478.827	1663.8
479.198	1707.41
479.569	1760.97
479.94	1774.98
480.311	1802.78
480.682	1850.23
481.053	1887.3
481.424	1917.8
481.795	1959.38
482.166	1924.36
482.537	2007.97
482.908	2052.04
483.279	2057.01
483.65	2100.4
484.021	2131.58
484.391	2178.81
484.762	2184.69
485.133	2222.43
485.503	2228.75
485.874	2295.87
486.244	2315.98
486.615	2358.92
486.985	2397.11
487.356	2466.49
487.726	2513.49
488.097	2533.15
488.467	2551.23
488.837	2580.38
489.207	2671.23
489.578	2662.19
489.948	2736.31
490.318	2712.58
490.688	2769.76
491.058	2828.74
491.428	2846.14
491.798	2908.06
492.168	2942.18
492.538	2974.95
492.908	3020.6
493.278	3049.75
493.648	3050.88
494.017	3103.08
494.387	3132.91
494.757	3172.68
495.126	3207.94
495.496	3234.6
495.866	3251.33
496.235	3250.42
496.605	3321.61
496.974	3336.3
497.344	3406.58
497.713	3392.57
498.082	3441.15
498.452	3465.33
498.821	3430.31
499.19	3498.78
499.559	3539
499.928	3548.27
500.298	3531.55
500.667	3587.14
501.036	3611.09
501.405	3615.61
501.774	3648.6
502.143	3689.06
502.512	3712.78
502.88	3748.71
503.249	3742.61
503.618	3752.56
503.987	3788.71
504.356	3831.2
504.724	3828.26
505.093	3831.2
505.462	3857.64
505.83	3901.71
506.199	3948.26
506.567	3950.07
506.936	3940.35
507.304	3975.6
507.672	3966.79
508.041	3988.93
508.409	4000.01
508.777	4025.77
509.145	4099.67
509.514	4110.06
509.882	4066.22
510.25	4139.21
510.618	4156.16
510.986	4146.9
511.354	4200.23
511.722	4209.95
512.09	4235.93
512.458	4204.97
512.826	4238.65
513.193	4291.3
513.561	4329.04
513.929	4275.71
514.297	4355.48
514.664	4382.82
515.032	4418.08
515.4	4376.5
515.767	4426.44
516.135	4436.15
516.502	4393.44
516.869	4472.31
517.237	4483.38
517.604	4425.76
517.972	4529.26
518.339	4474.12
518.706	4508.7
519.073	4499.43
519.44	4555.25
519.808	4561.12
520.175	4575.13
520.542	4641.8
520.909	4653.1
521.276	4703.72
521.643	4653.55
522.009	4689.48
522.376	4723.83
522.743	4736.94
523.11	4733.32
523.477	4800.44
523.843	4820.33
524.21	4849.93
524.577	4915.24
524.943	4929.25
525.31	4884.5
525.676	4970.38
526.043	4936.25
526.409	4986.2
526.776	5057.16
527.142	5068.68
527.508	5091.5
527.874	5099.87
528.241	5129.92
528.607	5167.89
528.973	5155.23
529.339	5202.24
529.705	5219.18
530.071	5265.06
530.437	5261.44
530.803	5305.28
531.169	5323.14
531.535	5326.07
531.901	5275.91
532.267	5383.25
532.632	5393.64
532.998	5442
533.364	5476.58
533.73	5461.89
534.095	5494.66
534.461	5520.65
534.826	5556.8
535.192	5625.5
535.557	5612.85
535.923	5563.81
536.288	5612.62
536.653	5645.84
537.019	5679.06
537.384	5674.77
537.749	5734.2
538.114	5780.53
538.479	5780.07
538.845	5770.36
539.21	5783.01
539.575	5792.73
539.94	5836.12
540.305	5861.88
540.67	5872.95
541.034	5916.34
541.399	5950.69
541.764	5948.21
542.129	5928.54
542.494	5966.96
542.858	6012.84
543.223	6029.78
543.587	6092.83
543.952	6107.52
544.316	6093.06
544.681	6166.05
545.045	6151.14
545.41	6170.8
545.774	6215.09
546.138	6237.69
546.503	6265.03
546.867	6272.72
547.231	6296.9
547.595	6353.62
547.959	6339.83
548.324	6361.08
548.688	6359.27
549.052	6384.13
549.416	6370.57
549.779	6451.92
550.143	6464.35
550.507	6492.82
550.871	6516.33
551.235	6545.7
551.599	6600.17
551.962	6572.6
552.326	6621.63
552.689	6594.97
553.053	6565.82
553.417	6635.64
553.78	6640.84
554.143	6701.41
554.507	6673.84
554.87	6732.59
555.234	6762.2
555.597	6726.94
555.96	6813.49
556.323	6787.05
556.686	6813.04
557.05	6849.42
557.413	6872.47
557.776	6959.7
558.139	6993.83
558.502	6939.14
558.865	6942.3
559.228	6983.21
559.59	7076.54
559.953	7086.93
560.316	7115.18
560.679	7125.8
561.041	7134.16
561.404	7206.93
561.767	7157.44
562.129	7224.56
562.492	7283.09
562.854	7258.91
563.217	7261.84
563.579	7321.05
563.941	7327.6
564.304	7347.04
564.666	7374.83
565.028	7386.59
565.39	7417.09
565.753	7458
566.115	7478.79
566.477	7504.1
566.839	7486.47
567.201	7625.22
567.563	7555.39
567.925	7629.06
568.287	7610.53
568.648	7678.78
569.01	7656.86
569.372	7813.47
569.734	7726.69
570.095	7861.83
570.457	7798.78
570.819	7851.66
571.18	7881.94
571.542	7996.06
571.903	7971.2
572.265	8017.53
572.626	8063.4
572.987	8163.97
573.349	8109.5
573.71	8215.72
574.071	8160.12
574.432	8247.58
574.794	8330.52
575.155	8326
575.516	8406.67
575.877	8432.89
576.238	8503.39
576.599	8584.52
576.96	8570.74
577.32	8660
577.681	8759.43
578.042	8832.88
578.403	8848.24
578.763	8919.65
579.124	9056.15
579.485	9104.51
579.845	9221.11
580.206	9402.58
580.566	9379.53
580.927	9538.85
581.287	9660.88
581.648	9669.24
582.008	9909.46
582.368	9966.86
582.728	10170.47
583.089	10192.16
583.449	10350.35
583.809	10482.55
584.169	10641.19
584.529	10826.95
584.889	10991.69
585.249	11095.41
585.609	11305.8
585.969	11451.79
586.329	11657.21
586.688	11869.63
587.048	12080.47
587.408	12158.21
587.768	12405.44
588.127	12570.18
588.487	12746.44
588.846	13100.11
589.206	13216.94
589.565	13437.27
589.925	13683.14
590.284	13980.08
590.643	14177.14
591.003	14389.34
591.362	14675.43
591.721	14903.68
592.08	15122.43
592.44	15393.15
592.799	15790.43
593.158	15961.95
593.517	16174.6
593.876	16498.89
594.235	16726.68
594.593	17087.12
594.952	17350.84
595.311	17560.33
595.67	17891.17
596.029	18300.2
596.387	18523.02
596.746	18789
597.104	19060.63
597.463	19216.33
597.822	19657.68
598.18	19922.75
598.538	20082.97
598.897	20483.19
599.255	20590.76
599.613	21211.31
599.972	21292.43
600.33	21551.86
600.688	21807.22
601.046	22175.8
601.404	22527.2
601.762	22715.45
602.12	22966.97
602.478	23204.7
602.836	23570.34
603.194	23683.11
603.552	24018.69
603.91	24216.43
604.268	24557.89
604.625	24716.75
604.983	25158.32
605.341	25317.19
605.698	25401.7
606.056	25916.72
606.413	25982.71
606.771	26318.52
607.128	26729.58
607.485	26767.77
607.843	26944.49
608.2	27222.45
608.557	27570.91
608.914	27589.44
609.272	27940.85
609.629	28227.62
609.986	28477.56
610.343	28552.36
610.7	29014.04
611.057	29051.1
611.414	29148.95
611.771	29552.33
612.127	29564.53
612.484	29807.24
612.841	30188.92
613.198	30140.56
613.554	30347.79
613.911	30697.38
614.267	30778.51
614.624	30948.9
614.98	31216.92
615.337	31423.69
615.693	31557.93
616.05	31629.11
616.406	31994.98
616.762	32027.07
617.118	32155.65
617.475	32223.22
617.831	32488.07
618.187	32668.41
618.543	32823.43
618.899	33050.32
619.255	33187.71
619.611	33171.44
619.967	33386.58
620.323	33560.81
620.678	33503.41
621.034	33534.15
621.39	33891.88
621.746	33806
622.101	34392.88
622.457	33989.05
622.812	34216.61
623.168	34384.29
623.523	34504.06
623.879	34750.61
624.234	34450.05
624.589	34761.91
624.945	34883.94
625.3	34929.14
625.655	34950.38
626.01	35086.2
626.365	35113.09
626.72	35111.73
627.075	35245.97
627.43	35347.21
627.785	35208.9
628.14	35426.07
628.495	35490.71
628.85	35527.31
629.205	35434.21
629.559	35770.47
629.914	35644.6
630.269	35762.11
630.623	35608.22
630.978	35688.44
631.332	35948.09
631.687	35972.5
632.041	35783.58
632.396	35837.36
632.75	35923.01
633.104	36016.57
633.459	35859.28
633.813	35839.62
634.167	35887.3
634.521	35848.89
634.875	36028.54
635.229	36004.82
635.583	35902.67
635.937	35928.66
636.291	35888.43
636.645	35990.13
636.999	35926.17
637.352	36007.98
637.706	35902.9
638.06	36096.79
638.413	36029.22
638.767	35968.21
639.121	35970.24
639.474	35858.38
639.828	35985.61
640.181	35958.72
640.534	35989.22
640.888	35906.51
641.241	35691.83
641.594	35836.46
641.947	35959.62
642.301	35806.86
642.654	35937.47
643.007	35864.71
643.36	36064.02
643.713	35770.7
644.066	35979.28
644.419	35737.03
644.771	35481.67
645.124	35401.67
645.477	35342.23
645.83	34997.16
646.182	34978.85
646.535	34810.5
646.888	34848.24
647.24	34828.8
647.593	34989.93
647.945	34784.74
648.298	34710.61
648.65	34610.95
649.002	34583.16
649.355	34725.3
649.707	34758.52
650.059	34882.36
650.411	35378.62
650.763	35320.99
651.115	35631.49
651.467	35480.99
651.819	35556.24
652.171	35413.42
652.523	35523.25
652.875	35406.41
653.227	35312.18
653.578	35569.57
653.93	35370.48
654.282	35316.25
654.633	35330.71
654.985	35368.45
655.337	35342.69
655.688	35447.32
656.039	35521.89
656.391	35139.98
656.742	35139.75
657.094	35262.91
657.445	35401.67
657.796	35227.89
658.147	35318.96
658.498	35133.65
658.849	35294.1
659.2	35193.76
659.551	35109.7
659.902	35252.52
660.253	35172.97
660.604	35193.31
660.955	35199.41
661.306	35175.23
661.656	35056.37
662.007	35241.9
662.358	35201
662.708	35174.78
663.059	35135.91
663.409	35018.63
663.76	35223.59
664.11	35237.6
664.461	35225.85
664.811	35282.58
665.161	35113.09
665.511	35116.7
665.862	35104.95
666.212	35031.28
666.562	35176.14
666.912	35104.05
667.262	34954.45
667.612	35130.26
667.962	35065.18
668.312	35057.5
668.662	35250.26
669.011	35176.82
669.361	34911.51
669.711	34873.55
670.06	34905.64
670.41	34967.56
670.76	34918.06
671.109	34970.49
671.459	34887.56
671.808	34908.35
672.157	35045.97
672.507	34792.87
672.856	34776.6
673.205	34848.01
673.554	34815.69
673.904	34902.47
674.253	34921.68
674.602	34932.75
674.951	34383.62
675.3	34236.05
675.649	34778.63
675.998	34732.99
676.346	34694.79
676.695	34794
677.044	34479.43
677.393	34571.41
677.741	34649.82
678.09	34500.22
678.438	34443.95
678.787	34553.78
679.135	34577.96
679.484	34180.01
679.832	34513.78
680.181	34233.79
680.529	34351.75
680.877	34168.03
681.225	34377.06
681.573	34448.92
681.922	34302.26
682.27	34093.45
682.618	34131.42
682.966	34027.47
683.314	34035.6
683.661	34012.55
684.009	33785.67
684.357	33764.42
684.705	33681.71
685.053	33819.56
685.4	33842.61
685.748	33605.78
686.095	33570.98
686.443	33558.1
686.79	33330.99
687.138	33478.78
687.485	33509.29
687.832	33403.98
688.18	33406.47
688.527	33168.28
688.874	33177.32
689.221	33152.01
689.568	33076.98
689.915	32913.6
690.262	32997.21
690.609	32777.33
690.956	32741.62
691.303	32621.85
691.65	32629.09
691.997	32695.52
692.344	32370.11
692.69	32375.08
693.037	32399.04
693.383	32201.07
693.73	32244.01
694.077	32119.95
694.423	32095.31
694.769	31896
695.116	31957.46
695.462	31739.39
695.808	31759.96
696.155	31687.42
696.501	31523.35
696.847	31509.12
697.193	31359.51
697.539	31568.55
697.885	31167.66
698.231	31076.13
698.577	31140.54
698.923	31058.73
699.269	30944.61
699.614	30884.95
699.96	30688.35
700.306	30721.79
700.651	30587.56
700.997	30537.39
701.342	30472.76
701.688	30446.77
702.033	30304.63
702.379	30376.94
702.724	30163.39
703.069	30293.55
703.415	29962.49
703.76	29979.44
704.105	29958.87
704.45	29998.19
704.795	29651.31
705.14	29689.95
705.485	29602.05
705.83	29516.4
706.175	29478.43
706.52	29504.65
706.865	29325.67
707.209	29297.87
707.554	29176.75
707.899	29326.12
708.243	29090.2
708.588	29091.1
708.932	28932.01
709.277	28765.46
709.621	28860.6
709.966	28772.92
710.31	28764.33
710.654	28573.82
710.998	28515.3
711.342	28589.87
711.687	28446.82
712.031	28423.55
712.375	28201.63
712.719	28278.92
713.063	28243.44
713.407	28376.32
713.75	28181.29
714.094	28185.13
714.438	27926.38
714.782	28152.59
715.125	28121.41
715.469	27958.93
715.812	27857.46
716.156	27738.14
716.499	27695.88
716.843	27662.21
717.186	27595.09
717.53	27683.23
717.873	27614.75
718.216	27438.49
718.559	27462.22
718.902	27136.35
719.246	27225.84
719.589	27220.87
719.932	27098.84
720.275	27165.95
720.617	27047.99
720.96	27027.2
721.303	27060.42
721.646	26984.49
721.989	26722.57
722.331	26927.31
722.674	26792.4
723.016	26829.01
723.359	26839.41
723.701	26786.53
724.044	26714.66
724.386	26564.16
724.729	26614.1
725.071	26573.65
725.413	26552.86
725.755	26502.47
726.097	26530.71
726.439	26299.99
726.782	26221.34
727.124	26456.59
727.465	26238.75
727.807	26100.22
728.149	26189.25
728.491	26118.75
728.833	26148.58
729.175	26025.64
729.516	25908.81
729.858	25886.44
730.199	25888.02
730.541	25733.67
730.882	25801.47
731.224	25965.31
731.565	25671.08
731.906	25710.85
732.248	25811.86
732.589	25529.16
732.93	25472.21
733.271	25438.77
733.612	25628.14
733.953	25467.92
734.294	25480.35
734.635	25436.05
734.976	25395.6
735.317	25348.37
735.658	25340.01
735.999	25335.04
736.339	25286.45
736.68	25262.95
737.021	25192.67
737.361	25191.99
737.702	25290.75
738.042	25120.36
738.383	25065.44
738.723	25130.07
739.063	25037.65
739.404	25217.53
739.744	25108.15
740.084	24945.22
740.424	24955.16
740.764	24803.98
741.104	24977.31
741.444	24797.65
741.784	24711.1
742.124	24722.4
742.464	24617.54
742.804	24672.68
743.143	24408.96
743.483	24678.56
743.823	24400.6
744.162	24534.16
744.502	24515.85
744.841	24430.88
745.181	24465.46
745.52	24384.33
745.86	24473.37
746.199	24307.72
746.538	24354.05
746.877	24408.96
747.216	24320.38
747.556	24251.68
747.895	24283.32
748.234	24083.77
748.573	24089.2
748.911	24122.42
749.25	24121.06
749.589	23915.64
749.928	24050.1
750.267	24006.04
750.605	23930.33
750.944	23861.86
751.283	23785.02
751.621	23890.33
751.96	23651.69
752.298	23691.02
752.636	23626.84
752.975	23600.17
753.313	23485.37
753.651	23557.69
753.989	23530.12
754.327	23439.5
754.666	23296
755.004	23381.65
755.342	23357.01
755.679	23306.62
756.017	23106.4
756.355	23205.6
756.693	23058.94
757.031	23139.17
757.368	23048.77
757.706	23058.04
758.044	22951.83
758.381	22993.41
758.719	22895.56
759.056	22895.78
759.394	22734.66
759.731	22630.25
760.068	22710.7
760.405	22516.36
760.743	22515.45
761.08	22520.42
761.417	22386.64
