Data from hue_100_FLMS001491_00085.txt Node
Date: Tue Feb 07 17:03:46 GMT 2017
User: dcchb
Spectrometer: FLMS00149
Trigger mode: 0
Integration Time (sec): 2.000000E-2
Scans to average: 10
Electric dark correction enabled: true
Nonlinearity correction enabled: false
Boxcar width: 0
XAxis mode: Wavelengths
Number of Pixels in Spectrum: 2048
>>>>>Begin Spectral Data<<<<<
341.393	-13.26
341.776	-13.26
342.16	-13.26
342.543	-76.31
342.927	-79.48
343.31	-59.59
343.693	-81.74
344.077	-70.21
344.46	-66.37
344.843	-63.88
345.226	-25.01
345.61	-27.5
345.993	-8.29
346.376	-19.14
346.759	16.12
347.142	36.23
347.525	30.13
347.908	64.48
348.291	77.36
348.674	89.79
349.057	107.64
349.44	141.54
349.823	147.64
350.206	174.53
350.588	186.28
350.971	216.34
351.354	231.93
351.737	245.94
352.119	246.39
352.502	258.82
352.884	272.15
353.267	283.23
353.65	282.1
354.032	297.01
354.414	297.92
354.797	332.27
355.179	316.22
355.562	323
355.944	333.62
356.326	338.59
356.709	330.91
357.091	328.65
357.473	354.64
357.855	337.24
358.238	350.34
358.62	337.69
359.002	364.35
359.384	341.76
359.766	339.04
360.148	341.3
360.53	354.19
360.912	342.43
361.294	334.07
361.676	335.2
362.057	348.31
362.439	311.02
362.821	344.24
363.203	325.03
363.584	330.23
363.966	314.41
364.348	319.61
364.729	311.7
365.111	327.07
365.493	340.85
365.874	309.89
366.256	334.53
366.637	315.54
367.019	298.59
367.4	311.93
367.781	323.23
368.163	311.93
368.544	317.8
368.925	336.56
369.306	323.9
369.688	321.42
370.069	306.5
370.45	329.55
370.831	353.96
371.212	304.7
371.593	343.79
371.974	292.27
372.355	327.29
372.736	312.83
373.117	339.95
373.498	314.19
373.879	308.76
374.26	335.43
374.641	319.84
375.021	326.39
375.402	353.06
375.783	320.97
376.163	336.78
376.544	339.72
376.925	335.88
377.305	320.74
377.686	330.23
378.066	333.62
378.447	355.09
378.827	331.14
379.208	329.55
379.588	349.44
379.968	347.41
380.349	342.89
380.729	341.3
381.109	332.94
381.489	365.48
381.87	336.33
382.25	345.82
382.63	355.77
383.01	348.76
383.39	362.55
383.77	346.28
384.15	349.21
384.53	333.17
384.91	346.05
385.29	358.48
385.67	353.73
386.049	358.93
386.429	348.08
386.809	349.44
387.189	345.82
387.568	369.33
387.948	368.2
388.328	375.2
388.707	350.12
389.087	383.79
389.466	394.18
389.846	388.76
390.225	373.39
390.605	374.52
390.984	386.28
391.363	392.15
391.743	395.99
392.122	372.04
392.501	399.61
392.881	389.66
393.26	390.34
393.639	405.26
394.018	405.26
394.397	398.48
394.776	403.68
395.155	409.78
395.534	407.74
395.913	410.91
396.292	403.45
396.671	410.46
397.05	418.36
397.429	429.66
397.808	409.1
398.186	427.86
398.565	424.01
398.944	419.27
399.323	410.23
399.701	414.75
400.08	411.59
400.458	394.86
400.837	440.51
401.215	423.56
401.594	444.58
401.972	439.16
402.351	431.92
402.729	430.79
403.107	442.32
403.486	447.06
403.864	442.32
404.242	448.42
404.62	442.09
404.999	457.01
405.377	451.36
405.755	452.94
406.133	453.84
406.511	474.63
406.889	455.88
407.267	448.65
407.645	478.25
408.023	457.69
408.401	480.51
408.779	458.82
409.156	479.15
409.534	487.97
409.912	480.51
410.29	483.22
410.667	486.61
411.045	486.16
411.422	505.37
411.8	495.2
412.178	491.58
412.555	496.1
412.933	510.34
413.31	525.93
413.687	514.63
414.065	524.8
414.442	552.82
414.819	538.59
415.197	542.66
415.574	533.62
415.951	554.63
416.328	571.81
416.705	544.46
417.082	555.99
417.46	565.25
417.837	578.81
418.214	553.28
418.591	553.73
418.967	581.75
419.344	585.14
419.721	582.2
420.098	579.04
420.475	595.76
420.852	590.11
421.228	575.65
421.605	600.73
421.982	578.59
422.358	589.89
422.735	616.78
423.111	622.43
423.488	605.48
423.864	622.65
424.241	635.76
424.617	623.11
424.994	632.82
425.37	649.09
425.746	634.86
426.123	645.03
426.499	647.74
426.875	657.45
427.251	652.93
427.627	672.82
428.003	690.67
428.379	686.61
428.756	687.74
429.132	703.55
429.507	690
429.883	692.03
430.259	708.98
430.635	707.62
431.011	743.33
431.387	741.29
431.763	750.56
432.138	753.05
432.514	767.28
432.89	771.58
433.265	778.13
433.641	763.67
434.016	788.75
434.392	794.17
434.767	803.21
435.143	782.87
435.518	808.41
435.894	834.62
436.269	826.04
436.644	827.39
437.02	871.46
437.395	853.61
437.77	858.13
438.145	864
438.52	864.23
438.895	861.97
439.271	888.86
439.646	911.46
440.021	891.35
440.395	895.64
440.77	887.05
441.145	934.96
441.52	927.73
441.895	918.92
442.27	950.55
442.645	928.18
443.019	953.04
443.394	949.65
443.769	939.48
444.143	959.82
444.518	994.17
444.892	978.58
445.267	977.45
445.641	980.38
446.016	970.44
446.39	999.14
446.764	1009.54
447.139	995.07
447.513	1013.38
447.887	1016.77
448.262	1032.81
448.636	1013.83
449.01	1049.53
449.384	1069.2
449.758	1068.97
450.132	1080.49
450.506	1085.47
450.88	1087.95
451.254	1074.17
451.628	1098.8
452.002	1086.14
452.376	1118.69
452.75	1146.93
453.123	1107.61
453.497	1162.07
453.871	1167.27
454.244	1175.63
454.618	1178.8
454.992	1211.56
455.365	1201.17
455.739	1238.68
456.112	1267.38
456.486	1277.1
456.859	1274.16
457.232	1314.16
457.606	1269.42
457.979	1313.93
458.352	1364.78
458.725	1346.93
459.099	1365.91
459.472	1402.07
459.845	1408.62
460.218	1411.56
460.591	1447.49
460.964	1442.97
461.337	1470.99
461.71	1529.07
462.083	1520.48
462.456	1533.82
462.829	1513.25
463.201	1581.05
463.574	1592.12
463.947	1613.36
464.32	1640.93
464.692	1656.52
465.065	1637.77
465.438	1659.01
465.81	1702.17
466.183	1743.75
466.555	1761.83
466.928	1775.17
467.3	1776.3
467.672	1867.82
468.045	1861.49
468.417	1910.08
468.789	1913.01
469.161	1943.97
469.534	1974.03
469.906	2027.36
470.278	2053.12
470.65	2080.47
471.022	2132.44
471.394	2160.01
471.766	2191.2
472.138	2240.24
472.51	2281.37
472.882	2369.95
473.253	2371.99
473.625	2447.46
473.997	2522.49
474.369	2524.07
474.74	2567.46
475.112	2632.09
475.484	2683.84
475.855	2772.2
476.227	2777.85
476.598	2917.06
476.97	2932.87
477.341	3031.18
477.713	3131.06
478.084	3148.01
478.455	3300.55
478.827	3369.25
479.198	3427.1
479.569	3514.78
479.94	3622.57
480.311	3726.3
480.682	3826.64
481.053	3893.98
481.424	4019.17
481.795	4114.54
482.166	4233.86
482.537	4318.38
482.908	4466.17
483.279	4515.88
483.65	4608.99
484.021	4803.11
484.391	4912.26
484.762	5034.97
485.133	5106.6
485.503	5252.59
485.874	5429.31
486.244	5538.46
486.615	5682.18
486.985	5806.47
487.356	5949.07
487.726	6067.71
488.097	6229.74
488.467	6376.85
488.837	6576.62
489.207	6729.61
489.578	6836.95
489.948	6977.97
490.318	7078.3
490.688	7243.72
491.058	7457.95
491.428	7611.17
491.798	7712.41
492.168	7976.58
492.538	8045.06
492.908	8250.93
493.278	8453.86
493.648	8492.05
494.017	8705.15
494.387	8875.54
494.757	9015.65
495.126	9097.01
495.496	9238.92
495.866	9320.05
496.235	9493.38
496.605	9664.68
496.974	9758.91
497.344	9924.33
497.713	10075.29
498.082	10117.77
498.452	10332.23
498.821	10435.5
499.19	10540.81
499.559	10771.76
499.928	10868.03
500.298	10927.92
500.667	11082.27
501.036	11135.37
501.405	11269.83
501.774	11343.5
502.143	11547.79
502.512	11604.29
502.88	11685.41
503.249	11746.65
503.618	11850.61
503.987	11914.11
504.356	12097.38
504.724	12161.56
505.093	12228.45
505.462	12346.19
505.83	12426.64
506.199	12504.6
506.567	12692.84
506.936	12804.25
507.304	12864.37
507.672	12897.58
508.041	13042.89
508.409	13154.75
508.777	13209.67
509.145	13406.05
509.514	13302.09
509.882	13356.1
510.25	13484.24
510.618	13632.71
510.986	13595.42
511.354	13670.67
511.722	13832.48
512.09	13955.41
512.458	13907.05
512.826	14074.28
513.193	14088.06
513.561	14148.17
513.929	14193.37
514.297	14297.55
514.664	14379.35
515.032	14479.01
515.4	14522.17
515.767	14553.36
516.135	14608.95
516.502	14523.3
516.869	14733.02
517.237	14814.37
517.604	14649.63
517.972	14869.74
518.339	14904.09
518.706	14908.38
519.073	14905.22
519.44	15043.06
519.808	15095.27
520.175	15101.37
520.542	15180.24
520.909	15206.45
521.276	15248.71
521.643	15346.79
522.009	15443.51
522.376	15528.93
522.743	15582.26
523.11	15582.94
523.477	15724.85
523.843	15670.62
524.21	15843.04
524.577	15918.97
524.943	15945.19
525.31	15970.5
525.676	16085.75
526.043	15991.29
526.409	16131.4
526.776	16196.03
527.142	16190.15
527.508	16168.01
527.874	16232.64
528.241	16202.13
528.607	16284.61
528.973	16342.24
529.339	16305.63
529.705	16408
530.071	16358.28
530.437	16545.62
530.803	16521.67
531.169	16434.21
531.535	16548.56
531.901	16389.92
532.267	16565.74
532.632	16577.94
532.998	16496.13
533.364	16550.6
533.73	16467.43
534.095	16602.57
534.461	16596.7
534.826	16576.36
535.192	16584.04
535.557	16615.68
535.923	16558.73
536.288	16494.33
536.653	16516.25
537.019	16456.36
537.384	16540.65
537.749	16464.72
538.114	16490.26
538.479	16435.34
538.845	16315.35
539.21	16393.76
539.575	16346.08
539.94	16386.31
540.305	16358.06
540.67	16315.57
541.034	16384.27
541.399	16310.38
541.764	16253.88
542.129	16253.88
542.494	16271.73
542.858	16279.42
543.223	16212.07
543.587	16199.42
543.952	16083.72
544.316	16150.83
544.681	16061.12
545.045	16031.51
545.41	16077.61
545.774	16073.77
546.138	15993.32
546.503	15904.29
546.867	15947
547.231	15901.8
547.595	15920.78
547.959	16017.73
548.324	15865.42
548.688	15880.11
549.052	15755.81
549.416	15865.64
549.779	15682.14
550.143	15744.52
550.507	15737.74
550.871	15794.23
551.235	15722.37
551.599	15739.77
551.962	15753.33
552.326	15660.9
552.689	15697.74
553.053	15569.6
553.417	15614.58
553.78	15739.77
554.143	15606.67
554.507	15573.22
554.87	15509.49
555.234	15525.76
555.597	15492.32
555.96	15525.76
556.323	15486.9
556.686	15464.07
557.05	15510.85
557.413	15491.41
557.776	15530.96
558.139	15551.75
558.502	15562.15
558.865	15456.39
559.228	15525.09
559.59	15507.23
559.953	15446.22
560.316	15587.46
560.679	15547.23
561.041	15622.94
561.404	15710.17
561.767	15644.41
562.129	15533.22
562.492	15653.22
562.854	15657.74
563.217	15643.95
563.579	15735.25
563.941	15732.54
564.304	15678.3
564.666	15718.3
565.028	15738.41
565.39	15747.91
565.753	15701.8
566.115	15803.27
566.477	15860.22
566.839	15833.33
567.201	15889.37
567.563	15899.09
567.925	15976.37
568.287	15949.48
568.648	15937.05
569.01	15996.94
569.372	16007.11
569.734	15915.58
570.095	16120.55
570.457	16118.97
570.819	16094.34
571.18	16099.53
571.542	16159.87
571.903	16128.69
572.265	16159.19
572.626	16205.52
572.987	16198.97
573.349	16162.36
573.71	16311.73
574.071	16186.09
574.432	16228.57
574.794	16352.63
575.155	16295.01
575.516	16283.48
575.877	16279.19
576.238	16406.87
576.599	16341.34
576.96	16326.65
577.32	16372.3
577.681	16370.49
578.042	16437.83
578.403	16414.33
578.763	16422.46
579.124	16400.32
579.485	16430.15
579.845	16435.34
580.206	16470.15
580.566	16470.15
580.927	16448.23
581.287	16527.09
581.648	16386.08
582.008	16506.53
582.368	16406.19
582.728	16502.46
583.089	16400.54
583.449	16400.32
583.809	16401.67
584.169	16306.31
584.529	16349.92
584.889	16401.9
585.249	16349.7
585.609	16365.97
585.969	16387.89
586.329	16353.54
586.688	16412.75
587.048	16369.36
587.408	16303.82
587.768	16316.25
588.127	16268.8
588.487	16280.55
588.846	16398.96
589.206	16244.16
589.565	16274.44
589.925	16336.82
590.284	16284.61
590.643	16256.59
591.003	16298.17
591.362	16311.51
591.721	16247.33
592.08	16299.53
592.44	16227.67
592.799	16324.39
593.158	16268.12
593.517	16232.19
593.876	16294.78
594.235	16163.94
594.593	16152.64
594.952	16182.24
595.311	16218.4
595.67	16167.1
596.029	16198.74
596.387	16252.07
596.746	16154.22
597.104	16122.36
597.463	16168.01
597.822	16263.82
598.18	16150.83
598.538	16154.45
598.897	16249.81
599.255	16116.93
599.613	16263.82
599.972	16255.46
600.33	16193.77
600.688	16154.45
601.046	16156.26
601.404	16271.28
601.762	16166.2
602.12	16308.57
602.478	16170.49
602.836	16243.71
603.194	16128.23
603.552	16113.55
603.91	16105.18
604.268	16196.93
604.625	16048.24
604.983	16189.48
605.341	16041.23
605.698	16147.22
606.056	16233.77
606.413	16146.54
606.771	16240.1
607.128	16157.39
607.485	16084.17
607.843	16149.93
608.2	16265.86
608.557	16235.58
608.914	16256.14
609.272	16279.19
609.629	16354.44
609.986	16418.62
610.343	16266.31
610.7	16418.85
611.057	16383.82
611.414	16397.83
611.771	16420.66
612.127	16432.63
612.484	16438.73
612.841	16466.76
613.198	16415.68
613.554	16431.28
613.911	16480.54
614.267	16464.72
614.624	16357.38
614.98	16523.03
615.337	16502.69
615.693	16397.15
616.05	16429.47
616.406	16575.91
616.762	16495.46
617.118	16605.06
617.475	16559.18
617.831	16589.24
618.187	16596.47
618.543	16588.79
618.899	16659.52
619.255	16653.64
619.611	16703.36
619.967	16664.49
620.323	16699.07
620.678	16694.77
621.034	16579.75
621.39	16655.23
621.746	16607.77
622.101	16745.17
622.457	16495.68
622.812	16646.41
623.168	16743.59
623.523	16654.55
623.879	16722.79
624.234	16628.33
624.589	16659.29
624.945	16647.09
625.3	16677.6
625.655	16709.46
626.01	16658.16
626.365	16688.22
626.72	16637.15
627.075	16624.49
627.43	16751.49
627.785	16622.46
628.14	16633.98
628.495	16614.32
628.85	16625.4
629.205	16617.94
629.559	16684.6
629.914	16591.72
630.269	16602.12
630.623	16564.38
630.978	16671.95
631.332	16650.71
631.687	16576.36
632.041	16509.02
632.396	16666.07
632.75	16533.65
633.104	16483.25
633.459	16444.38
633.813	16488.45
634.167	16443.25
634.521	16441.67
634.875	16538.62
635.229	16432.63
635.583	16275.57
635.937	16399.64
636.291	16287.78
636.645	16265.18
636.999	16287.33
637.352	16326.65
637.706	16269.25
638.06	16226.99
638.413	16216.59
638.767	16194.67
639.121	16251.17
639.474	16151.74
639.828	16080.78
640.181	16211.62
640.534	16228.57
640.888	16048.91
641.241	15995.81
641.594	16099.99
641.947	16039.65
642.301	15991.51
642.654	15983.38
643.007	15993.55
643.36	16030.16
643.713	15889.6
644.066	16058.18
644.419	15912.87
644.771	15799.2
645.124	15735.7
645.477	15598.76
645.83	15569.15
646.182	15468.36
646.535	15511.98
646.888	15505.88
647.24	15451.64
647.593	15494.35
647.945	15516.27
648.298	15396.73
648.65	15407.35
649.002	15383.85
649.355	15364.41
649.707	15442.6
650.059	15438.99
650.411	15655.7
650.763	15660.22
651.115	15741.35
651.467	15840.33
651.819	15766.89
652.171	15713.33
652.523	15773.67
652.875	15758.98
653.227	15725.31
653.578	15758.3
653.93	15759.88
654.282	15612.77
654.633	15716.72
654.985	15796.72
655.337	15685.99
655.688	15788.13
656.039	15787.9
656.391	15712.43
656.742	15792.65
657.094	15722.37
657.445	15813.44
657.796	15673.78
658.147	15685.76
658.498	15734.12
658.849	15792.65
659.2	15758.53
659.551	15679.66
659.902	15758.3
660.253	15636.95
660.604	15752.65
660.955	15710.62
661.306	15783.61
661.656	15769.6
662.007	15836.49
662.358	15779.54
662.708	15821.35
663.059	15763.72
663.409	15594.24
663.76	15801.92
664.11	15804.63
664.461	15851.86
664.811	15895.25
665.161	15843.5
665.511	15782.25
665.862	15848.24
666.212	15796.94
666.562	15866.32
666.912	15792.65
667.262	15714.69
667.612	15727.11
667.962	15845.98
668.312	15781.12
668.662	15865.19
669.011	15793.78
669.361	15810.5
669.711	15769.83
670.06	15736.15
670.41	15731.86
670.76	15649.38
671.109	15794.01
671.459	15687.79
671.808	15704.29
672.157	15667.91
672.507	15551.07
672.856	15652.09
673.205	15696.83
673.554	15659.77
673.904	15624.07
674.253	15756.04
674.602	15586.55
674.951	15432.43
675.3	15300.91
675.649	15592.43
675.998	15609.15
676.346	15542.94
676.695	15718.75
677.044	15425.2
677.393	15482.6
677.741	15529.38
678.09	15469.04
678.438	15416.84
678.787	15503.39
679.135	15422.72
679.484	15383.85
679.832	15419.78
680.181	15367.58
680.529	15399.67
680.877	15365.09
681.225	15269.95
681.573	15375.94
681.922	15332.55
682.27	15190.63
682.618	15212.33
682.966	15133.68
683.314	15250.74
683.661	15060.92
684.009	15092.78
684.357	15041.26
684.705	15019.34
685.053	14987.93
685.4	14982.28
685.748	14936.18
686.095	14915.16
686.443	14789.51
686.79	14774.15
687.138	14877.87
687.485	14701.15
687.832	14629.74
688.18	14724.66
688.527	14583.64
688.874	14629.29
689.221	14580.25
689.568	14579.12
689.915	14469.97
690.262	14489.63
690.609	14453.02
690.956	14359.47
691.303	14322.41
691.65	14359.24
691.997	14261.16
692.344	14187.72
692.69	14216.19
693.037	14139.59
693.383	14051.23
693.73	14080.6
694.077	13960.61
694.423	13960.61
694.769	13847.62
695.116	13932.13
695.462	13809.65
695.808	13773.27
696.155	13800.39
696.501	13618.7
696.847	13678.13
697.193	13606.49
697.539	13509.55
697.885	13542.09
698.231	13496.21
698.577	13443.56
698.923	13426.16
699.269	13406.95
699.614	13233.39
699.96	13141.42
700.306	13215.77
700.651	13145.04
700.997	13067.75
701.342	13072.27
701.688	12952.95
702.033	12969.9
702.379	12926.96
702.724	12889.22
703.069	12931.26
703.415	12805.84
703.76	12816.23
704.105	12697.82
704.45	12668.44
704.795	12655.56
705.14	12503.02
705.485	12654.2
705.83	12519.52
706.175	12480.65
706.52	12479.06
706.865	12371.5
707.209	12400.65
707.554	12358.16
707.899	12394.77
708.243	12317.71
708.588	12206.3
708.932	12209.24
709.277	12171.05
709.621	12157.27
709.966	12090.83
710.31	12158.85
710.654	11908.23
710.998	11973.99
711.342	11996.37
711.687	11938.51
712.031	11860.55
712.375	11875.69
712.719	11818.06
713.063	11874.79
713.407	11855.13
713.75	11763.15
714.094	11778.52
714.438	11734.23
714.782	11710.5
715.125	11665.07
715.469	11721.57
715.812	11632.08
716.156	11616.49
716.499	11557.05
716.843	11590.95
717.186	11484.74
717.53	11621.01
717.873	11616.94
718.216	11504.4
718.559	11464.4
718.902	11383.95
719.246	11465.53
719.589	11465.08
719.932	11315.93
720.275	11414.23
720.617	11332.88
720.96	11331.98
721.303	11341.92
721.646	11362.03
721.989	11288.14
722.331	11344.63
722.674	11297.4
723.016	11334.46
723.359	11255.59
723.701	11176.5
724.044	11200.68
724.386	11157.29
724.729	11176.95
725.071	11211.75
725.413	11169.27
725.755	11187.8
726.097	11124.07
726.439	11022.38
726.782	11146.9
727.124	11127.69
727.465	11109.16
727.807	11065.32
728.149	11113.22
728.491	11053.11
728.833	11068.71
729.175	11036.84
729.516	10970.63
729.858	11007.69
730.199	11042.49
730.541	11003.85
730.882	11000.46
731.224	11089.27
731.565	10941.7
731.906	11019.67
732.248	10994.13
732.589	11006.56
732.93	11024.19
733.271	10940.35
733.612	10984.19
733.953	11007.69
734.294	10959.1
734.635	10936.73
734.976	11014.47
735.317	10897.64
735.658	10981.93
735.999	10955.26
736.339	10940.57
736.68	10971.53
737.021	11002.95
737.361	10936.73
737.702	11021.02
738.042	11007.46
738.383	10947.58
738.723	11058.08
739.063	10933.34
739.404	11019.67
739.744	11049.5
740.084	11006.11
740.424	11059.67
740.764	11024.87
741.104	11114.13
741.444	11111.87
741.784	11113.22
742.124	11054.24
742.464	11111.64
742.804	11073.68
743.143	11070.97
743.483	11117.97
743.823	11091.76
744.162	11191.19
744.502	11241.58
744.841	11248.81
745.181	11234.8
745.52	11273.9
745.86	11394.12
746.199	11409.04
746.538	11402.26
746.877	11501.92
747.216	11512.54
747.556	11649.93
747.895	11667.79
748.234	11644.28
748.573	11701.46
748.911	11726.54
749.25	11789.37
749.589	11891.06
749.928	12043.82
750.267	12060.54
750.605	12112.29
750.944	12219.41
751.283	12214.44
751.621	12439.52
751.96	12394.1
752.298	12491.27
752.636	12616.91
752.975	12616.01
753.313	12786.85
753.651	12975.32
753.989	12976
754.327	13019.62
754.666	13080.4
755.004	13391.81
755.342	13599.26
