Data from hue_300_FLMS001491_00078.txt Node
Date: Tue Feb 07 15:51:12 GMT 2017
User: dcchb
Spectrometer: FLMS00149
Trigger mode: 0
Integration Time (sec): 2.000000E-2
Scans to average: 10
Electric dark correction enabled: true
Nonlinearity correction enabled: false
Boxcar width: 0
XAxis mode: Wavelengths
Number of Pixels in Spectrum: 2048
>>>>>Begin Spectral Data<<<<<
341.393	-7.74
341.776	-7.74
342.16	-7.74
342.543	-57.46
342.927	-77.57
343.31	-64.01
343.693	-75.08
344.077	-100.84
344.46	-57.68
344.843	-55.42
345.226	-30.56
345.61	-34.63
345.993	-14.75
346.376	9.21
346.759	14.86
347.142	24.8
347.525	35.65
347.908	55.31
348.291	84.01
348.674	87.17
349.057	121.97
349.44	114.29
349.823	136.66
350.206	161.07
350.588	185.7
350.971	199.49
351.354	218.24
351.737	213.5
352.119	257.34
352.502	244.91
352.884	263.21
353.267	261.18
353.65	299.6
354.032	302.99
354.414	311.12
354.797	299.82
355.179	308.18
355.562	300.5
355.944	304.12
356.326	305.47
356.709	334.62
357.091	338.24
357.473	342.08
357.855	317.45
358.238	322.19
358.62	332.59
359.002	328.3
359.384	341.86
359.766	334.85
360.148	345.7
360.53	339.14
360.912	331.46
361.294	331.91
361.676	335.3
362.057	314.74
362.439	301.18
362.821	309.99
363.203	320.84
363.584	333.04
363.966	322.19
364.348	311.8
364.729	325.58
365.111	307.28
365.493	309.54
365.874	306.15
366.256	291.69
366.637	305.92
367.019	303.44
367.4	307.05
367.781	324.91
368.163	308.41
368.544	294.63
368.925	287.62
369.306	305.47
369.688	287.39
370.069	326.26
370.45	313.38
370.831	326.49
371.212	293.95
371.593	304.12
371.974	299.14
372.355	319.71
372.736	327.84
373.117	324.91
373.498	307.96
373.879	331.46
374.26	293.5
374.641	317.68
375.021	312.93
375.402	315.19
375.783	319.71
376.163	329.65
376.544	327.39
376.925	333.04
377.305	343.89
377.686	326.26
378.066	325.58
378.447	339.82
378.827	319.48
379.208	318.13
379.588	338.92
379.968	324.45
380.349	333.49
380.729	303.44
381.109	314.96
381.489	347.28
381.87	336.43
382.25	326.94
382.63	336.66
383.01	342.99
383.39	312.93
383.77	334.17
384.15	331.69
384.53	340.5
384.91	358.58
385.29	337.56
385.67	353.83
386.049	354.28
386.429	346.15
386.809	357.22
387.189	355.87
387.568	351.12
387.948	352.7
388.328	336.88
388.707	358.13
389.087	379.14
389.466	356.77
389.846	361.52
390.225	355.41
390.605	362.87
390.984	350.67
391.363	363.32
391.743	373.94
392.122	362.87
392.501	370.33
392.881	371.23
393.26	362.65
393.639	369.88
394.018	366.04
394.397	385.02
394.776	385.24
395.155	389.54
395.534	374.62
395.913	402.42
396.292	396.54
396.671	381.18
397.05	380.5
397.429	388.63
397.808	408.75
398.186	397.67
398.565	385.47
398.944	396.32
399.323	421.85
399.701	407.62
400.08	374.62
400.458	410.1
400.837	397.22
401.215	427.73
401.594	431.12
401.972	422.76
402.351	406.26
402.729	436.09
403.107	436.32
403.486	422.31
403.864	420.95
404.242	434.06
404.62	437.9
404.999	420.72
405.377	436.54
405.755	446.03
406.133	450.78
406.511	458.01
406.889	453.49
407.267	479.03
407.645	444.68
408.023	480.61
408.401	465.69
408.779	481.96
409.156	493.72
409.534	466.37
409.912	512.47
410.29	502.53
410.667	530.55
411.045	521.29
411.422	568.74
411.8	534.17
412.178	526.94
412.555	577.78
412.933	582.08
413.31	564.45
413.687	578.01
414.065	587.27
414.442	574.39
414.819	604.67
415.197	623.2
415.574	611.9
415.951	632.24
416.328	631.11
416.705	656.2
417.082	641.28
417.46	665.01
417.837	665.69
418.214	671.11
418.591	670.21
418.967	702.98
419.344	715.86
419.721	703.2
420.098	687.61
420.475	720.83
420.852	738.68
421.228	703.43
421.605	745.46
421.982	752.47
422.358	766.03
422.735	795.18
423.111	782.07
423.488	781.39
423.864	808.74
424.241	823.2
424.617	822.97
424.994	810.09
425.37	849.41
425.746	849.41
426.123	846.7
426.499	861.62
426.875	866.36
427.251	877.21
427.627	915.4
428.003	911.33
428.379	927.15
428.756	944.33
429.132	926.92
429.507	950.2
429.883	956.75
430.259	963.99
430.635	986.58
431.011	976.87
431.387	994.72
431.763	1003.98
432.138	1028.84
432.514	1040.59
432.89	1053.7
433.265	1062.74
433.641	1093.93
434.016	1101.38
434.392	1093.47
434.767	1123.3
435.143	1115.39
435.518	1176.41
435.894	1142.74
436.269	1152.91
436.644	1190.87
437.02	1201.49
437.395	1195.39
437.77	1178.44
438.145	1220.7
438.52	1220.02
438.895	1228.39
439.271	1219.8
439.646	1288.72
440.021	1260.93
440.395	1272.45
440.77	1269.97
441.145	1274.26
441.52	1314.03
441.895	1284.66
442.27	1319.68
442.645	1298.67
443.019	1320.81
443.394	1313.13
443.769	1327.82
444.143	1315.84
444.518	1342.96
444.892	1359.23
445.267	1339.8
445.641	1394.94
446.016	1379.34
446.39	1366.69
446.764	1383.41
447.139	1383.86
447.513	1381.38
447.887	1410.3
448.262	1403.52
448.636	1396.06
449.01	1397.87
449.384	1414.6
449.758	1418.44
450.132	1418.21
450.506	1460.24
450.88	1441.49
451.254	1440.58
451.628	1494.14
452.002	1502.28
452.376	1481.26
452.75	1478.55
453.123	1492.79
453.497	1491.66
453.871	1516.06
454.244	1525.33
454.618	1538.89
454.992	1541.15
455.365	1547.25
455.739	1580.47
456.112	1574.59
456.486	1575.95
456.859	1580.47
457.232	1611.2
457.606	1606.68
457.979	1636.51
458.352	1656.17
458.725	1663.4
459.099	1672.89
459.472	1721.48
459.845	1698.2
460.218	1725.1
460.591	1726.68
460.964	1729.62
461.337	1728.94
461.71	1767.35
462.083	1782.72
462.456	1783.63
462.829	1811.87
463.201	1809.61
463.574	1805.09
463.947	1828.37
464.32	1869.95
464.692	1869.72
465.065	1867.24
465.438	1889.84
465.81	1870.85
466.183	1935.03
466.555	1944.3
466.928	1935.71
467.3	1966.9
467.672	1963.73
468.045	2035.37
468.417	2026.56
468.789	2013.45
469.161	2040.12
469.534	2067.69
469.906	2091.41
470.278	2082.6
470.65	2118.53
471.022	2177.51
471.394	2183.84
471.766	2196.04
472.138	2187.46
472.51	2252.99
472.882	2228.36
473.253	2284.4
473.625	2309.26
473.997	2288.24
474.369	2330.5
474.74	2328.92
475.112	2385.87
475.484	2394
475.855	2425.87
476.227	2451.86
476.598	2503.15
476.97	2499.54
477.341	2552.64
477.713	2535.7
478.084	2552.19
478.455	2645.98
478.827	2665.18
479.198	2708.12
479.569	2689.36
479.94	2724.39
480.311	2771.17
480.682	2815.01
481.053	2844.61
481.424	2860.89
481.795	2875.8
482.166	2906.53
482.537	2910.38
482.908	2942.24
483.279	2972.29
483.65	3034.89
484.021	3047.55
484.391	3100.65
484.762	3135.68
485.133	3118.73
485.503	3120.54
485.874	3196.92
486.244	3235.11
486.615	3232.4
486.985	3275.34
487.356	3346.07
487.726	3342.45
488.097	3407.54
488.467	3381.1
488.837	3457.71
489.207	3463.58
489.578	3518.04
489.948	3537.93
490.318	3544.94
490.688	3600.75
491.058	3592.84
491.428	3636.01
491.798	3693.86
492.168	3740.18
492.538	3761.43
492.908	3743.35
493.278	3804.14
493.648	3768.21
494.017	3827.19
494.387	3893.63
494.757	3894.08
495.126	3915.32
495.496	3923.46
495.866	3958.71
496.235	3951.03
496.605	4004.81
496.974	4000.52
497.344	4025.37
497.713	4028.99
498.082	4114.64
498.452	4078.25
498.821	4123.45
499.19	4101.98
499.559	4151.7
499.928	4185.37
500.298	4201.19
500.667	4201.87
501.036	4168.87
501.405	4208.19
501.774	4188.53
502.143	4266.5
502.512	4283.9
502.88	4306.27
503.249	4317.8
503.618	4302.88
503.987	4319.15
504.356	4323.67
504.724	4350.79
505.093	4419.71
505.462	4364.12
505.83	4368.19
506.199	4393.5
506.567	4503.1
506.936	4405.48
507.304	4517.11
507.672	4515.53
508.041	4482.76
508.409	4518.69
508.777	4588.98
509.145	4570.22
509.514	4599.14
509.882	4577
510.25	4597.11
510.618	4630.33
510.986	4629.88
511.354	4636.66
511.722	4692.48
512.09	4653.83
512.458	4671.23
512.826	4706.94
513.193	4707.62
513.561	4754.17
513.929	4725.24
514.297	4803.66
514.664	4802.53
515.032	4834.17
515.4	4858.57
515.767	4824.22
516.135	4824.9
516.502	4839.59
516.869	4876.2
517.237	4845.01
517.604	4831.68
517.972	4895.18
518.339	4926.82
518.706	4944.67
519.073	4955.97
519.44	4964.33
519.808	4956.2
520.175	4953.71
520.542	4999.13
520.909	5078
521.276	5020.15
521.643	5047.95
522.009	5101.28
522.376	5110.77
522.743	5075.74
523.11	5165.68
523.477	5200.71
523.843	5211.78
524.21	5254.49
524.577	5253.36
524.943	5320.26
525.31	5269.41
525.676	5325
526.043	5313.48
526.409	5363.64
526.776	5415.62
527.142	5393.25
527.508	5416.52
527.874	5470.53
528.241	5523.19
528.607	5494.26
528.973	5510.31
529.339	5539.01
529.705	5503.75
530.071	5608.84
530.437	5601.6
530.803	5677.53
531.169	5674.82
531.535	5704.88
531.901	5757.31
532.267	5728.15
532.632	5743.97
532.998	5760.92
533.364	5802.95
533.73	5863.29
534.095	5903.74
534.461	5915.27
534.826	5922.5
535.192	5953.23
535.557	5981.93
535.923	5922.95
536.288	6026
536.653	5999.56
537.019	6017.64
537.384	6026.23
537.749	6085.43
538.114	6068.71
538.479	6118.65
538.845	6120.91
539.21	6156.84
539.575	6141.25
539.94	6233.9
540.305	6194.36
540.67	6189.16
541.034	6228.71
541.399	6280.46
541.764	6263.96
542.129	6337.63
542.494	6355.48
542.858	6347.12
543.223	6424.18
543.587	6530.85
543.952	6411.75
544.316	6489.04
544.681	6504.86
545.045	6506.44
545.41	6557.96
545.774	6599.32
546.138	6574.91
546.503	6666.89
546.867	6619.43
547.231	6738.07
547.595	6716.83
547.959	6744.85
548.324	6717.28
548.688	6785.53
549.052	6767.22
549.416	6832.76
549.779	6821.91
550.143	6825.3
550.507	6873.66
550.871	6906.65
551.235	6934.45
551.599	6942.36
551.962	6955.01
552.326	6976.03
552.689	7023.94
553.053	7040.21
553.417	6989.59
553.78	7086.08
554.143	7089.02
554.507	7102.36
554.87	7127.89
555.234	7130.83
555.597	7104.39
555.96	7184.84
556.323	7185.07
556.686	7122.69
557.05	7217.38
557.413	7313.2
557.776	7226.87
558.139	7318.62
558.502	7318.17
558.865	7323.14
559.228	7377.83
559.59	7386.19
559.953	7380.77
560.316	7488.79
560.679	7466.41
561.041	7446.08
561.404	7522.68
561.767	7616.01
562.129	7543.47
562.492	7616.92
562.854	7598.39
563.217	7617.37
563.579	7642.68
563.941	7724.26
564.304	7698.95
564.666	7782.34
565.028	7810.13
565.39	7793.64
565.753	7860.08
566.115	7872.5
566.477	7829.12
566.839	7924.93
567.201	7915.89
567.563	7962.67
567.925	8052.61
568.287	8053.07
568.648	8048.55
569.01	8023.24
569.372	8097.58
569.734	8093.52
570.095	8168.32
570.457	8149.79
570.819	8216.45
571.18	8194.98
571.542	8347.52
571.903	8321.08
572.265	8332.83
572.626	8412.6
572.987	8419.38
573.349	8542.09
573.71	8537.35
574.071	8545.48
574.432	8659.15
574.794	8708.87
575.155	8764.68
575.516	8739.15
575.877	8826.38
576.238	8896.88
576.599	8995.64
576.96	9029.99
577.32	9166.26
577.681	9270.21
578.042	9296.65
578.403	9305.01
578.763	9463.42
579.124	9553.36
579.485	9716.3
579.845	9850.08
580.206	9957.42
580.566	10017.08
580.927	10089.17
581.287	10321.71
581.648	10436.05
582.008	10600.12
582.368	10681.47
582.728	10956.49
583.089	11064.29
583.449	11183.15
583.809	11354
584.169	11631.28
584.529	11785.4
584.889	12008.67
585.249	12119.17
585.609	12325.5
585.969	12568.88
586.329	12719.84
586.688	12899.94
587.048	13185.81
587.408	13431.23
587.768	13602.75
588.127	13920.26
588.487	14132.91
588.846	14530.86
589.206	14600.01
589.565	14884.3
589.925	15241.12
590.284	15393.66
590.643	15691.28
591.003	16001.1
591.362	16283.58
591.721	16544.59
592.08	16759.28
592.44	17216.67
592.799	17476.09
593.158	17623.43
593.517	18066.59
593.876	18385.9
594.235	18582.28
594.593	18895.04
594.952	19235.37
595.311	19399.89
595.67	19842.36
596.029	20154.67
596.387	20403.02
596.746	20790.81
597.104	20954.65
597.463	21329.55
597.822	21646.83
598.18	21876.2
598.538	22119.59
598.897	22591.44
599.255	22682.96
599.613	23303.06
599.972	23370.63
600.33	23702.37
600.688	24001.8
601.046	24402.24
601.404	24631.61
601.762	24826.64
602.12	25226.85
602.478	25554.3
602.836	25796.33
603.194	25933.95
603.552	26276.09
603.91	26372.81
604.268	26733.7
604.625	26993.58
604.983	27261.83
605.341	27381.14
605.698	27749.04
606.056	28102.93
606.413	28270.61
606.771	28718.06
607.128	28826.08
607.485	28833.99
607.843	29157.37
608.2	29466.29
608.557	29789.22
608.914	29862.66
609.272	30181.97
609.629	30436.88
609.986	30631
610.343	30782.86
610.7	31138.11
611.057	31335.16
611.414	31344.88
611.771	31624.42
612.127	31992.32
612.484	31914.13
612.841	32408.81
613.198	32416.72
613.554	32548.69
613.911	32988.23
614.267	32984.16
614.624	33107.1
614.98	33380.53
615.337	33717.48
615.693	33730.81
616.05	33827.75
616.406	34014.42
616.762	34034.3
617.118	34379.6
617.475	34456.66
617.831	34566.94
618.187	34776.43
618.543	34918.8
618.899	35051.9
619.255	35141.62
619.611	35282.86
619.967	35413.02
620.323	35700.25
620.678	35505.45
621.034	35641.27
621.39	35840.58
621.746	35998.77
622.101	36333
622.457	36260.23
622.812	36260.91
623.168	36440.57
623.523	36497.74
623.879	36723.05
624.234	36628.81
624.589	36627.68
624.945	36953.77
625.3	37028.57
625.655	37018.63
626.01	37067.22
626.365	37323.26
626.72	37233.09
627.075	37324.39
627.43	37419.07
627.785	37403.48
628.14	37448.22
628.495	37438.51
628.85	37481.67
629.205	37512.63
629.559	37701.55
629.914	37601.21
630.269	37693.42
630.623	37516.02
630.978	37565.74
631.332	37745.39
631.687	37936.12
632.041	37654.09
632.396	37873.75
632.75	37777.93
633.104	37843.92
633.459	37652.96
633.813	37687.31
634.167	37776.35
634.521	37900.87
634.875	37900.19
635.229	37922.34
635.583	37709.01
635.937	37949.91
636.291	37922.34
636.645	37890.7
636.999	37762.57
637.352	37992.39
637.706	37700.2
638.06	37910.13
638.413	37805.5
638.767	37744.94
639.121	37961.21
639.474	37771.61
639.828	37687.99
640.181	37866.74
640.534	37778.16
640.888	37723.92
641.241	37673.08
641.594	37778.84
641.947	37859.29
642.301	37607.09
642.654	37750.59
643.007	37737.93
643.36	37818.61
643.713	37885.28
644.066	37900.64
644.419	37590.14
644.771	37532.06
645.124	37114.67
645.477	37062.02
645.83	36885.3
646.182	36713.55
646.535	36766.66
646.888	36641.92
647.24	36523.95
647.593	36881.01
647.945	36768.92
648.298	36629.49
648.65	36571.64
649.002	36511.98
649.355	36664.29
649.707	36589.26
650.059	36739.09
650.411	37158.29
650.763	37108.57
651.115	37537.71
651.467	37422.46
651.819	37376.36
652.171	37309.7
652.523	37215.69
652.875	37276.93
653.227	37163.71
653.578	37543.59
653.93	37266.31
654.282	37209.81
654.633	37168.68
654.985	37195.8
655.337	37326.65
655.688	37260.21
656.039	37288.45
656.391	36986.09
656.742	37196.25
657.094	37209.13
657.445	37289.58
657.796	37191.28
658.147	37327.1
658.498	37189.7
658.849	37173.43
659.2	37205.74
659.551	37066.99
659.902	37279.42
660.253	37107.22
660.604	37215.91
660.955	36929.82
661.306	37120.32
661.656	37066.99
662.007	37267.89
662.358	37123.04
662.708	37034.68
663.059	37075.13
663.409	36925.07
663.76	37074.45
664.11	37069.25
664.461	36966.2
664.811	37089.59
665.161	36976.6
665.511	36999.42
665.862	37151.74
666.212	37119.65
666.562	37223.37
666.912	37052.53
667.262	37007.33
667.612	37014.56
667.962	37015.69
668.312	37059.31
668.662	37167.33
669.011	37188.8
669.361	37105.86
669.711	36862.03
670.06	37003.49
670.41	36891.63
670.76	36830.16
671.109	36999.87
671.459	36965.53
671.808	36902.25
672.157	36847.56
672.507	36651.18
672.856	36673.56
673.205	36755.14
673.554	36784.51
673.904	36714.01
674.253	36943.6
674.602	36709.49
674.951	36199.67
675.3	36161.48
675.649	36709.03
675.998	36500.45
676.346	36599.43
676.695	36754.91
677.044	36439.44
677.393	36561.69
677.741	36538.42
678.09	36564.18
678.438	36395.37
678.787	36422.71
679.135	36584.29
679.484	36200.12
679.832	36358.54
680.181	36076.74
680.529	36173.68
680.877	36106.11
681.225	36251.87
681.573	36416.16
681.922	36139.78
682.27	35980.24
682.618	35938.66
682.966	35760.36
683.314	36034.93
683.661	35984.53
684.009	35744.77
684.357	35603.53
684.705	35676.97
685.053	35619.35
685.4	35672
685.748	35484.89
686.095	35434.27
686.443	35308.62
686.79	35287.6
687.138	35511.1
687.485	35336.64
687.832	35259.36
688.18	35202.18
688.527	35025.01
688.874	34879.48
689.221	34883.55
689.568	34810.33
689.915	34719.71
690.262	34708.64
690.609	34544.57
690.956	34690.78
691.303	34504.35
691.65	34364.24
691.997	34492.6
692.344	34266.16
692.69	34148.65
693.037	34280.62
693.383	33843.8
693.73	34058.71
694.077	33768.77
694.423	33841.31
694.769	33870.47
695.116	33661.66
695.462	33609.46
695.808	33556.12
696.155	33584.6
696.501	33254.21
696.847	33279.75
697.193	33072.29
697.539	33255.11
697.885	32950.72
698.231	32868.01
698.577	32878.4
698.923	32665.07
699.269	32679.08
699.614	32542.36
699.96	32326.55
700.306	32423.72
700.651	32252.43
700.997	32116.61
701.342	32121.36
701.688	32141.92
702.033	31955.26
702.379	32021.7
702.724	31819.9
703.069	31792.78
703.415	31558.44
703.76	31599.11
704.105	31552.33
704.45	31423.3
704.795	31256.97
705.14	31140.14
705.485	31137.88
705.83	31087.71
706.175	31152.12
706.52	31037.55
706.865	30816.53
707.209	30883.65
707.554	30856.76
707.899	30849.98
708.243	30541.51
708.588	30613.83
708.932	30410.67
709.277	30383.33
709.621	30551.68
709.966	30270.33
710.31	30285.7
710.654	30050.68
710.998	30043.67
711.342	30122.09
711.687	29936.56
712.031	29816.33
712.375	29692.04
712.719	29848.42
713.063	29867.63
713.407	29944.01
713.75	29746.05
714.094	29660.41
714.438	29586.28
714.782	29491.37
715.125	29334.99
715.469	29523.91
715.812	29358.95
716.156	29139.06
716.499	29139.29
716.843	29140.19
717.186	29096.58
717.53	29161.66
717.873	29046.64
718.216	29072.17
718.559	28937.04
718.902	28673.77
719.246	28866.08
719.589	28815.23
719.932	28619.76
720.275	28641.22
720.617	28598.51
720.96	28501.79
721.303	28507.22
721.646	28424.51
721.989	28344.51
722.331	28363.04
722.674	28335.7
723.016	28275.58
723.359	28190.61
723.701	28255.92
724.044	28086.21
724.386	28083.05
724.729	28115.14
725.071	28010.51
725.413	27932.09
725.755	28045.53
726.097	27825.88
726.439	27724.19
726.782	27697.97
727.124	28009.6
727.465	27639.89
727.807	27603.29
728.149	27610.06
728.491	27609.39
728.833	27593.79
729.175	27541.59
729.516	27533.46
729.858	27428.6
730.199	27556.73
730.541	27455.04
730.882	27469.96
731.224	27368.26
731.565	27387.47
731.906	27230.64
732.248	27347.47
732.589	27182.05
732.93	27074.26
733.271	27234.71
733.612	27089.85
733.953	27168.72
734.294	26996.97
734.635	26859.8
734.976	26945.68
735.317	26737.32
735.658	26856.41
735.999	26811.89
736.339	26845.57
736.68	26802.85
737.021	26710.43
737.361	26612.58
737.702	26760.82
738.042	26472.92
738.383	26641.95
738.723	26639.02
739.063	26423.2
739.404	26659.13
739.744	26530.55
740.084	26439.47
740.424	26482.19
740.764	26349.08
741.104	26579.81
741.444	26278.35
741.784	26225.92
742.124	26345.24
742.464	26279.93
742.804	26229.76
743.143	26118.58
743.483	26226.37
743.823	25931.92
744.162	26042.65
744.502	26045.36
744.841	25871.35
745.181	25981.86
745.52	25886.27
745.86	25932.14
746.199	25967.17
746.538	25925.36
746.877	25963.78
747.216	25897.34
747.556	25791.13
747.895	25851.92
748.234	25779.6
748.573	25758.36
748.911	25678.14
749.25	25720.4
749.589	25482.44
749.928	25738.93
750.267	25661.64
750.605	25546.39
750.944	25508.88
751.283	25420.52
751.621	25447.64
751.96	25381.42
752.298	25239.73
752.636	25483.12
752.975	25318.37
753.313	25181.65
753.651	25371.93
753.989	25164.93
754.327	25103.24
754.666	25058.72
755.004	25147.08
755.342	25041.54
755.679	25176.23
756.017	24985.95
756.355	25098.49
756.693	24906.18
757.031	24957.93
757.368	24855.79
757.706	24804.94
758.044	24677.71
758.381	24826.18
758.719	24657.83
759.056	24759.97
759.394	24743.47
