Data from hue_140_FLMS001491_00016.txt Node
Date: Tue Feb 07 16:55:29 GMT 2017
User: dcchb
Spectrometer: FLMS00149
Trigger mode: 0
Integration Time (sec): 2.000000E-2
Scans to average: 10
Electric dark correction enabled: true
Nonlinearity correction enabled: false
Boxcar width: 0
XAxis mode: Wavelengths
Number of Pixels in Spectrum: 2048
>>>>>Begin Spectral Data<<<<<
341.393	-11.09
341.776	-11.09
342.16	-11.09
342.543	-57.19
342.927	-74.59
343.31	-76.85
343.693	-79.56
344.077	-72.55
344.46	-60.35
344.843	-54.02
345.226	-26
345.61	-39.56
345.993	-14.25
346.376	-11.31
346.759	5.64
347.142	-0.92
347.525	51.96
347.908	66.88
348.291	92.19
348.674	95.35
349.057	123.37
349.44	146.87
349.823	133.77
350.206	127.89
350.588	172.18
350.971	179.19
351.354	213.54
351.737	227.1
352.119	225.97
352.502	251.73
352.884	283.82
353.267	283.82
353.65	274.1
354.032	286.76
354.414	313.42
354.797	307.77
355.179	307.55
355.562	331.73
355.944	321.56
356.326	346.19
356.709	331.95
357.091	319.3
357.473	318.4
357.855	348.68
358.238	338.28
358.62	326.98
359.002	324.72
359.384	342.12
359.766	331.73
360.148	323.14
360.53	328.56
360.912	352.97
361.294	345.74
361.676	308.9
362.057	342.58
362.439	348.9
362.821	326.3
363.203	318.62
363.584	302.12
363.966	315.46
364.348	300.09
364.729	328.56
365.111	316.36
365.493	316.14
365.874	310.49
366.256	302.58
366.637	312.97
367.019	289.92
367.4	323.82
367.781	327.66
368.163	307.32
368.544	295.57
368.925	303.03
369.306	291.28
369.688	311.62
370.069	312.29
370.45	324.72
370.831	303.93
371.212	302.35
371.593	321.56
371.974	290.6
372.355	304.84
372.736	332.86
373.117	288.34
373.498	311.62
373.879	316.36
374.26	323.37
374.641	310.03
375.021	313.88
375.402	313.2
375.783	318.4
376.163	319.53
376.544	312.75
376.925	312.29
377.305	314.55
377.686	324.95
378.066	329.47
378.447	312.29
378.827	330.15
379.208	334.67
379.588	317.49
379.968	336.02
380.349	331.73
380.729	324.05
381.109	338.28
381.489	321.56
381.87	333.31
382.25	353.42
382.63	327.66
383.01	337.15
383.39	326.76
383.77	357.49
384.15	363.37
384.53	361.56
384.91	353.65
385.29	345.74
385.67	359.52
386.049	351.84
386.429	359.52
386.809	332.86
387.189	354.33
387.568	343.03
387.948	349.81
388.328	357.72
388.707	336.25
389.087	342.12
389.466	365.85
389.846	356.13
390.225	365.17
390.605	359.75
390.984	358.85
391.363	363.37
391.743	361.33
392.122	372.18
392.501	369.92
392.881	360.43
393.26	374.67
393.639	373.54
394.018	380.99
394.397	368.56
394.776	388.68
395.155	389.81
395.534	358.39
395.913	393.65
396.292	376.02
396.671	370.6
397.05	398.39
397.429	385.74
397.808	405.62
398.186	368.11
398.565	403.37
398.944	382.8
399.323	380.31
399.701	387.09
400.08	411.73
400.458	403.59
400.837	410.37
401.215	414.66
401.594	399.52
401.972	421.9
402.351	396.81
402.729	400.88
403.107	404.04
403.486	414.44
403.864	414.44
404.242	403.82
404.62	410.82
404.999	404.27
405.377	433.42
405.755	413.08
406.133	428
406.511	421.44
406.889	417.83
407.267	437.04
407.645	427.77
408.023	422.35
408.401	422.35
408.779	431.16
409.156	449.24
409.534	475
409.912	441.78
410.29	446.98
410.667	460.54
411.045	441.78
411.422	466.41
411.8	457.15
412.178	453.53
412.555	480.88
412.933	479.75
413.31	465.96
413.687	477.26
414.065	481.56
414.442	470.93
414.819	464.61
415.197	488.11
415.574	471.16
415.951	483.81
416.328	512.29
416.705	504.38
417.082	480.88
417.46	516.13
417.837	524.27
418.214	516.58
418.591	513.64
418.967	487.43
419.344	510.93
419.721	541.21
420.098	523.81
420.475	529.92
420.852	540.76
421.228	549.35
421.605	518.84
421.982	533.98
422.358	535.79
422.735	537.15
423.111	549.35
423.488	561.33
423.864	581.21
424.241	564.04
424.617	558.16
424.994	565.39
425.37	589.35
425.746	570.82
426.123	607.65
426.499	576.92
426.875	587.09
427.251	602.91
427.627	591.61
428.003	599.07
428.379	605.17
428.756	612.17
429.132	610.37
429.507	620.08
429.883	608.78
430.259	638.39
430.635	646.07
431.011	652.62
431.387	643.81
431.763	662.57
432.138	655.79
432.514	673.87
432.89	669.57
433.265	683.58
433.641	652.85
434.016	686.75
434.392	707.31
434.767	700.98
435.143	706.18
435.518	702.34
435.894	710.02
436.269	742.11
436.644	716.13
437.02	721.77
437.395	740.98
437.77	741.44
438.145	754.32
438.52	756.35
438.895	769.68
439.271	796.12
439.646	781.66
440.021	760.19
440.395	775.33
440.77	812.62
441.145	784.6
441.52	794.54
441.895	813.98
442.27	832.28
442.645	827.53
443.019	812.62
443.394	801.09
443.769	812.85
444.143	821.89
444.518	835.22
444.892	821.66
445.267	844.48
445.641	866.4
446.016	851.71
446.39	837.25
446.764	872.51
447.139	871.38
447.513	874.09
447.887	874.77
448.262	882.9
448.636	906.85
449.01	887.65
449.384	910.02
449.758	898.95
450.132	924.03
450.506	937.81
450.88	943.92
451.254	907.76
451.628	932.62
452.002	972.16
452.376	958.15
452.75	970.36
453.123	973.52
453.497	986.85
453.871	979.62
454.244	995.67
454.618	993.18
454.992	997.47
455.365	1063.91
455.739	1040.41
456.112	1056.91
456.486	1079.28
456.859	1095.55
457.232	1091.48
457.606	1111.14
457.979	1114.53
458.352	1147.53
458.725	1138.94
459.099	1185.49
459.472	1187.98
459.845	1182.78
460.218	1206.28
460.591	1201.31
460.964	1193.17
461.337	1239.05
461.71	1282.66
462.083	1263.23
462.456	1262.1
462.829	1273.4
463.201	1325.15
463.574	1328.09
463.947	1346.39
464.32	1361.31
464.692	1389.1
465.065	1383.68
465.438	1405.15
465.81	1429.1
466.183	1460.06
466.555	1494.41
466.928	1501.87
467.3	1508.42
467.672	1547.97
468.045	1580.74
468.417	1606.5
468.789	1613.05
469.161	1629.55
469.534	1666.83
469.906	1712.71
470.278	1740.28
470.65	1771.01
471.022	1759.04
471.394	1827.51
471.766	1854.17
472.138	1884.23
472.51	1930.56
472.882	1979.37
473.253	2013.49
473.625	2048.97
473.997	2109.76
474.369	2139.36
474.74	2140.49
475.112	2219.81
475.484	2274.5
475.855	2322.64
476.227	2343.43
476.598	2491.9
476.97	2501.39
477.341	2538.45
477.713	2666.58
478.084	2646.24
478.455	2749.07
478.827	2830.19
479.198	2920.59
479.569	2957.42
479.94	3028.38
480.311	3106.12
480.682	3212.78
481.053	3312.22
481.424	3421.59
481.795	3452.32
482.166	3593.11
482.537	3670.4
482.908	3754.92
483.279	3813.67
483.65	3958.53
484.021	4126.66
484.391	4144.96
484.762	4235.13
485.133	4352.87
485.503	4432.86
485.874	4591.05
486.244	4746.08
486.615	4824.94
486.985	4973.19
487.356	5097.93
487.726	5217.7
488.097	5337.25
488.467	5433.06
488.837	5601.42
489.207	5684.58
489.578	5874.41
489.948	5938.59
490.318	6103.33
490.688	6216.32
491.058	6360.04
491.428	6477.78
491.798	6576.08
492.168	6786.25
492.538	6926.58
492.908	7009.29
493.278	7150.53
493.648	7273.69
494.017	7437.08
494.387	7502.39
494.757	7690.63
495.126	7795.49
495.496	7900.34
495.866	7995.03
496.235	8185.08
496.605	8241.13
496.974	8428.01
497.344	8507.33
497.713	8609.48
498.082	8707.33
498.452	8884.27
498.821	8941.67
499.19	8997.72
499.559	9137.37
499.928	9287.2
500.298	9317.03
500.667	9395.67
501.036	9416.69
501.405	9670.01
501.774	9660.07
502.143	9836.56
502.512	9810.35
502.88	10049.44
503.249	10075.88
503.618	10221.64
503.987	10323.33
504.356	10406.27
504.724	10350.22
505.093	10476.32
505.462	10523.78
505.83	10608.75
506.199	10747.5
506.567	10856.88
506.936	10840.15
507.304	10999.92
507.672	10994.73
508.041	11036.08
508.409	11144.1
508.777	11278.79
509.145	11376.86
509.514	11339.12
509.882	11463.41
510.25	11512.68
510.618	11523.3
510.986	11617.76
511.354	11667.48
511.722	11839
512.09	11858.88
512.458	11796.06
512.826	11890.29
513.193	11905.21
513.561	12006.68
513.929	11971.42
514.297	12120.12
514.664	12182.94
515.032	12195.15
515.4	12345.88
515.767	12324.86
516.135	12353.11
516.502	12286.89
516.869	12460.22
517.237	12466.78
517.604	12435.82
517.972	12607.11
518.339	12610.73
518.706	12615.7
519.073	12595.81
519.44	12653.66
519.808	12733.66
520.175	12637.85
520.542	12793.32
520.909	12941.57
521.276	12853.89
521.643	12917.84
522.009	12998.06
522.376	12934.34
522.743	13026.76
523.11	13177.27
523.477	13097.95
523.843	13179.07
524.21	13294.55
524.577	13248.45
524.943	13329.35
525.31	13332.06
525.676	13375
526.043	13414.1
526.409	13391.72
526.776	13501.33
527.142	13512.62
527.508	13517.6
527.874	13554.21
528.241	13595.33
528.607	13548.33
528.973	13644.6
529.339	13560.99
529.705	13575.67
530.071	13666.75
530.437	13639.63
530.803	13642.34
531.169	13605.5
531.535	13692.96
531.901	13595.79
532.267	13615
532.632	13622
532.998	13681.89
533.364	13750.81
533.73	13562.34
534.095	13735.67
534.461	13639.63
534.826	13667.42
535.192	13558.73
535.557	13630.81
535.923	13645.5
536.288	13525.73
536.653	13572.74
537.019	13499.07
537.384	13487.31
537.749	13503.81
538.114	13449.35
538.479	13497.26
538.845	13500.2
539.21	13397.6
539.575	13396.92
539.94	13342.23
540.305	13435.34
540.67	13318.28
541.034	13329.8
541.399	13257.04
541.764	13183.14
542.129	13175.46
542.494	13228.34
542.858	13218.62
543.223	13167.1
543.587	13212.29
543.952	13063.15
544.316	13072.86
544.681	12920.78
545.045	12987.44
545.41	12991.96
545.774	12903.15
546.138	12882.13
546.503	12870.83
546.867	12834.68
547.231	12865.18
547.595	12871.29
547.959	12812.3
548.324	12826.32
548.688	12725.3
549.052	12658.64
549.416	12714.68
549.779	12663.38
550.143	12638.3
550.507	12605.3
550.871	12655.02
551.235	12489.15
551.599	12574.12
551.962	12536.83
552.326	12519.88
552.689	12570.28
553.053	12334.58
553.417	12445.99
553.78	12465.42
554.143	12379.1
554.507	12377.29
554.87	12366.67
555.234	12415.03
555.597	12318.08
555.96	12335.03
556.323	12286.89
556.686	12278.76
557.05	12340.23
557.413	12271.08
557.776	12326.67
558.139	12305.43
558.502	12272.88
558.865	12259.55
559.228	12296.84
559.59	12285.99
559.953	12231.98
560.316	12392.65
560.679	12294.35
561.041	12209.83
561.404	12369.38
561.767	12318.53
562.129	12234.69
562.492	12351.53
562.854	12346.78
563.217	12298.42
563.579	12309.94
563.941	12333.9
564.304	12359.43
564.666	12387.23
565.028	12436.27
565.39	12413.9
565.753	12381.81
566.115	12345.2
566.477	12376.38
566.839	12362.6
567.201	12499.32
567.563	12462.26
567.925	12474.91
568.287	12509.26
568.648	12459.32
569.01	12457.74
569.372	12570.05
569.734	12465.65
570.095	12568.47
570.457	12610.28
570.819	12570.05
571.18	12539.09
571.542	12646.66
571.903	12627
572.265	12596.94
572.626	12566.66
572.987	12682.59
573.349	12653.21
573.71	12665.19
574.071	12602.59
574.432	12777.73
574.794	12749.03
575.155	12745.64
575.516	12664.74
575.877	12736.83
576.238	12754.23
576.599	12747.67
576.96	12739.31
577.32	12744.06
577.681	12800.33
578.042	12854.11
578.403	12746.09
578.763	12778.63
579.124	12729.82
579.485	12830.83
579.845	12870.83
580.206	12784.51
580.566	12752.42
580.927	12731.63
581.287	12777.95
581.648	12747.45
582.008	12757.84
582.368	12732.76
582.728	12812.76
583.089	12719.2
583.449	12734.34
583.809	12779.08
584.169	12791.29
584.529	12714.68
584.889	12843.04
585.249	12663.16
585.609	12670.84
585.969	12744.74
586.329	12691.18
586.688	12740.22
587.048	12712.65
587.408	12657.28
587.768	12691.4
588.127	12582.93
588.487	12647.79
588.846	12731.63
589.206	12564.63
589.565	12558.98
589.925	12686.43
590.284	12676.04
590.643	12631.52
591.003	12591.29
591.362	12651.4
591.721	12589.49
592.08	12640.11
592.44	12593.55
592.799	12603.04
593.158	12562.82
593.517	12593.33
593.876	12575.93
594.235	12526.44
594.593	12584.51
594.952	12543.16
595.311	12486.66
595.67	12531.41
596.029	12563.5
596.387	12583.84
596.746	12512.43
597.104	12436.72
597.463	12446.21
597.822	12480.79
598.18	12368.93
598.538	12461.13
598.897	12498.19
599.255	12464.29
599.613	12614.57
599.972	12432.43
600.33	12515.59
600.688	12433.78
601.046	12544.97
601.404	12545.64
601.762	12508.81
602.12	12529.83
602.478	12515.36
602.836	12547
603.194	12548.58
603.552	12523.05
603.91	12527.79
604.268	12492.54
604.625	12549.49
604.983	12577.73
605.341	12448.47
605.698	12569.82
606.056	12508.36
606.413	12520.56
606.771	12540.22
607.128	12541.8
607.485	12474.69
607.843	12455.25
608.2	12606.66
608.557	12600.11
608.914	12621.35
609.272	12659.09
609.629	12640.33
609.986	12689.82
610.343	12661.12
610.7	12650.95
611.057	12695.25
611.414	12610.05
611.771	12679.43
612.127	12698.64
612.484	12652.31
612.841	12741.8
613.198	12709.26
613.554	12671.07
613.911	12762.59
614.267	12767.56
614.624	12746.77
614.98	12824.73
615.337	12825.41
615.693	12723.49
616.05	12721.91
616.406	12834.9
616.762	12797.84
617.118	12756.94
617.475	12846.43
617.831	12798.29
618.187	12916.71
618.543	12922.58
618.899	12916.93
619.255	12927.78
619.611	12860.89
619.967	12924.84
620.323	12918.52
620.678	12884.39
621.034	12893.21
621.39	12834
621.746	12848.24
622.101	12982.02
622.457	12782.02
622.812	12882.81
623.168	12945.41
623.523	12881.46
623.879	12919.87
624.234	12750.16
624.589	12926.2
624.945	12928.91
625.3	12913.54
625.655	12893.88
626.01	12994.45
626.365	12866.99
626.72	12823.6
627.075	12865.64
627.43	12869.7
627.785	12891.85
628.14	12993.99
628.495	12958.06
628.85	12897.95
629.205	12835.58
629.559	12901.57
629.914	12836.71
630.269	12786.32
630.623	12832.19
630.978	12792.19
631.332	12845.52
631.687	12871.74
632.041	12802.14
632.396	12827.9
632.75	12771.85
633.104	12798.29
633.459	12758.07
633.813	12701.8
634.167	12754.68
634.521	12738.63
634.875	12651.18
635.229	12659.77
635.583	12633.1
635.937	12657.05
636.291	12575.47
636.645	12647.79
636.999	12563.27
637.352	12611.41
637.706	12525.31
638.06	12652.53
638.413	12560.56
638.767	12545.19
639.121	12561.69
639.474	12456.61
639.828	12480.79
640.181	12463.61
640.534	12435.59
640.888	12440.79
641.241	12377.97
641.594	12350.17
641.947	12410.51
642.301	12388.59
642.654	12407.57
643.007	12409.83
643.36	12391.98
643.713	12275.6
644.066	12451.18
644.419	12405.08
644.771	12307.91
645.124	12236.05
645.477	12209.61
645.83	12055.26
646.182	12020.01
646.535	11965.09
646.888	12057.75
647.24	11916.28
647.593	11996.05
647.945	11914.02
648.298	11990.18
648.65	11951.76
649.002	11814.36
649.355	11930.75
649.707	11878.77
650.059	11977.07
650.411	12095.26
650.763	12124.41
651.115	12191.76
651.467	12116.05
651.819	12215.26
652.171	12172.55
652.523	12161.93
652.875	12183.39
653.227	12108.14
653.578	12255.71
653.93	12193.79
654.282	12100.23
654.633	12135.71
654.985	12164.19
655.337	12129.84
655.688	12184.75
656.039	12192.21
656.391	12067.69
656.742	12156.95
657.094	12245.09
657.445	12264.52
657.796	12180.68
658.147	12169.84
658.498	12222.94
658.849	12272.43
659.2	12187.01
659.551	12201.92
659.902	12300.23
660.253	12208.93
660.604	12225.65
660.955	12111.76
661.306	12205.77
661.656	12195.6
662.007	12210.74
662.358	12219.33
662.708	12255.93
663.059	12171.87
663.409	12176.39
663.76	12251.19
664.11	12261.81
664.461	12198.08
664.811	12181.59
665.161	12227.46
665.511	12225.2
665.862	12214.35
666.212	12308.59
666.562	12311.75
666.912	12273.34
667.262	12178.65
667.612	12186.78
667.962	12265.88
668.312	12186.78
668.662	12257.06
669.011	12245.31
669.361	12282.15
669.711	12212.32
670.06	12096.16
670.41	12247.35
670.76	12166.67
671.109	12201.47
671.459	12238.31
671.808	12128.25
672.157	12228.59
672.507	12100.68
672.856	12141.81
673.205	12202.38
673.554	12184.07
673.904	12108.14
674.253	12208.03
674.602	12103.62
674.951	11965.32
675.3	11931.88
675.649	12124.86
675.998	12102.04
676.346	12047.58
676.695	12133.45
677.044	11932.55
677.393	12027.01
677.741	12016.17
678.09	12076.28
678.438	12046
678.787	11960.58
679.135	11954.25
679.484	11962.84
679.832	11958.32
680.181	11891.65
680.529	11915.83
680.877	11811.43
681.225	11832.44
681.573	11891.65
681.922	11816.17
682.27	11800.13
682.618	11716.51
682.966	11797.42
683.314	11782.95
683.661	11751.99
684.009	11682.16
684.357	11703.41
684.705	11651.88
685.053	11629.96
685.4	11569.4
685.748	11563.75
686.095	11559.68
686.443	11538.44
686.79	11504.09
687.138	11467.48
687.485	11553.81
687.832	11493.47
688.18	11436.3
688.527	11366.24
688.874	11396.52
689.221	11309.07
689.568	11350.65
689.915	11272.01
690.262	11308.16
690.609	11264.32
690.956	11176.87
691.303	11123.31
691.65	11135.74
691.997	11079.24
692.344	11054.61
692.69	10965.57
693.037	11023.42
693.383	10913.82
693.73	10970.54
694.077	10808.29
694.423	10850.1
694.769	10827.95
695.116	10770.55
695.462	10756.77
695.808	10688.29
696.155	10709.53
696.501	10632.93
696.847	10614.85
697.193	10545.7
697.539	10553.38
697.885	10488.52
698.231	10447.85
698.577	10378.92
698.923	10368.3
699.269	10314.74
699.614	10258.93
699.96	10223.22
700.306	10260.96
700.651	10112.26
700.997	10150.68
701.342	10089.44
701.688	10116.56
702.033	9993.62
702.379	10092.38
702.724	9981.19
703.069	10032.72
703.415	9934.87
703.76	9916.79
704.105	9832.27
704.45	9866.85
704.795	9769.67
705.14	9780.75
705.485	9749.33
705.83	9739.84
706.175	9759.05
706.52	9669.11
706.865	9692.84
707.209	9597.02
707.554	9539.85
707.899	9632.95
708.243	9523.8
708.588	9492.17
708.932	9450.58
709.277	9433.86
709.621	9425.27
709.966	9390.93
710.31	9437.93
710.654	9247.2
710.998	9387.31
711.342	9319.06
711.687	9228.67
712.031	9259.86
712.375	9204.26
712.719	9226.64
713.063	9205.39
713.407	9210.37
713.75	9174.66
714.094	9160.87
714.438	9109.12
714.782	9080.43
715.125	9077.49
715.469	9101.67
715.812	9047.66
716.156	9007.66
716.499	9016.25
716.843	8988.45
717.186	8894.89
717.53	8998.39
717.873	8945.97
718.216	8980.77
718.559	8966.3
718.902	8844.73
719.246	8872.75
719.589	8821.22
719.932	8828.45
720.275	8826.87
720.617	8863.03
720.96	8862.13
721.303	8821.67
721.646	8827.78
721.989	8746.2
722.331	8747.33
722.674	8772.18
723.016	8750.49
723.359	8748.23
723.701	8683.15
724.044	8716.37
724.386	8706.42
724.729	8725.63
725.071	8752.3
725.413	8702.36
725.755	8678.85
726.097	8706.42
726.439	8533.77
726.782	8695.12
727.124	8677.05
727.465	8624.17
727.807	8646.99
728.149	8633.43
728.491	8653.77
728.833	8655.58
729.175	8652.19
729.516	8679.98
729.858	8580.1
730.199	8568.12
730.541	8594.11
730.882	8609.25
731.224	8644.05
731.565	8566.54
731.906	8607.67
732.248	8592.53
732.589	8511.85
732.93	8520.21
733.271	8519.54
733.612	8547.11
733.953	8534.22
734.294	8525.19
734.635	8570.83
734.976	8573.55
735.317	8525.86
735.658	8519.08
735.999	8510.04
736.339	8489.48
736.68	8505.98
737.021	8558.63
737.361	8513.43
737.702	8545.07
738.042	8559.08
738.383	8562.92
738.723	8591.17
739.063	8556.37
739.404	8591.85
739.744	8558.18
740.084	8547.33
740.424	8632.53
740.764	8602.25
741.104	8682.92
741.444	8637.27
741.784	8667.78
742.124	8695.8
742.464	8665.75
742.804	8685.86
743.143	8700.32
743.483	8740.1
743.823	8712.53
744.162	8772.86
744.502	8843.14
744.841	8806.76
745.181	8905.06
745.52	8852.86
745.86	8946.19
746.199	8915.68
746.538	8987.55
746.877	9024.61
747.216	9099.63
747.556	9068.9
747.895	9209.46
748.234	9159.97
748.573	9250.14
748.911	9294.2
749.25	9289.46
749.589	9383.69
749.928	9435.44
750.267	9500.53
750.605	9623.46
750.944	9605.16
751.283	9707.53
751.621	9808.54
751.96	9795.66
752.298	9942.78
752.636	9991.59
752.975	10086.05
753.313	10199.94
753.651	10328.3
753.989	10360.17
754.327	10458.47
754.666	10617.33
755.004	10705.47
755.342	10802.64
755.679	11005.35
756.017	11049.86
756.355	11215.96
756.693	11322.63
757.031	11489.85
757.368	11592.45
757.706	11697.08
758.044	11886.68
758.381	12128.48
758.719	12250.74
