Data from hue_22_FLMS001491_00082.txt Node
Date: Tue Feb 07 17:10:45 GMT 2017
User: dcchb
Spectrometer: FLMS00149
Trigger mode: 0
Integration Time (sec): 2.000000E-2
Scans to average: 10
Electric dark correction enabled: true
Nonlinearity correction enabled: false
Boxcar width: 0
XAxis mode: Wavelengths
Number of Pixels in Spectrum: 2048
>>>>>Begin Spectral Data<<<<<
341.393	-5.01
341.776	-5.01
342.16	-5.01
342.543	-68.52
342.927	-56.99
343.31	-58.12
343.693	-58.35
344.077	-75.07
344.46	-55.41
344.843	-48.4
345.226	-38.69
345.61	-51.34
345.993	-6.14
346.376	-13.15
346.759	3.57
347.142	10.58
347.525	37.24
347.908	58.26
348.291	74.31
348.674	93.51
349.057	127.19
349.44	123.8
349.823	148.65
350.206	160.18
350.588	197.47
350.971	212.16
351.354	232.27
351.737	241.31
352.119	236.11
352.502	253.06
352.884	296
353.267	298.71
353.65	301.19
354.032	298.71
354.414	312.94
354.797	323.79
355.179	323.79
355.562	324.92
355.944	316.56
356.326	324.02
356.709	347.07
357.091	342.32
357.473	345.49
357.855	325.15
358.238	343.45
358.62	350.68
359.002	350.23
359.384	336.45
359.766	340.06
360.148	362.43
360.53	344.81
360.912	338.93
361.294	332.15
361.676	354.98
362.057	317.92
362.439	340.74
362.821	310.68
363.203	343
363.584	327.86
363.966	327.86
364.348	335.77
364.729	324.69
365.111	303.23
365.493	302.32
365.874	310.23
366.256	328.76
366.637	312.94
367.019	317.46
367.4	326.05
367.781	309.33
368.163	317.92
368.544	306.39
368.925	317.46
369.306	328.31
369.688	317.69
370.069	329.21
370.45	317.92
370.831	322.66
371.212	330.34
371.593	315.66
371.974	334.19
372.355	298.25
372.736	335.77
373.117	323.11
373.498	317.46
373.879	313.17
374.26	323.11
374.641	329.21
375.021	320.63
375.402	342.55
375.783	317.24
376.163	351.59
376.544	343
376.925	346.84
377.305	347.97
377.686	314.07
378.066	325.82
378.447	344.36
378.827	328.54
379.208	333.96
379.588	319.72
379.968	338.03
380.349	344.13
380.729	353.85
381.109	348.65
381.489	345.49
381.87	332.83
382.25	329.89
382.63	322.66
383.01	329.89
383.39	354.98
383.77	373.28
384.15	364.47
384.53	339.16
384.91	361.53
385.29	364.47
385.67	368.31
386.049	343.9
386.429	361.3
386.809	371.47
387.189	361.53
387.568	349.78
387.948	394.3
388.328	374.64
388.707	348.2
389.087	379.38
389.466	360.85
389.846	380.06
390.225	387.97
390.605	384.81
390.984	374.86
391.363	359.95
391.743	361.3
392.122	375.09
392.501	363.11
392.881	379.61
393.26	378.25
393.639	394.52
394.018	397.91
394.397	396.78
394.776	397.24
395.155	391.81
395.534	390
395.913	386.61
396.292	381.19
396.671	396.78
397.05	430.91
397.429	389.1
397.808	395.65
398.186	391.59
398.565	412.15
398.944	413.51
399.323	408.76
399.701	413.96
400.08	405.82
400.458	431.81
400.837	413.05
401.215	419.16
401.594	406.27
401.972	430.45
402.351	420.96
402.729	431.58
403.107	435.2
403.486	438.14
403.864	431.58
404.242	453.51
404.62	435.88
404.999	426.16
405.377	430.68
405.755	430
406.133	467.06
406.511	449.21
406.889	431.58
407.267	433.62
407.645	459.15
408.023	443.79
408.401	470.91
408.779	466.84
409.156	460.06
409.534	469.78
409.912	466.61
410.29	505.03
410.667	478.59
411.045	457.35
411.422	480.62
411.8	479.49
412.178	493.05
412.555	504.58
412.933	480.85
413.31	490.34
413.687	524.46
414.065	486.27
414.442	511.36
414.819	502.54
415.197	518.59
415.574	534.63
415.951	530.11
416.328	525.14
416.705	539.38
417.082	519.27
417.46	543.22
417.837	520.85
418.214	524.01
418.591	553.84
418.967	543.45
419.344	542.09
419.721	549.1
420.098	557.23
420.475	582.09
420.852	542.77
421.228	587.06
421.605	588.42
421.982	560.85
422.358	577.57
422.735	597.23
423.111	570.56
423.488	587.74
423.864	573.28
424.241	585.25
424.617	611.24
424.994	612.14
425.37	610.11
425.746	599.26
426.123	613.73
426.499	608.98
426.875	599.49
427.251	637.23
427.627	649.88
428.003	621.64
428.379	618.92
428.756	642.43
429.132	661.18
429.507	661.64
429.883	658.47
430.259	669.32
430.635	671.58
431.011	673.16
431.387	686.27
431.763	698.02
432.138	694.63
432.514	732.82
432.89	703.67
433.265	720.39
433.641	729.43
434.016	733.27
434.392	731.01
434.767	716.1
435.143	739.15
435.518	753.84
435.894	729.66
436.269	756.55
436.644	774.85
437.02	761.29
437.395	787.06
437.77	765.81
438.145	800.61
438.52	797.68
438.895	818.92
439.271	809.2
439.646	807.39
440.021	814.17
440.395	817.34
440.77	835.64
441.145	820.5
441.52	837
441.895	853.04
442.27	876.09
442.645	853.95
443.019	885.13
443.394	858.69
443.769	861.18
444.143	887.62
444.518	879.71
444.892	892.82
445.267	881.29
445.641	906.83
446.016	884
446.39	898.01
446.764	901.4
447.139	921.29
447.513	899.37
447.887	934.85
448.262	957.9
448.636	927.84
449.01	934.4
449.384	931.91
449.758	960.16
450.132	971.46
450.506	971.23
450.88	981.85
451.254	976.2
451.628	999.03
452.002	940.5
452.376	995.86
452.75	1012.13
453.123	999.71
453.497	1034.96
453.871	1045.35
454.244	1068.63
454.618	1062.08
454.992	1076.09
455.365	1070.44
455.739	1091.91
456.112	1101.4
456.486	1112.24
456.859	1101.4
457.232	1151.11
457.606	1134.17
457.979	1143.66
458.352	1175.97
458.725	1194.95
459.099	1186.82
459.472	1182.07
459.845	1218.68
460.218	1216.42
460.591	1221.85
460.964	1213.03
461.337	1262.3
461.71	1274.73
462.083	1276.53
462.456	1308.17
462.829	1311.11
463.201	1315.18
463.574	1321.05
463.947	1357.66
464.32	1372.12
464.692	1406.25
465.065	1397.44
465.438	1426.36
465.81	1422.52
466.183	1462.74
466.555	1460.71
466.928	1468.17
467.3	1487.6
467.672	1497.55
468.045	1529.63
468.417	1510.2
468.789	1541.16
469.161	1565.34
469.534	1601.05
469.906	1632.91
470.278	1639.91
470.65	1634.94
471.022	1686.47
471.394	1728.95
471.766	1748.84
472.138	1752.68
472.51	1792.45
472.882	1845.11
473.253	1840.36
473.625	1861.6
473.997	1920.81
474.369	1915.61
474.74	1964.2
475.112	1998.55
475.484	2038.77
475.855	2030.86
476.227	2088.49
476.598	2141.37
476.97	2196.74
477.341	2242.16
477.713	2234.02
478.084	2257.07
478.455	2334.81
478.827	2373.68
479.198	2442.61
479.569	2436.96
479.94	2505.2
480.311	2508.14
480.682	2580
481.053	2674.69
481.424	2705.88
481.795	2697.29
482.166	2772.09
482.537	2805.99
482.908	2903.38
483.279	2914.23
483.65	2979.54
484.021	3031.97
484.391	3086.88
484.762	3133.89
485.133	3158.29
485.503	3206.65
485.874	3264.05
486.244	3309.48
486.615	3390.6
486.985	3422.69
487.356	3421.56
487.726	3551.5
488.097	3639.64
488.467	3644.61
488.837	3711.27
489.207	3762.12
489.578	3811.61
489.948	3863.58
490.318	3942.23
490.688	3953.53
491.058	4002.56
491.428	4088.21
491.798	4135.44
492.168	4228.77
492.538	4224.03
492.908	4287.98
493.278	4355.78
493.648	4355.55
494.017	4434.64
494.387	4497.24
494.757	4522.32
495.126	4582.89
495.496	4580.18
495.866	4634.86
496.235	4694.52
496.605	4756.22
496.974	4758.93
497.344	4856.78
497.713	4835.31
498.082	4859.04
498.452	4960.96
498.821	4948.08
499.19	4970.45
499.559	5029.88
499.928	5056.32
500.298	5067.62
500.667	5141.74
501.036	5172.03
501.405	5200.72
501.774	5241.4
502.143	5301.29
502.512	5342.19
502.88	5348.97
503.249	5400.95
503.618	5403.88
503.987	5433.04
504.356	5452.92
504.724	5523.65
505.093	5529.98
505.462	5548.74
505.83	5565.91
506.199	5653.37
506.567	5668.28
506.936	5705.34
507.304	5730.65
507.672	5766.81
508.041	5821.05
508.409	5760.26
508.777	5837.77
509.145	5906.69
509.514	5907.82
509.882	5917.77
510.25	5923.87
510.618	5980.37
510.986	6035.51
511.354	6066.92
511.722	6143.3
512.09	6174.26
512.458	6139.46
512.826	6134.03
513.193	6220.13
513.561	6267.82
513.929	6279.79
514.297	6346.46
514.664	6361.6
515.032	6335.38
515.4	6456.74
515.767	6402.95
516.135	6497.87
516.502	6461.48
516.869	6537.64
517.237	6552.33
517.604	6555.49
517.972	6632.55
518.339	6601.82
518.706	6613.8
519.073	6700.57
519.44	6699.22
519.808	6742.15
520.175	6766.79
520.542	6808.59
520.909	6850.17
521.276	6852.88
521.643	6908.25
522.009	6952.77
522.376	7028.25
522.743	7067.12
523.11	7113.89
523.477	7147.79
523.843	7190.05
524.21	7232.99
524.577	7336.04
524.943	7320.9
525.31	7330.61
525.676	7414.45
526.043	7428.91
526.409	7451.29
526.776	7545.07
527.142	7559.76
527.508	7598.18
527.874	7668.91
528.241	7755.01
528.607	7778.74
528.973	7815.8
529.339	7780.32
529.705	7930.82
530.071	7896.7
530.437	7991.61
530.803	7988.22
531.169	8032.97
531.535	7959.3
531.901	8030.93
532.267	8126.52
532.632	8204.26
532.998	8148.67
533.364	8273.64
533.73	8257.14
534.095	8321.09
534.461	8355.9
534.826	8402
535.192	8448.32
535.557	8439.96
535.923	8491.49
536.288	8531.71
536.653	8530.58
537.019	8562.9
537.384	8652.84
537.749	8688.77
538.114	8685.38
538.479	8693.74
538.845	8681.76
539.21	8718.6
539.575	8743.46
539.94	8853.28
540.305	8897.35
540.67	8829.1
541.034	8914.3
541.399	8945.49
541.764	9000.85
542.129	9023.22
542.494	9066.39
542.858	9111.36
543.223	9086.05
543.587	9203.78
543.952	9213.27
544.316	9249.66
544.681	9288.07
545.045	9369.2
545.41	9417.56
545.774	9419.82
546.138	9451.46
546.503	9502.76
546.867	9495.08
547.231	9613.94
547.595	9540.95
547.959	9612.59
548.324	9558.8
548.688	9585.02
549.052	9750.21
549.416	9654.62
549.779	9760.15
550.143	9703.21
550.507	9892.35
550.871	9872.01
551.235	9828.4
551.599	9949.07
551.962	9956.08
552.326	9973.03
552.689	10002.63
553.053	10007.38
553.417	10038.34
553.78	10145.91
554.143	10137.09
554.507	10162.18
554.87	10217.77
555.234	10247.15
555.597	10278.33
555.96	10279.01
556.323	10330.53
556.686	10301.38
557.05	10418.89
557.413	10439.46
557.776	10525.1
558.139	10516.29
558.502	10559.68
558.865	10521.94
559.228	10578.66
559.59	10622.73
559.953	10775.27
560.316	10765.78
560.679	10775.04
561.041	10846
561.404	10859.56
561.767	10967.8
562.129	10867.47
562.492	11000.8
562.854	11024.75
563.217	10993.79
563.579	11040.57
563.941	11128.48
564.304	11137.97
564.666	11232.2
565.028	11253.67
565.39	11324.41
565.753	11371.86
566.115	11395.14
566.477	11489.37
566.839	11424.74
567.201	11503.84
567.563	11544.74
567.925	11610.27
568.287	11679.65
568.648	11639.88
569.01	11716.94
569.372	11840.32
569.734	11831.74
570.095	11879.65
570.457	11941.56
570.819	12000.55
571.18	12049.13
571.542	12109.92
571.903	12072.63
572.265	12127.55
572.626	12267.21
572.987	12312.85
573.349	12294.1
573.71	12394.21
574.071	12497.71
574.432	12460.19
574.794	12695.67
575.155	12678.27
575.516	12628.55
575.877	12878.49
576.238	12843.46
576.599	13032.61
576.96	12987.19
577.32	13031.71
577.681	13195.77
578.042	13246.61
578.403	13310.79
578.763	13342.21
579.124	13484.8
579.485	13596.66
579.845	13704.68
580.206	13878.24
580.566	14001.85
580.927	14130.43
581.287	14313.48
581.648	14311.9
582.008	14480.03
582.368	14647.48
582.728	14778.33
583.089	15000.47
583.449	15019.9
583.809	15260.35
584.169	15440.23
584.529	15502.83
584.889	15796.38
585.249	15903.49
585.609	16102.59
585.969	16314.1
586.329	16581.89
586.688	16798.61
587.048	17024.14
587.408	17166.74
587.768	17428.2
588.127	17628.19
588.487	17742.54
588.846	18177.11
589.206	18379.59
589.565	18566.7
589.925	18860.25
590.284	19172.33
590.643	19501.37
591.003	19801.24
591.362	20027.91
591.721	20302.47
592.08	20601
592.44	20946.07
592.799	21271.26
593.158	21418.6
593.517	21789.67
593.876	22066.04
594.235	22444.11
594.593	22657.89
594.952	23040.26
595.311	23240.93
595.67	23737.19
596.029	24056.95
596.387	24369.94
596.746	24804.73
597.104	24898.06
597.463	25281.33
597.822	25684.03
598.18	25756.12
598.538	26227.06
598.897	26687.62
599.255	26728.29
599.613	27381.16
599.972	27535.73
600.33	27765.33
600.688	28160.35
601.046	28491.86
601.404	28953.09
601.762	29058.4
602.12	29493.87
602.478	29746.07
602.836	30095.66
603.194	30243.23
603.552	30762.54
603.91	30650.23
604.268	31226.26
604.625	31408.85
604.983	31901.49
605.341	31955.05
605.698	32373.12
606.056	32630.74
606.413	32909.15
606.771	33373.77
607.128	33536.25
607.485	33668.45
607.843	33965.39
608.2	34364.03
608.557	34689.67
608.914	34811.47
609.272	35149.32
609.629	35535.29
609.986	35691.67
610.343	35801.28
610.7	36209.18
611.057	36417.98
611.414	36621.37
611.771	36899.78
612.127	37192.2
612.484	37434
612.841	37779.53
613.198	37614.56
613.554	37959.86
613.911	38263.13
614.267	38451.83
614.624	38532.28
614.98	38736.34
615.337	39043
615.693	39140.17
616.05	39218.59
616.406	39701.74
616.762	39687.95
617.118	39766.37
617.475	40028.28
617.831	40221.95
618.187	40372.46
618.543	40647.48
618.899	40904.64
619.255	40835.72
619.611	41036.17
619.967	41238.2
620.323	41554.12
620.678	41516.38
621.034	41566.1
621.39	41542.14
621.746	41734.91
622.101	42279.3
622.457	41970.61
622.812	42343.7
623.168	42400.65
623.523	42674.09
623.879	42836.8
624.234	42567.2
624.589	42748.21
624.945	42893.75
625.3	42944.14
625.655	43049.9
626.01	43154.08
626.365	43184.81
626.72	43192.27
627.075	43354.75
627.43	43280.18
627.785	43348.42
628.14	43401.53
628.495	43634.74
628.85	43632.48
629.205	43587.29
629.559	43809.2
629.914	43829.31
630.269	43952.7
630.623	43811.69
630.978	43848.97
631.332	43911.35
631.687	44205.8
632.041	44050.1
632.396	44236.99
632.75	44014.17
633.104	44143.43
633.459	44016.65
633.813	44014.62
634.167	43936.66
634.521	44150.66
634.875	44032.7
635.229	44104.56
635.583	43932.59
635.937	43940.72
636.291	44039.7
636.645	44036.09
636.999	44039.93
637.352	44166.93
637.706	43943.89
638.06	44224.56
638.413	44080.83
638.767	43879.26
639.121	44038.8
639.474	43999.7
639.828	43979.37
640.181	44155.86
640.534	44091.91
640.888	43996.77
641.241	43862.08
641.594	43920.16
641.947	43904.57
642.301	43920.38
642.654	43892.59
643.007	43999.03
643.36	43918.12
643.713	43917.67
644.066	44124.67
644.419	43976.2
644.771	43653.27
645.124	43205.83
645.477	43235.43
645.83	42859.17
646.182	42785.5
646.535	42762.22
646.888	42948.88
647.24	42731.26
647.593	42860.98
647.945	42853.52
648.298	42599.06
648.65	42528.33
649.002	42440.88
649.355	42606.75
649.707	42587.76
650.059	42803.8
650.411	43305.03
650.763	43376.44
651.115	43501.19
651.467	43492.37
651.819	43539.6
652.171	43350.91
652.523	43477.68
652.875	43483.56
653.227	43249.89
653.578	43519.72
653.93	43407.63
654.282	43300.06
654.633	43140.29
654.985	43279.72
655.337	43301.64
655.688	43354.3
656.039	43477.91
656.391	43017.13
656.742	43198.82
657.094	43255.32
657.445	43391.59
657.796	43291.47
658.147	43203.79
658.498	43221.87
658.849	43216
659.2	43228.88
659.551	43092.61
659.902	43167.41
660.253	43150.69
660.604	43105.72
660.955	42898.04
661.306	43158.14
661.656	43016.23
662.007	43054.64
662.358	43207.18
662.708	43183.91
663.059	43253.74
663.409	42891.71
663.76	43223
664.11	43190.01
664.461	43156.79
664.811	43172.83
665.161	43122.21
665.511	42979.17
665.862	43037.47
666.212	43095.55
666.562	43097.13
666.912	43100.52
667.262	42982.78
667.612	43209.44
667.962	42984.59
668.312	42983.69
668.662	43209.22
669.011	43016.45
669.361	42948.88
669.711	42929.22
670.06	42927.42
670.41	42837.7
670.76	42944.59
671.109	43039.28
671.459	42923.8
671.808	42880.64
672.157	43047.64
672.507	42542.57
672.856	42660.53
673.205	42792.96
673.554	42807.19
673.904	42785.73
674.253	42973.74
674.602	42827.08
674.951	42241.78
675.3	41939.42
675.649	42621.89
675.998	42572.4
676.346	42587.54
676.695	42707.76
677.044	42344.61
677.393	42471.84
677.741	42640.64
678.09	42562.45
678.438	42469.8
678.787	42629.12
679.135	42544.15
679.484	42272.07
679.832	42355.23
680.181	42055.12
680.529	42145.29
680.877	42118.85
681.225	42169.02
681.573	42508.22
681.922	42086.99
682.27	42012.86
682.618	42020.77
682.966	41929.02
683.314	41966.31
683.661	41883.83
684.009	41692.42
684.357	41649.94
684.705	41550.5
685.053	41589.82
685.4	41632.08
685.748	41334.92
686.095	41310.74
686.443	41233
686.79	41193.22
687.138	41315.71
687.485	41164.98
687.832	41042.95
688.18	41119.55
688.527	40967.02
688.874	40862.16
689.221	40736.51
689.568	40766.57
689.915	40609.29
690.262	40722.28
690.609	40539.23
690.956	40446.35
691.303	40304.89
691.65	40162.29
691.997	40117.77
692.344	39819.25
692.69	39988.51
693.037	39912.35
693.383	39661.74
693.73	39716.65
694.077	39447.06
694.423	39536.77
694.769	39409.09
695.116	39243.9
695.462	39162.09
695.808	39212.94
696.155	39175.88
696.501	38882.55
696.847	38857.92
697.193	38682.1
697.539	38804.14
697.885	38691.14
698.231	38447.76
698.577	38497.25
698.923	38344.49
699.269	38159.86
699.614	37948.79
699.96	37919.64
700.306	37926.42
700.651	37811.62
700.997	37786.76
701.342	37637.61
701.688	37636.26
702.033	37574.34
702.379	37437.39
702.724	37314
703.069	37377.51
703.415	37043.05
703.76	37015.71
704.105	37070.85
704.45	37005.76
704.795	36710.63
705.14	36738.2
705.485	36672.44
705.83	36377.53
706.175	36552.67
706.52	36489.85
706.865	36348.83
707.209	36276.74
707.554	36041.95
707.899	36175.5
708.243	36030.87
708.588	36021.61
708.932	35636.99
709.277	35765.8
709.621	35754.5
709.966	35409.65
710.31	35630.21
710.654	35218.69
710.998	35387.73
711.342	35338.24
711.687	35167.62
712.031	35112.48
712.375	34898.02
712.719	35049.88
713.063	34980.05
713.407	35105.48
713.75	34878.36
714.094	34759.27
714.438	34666.39
714.782	34783.9
715.125	34520.18
715.469	34615.77
715.812	34604.25
716.156	34362.9
716.499	34372.61
716.843	34242.45
717.186	34071.83
717.53	34318.6
717.873	34244.93
718.216	34208.1
718.559	33986.63
718.902	33726.53
719.246	33862.57
719.589	33765.4
719.932	33559.75
720.275	33493.99
720.617	33621.22
720.96	33416.48
721.303	33550.94
721.646	33533.77
721.989	33322.25
722.331	33323.83
722.674	33253.77
723.016	33322.92
723.359	33291.96
723.701	33279.53
724.044	32990.28
724.386	32844.52
724.729	33002.03
725.071	32890.17
725.413	32966.55
725.755	32904.63
726.097	32709.38
726.439	32648.59
726.782	32578.76
727.124	32641.59
727.465	32608.37
727.807	32469.84
728.149	32360.24
728.491	32332.21
728.833	32428.94
729.175	32270.97
729.516	32170.64
729.858	32171.99
730.199	32304.87
730.541	32058.55
730.882	31983.52
731.224	32127.47
731.565	31919.12
731.906	31940.36
732.248	31915.95
732.589	31799.12
732.93	31746.02
733.271	31769.74
733.612	31773.13
733.953	31837.09
734.294	31570.2
734.635	31462.18
734.976	31553.48
735.317	31481.62
735.658	31449.75
735.999	31496.08
736.339	31388.28
736.68	31403.2
737.021	31343.99
737.361	31180.38
737.702	31374.95
738.042	31224.45
738.383	31170.66
738.723	31202.98
739.063	31095.86
739.404	31136.09
739.744	30942.87
740.084	30920.95
740.424	30966.38
740.764	30870.78
741.104	30817.45
741.444	30624.92
741.784	30529.55
742.124	30664.46
742.464	30567.52
742.804	30616.55
743.143	30403
743.483	30471.47
743.823	30299.5
744.162	30354.41
744.502	30520.96
744.841	30128.88
745.181	30509.21
745.52	30206.4
745.86	30193.74
746.199	30192.38
746.538	30082.56
746.877	30234.87
747.216	30101.99
747.556	30168.2
747.895	30147.19
748.234	30054.53
748.573	29916.46
748.911	29916.23
749.25	29842.34
749.589	29734.09
749.928	29812.06
750.267	29746.29
750.605	29693.87
750.944	29574.55
751.283	29516.7
751.621	29570.93
751.96	29418.62
752.298	29436.25
752.636	29426.3
752.975	29366.42
753.313	29097.27
753.651	29256.59
753.989	29092.98
754.327	29002.13
754.666	28947.9
755.004	28955.81
755.342	28979.99
755.679	28899.08
756.017	28798.75
756.355	28897.73
756.693	28509.72
757.031	28699.99
757.368	28487.12
757.706	28570.28
758.044	28433.56
758.381	28399.89
758.719	28322.83
759.056	28326.9
759.394	28143.85
