Data from hue_32_FLMS001491_00019.txt Node
Date: Tue Feb 07 17:22:59 GMT 2017
User: dcchb
Spectrometer: FLMS00149
Trigger mode: 0
Integration Time (sec): 2.000000E-2
Scans to average: 10
Electric dark correction enabled: true
Nonlinearity correction enabled: false
Boxcar width: 0
XAxis mode: Wavelengths
Number of Pixels in Spectrum: 2048
>>>>>Begin Spectral Data<<<<<
341.393	-20.88
341.776	-20.88
342.16	-20.88
342.543	-89.8
342.927	-83.7
343.31	-87.31
343.693	-63.59
344.077	-69.24
344.46	-61.33
344.843	-38.28
345.226	-64.26
345.61	-15
345.993	-21.1
346.376	-8.67
346.759	1.5
347.142	25.23
347.525	48.95
347.908	63.64
348.291	89.63
348.674	84.66
349.057	115.17
349.44	117.2
349.823	132.57
350.206	163.98
350.588	204.2
350.971	205.11
351.354	215.05
351.737	237.88
352.119	241.49
352.502	266.35
352.884	289.63
353.267	287.59
353.65	286.69
354.032	295.95
354.414	308.83
354.797	309.74
355.179	336.63
355.562	353.35
355.944	321.71
356.326	345.67
356.709	327.59
357.091	333.69
357.473	355.39
357.855	329.17
358.238	326.91
358.62	353.13
359.002	342.05
359.384	347.02
359.766	344.09
360.148	350.64
360.53	329.4
360.912	316.29
361.294	336.18
361.676	333.24
362.057	330.98
362.439	326.01
362.821	307.03
363.203	334.6
363.584	327.82
363.966	323.07
364.348	313.13
364.729	349.06
365.111	310.64
365.493	320.81
365.874	314.94
366.256	328.04
366.637	285.78
367.019	322.84
367.4	312.68
367.781	320.36
368.163	328.72
368.544	319.23
368.925	324.65
369.306	334.37
369.688	321.04
370.069	325.78
370.45	299.57
370.831	295.95
371.212	302.51
371.593	311.09
371.974	298.89
372.355	344.76
372.736	313.13
373.117	330.53
373.498	329.4
373.879	319.23
374.26	306.35
374.641	307.7
375.021	328.95
375.402	313.13
375.783	330.53
376.163	328.04
376.544	340.47
376.925	329.4
377.305	329.4
377.686	329.85
378.066	327.82
378.447	335.27
378.827	339.57
379.208	337.53
379.588	356.06
379.968	323.07
380.349	333.92
380.729	343.41
381.109	347.02
381.489	333.69
381.87	330.08
382.25	349.74
382.63	349.28
383.01	360.81
383.39	342.96
383.77	354.03
384.15	356.06
384.53	348.15
384.91	344.76
385.29	364.65
385.67	363.97
386.049	364.2
386.429	333.92
386.809	340.92
387.189	364.2
387.568	360.58
387.948	353.13
388.328	375.05
388.707	382.5
389.087	350.87
389.466	359.45
389.846	361.94
390.225	355.16
390.605	347.25
390.984	389.06
391.363	384.76
391.743	361.26
392.122	356.97
392.501	370.53
392.881	386.8
393.26	376.4
393.639	372.11
394.018	393.8
394.397	377.53
394.776	371.2
395.155	382.96
395.534	387.93
395.913	398.32
396.292	369.4
396.671	400.13
397.05	378.21
397.429	380.7
397.808	379.57
398.186	378.21
398.565	402.62
398.944	410.07
399.323	409.62
399.701	389.96
400.08	403.29
400.458	395.16
400.837	404.88
401.215	426.57
401.594	396.06
401.972	405.33
402.351	398.55
402.729	419.34
403.107	417.31
403.486	415.5
403.864	403.29
404.242	431.32
404.62	429.51
404.999	437.19
405.377	411.66
405.755	429.51
406.133	413.46
406.511	450.75
406.889	439.68
407.267	443.75
407.645	443.29
408.023	444.88
408.401	440.36
408.779	451.65
409.156	464.31
409.534	447.81
409.912	444.88
410.29	452.11
410.667	453.91
411.045	473.58
411.422	441.94
411.8	455.04
412.178	449.62
412.555	482.84
412.933	461.6
413.31	500.02
413.687	490.3
414.065	465.21
414.442	497.98
414.819	477.19
415.197	505.21
415.574	491.88
415.951	483.07
416.328	485.78
416.705	501.15
417.082	505.66
417.46	504.08
417.837	513.8
418.214	519.9
418.591	516.29
418.967	494.82
419.344	503.4
419.721	526
420.098	512.9
420.475	521.71
420.852	541.82
421.228	539.56
421.605	548.6
421.982	541.37
422.358	543.4
422.735	531.43
423.111	535.27
423.488	540.92
423.864	568.49
424.241	553.35
424.617	575.04
424.994	554.48
425.37	573.69
425.746	559.45
426.123	596.74
426.499	568.04
426.875	584.98
427.251	568.26
427.627	593.35
428.003	594.7
428.379	617.98
428.756	622.72
429.132	608.03
429.507	612.55
429.883	617.75
430.259	630.63
430.635	618.2
431.011	632.89
431.387	636.28
431.763	650.75
432.138	643.29
432.514	660.91
432.89	667.02
433.265	680.8
433.641	667.69
434.016	653.46
434.392	664.3
434.767	697.3
435.143	685.55
435.518	683.51
435.894	679.9
436.269	718.54
436.644	730.07
437.02	722.38
437.395	717.64
437.77	721.48
438.145	733.23
438.52	754.92
438.895	749.73
439.271	738.88
439.646	751.99
440.021	772.55
440.395	757.18
440.77	753.79
441.145	769.39
441.52	785.66
441.895	773.45
442.27	782.04
442.645	774.58
443.019	785.88
443.394	811.87
443.769	787.69
444.143	789.95
444.518	818.2
444.892	815.04
445.267	807.8
445.641	806
446.016	820.91
446.39	843.06
446.764	837.86
447.139	849.61
447.513	837.86
447.887	847.8
448.262	851.87
448.636	864.53
449.01	852.1
449.384	875.6
449.758	871.08
450.132	883.96
450.506	882.83
450.88	892.1
451.254	859.55
451.628	879.67
452.002	914.02
452.376	912.66
452.75	916.73
453.123	920.57
453.497	932.32
453.871	942.49
454.244	964.18
454.618	972.32
454.992	958.53
455.365	991.98
455.739	998.76
456.112	999.89
456.486	994.47
456.859	1001.24
457.232	1045.76
457.606	1031.3
457.979	1055.25
458.352	1052.54
458.725	1058.19
459.099	1072.88
459.472	1081.69
459.845	1091.64
460.218	1096.84
460.591	1124.41
460.964	1101.13
461.337	1145.2
461.71	1156.5
462.083	1171.18
462.456	1188.13
462.829	1153.78
463.201	1201.24
463.574	1186.32
463.947	1237.85
464.32	1246.44
464.692	1273.1
465.065	1305.64
465.438	1273.1
465.81	1268.13
466.183	1316.49
466.555	1339.32
466.928	1336.83
467.3	1365.08
467.672	1360.33
468.045	1404.85
468.417	1432.87
468.789	1421.35
469.161	1434.68
469.534	1478.07
469.906	1518.75
470.278	1507.9
470.65	1524.17
471.022	1592.87
471.394	1614.34
471.766	1610.95
472.138	1632.19
472.51	1690.04
472.882	1689.59
473.253	1714.9
473.625	1730.72
473.997	1793.54
474.369	1831.96
474.74	1871.5
475.112	1862.69
475.484	1910.37
475.855	1950.15
476.227	1948.79
476.598	2045.29
476.97	2073.31
477.341	2105.85
477.713	2133.87
478.084	2167.99
478.455	2212.51
478.827	2259.52
479.198	2327.76
479.569	2393.98
479.94	2456.57
480.311	2491.83
480.682	2586.97
481.053	2641.88
481.424	2700.64
481.795	2737.24
482.166	2784.25
482.537	2838.03
482.908	2921.42
483.279	3001.19
483.65	3049.33
484.021	3131.81
484.391	3235.99
484.762	3244.58
485.133	3295.65
485.503	3389.66
485.874	3485.7
486.244	3531.12
486.615	3689.54
486.985	3728.4
487.356	3809.53
487.726	3849.76
488.097	3965.23
488.467	3995.52
488.837	4131.11
489.207	4122.97
489.578	4310.99
489.948	4359.12
490.318	4398.67
490.688	4489.97
491.058	4568.38
491.428	4678.89
491.798	4790.3
492.168	4871.2
492.538	4969.28
492.908	5008.82
493.278	5133.79
493.648	5222.6
494.017	5286.1
494.387	5326.55
494.757	5426.21
495.126	5487.45
495.496	5580.56
495.866	5642.7
496.235	5708.01
496.605	5775.13
496.974	5865.52
497.344	5915.47
497.713	5992.3
498.082	6046.31
498.452	6072.75
498.821	6202.01
499.19	6226.87
499.559	6272.52
499.928	6374.89
500.298	6445.62
500.667	6585.5
501.036	6515
501.405	6619.63
501.774	6684.03
502.143	6774.88
502.512	6788.89
502.88	6853.07
503.249	6869.34
503.618	6881.77
503.987	7041.76
504.356	7042.22
504.724	7094.87
505.093	7168.77
505.462	7223
505.83	7278.37
506.199	7412.83
506.567	7407.86
506.936	7456.22
507.304	7631.8
507.672	7617.57
508.041	7682.88
508.409	7706.15
508.777	7757.45
509.145	7831.35
509.514	7884.23
509.882	7944.34
510.25	7961.97
510.618	8031.34
510.986	8099.36
511.354	8147.27
511.722	8232.92
512.09	8299.81
512.458	8320.15
512.826	8293.48
513.193	8416.19
513.561	8413.03
513.929	8453.7
514.297	8556.3
514.664	8577.99
515.032	8649.18
515.4	8677.65
515.767	8717.65
516.135	8786.58
516.502	8763.07
516.869	8903.64
517.237	8935.27
517.604	8862.73
517.972	8976.85
518.339	9047.13
518.706	9058.66
519.073	9122.16
519.44	9208.94
519.808	9267.24
520.175	9232.21
520.542	9292.78
520.909	9419.55
521.276	9379.1
521.643	9432.44
522.009	9540
522.376	9650.96
522.743	9626.1
523.11	9689.15
523.477	9822.03
523.843	9866.1
524.21	9932.54
524.577	9917.17
524.943	9970.73
525.31	10083.94
525.676	10091.4
526.043	10216.82
526.409	10250.95
526.776	10331.85
527.142	10453.43
527.508	10416.59
527.874	10428.12
528.241	10563.71
528.607	10538.85
528.973	10642.57
529.339	10748.33
529.705	10745.17
530.071	10881.44
530.437	10850.25
530.803	10957.37
531.169	11068.78
531.535	10960.53
531.901	11077.36
532.267	11102.9
532.632	11244.37
532.998	11250.69
533.364	11334.98
533.73	11392.61
534.095	11414.76
534.461	11455.89
534.826	11558.71
535.192	11510.12
535.557	11563
535.923	11626.95
536.288	11706.05
536.653	11670.57
537.019	11774.07
537.384	11743.79
537.749	11828.3
538.114	11830.11
538.479	11945.36
538.845	12038.92
539.21	11951.69
539.575	12101.97
539.94	12092.25
540.305	12207.96
540.67	12230.33
541.034	12295.64
541.399	12256.32
541.764	12328.86
542.129	12383.54
542.494	12463.32
542.858	12451.11
543.223	12475.75
543.587	12610.88
543.952	12534.95
544.316	12696.08
544.681	12675.97
545.045	12720.48
545.41	12824.89
545.774	12886.13
546.138	12962.06
546.503	12891.1
546.867	13020.36
547.231	13119.8
547.595	13101.04
547.959	13103.07
548.324	13183.52
548.688	13253.13
549.052	13233.69
549.416	13316.85
549.779	13366.57
550.143	13436.85
550.507	13482.72
550.871	13500.58
551.235	13471.88
551.599	13623.06
551.962	13608.15
552.326	13680.46
552.689	13729.95
553.053	13679.1
553.417	13785.09
553.78	13960.9
554.143	13882.94
554.507	13928.59
554.87	14029.15
555.234	14152.09
555.597	14033.44
555.96	14147.11
556.323	14127.23
556.686	14150.05
557.05	14336.94
557.413	14272.76
557.776	14290.84
558.139	14440.67
558.502	14404.73
558.865	14473.66
559.228	14582.13
559.59	14635.46
559.953	14624.84
560.316	14787.78
560.679	14701
561.041	14856.7
561.404	14891.28
561.767	15008.11
562.129	14969.69
562.492	15134.43
562.854	15174.43
563.217	15136.69
563.579	15248.55
563.941	15269.8
564.304	15259.4
564.666	15432.96
565.028	15436.57
565.39	15443.35
565.753	15533.97
566.115	15576.45
566.477	15581.2
566.839	15709.33
567.201	15801.76
567.563	15918.14
567.925	15879.27
568.287	15904.81
568.648	15901.64
569.01	16060.74
569.372	16032.26
569.734	16071.36
570.095	16260.05
570.457	16159.72
570.819	16372.14
571.18	16415.3
571.542	16491.69
571.903	16477
572.265	16682.41
572.626	16799.7
572.987	16812.81
573.349	16870.21
573.71	16950.88
574.071	17061.61
574.432	17028.85
574.794	17254.83
575.155	17307.48
575.516	17329.18
575.877	17417.99
576.238	17602.84
576.599	17690.3
576.96	17732.78
577.32	17803.51
577.681	18014.36
578.042	18228.81
578.403	18186.78
578.763	18425.19
579.124	18502.48
579.485	18624.06
579.845	18838.06
580.206	18880.55
580.566	19042.13
580.927	19284.15
581.287	19466.07
581.648	19488.22
582.008	19654.99
582.368	19923.69
582.728	20120.06
583.089	20212.49
583.449	20393.5
583.809	20568.64
584.169	20890.21
584.529	21067.61
584.889	21365.68
585.249	21404.32
585.609	21563.42
585.969	21963.63
586.329	22116.62
586.688	22343.96
587.048	22600.9
587.408	22841.8
587.768	23032.98
588.127	23340.77
588.487	23487.43
588.846	23820.53
589.206	23990.7
589.565	24215.55
589.925	24701.19
590.284	24769.89
590.643	25094.62
591.003	25342.07
591.362	25678.34
591.721	25889.4
592.08	26149.74
592.44	26558.31
592.799	26898.64
593.158	27052.31
593.517	27291.18
593.876	27524.84
594.235	27825.4
594.593	28041.44
594.952	28361.43
595.311	28650.46
595.67	28908.08
596.029	29308.75
596.387	29492.02
596.746	29897.89
597.104	29982.18
597.463	30209.06
597.822	30550.52
598.18	30772.67
598.538	30877.97
598.897	31413.55
599.255	31391.86
599.613	32152.74
599.972	32091.5
600.33	32367.2
600.688	32527.65
601.046	32820.97
601.404	33109.1
601.762	33285.82
602.12	33761.29
602.478	33831.57
602.836	34086.93
603.194	34083.99
603.552	34411.67
603.91	34537.54
604.268	34991.76
604.625	35006.68
604.983	35384.52
605.341	35328.25
605.698	35808.01
606.056	35971.17
606.413	36175.46
606.771	36398.96
607.128	36556.02
607.485	36798.5
607.843	36976.8
608.2	37255.21
608.557	37397.8
608.914	37736.1
609.272	37844.34
609.629	38183.32
609.986	38195.97
610.343	38249.76
610.7	38844.09
611.057	38556.42
611.414	38918.21
611.771	39021.49
612.127	39299.22
612.484	39388.71
612.841	39796.16
613.198	39611.53
613.554	39764.97
613.911	40065.98
614.267	40160.22
614.624	40302.58
614.98	40366.99
615.337	40759.52
615.693	40705.74
616.05	40803.59
616.406	41147.99
616.762	41142.56
617.118	41108.44
617.475	41391.6
617.831	41507.52
618.187	41669.1
618.543	41861.19
618.899	41982.09
619.255	41878.81
619.611	42085.59
619.967	42284.45
620.323	42441.06
620.678	42404.9
621.034	42239.03
621.39	42459.82
621.746	42461.4
622.101	43070.2
622.457	42824.55
622.812	42985.68
623.168	43077.88
623.523	43038.11
623.879	43230.64
624.234	43058.22
624.589	43272
624.945	43342.96
625.3	43502.27
625.655	43431.09
626.01	43434.71
626.365	43612.1
626.72	43653.23
627.075	43591.31
627.43	43765.09
627.785	43568.71
628.14	43777.07
628.495	43898.87
628.85	43927.8
629.205	43630.41
629.559	43989.04
629.914	43822.27
630.269	43980.45
630.623	43841.25
630.978	43898.2
631.332	44022.26
631.687	44138.64
632.041	43988.82
632.396	44175.48
632.75	43970.28
633.104	44139.32
633.459	43998.53
633.813	44132.31
634.167	43993.11
634.521	43930.51
634.875	44076.95
635.229	43925.99
635.583	43923.05
635.937	43932.55
636.291	43863.85
636.645	43938.65
636.999	43912.43
637.352	44070.62
637.706	43794.92
638.06	43925.99
638.413	43791.53
638.767	43746.79
639.121	43915.6
639.474	43627.02
639.828	43753.34
640.181	43906.78
640.534	43757.41
640.888	43619.33
641.241	43594.7
641.594	43674.7
641.947	43791.76
642.301	43506.12
642.654	43698.2
643.007	43763.28
643.36	43665.21
643.713	43713.12
644.066	43894.35
644.419	43515.16
644.771	43468.15
645.124	42971.44
645.477	42982.97
645.83	42621.39
646.182	42467.5
646.535	42451.23
646.888	42645.35
647.24	42259.82
647.593	42545.69
647.945	42293.04
648.298	42347.73
648.65	42284
649.002	42123.1
649.355	42406.71
649.707	42308.41
650.059	42576.65
650.411	42891.22
650.763	43035.39
651.115	43199.46
651.467	43175.05
651.819	43172.79
652.171	43158.78
652.523	42932.35
652.875	42958.56
653.227	42876.53
653.578	43308.16
653.93	43109.06
654.282	42826.36
654.633	42946.81
654.985	43053.25
655.337	43052.12
655.688	42999.91
656.039	42960.14
656.391	42753.82
656.742	42810.32
657.094	42780.71
657.445	43052.12
657.796	42849.86
658.147	42782.29
658.498	42796.98
658.849	42836.98
659.2	42837.43
659.551	42690.09
659.902	42804.44
660.253	42700.04
660.604	42854.61
660.955	42699.81
661.306	42881.95
661.656	42749.3
662.007	42836.98
662.358	42781.16
662.708	42732.8
663.059	42726.93
663.409	42461.17
663.76	42796.76
664.11	42705.46
664.461	42806.02
664.811	42752.01
665.161	42772.35
665.511	42510.89
665.862	42712.01
666.212	42647.38
666.562	42704.33
666.912	42540.94
667.262	42504.11
667.612	42505.24
667.962	42635.4
668.312	42502.07
668.662	42769.41
669.011	42571.45
669.361	42612.81
669.711	42633.37
670.06	42356.09
670.41	42422.3
670.76	42467.5
671.109	42605.12
671.459	42451.68
671.808	42409.65
672.157	42539.14
672.507	42204.23
672.856	42389.08
673.205	42236.77
673.554	42439.03
673.904	42269.09
674.253	42484.45
674.602	42405.58
674.951	41756.78
675.3	41566.28
675.649	42263.44
675.998	42229.77
676.346	42257.34
676.695	42411.91
677.044	42090.33
677.393	42243.1
677.741	42178.69
678.09	42170.11
678.438	42061.86
678.787	42161.74
679.135	42028.41
679.484	41832.71
679.832	41905.48
680.181	41763.34
680.529	41839.27
680.877	41712.04
681.225	41708.65
681.573	41816.67
681.922	41655.09
682.27	41485.15
682.618	41429.33
682.966	41343.91
683.314	41474.98
683.661	41439.28
684.009	41285.38
684.357	41103.47
684.705	41131.49
685.053	41310.47
685.4	41053.98
685.748	40959.29
686.095	40907.09
686.443	40779.86
686.79	40749.58
687.138	40904.38
687.485	40783.7
687.832	40561.56
688.18	40719.3
688.527	40574.44
688.874	40388.68
689.221	40373.77
689.568	40248.12
689.915	40327.89
690.262	40139.2
690.609	39969.94
690.956	39894.91
691.303	40012.2
691.65	39696.95
691.997	39812.43
692.344	39450.86
692.69	39280.69
693.037	39461.02
693.383	39223.52
693.73	39370.18
694.077	39040.7
694.423	39034.6
694.769	38955.95
695.116	38879.34
695.462	38788.27
695.808	38802.96
696.155	38866.92
696.501	38502.86
696.847	38549.41
697.193	38213.37
697.539	38357.32
697.885	38039.82
698.231	38019.25
698.577	38105.81
698.923	38042.98
699.269	37843.21
699.614	37691.58
699.96	37518.25
700.306	37538.59
700.651	37395.99
700.997	37350.57
701.342	37437.35
701.688	37182.89
702.033	37056.34
702.379	37060.64
702.724	36969.11
703.069	37041.88
703.415	36689.12
703.76	36562.57
704.105	36649.8
704.45	36473.31
704.795	36430.82
705.14	36284.38
705.485	36327.1
705.83	35965.07
706.175	36246.65
706.52	35995.13
706.865	35877.84
707.209	35832.65
707.554	35710.39
707.899	35682.82
708.243	35705.87
708.588	35637.17
708.932	35316.73
709.277	35278.99
709.621	35375.93
709.966	35222.49
710.31	35206.9
710.654	34920.35
710.998	35043.29
711.342	34929.17
711.687	34845.1
712.031	34639.46
712.375	34698.21
712.719	34797.64
713.063	34725.78
713.407	34586.12
713.75	34393.59
714.094	34379.58
714.438	34379.35
714.782	34400.59
715.125	34164.67
715.469	34201.95
715.812	34119.24
716.156	33887.61
716.499	33882.64
716.843	33902.75
717.186	33803.55
717.53	34026.59
717.873	33868.4
718.216	33665.7
718.559	33637.9
718.902	33410.11
719.246	33544.34
719.589	33439.49
719.932	33251.7
720.275	33356.1
720.617	33258.48
720.96	33171.25
721.303	33135.99
721.646	33209.66
721.989	32972.16
722.331	33065.26
722.674	32852.84
723.016	33150.23
723.359	32910.24
723.701	32993.17
724.044	32579.85
724.386	32564.71
724.729	32654.65
725.071	32547.76
725.413	32430.93
725.755	32555.22
726.097	32342.34
726.439	32295.34
726.782	32253.08
727.124	32319.29
727.465	32281.55
727.807	32179.41
728.149	32106.64
728.491	31991.16
728.833	32055.8
729.175	32035.01
729.516	31982.8
729.858	31831.39
730.199	31873.88
730.541	31748.91
730.882	31725.41
731.224	31886.99
731.565	31648.57
731.906	31696.26
732.248	31590.27
732.589	31469.6
732.93	31384.17
733.271	31470.5
733.612	31469.37
733.953	31473.21
734.294	31349.6
734.635	31123.39
734.976	31404.74
735.317	31119.32
735.658	31063.51
735.999	31105.09
736.339	30957.75
736.68	31172.43
737.021	31095.14
737.361	30911.19
737.702	30951.87
738.042	30922.04
738.383	30772.44
738.723	30953.45
739.063	30632.1
739.404	30734.02
739.744	30650.41
740.084	30466.68
740.424	30671.65
740.764	30512.79
741.104	30683.4
741.444	30416.97
741.784	30301.49
742.124	30411.32
742.464	30400.47
742.804	30260.81
743.143	30152.79
743.483	30344.2
743.823	30005.45
744.162	29990.77
744.502	30162.06
744.841	29947.38
745.181	29999.35
745.52	29913.93
745.86	29815.4
746.199	29863.54
746.538	30012.69
746.877	29850.66
747.216	29883.42
747.556	29697.89
747.895	29726.37
748.234	29562.08
748.573	29464
748.911	29455.86
749.25	29482.98
749.589	29580.83
749.928	29444.56
750.267	29472.81
750.605	29378.35
750.944	29247.96
751.283	29169.54
751.621	29250.22
751.96	29150.11
752.298	29056.78
752.636	29028.08
752.975	29044.8
753.313	28845.94
753.651	29126.83
753.989	28813.17
754.327	28704.47
754.666	28723.45
755.004	28705.6
755.342	28680.52
755.679	28618.15
756.017	28430.35
756.355	28502.67
756.693	28373.18
757.031	28367.98
757.368	28312.17
757.706	28214.31
758.044	28092.06
758.381	28104.26
