Data from hue_120_FLMS001491_00039.txt Node
Date: Tue Feb 07 16:59:18 GMT 2017
User: dcchb
Spectrometer: FLMS00149
Trigger mode: 0
Integration Time (sec): 2.000000E-2
Scans to average: 10
Electric dark correction enabled: true
Nonlinearity correction enabled: false
Boxcar width: 0
XAxis mode: Wavelengths
Number of Pixels in Spectrum: 2048
>>>>>Begin Spectral Data<<<<<
341.393	-19.86
341.776	-19.86
342.16	-19.86
342.543	-70.03
342.927	-59.86
343.31	-65.96
343.693	-83.36
344.077	-78.16
344.46	-55.79
344.843	-43.13
345.226	-46.52
345.61	-34.55
345.993	-25.73
346.376	-13.08
346.759	7.49
347.142	37.77
347.525	48.61
347.908	57.2
348.291	81.16
348.674	91.33
349.057	122.74
349.44	118.22
349.823	139.23
350.206	149.18
350.588	200.93
350.971	207.25
351.354	227.14
351.737	239.34
352.119	246.35
352.502	261.72
352.884	260.36
353.267	295.39
353.65	271.89
354.032	303.07
354.414	299.23
354.797	310.3
355.179	327.48
355.562	317.31
355.944	318.66
356.326	329.29
356.709	341.04
357.091	340.36
357.473	347.82
357.855	346.46
358.238	362.73
358.62	350.75
359.002	349.17
359.384	346.23
359.766	371.09
360.148	357.31
360.53	331.32
360.912	344.43
361.294	349.4
361.676	336.29
362.057	344.43
362.439	339
362.821	340.36
363.203	331.54
363.584	328.38
363.966	309.4
364.348	335.84
364.729	311.21
365.111	324.54
365.493	331.54
365.874	293.58
366.256	300.81
366.637	318.66
367.019	314.6
367.4	322.51
367.781	318.21
368.163	330.19
368.544	326.12
368.925	322.51
369.306	335.61
369.688	318.21
370.069	316.18
370.45	325.22
370.831	308.04
371.212	340.13
371.593	318.66
371.974	314.14
372.355	316.86
372.736	317.31
373.117	340.58
373.498	329.96
373.879	323.18
374.26	337.42
374.641	338.55
375.021	338.1
375.402	325.44
375.783	339.23
376.163	341.94
376.544	308.27
376.925	317.53
377.305	322.73
377.686	313.01
378.066	338.1
378.447	327.03
378.827	343.75
379.208	339.45
379.588	330.64
379.968	347.59
380.349	357.53
380.729	357.98
381.109	344.2
381.489	328.61
381.87	339.23
382.25	348.72
382.63	341.49
383.01	348.27
383.39	330.19
383.77	339.91
384.15	336.29
384.53	347.14
384.91	348.72
385.29	346.91
385.67	344.88
386.049	360.24
386.429	360.7
386.809	339
387.189	375.84
387.568	367.7
387.948	364.99
388.328	352.11
388.707	364.54
389.087	345.78
389.466	363.41
389.846	373.58
390.225	385.1
390.605	350.53
390.984	372.45
391.363	370.41
391.743	393.92
392.122	385.1
392.501	364.31
392.881	404.54
393.26	405.89
393.639	368.83
394.018	395.27
394.397	391.88
394.776	405.89
395.155	379.45
395.534	410.41
395.913	388.72
396.292	396.85
396.671	390.53
397.05	409.73
397.429	400.47
397.808	398.44
398.186	408.38
398.565	401.6
398.944	396.4
399.323	399.57
399.701	416.29
400.08	420.13
400.458	394.37
400.837	416.29
401.215	428.04
401.594	412.45
401.972	423.29
402.351	426.23
402.729	429.17
403.107	426.01
403.486	434.59
403.864	435.05
404.242	427.36
404.62	451.54
404.999	455.84
405.377	428.94
405.755	440.92
406.133	429.85
406.511	452.22
406.889	450.64
407.267	456.51
407.645	461.03
408.023	440.69
408.401	465.55
408.779	466
409.156	481.15
409.534	473.69
409.912	483.86
410.29	482.28
410.667	476.63
411.045	478.43
411.422	478.43
411.8	476.4
412.178	501.03
412.555	511.43
412.933	493.12
413.31	499.22
413.687	495.38
414.065	506.23
414.442	519.34
414.819	508.94
415.197	532.44
415.574	507.36
415.951	518.43
416.328	533.12
416.705	543.06
417.082	544.87
417.46	543.29
417.837	541.71
418.214	538.32
418.591	531.54
418.967	538.77
419.344	537.19
419.721	550.52
420.098	541.93
420.475	542.16
420.852	579.67
421.228	593.68
421.605	570.63
421.982	571.31
422.358	560.69
422.735	579.45
423.111	582.39
423.488	587.36
423.864	611.54
424.241	598.2
424.617	619.22
424.994	608.15
425.37	615.61
425.746	635.49
426.123	646.11
426.499	652.67
426.875	616.28
427.251	648.6
427.627	649.05
428.003	665.1
428.379	630.75
428.756	651.99
429.132	661.71
429.507	683.4
429.883	704.42
430.259	701.03
430.635	692.21
431.011	703.29
431.387	700.12
431.763	725.21
432.138	708.94
432.514	693.12
432.89	735.83
433.265	746.68
433.641	741.7
434.016	748.71
434.392	754.58
434.767	788.48
435.143	765.21
435.518	753.45
435.894	790.74
436.269	788.03
436.644	797.3
437.02	793.23
437.395	786.45
437.77	810.4
438.145	811.53
438.52	801.14
438.895	844.75
439.271	819.89
439.646	866.22
440.021	856.28
440.395	851.08
440.77	833.45
441.145	861.47
441.52	892.21
441.895	883.17
442.27	892.21
442.645	880.46
443.019	922.94
443.394	918.87
443.769	899.89
444.143	924.98
444.518	913
444.892	939.44
445.267	926.56
445.641	933.34
446.016	916.39
446.39	937.86
446.764	944.18
447.139	954.81
447.513	979.89
447.887	978.31
448.262	972.21
448.636	990.51
449.01	994.8
449.384	976.27
449.758	1018.53
450.132	1003.17
450.506	1030.28
450.88	1028.48
451.254	1037.52
451.628	1047.01
452.002	1076.38
452.376	1035.48
452.75	1076.38
453.123	1053.11
453.497	1110.51
453.871	1117.06
454.244	1111.64
454.618	1145.53
454.992	1125.65
455.365	1141.02
455.739	1145.99
456.112	1178.75
456.486	1182.82
456.859	1209.49
457.232	1224.85
457.606	1233.22
457.979	1237.74
458.352	1250.62
458.725	1280.45
459.099	1257.17
459.472	1290.16
459.845	1295.59
460.218	1330.84
460.591	1334.68
460.964	1350.73
461.337	1388.47
461.71	1398.18
462.083	1407.22
462.456	1402.03
462.829	1434.57
463.201	1443.38
463.574	1453.32
463.947	1498.52
464.32	1505.53
464.692	1570.16
465.065	1560.21
465.438	1579.87
465.81	1604.05
466.183	1626.65
466.555	1634.11
466.928	1633.43
467.3	1658.52
467.672	1713.88
468.045	1771.28
468.417	1771.51
468.789	1768.57
469.161	1812.18
469.534	1877.94
469.906	1898.28
470.278	1894.89
470.65	1930.6
471.022	1950.71
471.394	2018.28
471.766	2028.9
472.138	2083.14
472.51	2123.81
472.882	2183.02
473.253	2201.55
473.625	2274.32
473.997	2286.3
474.369	2327.88
474.74	2370.81
475.112	2471.6
475.484	2532.39
475.855	2583.46
476.227	2611.71
476.598	2692.61
476.97	2723.8
477.341	2807.19
477.713	2901.19
478.084	2938.93
478.455	3031.13
478.827	3078.82
479.198	3192.03
479.569	3250.34
479.94	3332.82
480.311	3400.39
480.682	3527.17
481.053	3616.43
481.424	3756.09
481.795	3790.44
482.166	3923.54
482.537	3994.5
482.908	4107.04
483.279	4195.4
483.65	4302.74
484.021	4483.07
484.391	4584.54
484.762	4680.58
485.133	4753.35
485.503	4863.18
485.874	4973.46
486.244	5129.61
486.615	5250.96
486.985	5323.5
487.356	5560.33
487.726	5642.14
488.097	5844.62
488.467	5916.93
488.837	6056.82
489.207	6197.83
489.578	6369.8
489.948	6507.43
490.318	6657.48
490.688	6794.88
491.058	6893.41
491.428	7038.49
491.798	7224.02
492.168	7385.82
492.538	7496.55
492.908	7624.46
493.278	7800.73
493.648	7935.19
494.017	8031.23
494.387	8238.91
494.757	8383.31
495.126	8488.39
495.496	8640.93
495.866	8702.17
496.235	8901.26
496.605	8993.92
496.974	9094.93
497.344	9282.5
497.713	9311.65
498.082	9468.03
498.452	9578.31
498.821	9722.26
499.19	9753.22
499.559	9954.34
499.928	10077.5
500.298	10151.63
500.667	10341.45
501.036	10263.04
501.405	10470.49
501.774	10596.36
502.143	10684.72
502.512	10741.44
502.88	10872.51
503.249	10885.62
503.618	11042.45
503.987	11136.46
504.356	11191.6
504.724	11303.46
505.093	11345.94
505.462	11424.36
505.83	11605.82
506.199	11613.73
506.567	11814.41
506.936	11776.89
507.304	11988.64
507.672	11958.36
508.041	12140.05
508.409	12184.57
508.777	12265.47
509.145	12355.41
509.514	12306.6
509.882	12422.07
510.25	12560.38
510.618	12533.94
510.986	12627.72
511.354	12691.67
511.722	12805.79
512.09	12894.83
512.458	12891.67
512.826	12974.15
513.193	13036.52
513.561	13121.27
513.929	13204.88
514.297	13245.78
514.664	13336.4
515.032	13374.14
515.4	13469.96
515.767	13516.51
516.135	13505.66
516.502	13505.21
516.869	13637.64
517.237	13615.04
517.604	13613.46
517.972	13707.24
518.339	13812.09
518.706	13700.68
519.073	13852.09
519.44	13810.29
519.808	13959.44
520.175	13883.73
520.542	14000.56
520.909	14104.06
521.276	14088.25
521.643	14145.87
522.009	14208.47
522.376	14295.92
522.743	14339.76
523.11	14424.06
523.477	14455.02
523.843	14415.02
524.21	14591.96
524.577	14552.64
524.943	14629.47
525.31	14658.4
525.676	14739.08
526.043	14832.86
526.409	14771.39
526.776	14920.99
527.142	14853.87
527.508	14803.48
527.874	14894.1
528.241	14916.47
528.607	14945.4
528.973	15001.89
529.339	15009.8
529.705	15006.64
530.071	15097.26
530.437	15146.75
530.803	15123.47
531.169	15124.83
531.535	15033.53
531.901	15102.91
532.267	15042.8
532.632	15113.08
532.998	15171.15
533.364	15182.23
533.73	15113.3
534.095	15089.12
534.461	15120.31
534.826	15093.42
535.192	15102.46
535.557	15198.5
535.923	15095.22
536.288	15085.28
536.653	15075.11
537.019	15013.42
537.384	15043.25
537.749	14975
538.114	15032.18
538.479	14915.12
538.845	15028.79
539.21	14954.44
539.575	14928
539.94	14869.69
540.305	14907.21
540.67	14774.56
541.034	14736.59
541.399	14824.5
541.764	14793.76
542.129	14744.95
542.494	14687.33
542.858	14825.63
543.223	14657.72
543.587	14700.43
543.952	14596.48
544.316	14577.05
544.681	14609.59
545.045	14602.36
545.41	14648.46
545.774	14520.32
546.138	14504.51
546.503	14469.25
546.867	14236.26
547.231	14508.35
547.595	14403.72
547.959	14432.42
548.324	14340.44
548.688	14364.85
549.052	14342.7
549.416	14287.79
549.779	14277.62
550.143	14199.88
550.507	14232.42
550.871	14179.09
551.235	14147.68
551.599	14190.16
551.962	14121.46
552.326	14160.11
552.689	14207.34
553.053	13963.73
553.417	13980.9
553.78	14134.35
554.143	14028.59
554.507	14010.06
554.87	14111.3
555.234	14074.69
555.597	13967.34
555.96	13970.06
556.323	13972.99
556.686	13994.01
557.05	13947.68
557.413	13963.05
557.776	13930.28
558.139	13963.73
558.502	14001.92
558.865	13922.15
559.228	13907.01
559.59	13940.45
559.953	13972.09
560.316	14036.72
560.679	13970.51
561.041	13897.74
561.404	13964.41
561.767	14056.61
562.129	13921.92
562.492	14050.73
562.854	14026.1
563.217	14012.99
563.579	14043.95
563.941	14028.59
564.304	14124.18
564.666	14190.16
565.028	14156.94
565.39	14120.56
565.753	14193.78
566.115	14235.59
566.477	14187.9
566.839	14217.73
567.201	14198.98
567.563	14215.93
567.925	14277.62
568.287	14304.51
568.648	14316.04
569.01	14271.74
569.372	14387.22
569.734	14222.93
570.095	14365.75
570.457	14425.19
570.819	14333.66
571.18	14301.12
571.542	14429.25
571.903	14396.03
572.265	14412.08
572.626	14513.54
572.987	14507.9
573.349	14502.02
573.71	14577.95
574.071	14541.34
574.432	14543.6
574.794	14618.63
575.155	14616.82
575.516	14539.98
575.877	14514.9
576.238	14639.19
576.599	14531.62
576.96	14606.42
577.32	14553.54
577.681	14608.23
578.042	14655.24
578.403	14633.99
578.763	14542.24
579.124	14608.68
579.485	14677.83
579.845	14650.72
580.206	14615.69
580.566	14683.48
580.927	14692.98
581.287	14657.04
581.648	14634.22
582.008	14670.6
582.368	14661.11
582.728	14650.72
583.089	14623.6
583.449	14652.98
583.809	14619.3
584.169	14703.37
584.529	14630.15
584.889	14711.96
585.249	14612.07
585.609	14468.8
585.969	14629.47
586.329	14563.94
586.688	14674.22
587.048	14530.04
587.408	14462.25
587.768	14585.63
588.127	14476.03
588.487	14510.38
588.846	14628.34
589.206	14498.18
589.565	14451.4
589.925	14585.86
590.284	14523.26
590.643	14526.65
591.003	14627.67
591.362	14608.23
591.721	14401.91
592.08	14489.14
592.44	14492.3
592.799	14442.36
593.158	14469.93
593.517	14494.34
593.876	14520.32
594.235	14429.48
594.593	14407.33
594.952	14469.03
595.311	14383.15
595.67	14375.92
596.029	14500.44
596.387	14408.24
596.746	14470.16
597.104	14383.6
597.463	14345.87
597.822	14388.12
598.18	14263.16
598.538	14319.65
598.897	14423.15
599.255	14302.25
599.613	14453.66
599.972	14458.86
600.33	14368.01
600.688	14438.07
601.046	14394.23
601.404	14447.11
601.762	14432.19
602.12	14506.31
602.478	14381.57
602.836	14479.65
603.194	14458.41
603.552	14386.99
603.91	14299.31
604.268	14335.47
604.625	14360.78
604.983	14430.38
605.341	14341.12
605.698	14449.82
606.056	14522.13
606.413	14408.01
606.771	14501.34
607.128	14475.13
607.485	14367.56
607.843	14420.67
608.2	14415.02
608.557	14492.75
608.914	14377.28
609.272	14512.42
609.629	14471.29
609.986	14503.83
610.343	14416.6
610.7	14619.08
611.057	14568.01
611.414	14545.41
611.771	14527.78
612.127	14601
612.484	14699.08
612.841	14677.38
613.198	14539.31
613.554	14707.21
613.911	14754.67
614.267	14705.86
614.624	14662.02
614.98	14711.73
615.337	14801.9
615.693	14674.44
616.05	14733.88
616.406	14812.07
616.762	14703.6
617.118	14714.67
617.475	14841.67
617.831	14798.51
618.187	14820.2
618.543	14751.96
618.899	14883.93
619.255	14824.27
619.611	14803.03
619.967	14868.56
620.323	14876.25
620.678	14839.19
621.034	14877.38
621.39	14863.59
621.746	14838.28
622.101	14937.49
622.457	14806.64
622.812	14807.55
623.168	14851.62
623.523	14856.13
623.879	14869.92
624.234	14789.24
624.589	14866.53
624.945	14791.96
625.3	14841.22
625.655	14846.87
626.01	14867.43
626.365	14918.05
626.72	14810.71
627.075	14793.99
627.43	14859.07
627.785	14765.52
628.14	14885.29
628.495	14811.16
628.85	14803.71
629.205	14765.52
629.559	14899.75
629.914	14730.26
630.269	14794.89
630.623	14683.71
630.978	14717.61
631.332	14759.87
631.687	14748.34
632.041	14682.81
632.396	14836.02
632.75	14631.51
633.104	14706.76
633.459	14659.98
633.813	14661.11
634.167	14638.97
634.521	14555.8
634.875	14563.26
635.229	14538.4
635.583	14554.45
635.937	14478.97
636.291	14522.81
636.645	14459.31
636.999	14493.43
637.352	14518.74
637.706	14398.29
638.06	14535.01
638.413	14442.36
638.767	14426.99
639.121	14415.02
639.474	14351.52
639.828	14352.87
640.181	14404.62
640.534	14330.5
640.888	14303.61
641.241	14301.57
641.594	14302.93
641.947	14354.23
642.301	14211.18
642.654	14261.35
643.007	14298.41
643.36	14276.94
643.713	14216.6
644.066	14256.38
644.419	14150.62
644.771	14146.77
645.124	13985.88
645.477	14007.12
645.83	13870.62
646.182	13769.38
646.535	13776.39
646.888	13817.52
647.24	13763.96
647.593	13757.18
647.945	13688.48
648.298	13653.45
648.65	13710.18
649.002	13667.69
649.355	13677.63
649.707	13769.38
650.059	13726.45
650.411	13923.5
650.763	13866.78
651.115	14095.48
651.467	14018.87
651.819	14065.87
652.171	13987.91
652.523	14043.05
652.875	14037.63
653.227	13947.68
653.578	14056.83
653.93	14004.41
654.282	13957.18
654.633	13946.33
654.985	13919.44
655.337	13953.56
655.688	14001.92
656.039	14019.55
656.391	13950.62
656.742	14016.16
657.094	14009.6
657.445	14105.19
657.796	14009.83
658.147	13901.81
658.498	13954.01
658.849	14036.27
659.2	14005.76
659.551	13957.63
659.902	14045.08
660.253	13995.59
660.604	14015.48
660.955	13871.98
661.306	14001.02
661.656	14043.05
662.007	14001.69
662.358	13985.2
662.708	14016.16
663.059	14040.56
663.409	13886.89
663.76	13910.17
664.11	14087.34
664.461	13960.34
664.811	14000.34
665.161	14069.49
665.511	14007.57
665.862	13996.5
666.212	14013.67
666.562	14106.78
666.912	14041.01
667.262	14030.17
667.612	14060.68
667.962	14028.59
668.312	13937.51
668.662	14101.58
669.011	14011.64
669.361	13986.78
669.711	13982.26
670.06	14076.72
670.41	14001.47
670.76	13968.25
671.109	14022.26
671.459	14024.52
671.808	13928.7
672.157	13939.55
672.507	13942.71
672.856	13912.43
673.205	13964.86
673.554	13916.95
673.904	13895.71
674.253	13960.79
674.602	13942.26
674.951	13709.95
675.3	13653.68
675.649	13859.55
675.998	13836.73
676.346	13796.28
676.695	13834.24
677.044	13754.92
677.393	13792.89
677.741	13819.1
678.09	13751.98
678.438	13813.68
678.787	13698.65
679.135	13772.1
679.484	13632.21
679.832	13628.82
680.181	13611.65
680.529	13648.26
680.877	13538.43
681.225	13507.24
681.573	13589.5
681.922	13489.62
682.27	13488.71
682.618	13451.2
682.966	13446.45
683.314	13390.64
683.661	13412.1
684.009	13374.59
684.357	13275.39
684.705	13313.35
685.053	13297.31
685.4	13263.41
685.748	13212.34
686.095	13257.76
686.443	13195.16
686.79	13168.5
687.138	13114.26
687.485	13154.94
687.832	13061.15
688.18	13139.57
688.527	12977.99
688.874	12937.32
689.221	13017.31
689.568	12890.76
689.915	12932.34
690.262	12861.84
690.609	12842.63
690.956	12751.11
691.303	12708.85
691.65	12677.89
691.997	12690.09
692.344	12579.58
692.69	12563.09
693.037	12566.48
693.383	12437.22
693.73	12505.46
694.077	12460.49
694.423	12396.76
694.769	12265.92
695.116	12357.44
695.462	12329.65
695.808	12222.31
696.155	12231.57
696.501	12086.72
696.847	12081.97
697.193	12018.47
697.539	12145.47
697.885	11943.89
698.231	11964.46
698.577	11945.25
698.923	11907.51
699.269	11874.52
699.614	11740.51
699.96	11701.64
700.306	11665.03
700.651	11592.94
700.997	11596.33
701.342	11597.46
701.688	11550.91
702.033	11548.65
702.379	11583.23
702.724	11405.15
703.069	11428.88
703.415	11380.07
703.76	11279.28
704.105	11400.86
704.45	11347.53
704.795	11177.14
705.14	11141.2
705.485	11201.54
705.83	11150.02
706.175	11058.95
706.52	11057.82
706.865	11041.32
707.209	10966.29
707.554	11016.69
707.899	10931.72
708.243	10891.04
708.588	10827.54
708.932	10774.43
709.277	10731.27
709.621	10778.5
709.966	10676.81
710.31	10697.15
710.654	10602.46
710.998	10689.46
711.342	10680.88
711.687	10665.74
712.031	10599.75
712.375	10477.27
712.719	10589.58
713.063	10505.29
713.407	10512.52
713.75	10434.33
714.094	10497.15
714.438	10464.84
714.782	10431.62
715.125	10364.73
715.469	10424.61
715.812	10375.35
716.156	10361.34
716.499	10368.34
716.843	10333.77
717.186	10256.03
717.53	10295.12
717.873	10242.92
718.216	10239.31
718.559	10250.38
718.902	10187.11
719.246	10167.22
719.589	10122.25
719.932	10115.02
720.275	10099.2
720.617	10092.19
720.96	10121.57
721.303	10049.48
721.646	10114.79
721.989	9962.7
722.331	10054.23
722.674	10037.05
723.016	10046.54
723.359	10007.9
723.701	10040.44
724.044	10023.27
724.386	9875.7
724.729	9987.34
725.071	9977.39
725.413	9970.61
725.755	9889.71
726.097	9823.72
726.439	9818.98
726.782	9866.44
727.124	9892.65
727.465	9846.1
727.807	9917.96
728.149	9847
728.491	9860.56
728.833	9871.18
729.175	9827.34
729.516	9829.83
729.858	9842.48
730.199	9806.55
730.541	9778.3
730.882	9751.64
731.224	9855.59
731.565	9711.86
731.906	9796.38
732.248	9878.64
732.589	9663.95
732.93	9727
733.271	9755.48
733.612	9720.22
733.953	9722.26
734.294	9721.35
734.635	9757.06
734.976	9761.81
735.317	9654.24
735.658	9737.85
735.999	9796.61
736.339	9725.87
736.68	9797.74
737.021	9760
737.361	9671.64
737.702	9727.46
738.042	9769.94
738.383	9736.5
738.723	9800.9
739.063	9726.1
739.404	9758.19
739.744	9772.65
740.084	9830.5
740.424	9760.68
740.764	9777.4
741.104	9906.66
741.444	9742.6
741.784	9826.66
742.124	9861.92
742.464	9830.73
742.804	9857.85
743.143	9912.08
743.483	9938.98
743.823	9816.27
744.162	9877.28
744.502	10006.77
744.841	9939.43
745.181	10085.19
745.52	9999.54
745.86	10075.7
746.199	10107.33
746.538	10134.68
746.877	10291.96
747.216	10284.05
747.556	10252.64
747.895	10357.72
748.234	10367.21
748.573	10373.09
748.911	10470.49
749.25	10532.86
749.589	10503.03
749.928	10711.39
750.267	10755.23
750.605	10774.21
750.944	10817.82
751.283	10898.5
751.621	10980.76
751.96	11121.77
752.298	11202.9
752.636	11224.82
752.975	11298.94
753.313	11375.55
753.651	11516.79
753.989	11606.28
754.327	11658.48
754.666	11690.79
755.004	11891.92
755.342	12099.15
755.679	12132.82
756.017	12284.9
756.355	12452.58
756.693	12487.84
757.031	12663.65
