Data from hue_22_FLMS001491_00066.txt Node
Date: Tue Feb 07 17:10:29 GMT 2017
User: dcchb
Spectrometer: FLMS00149
Trigger mode: 0
Integration Time (sec): 2.000000E-2
Scans to average: 10
Electric dark correction enabled: true
Nonlinearity correction enabled: false
Boxcar width: 0
XAxis mode: Wavelengths
Number of Pixels in Spectrum: 2048
>>>>>Begin Spectral Data<<<<<
341.393	-14.49
341.776	-14.49
342.16	-14.49
342.543	-62.4
342.927	-68.73
343.31	-75.28
343.693	-50.87
344.077	-65.11
344.46	-53.36
344.843	-65.34
345.226	-40.03
345.61	-56.75
345.993	-18.56
346.376	-6.13
346.759	10.37
347.142	31.84
347.525	51.04
347.908	66.64
348.291	69.8
348.674	82.68
349.057	119.06
349.44	113.87
349.823	151.15
350.206	152.51
350.588	196.35
350.971	224.82
351.354	243.13
351.737	220.76
352.119	278.83
352.502	265.5
352.884	276.12
353.267	296.24
353.65	286.97
354.032	307.31
354.414	324.03
354.797	310.7
355.179	345.73
355.562	336.23
355.944	327.65
356.326	357.93
356.709	354.09
357.091	333.3
357.473	336.01
357.855	355.67
358.238	339.4
358.62	334.65
359.002	333.97
359.384	358.61
359.766	334.43
360.148	352.28
360.53	361.54
360.912	357.02
361.294	330.81
361.676	330.81
362.057	313.18
362.439	325.16
362.821	324.48
363.203	337.14
363.584	323.35
363.966	352.28
364.348	323.58
364.729	315.22
365.111	319.06
365.493	315.9
365.874	320.42
366.256	324.93
366.637	319.06
367.019	313.86
367.4	304.37
367.781	317.25
368.163	344.82
368.544	328.1
368.925	332.62
369.306	344.6
369.688	312.28
370.069	305.73
370.45	319.74
370.831	313.18
371.212	329.23
371.593	315.67
371.974	305.27
372.355	314.09
372.736	328.32
373.117	338.72
373.498	341.21
373.879	312.51
374.26	323.13
374.641	327.87
375.021	349.12
375.402	328.55
375.783	317.25
376.163	335.56
376.544	327.19
376.925	322.68
377.305	327.42
377.686	320.42
378.066	339.62
378.447	339.85
378.827	359.06
379.208	336.46
379.588	330.58
379.968	331.04
380.349	355.22
380.729	353.41
381.109	367.19
381.489	343.24
381.87	354.99
382.25	361.77
382.63	355.67
383.01	352.5
383.39	342.34
383.77	353.18
384.15	341.66
384.53	353.18
384.91	372.62
385.29	359.51
385.67	363.13
386.049	354.99
386.429	349.34
386.809	372.84
387.189	365.16
387.568	372.62
387.948	359.74
388.328	373.97
388.707	366.97
389.087	367.87
389.466	361.77
389.846	371.04
390.225	371.94
390.605	385.72
390.984	378.27
391.363	354.76
391.743	394.31
392.122	387.31
392.501	406.51
392.881	405.16
393.26	380.75
393.639	384.59
394.018	401.09
394.397	387.53
394.776	418.94
395.155	383.24
395.534	402.67
395.913	385.05
396.292	382.56
396.671	372.84
397.05	409.9
397.429	391.6
397.808	410.13
398.186	440.86
398.565	401.09
398.944	393.41
399.323	400.19
399.701	409.68
400.08	406.97
400.458	407.42
400.837	402.22
401.215	421.88
401.594	418.49
401.972	423.01
402.351	434.99
402.729	431.37
403.107	407.87
403.486	431.15
403.864	458.26
404.242	434.08
404.62	429.79
404.999	448.1
405.377	459.85
405.755	446.74
406.133	446.51
406.511	446.51
406.889	457.59
407.267	431.37
407.645	452.16
408.023	444.93
408.401	467.08
408.779	451.71
409.156	462.33
409.534	464.82
409.912	482.22
410.29	478.38
410.667	496.91
411.045	480.41
411.422	479.51
411.8	492.61
412.178	520.18
412.555	484.7
412.933	487.87
413.31	489
413.687	500.98
414.065	501.65
414.442	506.63
414.819	518.38
415.197	498.26
415.574	546.4
415.951	503.91
416.328	519.05
416.705	550.24
417.082	534.87
417.46	542.78
417.837	547.98
418.214	534.19
418.591	547.3
418.967	537.58
419.344	561.09
419.721	571.71
420.098	537.81
420.475	550.69
420.852	559.96
421.228	569.45
421.605	571.03
421.982	577.36
422.358	572.16
422.735	579.17
423.111	566.74
423.488	604.25
423.864	604.02
424.241	609.9
424.617	610.8
424.994	620.52
425.37	576.68
425.746	608.77
426.123	619.39
426.499	618.26
426.875	612.61
427.251	639.73
427.627	631.37
428.003	652.38
428.379	654.87
428.756	641.08
429.132	653.29
429.507	666.85
429.883	680.86
430.259	671.59
430.635	679.05
431.011	683.12
431.387	696.9
431.763	685.38
432.138	721.99
432.514	722.66
432.89	712.27
433.265	744.36
433.641	735.77
434.016	715.89
434.392	734.87
434.767	748.65
435.143	727.64
435.518	750.01
435.894	765.38
436.269	755.88
436.644	766.51
437.02	771.48
437.395	788.43
437.77	784.58
438.145	821.42
438.52	804.47
438.895	817.35
439.271	801.08
439.646	806.05
440.021	827.29
440.395	844.92
440.77	847.63
441.145	832.49
441.52	838.37
441.895	852.6
442.27	865.71
442.645	879.72
443.019	875.43
443.394	857.58
443.769	901.19
444.143	881.08
444.518	876.33
444.892	904.35
445.267	910.68
445.641	895.54
446.016	912.26
446.39	907.52
446.764	896.67
447.139	918.37
447.513	916.78
447.887	938.7
448.262	938.03
448.636	944.35
449.01	938.48
449.384	960.85
449.758	950.46
450.132	970.12
450.506	977.12
450.88	960.85
451.254	973.51
451.628	996.78
452.002	1000.62
452.376	1011.92
452.75	1005.14
453.123	1020.28
453.497	1039.49
453.871	1052.6
454.244	1079.72
454.618	1063.22
454.992	1096.89
455.365	1096.44
455.739	1104.12
456.112	1118.36
456.486	1146.16
456.859	1151.81
457.232	1167.85
457.606	1153.39
457.979	1171.47
458.352	1174.86
458.725	1195.19
459.099	1186.61
459.472	1223.44
459.845	1224.35
460.218	1262.54
460.591	1237.23
460.964	1261.41
461.337	1275.87
461.71	1299.15
462.083	1321.74
462.456	1309.32
462.829	1333.27
463.201	1358.81
463.574	1364.23
463.947	1388.86
464.32	1401.06
464.692	1411.23
465.065	1398.35
465.438	1425.92
465.81	1451.91
466.183	1456.66
466.555	1500.5
466.928	1526.26
467.3	1528.97
467.672	1545.69
468.045	1537.56
468.417	1581.63
468.789	1575.98
469.161	1596.54
469.534	1636.99
469.906	1646.71
470.278	1680.83
470.65	1702.3
471.022	1735.07
471.394	1760.6
471.766	1763.54
472.138	1787.27
472.51	1836.76
472.882	1860.04
473.253	1875.85
473.625	1914.27
473.997	1970.32
474.369	1961.28
474.74	1981.61
475.112	2035.17
475.484	2073.36
475.855	2084.66
476.227	2126.7
476.598	2208.73
476.97	2204.89
477.341	2246.69
477.713	2287.82
478.084	2313.13
478.455	2394.94
478.827	2406.69
479.198	2455.5
479.569	2468.16
479.94	2534.59
480.311	2577.08
480.682	2654.37
481.053	2671.54
481.424	2753.57
481.795	2779.11
482.166	2794.7
482.537	2891.42
482.908	2926.22
483.279	2960.35
483.65	3025.2
484.021	3077.63
484.391	3141.58
484.762	3166.89
485.133	3223.62
485.503	3269.04
485.874	3336.61
486.244	3363.05
486.615	3456.83
486.985	3451.86
487.356	3568.47
487.726	3569.37
488.097	3668.8
488.467	3717.16
488.837	3817.95
489.207	3832.41
489.578	3888.68
489.948	3969.81
490.318	4005.74
490.688	4018.17
491.058	4091.16
491.428	4174.33
491.798	4186.75
492.168	4273.53
492.538	4332.29
492.908	4362.34
493.278	4451.15
493.648	4461.1
494.017	4555.33
494.387	4576.57
494.757	4600.98
495.126	4643.24
495.496	4659.28
495.866	4726.85
496.235	4803.69
496.605	4834.42
496.974	4880.07
497.344	4883.23
497.713	4950.35
498.082	4951.03
498.452	5023.57
498.821	5071.93
499.19	5033.06
499.559	5133.62
499.928	5106.96
500.298	5210.23
500.667	5251.36
501.036	5203
501.405	5300.85
501.774	5312.6
502.143	5392.15
502.512	5388.3
502.88	5414.07
503.249	5410.45
503.618	5490.22
503.987	5529.32
504.356	5562.54
504.724	5618.81
505.093	5585.14
505.462	5627.17
505.83	5669.43
506.199	5706.71
506.567	5755.3
506.936	5783.1
507.304	5799.14
507.672	5865.13
508.041	5888.63
508.409	5930.44
508.777	5935.63
509.145	6002.07
509.514	6030.1
509.882	6051.79
510.25	6087.5
510.618	6117.33
510.986	6139.92
511.354	6184.22
511.722	6201.39
512.09	6263.99
512.458	6252.01
512.826	6325.23
513.193	6300.82
513.561	6331.33
513.929	6351.67
514.297	6423.08
514.664	6470.31
515.032	6455.4
515.4	6494.26
515.767	6511.66
516.135	6554.38
516.502	6527.26
516.869	6624.66
517.237	6671.21
517.604	6614.49
517.972	6626.92
518.339	6733.58
518.706	6763.41
519.073	6763.41
519.44	6815.39
519.808	6817.65
520.175	6802.96
520.542	6921.15
520.909	6932.9
521.276	6985.55
521.643	6984.19
522.009	7064.64
522.376	7106.23
522.743	7059.67
523.11	7154.13
523.477	7166.34
523.843	7277.07
524.21	7353.22
524.577	7394.81
524.943	7372.66
525.31	7426.22
525.676	7432.32
526.043	7505.54
526.409	7498.76
526.776	7570.85
527.142	7658.75
527.508	7637.96
527.874	7746.89
528.241	7772.42
528.607	7854
528.973	7871.63
529.339	7833.21
529.705	7985.3
530.071	7975.36
530.437	7979.65
530.803	8065.07
531.169	8110.27
531.535	8168.57
531.901	8166.31
532.267	8198.17
532.632	8258.74
532.998	8262.35
533.364	8399.3
533.73	8322.24
534.095	8381.45
534.461	8355.01
534.826	8379.41
535.192	8534.21
535.557	8568.11
535.923	8571.95
536.288	8585.06
536.653	8624.15
537.019	8631.38
537.384	8620.31
537.749	8668.67
538.114	8774.88
538.479	8783.7
538.845	8861.21
539.21	8824.6
539.575	8844.26
539.94	8859.63
540.305	8939.85
540.67	8977.36
541.034	9014.42
541.399	8991.15
541.764	9017.14
542.129	9091.26
542.494	9136.23
542.858	9153.63
543.223	9232.95
543.587	9327.18
543.952	9234.76
544.316	9303.23
544.681	9312.95
545.045	9364.7
545.41	9445.83
545.774	9476.33
546.138	9507.52
546.503	9541.87
546.867	9502.32
547.231	9613.05
547.595	9635.2
547.959	9634.52
548.324	9719.26
548.688	9729.89
549.052	9754.74
549.416	9753.39
549.779	9849.88
550.143	9812.37
550.507	9909.54
550.871	9878.81
551.235	9901.63
551.599	9998.35
551.962	10050.78
552.326	10027.28
552.689	10143.89
553.053	10100.95
553.417	10095.98
553.78	10249.19
554.143	10263.88
554.507	10237.89
554.87	10349.08
555.234	10375.74
555.597	10280.83
555.96	10343.65
556.323	10393.6
556.686	10411.45
557.05	10502.52
557.413	10511.79
557.776	10559.24
558.139	10591.33
558.502	10651.44
558.865	10625
559.228	10707.03
559.59	10760.37
559.953	10767.15
560.316	10809.86
560.679	10830.2
561.041	10955.39
561.404	10963.98
561.767	11011.43
562.129	11024.77
562.492	11093.24
562.854	11118.1
563.217	11179.34
563.579	11178.21
563.941	11221.15
564.304	11233.12
564.666	11352.67
565.028	11287.36
565.39	11369.62
565.753	11503.62
566.115	11462.27
566.477	11567.35
566.839	11540.46
567.201	11623.39
567.563	11609.84
567.925	11630.4
568.287	11714.92
568.648	11725.77
569.01	11787.23
569.372	11908.13
569.734	11873.33
570.095	11937.28
570.457	11987.23
570.819	12038.3
571.18	12040.56
571.542	12135.47
571.903	12149.03
572.265	12250.72
572.626	12295.47
572.987	12268.12
573.349	12401.68
573.71	12472.64
574.071	12500.66
574.432	12562.81
574.794	12640.54
575.155	12675.34
575.516	12723.03
575.877	12835.57
576.238	12862.01
576.599	12996.69
576.96	13068.78
577.32	13207.31
577.681	13238.49
578.042	13273.07
578.403	13410.01
578.763	13454.76
579.124	13621.76
579.485	13721.42
579.845	13796.9
580.206	13907.63
580.566	14029.66
580.927	14103.1
581.287	14372.7
581.648	14414.73
582.008	14618.34
582.368	14787.83
582.728	14931.56
583.089	15062.17
583.449	15177.43
583.809	15401.15
584.169	15643.18
584.529	15704.87
584.889	15957.74
585.249	16065.31
585.609	16269.6
585.969	16577.84
586.329	16707.33
586.688	16971.28
587.048	17199.97
587.408	17381.44
587.768	17705.95
588.127	17906.85
588.487	18198.59
588.846	18462.76
589.206	18668.63
589.565	18871.11
589.925	19287.83
590.284	19524.43
590.643	19718.78
591.003	20058.43
591.362	20435.37
591.721	20630.62
592.08	20913.77
592.44	21271.05
592.799	21614.77
593.158	21832.84
593.517	22346.95
593.876	22621.98
594.235	22747.4
594.593	23195.29
594.952	23552.35
595.311	23633.25
595.67	24212.22
596.029	24680.23
596.387	24870.05
596.746	25236.82
597.104	25496.25
597.463	25731.5
597.822	26163.8
598.18	26425.94
598.538	26657.35
598.897	27190.44
599.255	27298.24
599.613	28028.61
599.972	28072.45
600.33	28351.54
600.688	28680.35
601.046	29115.59
601.404	29567.56
601.762	29703.15
602.12	30316.46
602.478	30478.49
602.836	30829.44
603.194	30874.41
603.552	31289.77
603.91	31468.07
604.268	31978.34
604.625	32078.9
604.983	32456.07
605.341	32726.12
605.698	33071.42
606.056	33420.34
606.413	33560.67
606.771	33987.78
607.128	34300.76
607.485	34395.68
607.843	34725.39
608.2	35096
608.557	35393.17
608.914	35494.86
609.272	35966.48
609.629	36162.86
609.986	36573.7
610.343	36718.55
610.7	36930.75
611.057	37186.79
611.414	37250.29
611.771	37659.77
612.127	37959.2
612.484	38056.6
612.841	38534.33
613.198	38509.24
613.554	38664.49
613.911	38981.55
614.267	39254.08
614.624	39409.11
614.98	39565.26
615.337	39879.6
615.693	40014.51
616.05	40021.52
616.406	40441.62
616.762	40382.64
617.118	40586.25
617.475	40895.85
617.831	41228.04
618.187	41359.56
618.543	41469.39
618.899	41920.23
619.255	41916.16
619.611	41919.1
619.967	42297.39
620.323	42403.6
620.678	42455.58
621.034	42351.17
621.39	42651.73
621.746	42567.44
622.101	43267.76
622.457	43006.75
622.812	43092.62
623.168	43217.59
623.523	43294.65
623.879	43624.14
624.234	43441.09
624.589	43757.92
624.945	43746.62
625.3	43869.78
625.655	44011.47
626.01	44070
626.365	44031.58
626.72	44147.96
627.075	44137.12
627.43	44277.9
627.785	44195.87
628.14	44392.02
628.495	44403.1
628.85	44323.1
629.205	44270.67
629.559	44676.76
629.914	44560.83
630.269	44689.42
630.623	44609.65
630.978	44701.85
631.332	44983.87
631.687	44958.11
632.041	44866.14
632.396	44910.66
632.75	44865.46
633.104	44987.72
633.459	44794.05
633.813	44942.97
634.167	44907.49
634.521	44928.73
634.875	45101.61
635.229	45043.53
635.583	44847.38
635.937	44990.65
636.291	44962.63
636.645	45127.37
636.999	44964.67
637.352	45080.37
637.706	44780.94
638.06	45109.75
638.413	45031.1
638.767	44870.88
639.121	44942.97
639.474	44812.13
639.828	44943.87
640.181	45049.86
640.534	44938.68
640.888	44792.24
641.241	44598.8
641.594	44932.12
641.947	45043.31
642.301	44785.46
642.654	45028.62
643.007	44974.38
643.36	44982.07
643.713	44844.44
644.066	44985.23
644.419	44847.15
644.771	44420.95
645.124	44158.36
645.477	44204.46
645.83	43951.58
646.182	43792.94
646.535	43621.65
646.888	43854.41
647.24	43532.84
647.593	43724.92
647.945	43700.52
648.298	43561.09
648.65	43594.31
649.002	43473.86
649.355	43555.44
649.707	43686.51
650.059	43921.75
650.411	44208.98
650.763	44320.16
651.115	44731.68
651.467	44403.78
651.819	44594.28
652.171	44456.66
652.523	44462.76
652.875	44399.26
653.227	44205.59
653.578	44587.27
653.93	44363.1
654.282	44251.01
654.633	44227.28
654.985	44245.59
655.337	44294.4
655.688	44269.99
656.039	44406.49
656.391	44140.51
656.742	44249.66
657.094	44332.37
657.445	44434.74
657.796	44297.34
658.147	44149.55
658.498	44244.01
658.849	44160.84
659.2	44272.48
659.551	44178.7
659.902	44278.58
660.253	44194.97
660.604	44304.8
660.955	44050.79
661.306	44276.77
661.656	44135.53
662.007	44135.76
662.358	44143.9
662.708	44153.16
663.059	44085.82
663.409	43870.46
663.76	44107.96
664.11	44085.14
664.461	44251.24
664.811	44072.26
665.161	44006.72
665.511	43938.25
665.862	44008.31
666.212	44121.07
666.562	43979.15
666.912	44010.79
667.262	44020.06
667.612	44043.11
667.962	44175.08
668.312	44112.94
668.662	44338.47
669.011	44183.89
669.361	44071.13
669.711	44021.19
670.06	43878.82
670.41	43855.77
670.76	43726.73
671.109	43933.96
671.459	43947.06
671.808	43821.19
672.157	43869.1
672.507	43717.01
672.856	43731.7
673.205	43628.66
673.554	43823
673.904	43821.42
674.253	44118.13
674.602	43764.7
674.951	43254.43
675.3	43037.03
675.649	43846.05
675.998	43554.53
676.346	43544.59
676.695	43788.65
677.044	43334.88
677.393	43574.19
677.741	43559.73
678.09	43479.96
678.438	43378.72
678.787	43510.92
679.135	43451.26
679.484	43254.2
679.832	43474.53
680.181	43166.52
680.529	43295.78
680.877	43234.32
681.225	43089.46
681.573	43492.16
681.922	43059.4
682.27	43029.57
682.618	43076.81
682.966	42973.53
683.314	42851.5
683.661	42832.07
684.009	42644.95
684.357	42590.26
684.705	42594.33
685.053	42622.13
685.4	42555.24
685.748	42368.8
686.095	42328.35
686.443	42237.73
686.79	41966.33
687.138	42282.7
687.485	42148.47
687.832	42174
688.18	42089.94
688.527	41838.87
688.874	41927
689.221	41860.57
689.568	41634.36
689.915	41715.03
690.262	41641.14
690.609	41493.8
690.956	41452.67
691.303	41326.34
691.65	41148.04
691.997	41252.45
692.344	40808.16
692.69	40760.48
693.037	40727.49
693.383	40492.24
693.73	40691.56
694.077	40464.44
694.423	40525.01
694.769	40377.89
695.116	40279.59
695.462	40227.61
695.808	40118.69
696.155	40258.57
696.501	39968.19
696.847	39949.66
697.193	39741.3
697.539	39915.98
697.885	39500.4
698.231	39401.2
698.577	39481.87
698.923	39407.75
699.269	39229.9
699.614	39018.38
699.96	39039.4
700.306	39029.91
700.651	38872.17
700.997	38685.28
701.342	38702.23
701.688	38610.71
702.033	38409.81
702.379	38422.69
702.724	38386.53
703.069	38329.59
703.415	37936.6
703.76	38044.62
704.105	37948.13
704.45	37828.36
704.795	37693.44
705.14	37690.73
705.485	37517.4
705.83	37382.04
706.175	37501.81
706.52	37396.28
706.865	37308.6
707.209	37371.64
707.554	37087.58
707.899	37049.85
708.243	37076.96
708.588	36907.93
708.932	36713.36
709.277	36685.56
709.621	36679.23
709.966	36461.84
710.31	36486.02
710.654	36262.97
710.998	36340.26
711.342	36295.06
711.687	36127.61
712.031	36022.98
712.375	35886.26
712.719	35970.55
713.063	35876.32
713.407	35943.21
713.75	35746.15
714.094	35639.49
714.438	35572.37
714.782	35605.14
715.125	35423.45
715.469	35482.88
715.812	35352.04
716.156	35122.21
716.499	35154.75
716.843	35168.99
717.186	34938.04
717.53	35245.15
717.873	35157.92
718.216	35168.54
718.559	34949.79
718.902	34512.51
719.246	34870.47
719.589	34623.47
719.932	34545.96
720.275	34492.17
720.617	34484.94
720.96	34497.82
721.303	34362.01
721.646	34422.8
721.989	34300.54
722.331	34366.75
722.674	34142.12
723.016	34166.08
723.359	34085.63
723.701	34088.11
724.044	33926.54
724.386	33823.49
724.729	33841.79
725.071	33733.55
725.413	33692.65
725.755	33693.78
726.097	33559.32
726.439	33364.74
726.782	33453.56
727.124	33447
727.465	33389.6
727.807	33453.33
728.149	33351.41
728.491	33273.22
728.833	33321.36
729.175	33150.29
729.516	33312.99
729.858	33031.42
730.199	33150.51
730.541	33047.24
730.882	32905.1
731.224	33119.1
731.565	32745.55
731.906	32873.01
732.248	32751.88
732.589	32639.34
732.93	32560.92
733.271	32636.85
733.612	32524.31
733.953	32583.97
734.294	32316.41
734.635	32330.42
734.976	32357.31
735.317	32146.47
735.658	32249.07
735.999	32319.57
736.339	32239.8
736.68	32246.13
737.021	32231.21
737.361	31960.26
737.702	32080.94
738.042	32030.99
738.383	31952.13
738.723	31986.93
739.063	31963.88
739.404	31903.54
739.744	31911.9
740.084	31797.33
740.424	31792.58
740.764	31644.79
741.104	31844.56
741.444	31559.59
741.784	31587.16
742.124	31588.52
742.464	31457.22
742.804	31437.56
743.143	31455.64
743.483	31366.83
743.823	31146.27
744.162	31191.47
744.502	31278.7
744.841	31107.4
745.181	31220.85
745.52	31005.94
745.86	31138.36
746.199	31126.16
746.538	30946.05
746.877	31117.35
747.216	31086.39
747.556	30852.49
747.895	30840.74
748.234	30757.36
748.573	30698.37
748.911	30677.13
749.25	30781.54
749.589	30619.28
749.928	30650.47
750.267	30688.66
750.605	30622.22
750.944	30508.32
751.283	30407.76
751.621	30449.34
751.96	30251.15
752.298	30270.14
752.636	30243.02
752.975	30119.86
753.313	29921.44
753.651	30078.28
753.989	29908.79
754.327	29923.25
754.666	29768
755.004	29822.69
755.342	29848
755.679	29705.63
756.017	29570.95
756.355	29741.79
756.693	29403.04
757.031	29521.68
757.368	29314.23
757.706	29389.93
758.044	29128.25
758.381	29250.28
758.719	29161.24
