Data from hue_22_FLMS001491_00078.txt Node
Date: Tue Feb 07 17:10:38 GMT 2017
User: dcchb
Spectrometer: FLMS00149
Trigger mode: 0
Integration Time (sec): 2.000000E-2
Scans to average: 10
Electric dark correction enabled: true
Nonlinearity correction enabled: false
Boxcar width: 0
XAxis mode: Wavelengths
Number of Pixels in Spectrum: 2048
>>>>>Begin Spectral Data<<<<<
341.393	-18.66
341.776	-18.66
342.16	-18.66
342.543	-77.87
342.927	-64.08
343.31	-47.58
343.693	-70.63
344.077	-61.82
344.46	-59.11
344.843	-39.45
345.226	-65.66
345.61	-27.02
345.993	-18.66
346.376	0.1
346.759	-1.48
347.142	21.34
347.525	37.39
347.908	66.76
348.291	71.96
348.674	80.77
349.057	113.09
349.44	118.74
349.823	130.72
350.206	155.58
350.588	173.43
350.971	201.22
351.354	198.96
351.737	226.53
352.119	236.93
352.502	264.05
352.884	287.32
353.267	278.96
353.65	277.83
354.032	301.56
354.414	291.62
354.797	287.77
355.179	307.21
355.562	336.14
355.944	339.75
356.326	327.77
356.709	340.43
357.091	339.52
357.473	342.46
357.855	346.08
358.238	337.49
358.62	321.45
359.002	345.4
359.384	353.99
359.766	331.84
360.148	325.74
360.53	325.51
360.912	335.91
361.294	317.6
361.676	315.12
362.057	336.14
362.439	328.9
362.821	316.93
363.203	339.07
363.584	318.51
363.966	304.05
364.348	312.41
364.729	298.62
365.111	315.8
365.493	313.08
365.874	303.14
366.256	323.48
366.637	291.84
367.019	309.47
367.4	307.66
367.781	301.79
368.163	303.37
368.544	306.31
368.925	297.49
369.306	320.54
369.688	307.89
370.069	312.41
370.45	296.81
370.831	306.98
371.212	302.92
371.593	301.79
371.974	314.21
372.355	314.44
372.736	326.42
373.117	298.85
373.498	292.52
373.879	319.86
374.26	297.94
374.641	320.09
375.021	283.93
375.402	330.03
375.783	319.19
376.163	312.86
376.544	323.03
376.925	322.35
377.305	323.48
377.686	335.91
378.066	341.56
378.447	309.24
378.827	324.38
379.208	311.96
379.588	334.1
379.968	326.87
380.349	306.53
380.729	306.76
381.109	339.75
381.489	331.84
381.87	332.07
382.25	317.6
382.63	306.98
383.01	326.87
383.39	314.89
383.77	332.29
384.15	331.84
384.53	326.87
384.91	363.71
385.29	343.14
385.67	335.23
386.049	351.05
386.429	346.53
386.809	361.9
387.189	344.72
387.568	348.79
387.948	323.71
388.328	330.71
388.707	336.36
389.087	349.69
389.466	356.93
389.846	344.95
390.225	349.47
390.605	361.22
390.984	335.01
391.363	354.21
391.743	363.93
392.122	363.48
392.501	362.12
392.881	365.06
393.26	355.57
393.639	353.08
394.018	362.8
394.397	363.48
394.776	373.65
395.155	358.51
395.534	403.7
395.913	368.9
396.292	386.3
396.671	396.92
397.05	383.14
397.429	379.52
397.808	367.55
398.186	382.46
398.565	403.48
398.944	392.63
399.323	397.38
399.701	383.14
400.08	400.54
400.458	383.82
400.837	379.52
401.215	401.22
401.594	393.99
401.972	406.87
402.351	413.65
402.729	399.41
403.107	394.89
403.486	406.19
403.864	395.57
404.242	398.96
404.62	409.35
404.999	415
405.377	391.28
405.755	386.53
406.133	390.6
406.511	419.3
406.889	424.49
407.267	420.2
407.645	422.69
408.023	392.4
408.401	417.94
408.779	419.97
409.156	414.55
409.534	419.75
409.912	429.24
410.29	432.4
410.667	449.13
411.045	434.44
411.422	447.77
411.8	430.14
412.178	445.96
412.555	454.32
412.933	454.32
413.31	466.98
413.687	466.53
414.065	429.69
414.442	477.37
414.819	474.21
415.197	471.05
415.574	483.48
415.951	487.54
416.328	466.53
416.705	495.91
417.082	466.08
417.46	489.13
417.837	489.13
418.214	469.01
418.591	468.11
418.967	494.55
419.344	509.24
419.721	502.68
420.098	490.48
420.475	502.01
420.852	508.79
421.228	481.67
421.605	533.19
421.982	536.13
422.358	527.32
422.735	534.77
423.111	523.47
423.488	521.89
423.864	532.74
424.241	537.26
424.617	522.57
424.994	546.3
425.37	558.5
425.746	541.55
426.123	535.68
426.499	538.62
426.875	563.93
427.251	545.62
427.627	569.58
428.003	555.34
428.379	568.67
428.756	581.33
429.132	561.67
429.507	595.56
429.883	598.05
430.259	602.34
430.635	602.12
431.011	586.98
431.387	618.39
431.763	629.69
432.138	622.68
432.514	619.97
432.89	624.49
433.265	629.69
433.641	647.31
434.016	652.29
434.392	647.54
434.767	647.77
435.143	643.92
435.518	663.13
435.894	659.74
436.269	685.28
436.644	659.97
437.02	675.34
437.395	712.4
437.77	699.06
438.145	695.22
438.52	698.84
438.895	696.35
439.271	711.27
439.646	705.39
440.021	704.26
440.395	725.5
440.77	729.8
441.145	721.21
441.52	751.04
441.895	730.7
442.27	749.68
442.645	743.36
443.019	764.82
443.394	738.84
443.769	740.64
444.143	760.98
444.518	776.35
444.892	761.66
445.267	767.31
445.641	787.42
446.016	819.29
446.39	765.73
446.764	802.79
447.139	794.2
447.513	820.19
447.887	789
448.262	813.86
448.636	820.64
449.01	790.59
449.384	815.67
449.758	834.2
450.132	828.55
450.506	847.53
450.88	844.82
451.254	858.16
451.628	849.34
452.002	879.62
452.376	860.42
452.75	879.62
453.123	881.21
453.497	938.38
453.871	882.56
454.244	905.61
454.618	918.27
454.992	926.18
455.365	928.21
455.739	939.96
456.112	948.1
456.486	966.18
456.859	948.32
457.232	949.45
457.606	970.02
457.979	1002.11
458.352	992.62
458.725	1022.22
459.099	1027.19
459.472	1028.09
459.845	1039.62
460.218	1061.77
460.591	1063.57
460.964	1045.04
461.337	1100.41
461.71	1071.94
462.083	1088.21
462.456	1092.5
462.829	1115.32
463.201	1112.61
463.574	1130.92
463.947	1139.05
464.32	1155.1
464.692	1219.95
465.065	1172.72
465.438	1184.7
465.81	1219.28
466.183	1227.64
466.555	1249.56
466.928	1257.24
467.3	1245.04
467.672	1292.04
468.045	1320.52
468.417	1316.45
468.789	1336.79
469.161	1349.67
469.534	1374.75
469.906	1385.6
470.278	1404.58
470.65	1385.15
471.022	1453.62
471.394	1473.96
471.766	1474.41
472.138	1490.46
472.51	1484.81
472.882	1547.63
473.253	1594.86
473.625	1575.42
473.997	1614.75
474.369	1631.02
474.74	1654.07
475.112	1675.99
475.484	1747.17
475.855	1751.92
476.227	1756.89
476.598	1784.91
476.97	1844.12
477.341	1870.11
477.713	1896.55
478.084	1889.77
478.455	1945.58
478.827	1937.22
479.198	2019.71
479.569	2000.72
479.94	2109.2
480.311	2138.12
480.682	2179.02
481.053	2198.91
481.424	2217.44
481.795	2283.2
482.166	2351.9
482.537	2363.88
482.908	2406.36
483.279	2466.25
483.65	2494.95
484.021	2540.37
484.391	2583.99
484.762	2582.86
485.133	2649.07
485.503	2714.38
485.874	2735.39
486.244	2781.49
486.615	2840.7
486.985	2853.81
487.356	2950.76
487.726	2962.73
488.097	3043.86
488.467	3053.13
488.837	3117.53
489.207	3183.07
489.578	3209.28
489.948	3236.85
490.318	3286.57
490.688	3276.85
491.058	3313.68
491.428	3379.9
491.798	3437.3
492.168	3525.66
492.538	3529.27
492.908	3570.4
493.278	3591.19
493.648	3629.16
494.017	3700.57
494.387	3742.37
494.757	3750.73
495.126	3807.91
495.496	3831.18
495.866	3887
496.235	3886.32
496.605	3932.88
496.974	3978.98
497.344	3984.17
497.713	4047.68
498.082	4095.81
498.452	4085.42
498.821	4125.87
499.19	4138.3
499.559	4183.72
499.928	4215.58
500.298	4222.81
500.667	4252.42
501.036	4318.4
501.405	4343.49
501.774	4370.61
502.143	4398.63
502.512	4390.72
502.88	4442.47
503.249	4439.53
503.618	4482.92
503.987	4472.52
504.356	4496.48
504.724	4588.9
505.093	4587.77
505.462	4607.21
505.83	4644.95
506.199	4614.89
506.567	4749.35
506.936	4654.89
507.304	4733.99
507.672	4753.65
508.041	4777.6
508.409	4819.86
508.777	4845.62
509.145	4885.62
509.514	4889.91
509.882	4930.36
510.25	4950.25
510.618	4955.22
510.986	4974.43
511.354	5015.79
511.722	5022.34
512.09	5065.05
512.458	5071.15
512.826	5125.61
513.193	5108.67
513.561	5124.48
513.929	5229.79
514.297	5220.3
514.664	5243.12
515.032	5288.55
515.4	5261.2
515.767	5311.37
516.135	5335.33
516.502	5309.79
516.869	5393.18
517.237	5352.73
517.604	5369.9
517.972	5433.85
518.339	5453.97
518.706	5479.05
519.073	5486.73
519.44	5480.18
519.808	5548.2
520.175	5543.23
520.542	5556.34
520.909	5616.9
521.276	5631.82
521.643	5689.44
522.009	5658.48
522.376	5726.05
522.743	5718.14
523.11	5780.29
523.477	5845.14
523.843	5870.23
524.21	5916.55
524.577	5914.75
524.943	5983.22
525.31	5973.95
525.676	6032.03
526.043	6028.41
526.409	6083.55
526.776	6137.56
527.142	6135.08
527.508	6144.12
527.874	6223.21
528.241	6240.84
528.607	6248.75
528.973	6313.15
529.339	6346.6
529.705	6374.85
530.071	6404.45
530.437	6508.18
530.803	6538.91
531.169	6508.18
531.535	6550.66
531.901	6530.77
532.267	6561.96
532.632	6601.06
532.998	6591.56
533.364	6688.28
533.73	6693.03
534.095	6774.16
534.461	6745.01
534.826	6805.12
535.192	6832.91
535.557	6830.2
535.923	6852.57
536.288	6938.67
536.653	6917.21
537.019	6903.87
537.384	6942.29
537.749	7030.42
538.114	7014.15
538.479	7071.33
538.845	7063.87
539.21	7028.39
539.575	7118.1
539.94	7088.27
540.305	7175.5
540.67	7191.1
541.034	7226.8
541.399	7258.44
541.764	7215.05
542.129	7276.29
542.494	7347.02
542.858	7326.01
543.223	7348.15
543.587	7455.5
543.952	7414.14
544.316	7429.51
544.681	7493.91
545.045	7463.63
545.41	7569.17
545.774	7563.97
546.138	7589.05
546.503	7666.11
546.867	7601.25
547.231	7738.88
547.595	7706.34
547.959	7712.89
548.324	7686.45
548.688	7766
549.052	7750.63
549.416	7845.99
549.779	7848.03
550.143	7888.03
550.507	7967.8
550.871	7923.28
551.235	7940.23
551.599	8013
551.962	7987.23
552.326	8054.12
552.689	8135.03
553.053	8020
553.417	8078.08
553.78	8187.45
554.143	8174.57
554.507	8218.41
554.87	8241.46
555.234	8286.66
555.597	8252.99
555.96	8335.7
556.323	8318.52
556.686	8352.87
557.05	8441.68
557.413	8377.28
557.776	8448.46
558.139	8490.72
558.502	8485.98
558.865	8486.88
559.228	8611.17
559.59	8558.07
559.953	8581.79
560.316	8668.35
560.679	8727.55
561.041	8765.29
561.404	8774.56
561.767	8814.78
562.129	8781.34
562.492	8872.41
562.854	8869.7
563.217	8852.75
563.579	8853.88
563.941	8949.69
564.304	8939.75
564.666	9035.34
565.028	9045.96
565.39	9052.52
565.753	9091.61
566.115	9106.98
566.477	9228.56
566.839	9236.47
567.201	9262.45
567.563	9271.49
567.925	9419.06
568.287	9422.9
568.648	9450.25
569.01	9424.03
569.372	9476.91
569.734	9448.44
570.095	9577.02
570.457	9649.34
570.819	9605.04
571.18	9640.98
571.542	9716.45
571.903	9760.75
572.265	9774.53
572.626	9761.42
572.987	9883.23
573.349	9862.21
573.71	9940.85
574.071	9972.72
574.432	9989.21
574.794	10179.04
575.155	10203.67
575.516	10207.29
575.877	10275.53
576.238	10229.43
576.599	10380.16
576.96	10480.73
577.32	10530.22
577.681	10608.18
578.042	10782.41
578.403	10800.04
578.763	10886.37
579.124	10922.98
579.485	11032.35
579.845	11179.24
580.206	11260.59
580.566	11328.39
580.927	11408.16
581.287	11580.36
581.648	11627.82
582.008	11885.44
582.368	11978.99
582.728	12071.19
583.089	12205.43
583.449	12273.45
583.809	12556.83
584.169	12689.93
584.529	12805.86
584.889	13090.38
585.249	13205.4
585.609	13357.71
585.969	13614.88
586.329	13719.51
586.688	14013.52
587.048	14099.62
587.408	14345.48
587.768	14596.78
588.127	14730.56
588.487	14996.77
588.846	15343.65
589.206	15497.32
589.565	15701.61
589.925	16104.99
590.284	16265.43
590.643	16481.02
591.003	16825.42
591.362	17205.3
591.721	17322.81
592.08	17610.03
592.44	17991.49
592.799	18270.13
593.158	18412.04
593.517	18788.31
593.876	19109.43
594.235	19266.71
594.593	19725.23
594.952	19948.27
595.311	20298.32
595.67	20565.21
596.029	21011.07
596.387	21309.82
596.746	21616.03
597.104	21813.54
597.463	22112.29
597.822	22616.68
598.18	22751.37
598.538	23079.94
598.897	23503.21
599.255	23662.98
599.613	24169.18
599.972	24478.55
600.33	24772.55
600.688	25027.69
601.046	25358.3
601.404	25729.59
601.762	25977.27
602.12	26357.82
602.478	26595.11
602.836	26965.27
603.194	27186.05
603.552	27500.17
603.91	27686.38
604.268	28055.86
604.625	28315.29
604.983	28655.84
605.341	28800.92
605.698	29256.28
606.056	29513.9
606.413	29843.83
606.771	30016.26
607.128	30393.88
607.485	30423.71
607.843	30742.79
608.2	31082.67
608.557	31581.87
608.914	31444.92
609.272	31949.32
609.629	32240.16
609.986	32549.98
610.343	32744.1
610.7	33156.29
611.057	33277.19
611.414	33415.49
611.771	33593.11
612.127	34000.79
612.484	34163.49
612.841	34396.48
613.198	34479.42
613.554	34690.26
613.911	35035.34
614.267	35158.27
614.624	35403.24
614.98	35561.65
615.337	35909.66
615.693	35899.04
616.05	36075.99
616.406	36398.01
616.762	36487.95
617.118	36698.57
617.475	36932.69
617.831	37078.45
618.187	37205.22
618.543	37312.56
618.899	37741.48
619.255	37823.51
619.611	37950.97
619.967	38155.93
620.323	38318.64
620.678	38198.19
621.034	38281.58
621.39	38589.59
621.746	38547.11
622.101	39062.57
622.457	39008.56
622.812	39199.75
623.168	39235
623.523	39351.38
623.879	39425.5
624.234	39467.76
624.589	39667.3
624.945	39655.33
625.3	39846.28
625.655	39780.97
626.01	39943.46
626.365	40006.05
626.72	40036.56
627.075	40024.81
627.43	40167.86
627.785	40112.49
628.14	40165.14
628.495	40313.16
628.85	40531.46
629.205	40390.68
629.559	40710.44
629.914	40523.33
630.269	40639.03
630.623	40540.95
630.978	40617.11
631.332	40869.31
631.687	40910.89
632.041	40841.96
632.396	40838.8
632.75	40741.4
633.104	41032.47
633.459	40846.71
633.813	40906.37
634.167	40869.76
634.521	40996.31
634.875	41015.07
635.229	41016.42
635.583	40844.67
635.937	41011.68
636.291	40906.82
636.645	40931.45
636.999	40952.24
637.352	41088.74
637.706	40855.52
638.06	41124.22
638.413	41080.6
638.767	40871.57
639.121	40912.24
639.474	40736.43
639.828	40957.89
640.181	41069.98
640.534	41069.75
640.888	40848.52
641.241	40719.71
641.594	40816.2
641.947	41143.42
642.301	40873.15
642.654	40934.84
643.007	40968.29
643.36	41036.08
643.713	40868.4
644.066	41053.71
644.419	40803.09
644.771	40565.13
645.124	40172.83
645.477	40226.39
645.83	39982.55
646.182	39769.45
646.535	39718.6
646.888	39834.53
647.24	39617.81
647.593	39891.03
647.945	39825.94
648.298	39639.51
648.65	39477.48
649.002	39509.12
649.355	39783.01
649.707	39614.2
650.059	39942.78
650.411	40319.72
650.763	40329.66
651.115	40819.14
651.467	40635.41
651.819	40482.65
652.171	40453.05
652.523	40440.62
652.875	40291.02
653.227	40239.94
653.578	40567.62
653.93	40368.98
654.282	40304.35
654.633	40271.81
654.985	40415.99
655.337	40433.61
655.688	40161.3
656.039	40474.06
656.391	40255.31
656.742	40130.57
657.094	40281.3
657.445	40364.91
657.796	40337.8
658.147	40152.04
658.498	40231.36
658.849	40250.79
659.2	40160.17
659.551	40333.28
659.902	40356.1
660.253	40260.74
660.604	40248.98
660.955	40148.42
661.306	40312.26
661.656	40176.44
662.007	40139.83
662.358	40207.63
662.708	40058.71
663.059	40107.97
663.409	39939.61
663.76	40301.64
664.11	40248.31
664.461	40255.76
664.811	40110.91
665.161	40066.16
665.511	39961.31
665.862	40006.28
666.212	40148.42
666.562	40221.64
666.912	40076.33
667.262	40034.98
667.612	39948.88
667.962	40056.22
668.312	40018.26
668.662	40170.12
669.011	40046.5
669.361	39987.52
669.711	39925.38
670.06	39901.65
670.41	39963.57
670.76	39870.46
671.109	39954.3
671.459	39890.35
671.808	39840.63
672.157	40031.36
672.507	39797.02
672.856	39786.17
673.205	39927.41
673.554	39914.76
673.904	39733.74
674.253	40072.72
674.602	39779.39
674.951	39310.7
675.3	39171.72
675.649	39828.43
675.998	39711.6
676.346	39664.37
676.695	39850.58
677.044	39506.86
677.393	39540.53
677.741	39599.28
678.09	39446.75
678.438	39336.69
678.787	39526.97
679.135	39573.75
679.484	39268.22
679.832	39467.31
680.181	39255.79
680.529	39399.97
680.877	39195
681.225	39211.05
681.573	39396.13
681.922	39129.69
682.27	38964.27
682.618	38859.64
682.966	38906.87
683.314	38980.09
683.661	38877.27
684.009	38642.25
684.357	38662.13
684.705	38617.39
685.053	38804.05
685.4	38651.74
685.748	38425.76
686.095	38348.92
686.443	38220.56
686.79	38382.82
687.138	38321.58
687.485	38282.93
687.832	38131.75
688.18	38112.77
688.527	37967.69
688.874	37977.41
689.221	37884.53
689.568	37824.87
689.915	37581.03
690.262	37696.28
690.609	37639.79
690.956	37428.72
691.303	37434.59
691.65	37149.63
691.997	37333.13
692.344	37156.64
692.69	37121.83
693.037	37005.68
693.383	36777.89
693.73	36842.07
694.077	36758.45
694.423	36774.27
694.769	36605.92
695.116	36565.92
695.462	36590.1
695.808	36394.62
696.155	36395.3
696.501	36118.7
696.847	36166.38
697.193	35827.41
697.539	36048.42
697.885	35725.94
698.231	35736.79
698.577	35702.66
698.923	35730.68
699.269	35453.86
699.614	35367.98
699.96	35332.96
700.306	35243.69
700.651	35044.38
700.997	34993.98
701.342	34903.14
701.688	34912.63
702.033	34781.11
702.379	34794.89
702.724	34641.9
703.069	34697.27
703.415	34404.84
703.76	34460.89
704.105	34483.26
704.45	34209.82
704.795	34096.15
705.14	33932.99
705.485	33891.86
705.83	33805.99
706.175	33968.92
706.52	33748.14
706.865	33723.96
707.209	33593.57
707.554	33586.11
707.899	33572.55
708.243	33326.68
708.588	33339.79
708.932	33182.28
709.277	33084.2
709.621	33167.14
709.966	32898.89
710.31	32945.22
710.654	32672.46
710.998	32735.51
711.342	32792.23
711.687	32634.95
712.031	32432.92
712.375	32354.5
712.719	32424.33
713.063	32400.38
713.407	32496.42
713.75	32427.49
714.094	32251
714.438	32150.89
714.782	32175.75
715.125	32031.12
715.469	32185.47
715.812	31922.65
716.156	31876.77
716.499	31774.4
716.843	31939.37
717.186	31743.45
717.53	31732.6
717.873	31747.29
718.216	31605.82
718.559	31472.49
718.902	31311.59
719.246	31406.28
719.589	31395.21
719.932	31218.04
720.275	31084.48
720.617	31281.08
720.96	31163.57
721.303	31059.62
721.646	31193.18
721.989	30802.23
722.331	30953.86
722.674	30831.15
723.016	30851.94
723.359	30801.55
723.701	30795.45
724.044	30623.7
724.386	30282.24
724.729	30695.34
725.071	30505.74
725.413	30467.55
725.755	30417.6
726.097	30334.44
726.439	30097.84
726.782	30058.29
727.124	30230.72
727.465	30090.61
727.807	30011.97
728.149	30030.27
728.491	30033.43
728.833	30013.77
729.175	29946.2
729.516	29952.98
729.858	29837.05
730.199	29878.64
730.541	29767
730.882	29773.33
731.224	29824.85
731.565	29506.22
731.906	29649.94
732.248	29632.09
732.589	29456.5
732.93	29397.29
733.271	29404.75
733.612	29442.94
733.953	29425.31
734.294	29284.3
734.635	29186
734.976	29344.41
735.317	29046.79
735.658	29077.07
735.999	29100.58
736.339	29069.17
736.68	29096.28
737.021	28949.85
737.361	28844.99
737.702	28971.77
738.042	28958.66
738.383	28924.08
738.723	28975.16
739.063	28757.76
739.404	28814.71
739.744	28822.17
740.084	28757.76
740.424	28766.35
740.764	28620.82
741.104	28702.17
741.444	28482.97
741.784	28423.53
742.124	28491.33
742.464	28455.4
742.804	28451.1
743.143	28357.32
743.483	28284.78
743.823	28237.77
744.162	28118.46
744.502	28370.65
744.841	28092.02
745.181	28188.51
745.52	28087.72
745.86	28195.52
746.199	28068.29
746.538	27963.43
746.877	28139.47
747.216	28035.75
747.556	27913.49
747.895	27966.37
748.234	27832.81
748.573	27752.59
748.911	27751.23
749.25	27729.77
749.589	27582.88
749.928	27710.1
750.267	27665.36
750.605	27499.26
750.944	27466.72
751.283	27425.37
751.621	27392.6
751.96	27335.43
752.298	27291.81
752.636	27358.48
752.975	27243.68
753.313	27173.62
753.651	27262.21
753.989	27079.16
754.327	26979.73
754.666	26853.18
755.004	26897.7
755.342	27014.08
755.679	26894.76
756.017	26776.8
756.355	26901.99
756.693	26695.89
757.031	26786.97
757.368	26545.39
757.706	26433.08
758.044	26435.11
758.381	26443.92
758.719	26338.39
759.056	26304.49
759.394	26260.43
759.731	26117.15
760.068	26096.81
760.405	25987.21
