Data from hue_00_FLMS001491_79.txt Node
Date: Mon Feb 06 15:30:13 GMT 2017
User: dcchb
Spectrometer: FLMS00149
Trigger mode: 0
Integration Time (sec): 2.000000E-2
Scans to average: 10
Electric dark correction enabled: true
Nonlinearity correction enabled: false
Boxcar width: 0
XAxis mode: Wavelengths
Number of Pixels in Spectrum: 2048
>>>>>Begin Spectral Data<<<<<
341.393	-9.28
341.776	-9.28
342.16	-9.28
342.543	-64.87
342.927	-61.93
343.31	-80.01
343.693	-77.3
344.077	-56.74
344.46	-60.58
344.843	-60.58
345.226	-47.92
345.61	-27.13
345.993	-23.97
346.376	11.96
346.759	14.45
347.142	23.94
347.525	35.69
347.908	70.27
348.291	77.95
348.674	92.86
349.057	107.1
349.44	144.84
349.823	124.73
350.206	175.12
350.588	208.34
350.971	204.05
351.354	202.01
351.737	247.21
352.119	263.93
352.502	268.91
352.884	268.68
353.267	298.06
353.65	303.71
354.032	299.41
354.414	313.42
354.797	309.58
355.179	331.95
355.562	299.86
355.944	324.95
356.326	328.11
356.709	335.34
357.091	332.18
357.473	329.47
357.855	360.43
358.238	344.38
358.62	341.22
359.002	339.41
359.384	358.39
359.766	319.53
360.148	335.12
360.53	336.25
360.912	341.45
361.294	323.14
361.676	325.85
362.057	328.34
362.439	343.71
362.821	294.44
363.203	338.28
363.584	314.33
363.966	323.82
364.348	326.53
364.729	354.78
365.111	338.96
365.493	310.71
365.874	313.42
366.256	316.36
366.637	313.42
367.019	304.38
367.4	336.25
367.781	311.16
368.163	320.2
368.544	296.02
368.925	307.55
369.306	329.92
369.688	295.12
370.069	309.36
370.45	325.18
370.831	308.23
371.212	299.19
371.593	283.14
371.974	306.64
372.355	327.89
372.736	305.29
373.117	305.97
373.498	308.68
373.879	319.75
374.26	299.64
374.641	321.56
375.021	303.03
375.402	327.89
375.783	321.11
376.163	327.89
376.544	316.59
376.925	336.02
377.305	303.93
377.686	323.14
378.066	323.37
378.447	321.56
378.827	329.47
379.208	324.27
379.588	314.1
379.968	324.72
380.349	326.76
380.729	335.8
381.109	336.47
381.489	320.88
381.87	299.64
382.25	317.94
382.63	317.94
383.01	340.77
383.39	340.99
383.77	337.6
384.15	330.15
384.53	345.97
384.91	361.33
385.29	327.89
385.67	351.84
386.049	319.07
386.429	350.49
386.809	322.01
387.189	338.28
387.568	360.43
387.948	343.93
388.328	334.89
388.707	338.51
389.087	355
389.466	340.09
389.846	370.37
390.225	334.67
390.605	346.42
390.984	361.11
391.363	339.19
391.743	352.74
392.122	346.64
392.501	347.55
392.881	358.17
393.26	353.42
393.639	373.99
394.018	350.94
394.397	362.91
394.776	346.42
395.155	375.34
395.534	393.2
395.913	365.85
396.292	368.34
396.671	356.59
397.05	363.37
397.429	387.77
397.808	357.04
398.186	371.05
398.565	376.7
398.944	345.97
399.323	362.46
399.701	375.34
400.08	358.17
400.458	379.41
400.837	371.05
401.215	369.92
401.594	389.35
401.972	380.54
402.351	386.19
402.729	391.16
403.107	369.02
403.486	374.44
403.864	372.18
404.242	409.24
404.62	399.52
404.999	395.68
405.377	402.69
405.755	406.98
406.133	395.23
406.511	408.79
406.889	408.56
407.267	388.22
407.645	409.69
408.023	399.3
408.401	380.31
408.779	399.98
409.156	412.18
409.534	425.06
409.912	414.21
410.29	420.99
410.667	413.76
411.045	433.65
411.422	430.26
411.8	419.18
412.178	443.14
412.555	410.14
412.933	432.52
413.31	442.69
413.687	438.84
414.065	433.87
414.442	444.95
414.819	455.57
415.197	451.05
415.574	473.19
415.951	450.82
416.328	444.27
416.705	446.08
417.082	451.95
417.46	464.15
417.837	461.67
418.214	462.35
418.591	472.29
418.967	467.54
419.344	473.87
419.721	475
420.098	472.97
420.475	469.8
420.852	477.71
421.228	502.12
421.605	489.24
421.982	488.11
422.358	474.78
422.735	524.49
423.111	519.97
423.488	511.84
423.864	484.49
424.241	505.74
424.617	518.62
424.994	513.19
425.37	510.71
425.746	522.68
426.123	528.33
426.499	523.59
426.875	533.08
427.251	533.98
427.627	539.18
428.003	557.03
428.379	569.24
428.756	567.43
429.132	552.51
429.507	552.74
429.883	567.43
430.259	563.36
430.635	552.29
431.011	572.85
431.387	599.74
431.763	593.64
432.138	584.38
432.514	579.86
432.89	601.78
433.265	586.19
433.641	587.77
434.016	611.27
434.392	614.66
434.767	610.59
435.143	609.46
435.518	636.35
435.894	623.25
436.269	630.25
436.644	659.18
437.02	650.82
437.395	638.84
437.77	646.3
438.145	645.62
438.52	661.89
438.895	703.92
439.271	651.04
439.646	673.41
440.021	682.45
440.395	671.15
440.77	691.72
441.145	690.36
441.52	680.42
441.895	687.88
442.27	693.53
442.645	699.85
443.019	695.56
443.394	700.76
443.769	695.33
444.143	693.53
444.518	706.63
444.892	703.24
445.267	713.41
445.641	723.81
446.016	690.14
446.39	721.32
446.764	728.33
447.139	717.26
447.513	722.45
447.887	737.59
448.262	738.95
448.636	738.5
449.01	766.07
449.384	765.16
449.758	780.08
450.132	748.44
450.506	764.94
450.88	764.03
451.254	775.78
451.628	786.63
452.002	787.99
452.376	795.45
452.75	779.85
453.123	779.17
453.497	804.71
453.871	772.17
454.244	794.77
454.618	803.13
454.992	816.46
455.365	806.52
455.739	820.3
456.112	839.29
456.486	842.22
456.859	842
457.232	857.59
457.606	858.49
457.979	868.44
458.352	883.35
458.725	890.36
459.099	896.23
459.472	901.66
459.845	904.14
460.218	908.66
460.591	885.84
460.964	943.46
461.337	922.9
461.71	960.41
462.083	970.13
462.456	965.84
462.829	954.54
463.201	953.41
463.574	977.81
463.947	1030.69
464.32	995.67
464.692	1002.67
465.065	1031.15
465.438	1011.48
465.81	1018.04
466.183	1051.26
466.555	1079.96
466.928	1066.62
467.3	1101.43
467.672	1077.02
468.045	1104.59
468.417	1137.58
468.789	1118.37
469.161	1127.41
469.534	1138.94
469.906	1177.58
470.278	1193.85
470.65	1164.02
471.022	1201.54
471.394	1238.15
471.766	1251.03
472.138	1221.65
472.51	1272.72
472.882	1300.06
473.253	1291.03
473.625	1337.58
473.997	1324.92
474.369	1358.14
474.74	1362.66
475.112	1406.5
475.484	1432.04
475.855	1430
476.227	1447.86
476.598	1488.53
476.97	1519.49
477.341	1554.3
477.713	1573.05
478.084	1568.08
478.455	1600.62
478.827	1615.31
479.198	1653.05
479.569	1688.76
479.94	1733.27
480.311	1745.02
480.682	1755.87
481.053	1806.04
481.424	1815.53
481.795	1860.73
482.166	1914.29
482.537	1919.94
482.908	1964.68
483.279	1967.84
483.65	2041.51
484.021	2084.68
484.391	2093.04
484.762	2097.33
485.133	2126.71
485.503	2168.52
485.874	2206.26
486.244	2242.64
486.615	2293.26
486.985	2321.28
487.356	2343.2
487.726	2387.95
488.097	2449.41
488.467	2453.25
488.837	2479.47
489.207	2517.66
489.578	2526.7
489.948	2606.25
490.318	2657.09
490.688	2662.29
491.058	2736.41
491.428	2748.39
491.798	2789.74
492.168	2816.18
492.538	2856.63
492.908	2856.41
493.278	2911.32
493.648	2912.23
494.017	2935.73
494.387	2968.04
494.757	3022.51
495.126	3049.4
495.496	3072.9
495.866	3110.41
496.235	3147.02
496.605	3132.11
496.974	3154.25
497.344	3179.34
497.713	3227.47
498.082	3264.53
498.452	3287.13
498.821	3273.35
499.19	3305.44
499.559	3355.6
499.928	3358.32
500.298	3368.03
500.667	3405.09
501.036	3448.03
501.405	3456.17
501.774	3468.14
502.143	3506.79
502.512	3467.92
502.88	3496.17
503.249	3546.56
503.618	3585.65
503.987	3616.16
504.356	3602.38
504.724	3614.13
505.093	3610.51
505.462	3627.91
505.83	3646.67
506.199	3709.94
506.567	3728.7
506.936	3716.95
507.304	3776.61
507.672	3774.35
508.041	3769.15
508.409	3828.13
508.777	3815.48
509.145	3828.13
509.514	3842.37
509.882	3829.49
510.25	3863.61
510.618	3911.52
510.986	3925.53
511.354	3945.42
511.722	3951.52
512.09	3986.77
512.458	3971.86
512.826	4016.38
513.193	4032.42
513.561	4021.58
513.929	4017.73
514.297	4033.55
514.664	4077.39
515.032	4083.95
515.4	4082.59
515.767	4152.87
516.135	4112.42
516.502	4104.96
516.869	4178.18
517.237	4170.27
517.604	4153.1
517.972	4195.36
518.339	4249.82
518.706	4181.34
519.073	4230.38
519.44	4191.74
519.808	4295.47
520.175	4292.75
520.542	4291.4
520.909	4312.19
521.276	4298.4
521.643	4324.17
522.009	4363.49
522.376	4404.39
522.743	4419.76
523.11	4375.46
523.477	4416.14
523.843	4453.43
524.21	4529.36
524.577	4544.95
524.943	4503.14
525.31	4572.75
525.676	4579.3
526.043	4603.03
526.409	4624.72
526.776	4679.18
527.142	4671.95
527.508	4684.16
527.874	4666.08
528.241	4709.24
528.607	4747.43
528.973	4749.92
529.339	4768.22
529.705	4844.15
530.071	4845.51
530.437	4858.16
530.803	4835.56
531.169	4906.07
531.535	4930.25
531.901	4935.45
532.267	4913.75
532.632	4956.01
532.998	4962.79
533.364	5016.58
533.73	4982.68
534.095	5051.83
534.461	5044.6
534.826	5095.67
535.192	5118.95
535.557	5183.13
535.923	5108.78
536.288	5151.94
536.653	5223.13
537.019	5172.28
537.384	5194.43
537.749	5264.25
538.114	5269
538.479	5281.88
538.845	5304.03
539.21	5344.25
539.575	5327.76
539.94	5360.07
540.305	5398.49
540.67	5403.46
541.034	5454.31
541.399	5441.65
541.764	5459.96
542.129	5512.84
542.494	5464.02
542.858	5579.73
543.223	5578.6
543.587	5588.54
543.952	5604.13
544.316	5587.86
544.681	5689.78
545.045	5651.81
545.41	5674.64
545.774	5727.07
546.138	5711.7
546.503	5751.7
546.867	5754.64
547.231	5851.13
547.595	5850.68
547.959	5814.3
548.324	5829.21
548.688	5877.35
549.052	5847.97
549.416	5927.06
549.779	5883.45
550.143	5962.31
550.507	5958.25
550.871	5988.75
551.235	5947.85
551.599	6061.75
551.962	6045.25
552.326	6013.39
552.689	6091.35
553.053	6111.01
553.417	6089.09
553.78	6171.58
554.143	6162.08
554.507	6172.03
554.87	6205.7
555.234	6224
555.597	6137.45
555.96	6181.29
556.323	6269.65
556.686	6268.52
557.05	6350.55
557.413	6308.07
557.776	6325.7
558.139	6392.81
558.502	6380.61
558.865	6335.86
559.228	6447.05
559.59	6488.18
559.953	6462.87
560.316	6489.08
560.679	6521.85
561.041	6581.51
561.404	6595.52
561.767	6608.63
562.129	6560.49
562.492	6607.27
562.854	6637.1
563.217	6615.18
563.579	6671.9
563.941	6672.13
564.304	6748.06
564.666	6780.15
565.028	6775.4
565.39	6757.55
565.753	6849.52
566.115	6812.01
566.477	6918.67
566.839	6770.88
567.201	6934.27
567.563	6912.12
567.925	6965
568.287	7016.52
568.648	6991.89
569.01	7053.36
569.372	7127.48
569.734	7053.59
570.095	7092.68
570.457	7126.35
570.819	7208.16
571.18	7211.32
571.542	7250.19
571.903	7293.81
572.265	7305.33
572.626	7325.89
572.987	7362.5
573.349	7435.04
573.71	7440.24
574.071	7531.77
574.432	7514.36
574.794	7683.63
575.155	7640.01
575.516	7671.65
575.877	7729.95
576.238	7793.45
576.599	7920.23
576.96	7949.16
577.32	8004.3
577.681	8082.94
578.042	8209.26
578.403	8183.27
578.763	8305.08
579.124	8402.02
579.485	8459.65
579.845	8616.71
580.206	8678.85
580.566	8783.03
580.927	8921.56
581.287	9028.68
581.648	9117.26
582.008	9214.66
582.368	9380.08
582.728	9489.45
583.089	9627.3
583.449	9788.43
583.809	9899.84
584.169	10110.91
584.529	10266.16
584.889	10493.04
585.249	10575.08
585.609	10721.29
585.969	10961.51
586.329	11127.6
586.688	11341.61
587.048	11583.41
587.408	11722.62
587.768	11904.76
588.127	12221.59
588.487	12339.1
588.846	12679.43
589.206	12817.5
589.565	13064.95
589.925	13388.11
590.284	13609.12
590.643	13794.88
591.003	14112.84
591.362	14391.47
591.721	14604.57
592.08	14849.99
592.44	15107.16
592.799	15442.74
593.158	15672.57
593.517	16003.41
593.876	16251.76
594.235	16501.7
594.593	16826.66
594.952	17190.27
595.311	17309.36
595.67	17731.72
596.029	17975.78
596.387	18317.47
596.746	18590.01
597.104	18799.04
597.463	19107.05
597.822	19445.58
598.18	19704.33
598.538	19945.45
598.897	20320.81
599.255	20406.45
599.613	21044.86
599.972	21128.24
600.33	21530.27
600.688	21548.35
601.046	22029.01
601.404	22422.22
601.762	22527.08
602.12	22906.5
602.478	23167.29
602.836	23486.37
603.194	23541.29
603.552	23861.51
603.91	23966.59
604.268	24405.67
604.625	24513.92
604.983	24934.92
605.341	25058.99
605.698	25399.32
606.056	25718.86
606.413	25952.98
606.771	26097.38
607.128	26294.44
607.485	26521.32
607.843	26744.14
608.2	27053.74
608.557	27298.48
608.914	27428.19
609.272	27728.52
609.629	28128.96
609.986	28284.44
610.343	28347.26
610.7	28792.45
611.057	28825.44
611.414	29027.7
611.771	29217.3
612.127	29546.33
612.484	29644.4
612.841	29842.37
613.198	29944.06
613.554	30120.55
613.911	30450.26
614.267	30565.74
614.624	30667.2
614.98	30846.18
615.337	31100.19
615.693	31284.36
616.05	31359.39
616.406	31643.45
616.762	31690.45
617.118	31819.04
617.475	31959.82
617.831	32021.29
618.187	32291.79
618.543	32378.57
618.899	32668.73
619.255	32606.13
619.611	32771.78
619.967	32930.42
620.323	33146.68
620.678	33037.99
621.034	33167.7
621.39	33260.58
621.746	33290.64
622.101	33904.63
622.457	33604.98
622.812	33706.44
623.168	33943.95
623.523	33925.87
623.879	34092.2
624.234	34080.22
624.589	34122.03
624.945	34334.68
625.3	34430.49
625.655	34559.3
626.01	34583.71
626.365	34641.33
626.72	34524.73
627.075	34755.23
627.43	34702.12
627.785	34667.32
628.14	34749.13
628.495	35015.34
628.85	35030.25
629.205	34910.93
629.559	35140.53
629.914	35103.7
630.269	35126.07
630.623	35029.35
630.978	35136.92
631.332	35225.5
631.687	35482.89
632.041	35158.84
632.396	35292.39
632.75	35271.83
633.104	35338.04
633.459	35203.58
633.813	35238.16
634.167	35288.55
634.521	35362.67
634.875	35422.33
635.229	35404.7
635.583	35129.91
635.937	35318.83
636.291	35203.81
636.645	35184.37
636.999	35270.24
637.352	35275.67
637.706	35248.32
638.06	35376
638.413	35266.63
638.767	35350.02
639.121	35337.59
639.474	35118.16
639.828	35212.62
640.181	35278.83
640.534	35230.02
640.888	35262.79
641.241	34987.99
641.594	35162.45
641.947	35279.96
642.301	35133.3
642.654	35331.94
643.007	35306.4
643.36	35171.26
643.713	35161.32
644.066	35366.29
644.419	34992.06
644.771	34777.83
645.124	34462.13
645.477	34443.83
645.83	34227.11
646.182	34168.8
646.535	34149.82
646.888	34129.03
647.24	33970.17
647.593	34171.52
647.945	34101.91
648.298	34018.53
648.65	33883.61
649.002	33849.04
649.355	34009.04
649.707	34034.12
650.059	34152.76
650.411	34487.44
650.763	34532.41
651.115	34958.39
651.467	34808.56
651.819	34823.48
652.171	34779.18
652.523	34732.63
652.875	34685.18
653.227	34479.76
653.578	34782.35
653.93	34704.38
654.282	34627.78
654.633	34563.82
654.985	34649.02
655.337	34600.43
655.688	34535.8
656.039	34626.19
656.391	34496.93
656.742	34384.17
657.094	34442.7
657.445	34561.56
657.796	34527.67
658.147	34435.24
658.498	34416.26
658.849	34505.75
659.2	34479.98
659.551	34268.24
659.902	34496.71
660.253	34368.57
660.604	34429.59
660.955	34325.41
661.306	34472.98
661.656	34440.21
662.007	34402.7
662.358	34476.82
662.708	34225.98
663.059	34367.44
663.409	34152.08
663.76	34287.9
664.11	34356.82
664.461	34282.93
664.811	34416.48
665.161	34359.08
665.511	34298.29
665.862	34401.79
666.212	34348.01
666.562	34413.09
666.912	34316.15
667.262	34247.67
667.612	34342.36
667.962	34456.03
668.312	34174.68
668.662	34441.79
669.011	34324.73
669.361	34352.98
669.711	34202.7
670.06	34122.03
670.41	34057.17
670.76	34165.64
671.109	34041.12
671.459	34166.55
671.808	34042.93
672.157	34139.2
672.507	34023.5
672.856	33927.46
673.205	34043.16
673.554	34148.69
673.904	33943.5
674.253	34226.2
674.602	34084.06
674.951	33555.94
675.3	33524.53
675.649	34052.42
675.998	33926.33
676.346	33877.74
676.695	33997.74
677.044	33825.09
677.393	33896.72
677.741	33894.24
678.09	33829.15
678.438	33798.19
678.787	33819.44
679.135	33755.26
679.484	33662.38
679.832	33720.46
680.181	33623.96
680.529	33582.83
680.877	33486.11
681.225	33504.87
681.573	33761.81
681.922	33352.56
682.27	33380.58
682.618	33411.54
682.966	33346.91
683.314	33358.88
683.661	33255.61
684.009	32990.76
684.357	33062.85
684.705	33051.09
685.053	33060.59
685.4	32920.02
685.748	32853.59
686.095	32805.22
686.443	32662.18
686.79	32741.72
687.138	32710.09
687.485	32754.15
687.832	32498.11
688.18	32624.44
688.527	32537.89
688.874	32421.73
689.221	32467.15
689.568	32327.72
689.915	32232.13
690.262	32134.06
690.609	32141.97
690.956	32073.94
691.303	31948.3
691.65	31802.31
691.997	31884.57
692.344	31639.38
692.69	31693.16
693.037	31686.16
693.383	31369.33
693.73	31529.78
694.077	31222.67
694.423	31369.56
694.769	31246.62
695.116	31158.49
695.462	31152.84
695.808	31040.53
696.155	30970.92
696.501	30887.54
696.847	30822
697.193	30603.25
697.539	30659.07
697.885	30465.85
698.231	30409.81
698.577	30449.58
698.923	30246.2
699.269	30265.86
699.614	30033.32
699.96	29937.28
700.306	29921.01
700.651	29895.92
700.997	29884.85
701.342	29761.92
701.688	29844.62
702.033	29704.52
702.379	29660.67
702.724	29489.61
703.069	29629.04
703.415	29253.68
703.76	29330.97
704.105	29234.25
704.45	29121.03
704.795	28950.19
705.14	28994.93
705.485	28878.55
705.83	28799.45
706.175	28976.4
706.52	28792.22
706.865	28651.44
707.209	28585.67
707.554	28422.74
707.899	28618.22
708.243	28392.23
708.588	28441.95
708.932	28196.98
709.277	28169.64
709.621	28188.85
709.966	28036.54
710.31	28012.81
710.654	27914.51
710.998	27985.24
711.342	27933.94
711.687	27793.61
712.031	27742.08
712.375	27558.13
712.719	27563.55
713.063	27595.19
713.407	27654.4
713.75	27565.59
714.094	27486.95
714.438	27452.37
714.782	27334.86
715.125	27254.41
715.469	27253.51
715.812	27163.34
716.156	27079.05
716.499	27088.77
716.843	27154.07
717.186	26840.18
717.53	27024.59
717.873	27026.39
718.216	26889.45
718.559	26729.23
718.902	26772.62
719.246	26709.34
719.589	26690.58
719.932	26470.25
720.275	26500.31
720.617	26451.49
720.96	26409.01
721.303	26413.3
721.646	26373.08
721.989	26300.99
722.331	26251.95
722.674	26171.05
723.016	26249.47
723.359	26174.21
723.701	26291.05
724.044	26007.89
724.386	25857.84
724.729	26027.78
725.071	25966.08
725.413	25947.78
725.755	25888.34
726.097	25766.99
726.439	25620.56
726.782	25647.22
727.124	25846.99
727.465	25538.98
727.807	25550.95
728.149	25531.29
728.491	25531.97
728.833	25554.57
729.175	25388.7
729.516	25494.23
729.858	25319.32
730.199	25355.93
730.541	25323.84
730.882	25195.48
731.224	25455.59
731.565	25185.76
731.906	25146.22
732.248	25145.54
732.589	25010.4
732.93	24923.4
733.271	24991.87
733.612	25007.69
733.953	24949.16
734.294	24889.27
734.635	24854.7
734.976	25001.81
735.317	24744.42
735.658	24741.93
735.999	24732.89
736.339	24624.2
736.68	24743.74
737.021	24665.1
737.361	24581.03
737.702	24670.52
738.042	24683.86
738.383	24490.87
738.723	24567.48
739.063	24357.76
739.404	24462.85
739.744	24397.76
740.084	24338.1
740.424	24335.84
740.764	24179.92
741.104	24257.2
741.444	24056.98
741.784	24108.05
742.124	24119.13
742.464	24042.74
742.804	24049.97
743.143	24041.39
743.483	23912.35
743.823	23849.98
744.162	23867.61
744.502	23876.19
744.841	23826.25
745.181	23869.41
745.52	23673.49
745.86	23818.57
746.199	23665.13
746.538	23659.48
746.877	23731.57
747.216	23686.14
747.556	23588.52
747.895	23573.38
748.234	23480.72
748.573	23507.39
748.911	23576.54
749.25	23537.67
749.589	23309.2
749.928	23359.37
750.267	23381.97
750.605	23273.27
750.944	23291.12
751.283	23239.15
751.621	23266.72
751.96	23078.93
752.298	23034.86
752.636	23108.3
752.975	22876.22
753.313	22914.86
753.651	22965.03
753.989	22794.64
754.327	22922.32
754.666	22662.89
755.004	22735.43
755.342	22712.38
755.679	22697.24
756.017	22567.53
756.355	22695.66
756.693	22466.51
757.031	22582.44
757.368	22395.33
757.706	22409.79
758.044	22386.74
758.381	22301.09
758.719	22250.02
759.056	22337.48
759.394	22118.73
759.731	22100.42
760.068	22022.46
760.405	22076.24
760.743	21856.59
