Data from hue_340_FLMS001491_74.txt Node
Date: Mon Feb 06 15:43:34 GMT 2017
User: dcchb
Spectrometer: FLMS00149
Trigger mode: 0
Integration Time (sec): 2.000000E-2
Scans to average: 10
Electric dark correction enabled: true
Nonlinearity correction enabled: false
Boxcar width: 0
XAxis mode: Wavelengths
Number of Pixels in Spectrum: 2048
>>>>>Begin Spectral Data<<<<<
341.393	-34.52
341.776	-34.52
342.16	-34.52
342.543	-66.83
342.927	-57.8
343.31	-74.74
343.693	-65.03
344.077	-70.45
344.46	-44.01
344.843	-67.29
345.226	-41.07
345.61	-32.49
345.993	-9.89
346.376	-7.17
346.759	10.45
347.142	28.08
347.525	36.89
347.908	73.05
348.291	73.95
348.674	83.22
349.057	106.49
349.44	106.04
349.823	140.62
350.206	174.74
350.588	205.25
350.971	218.13
351.354	241.86
351.737	216.77
352.119	233.72
352.502	263.1
352.884	259.48
353.267	273.04
353.65	289.31
354.032	289.09
354.414	289.31
354.797	293.38
355.179	323.66
355.562	334.06
355.944	304
356.326	345.13
356.709	322.99
357.091	331.12
357.473	331.35
357.855	344.45
358.238	334.96
358.62	342.65
359.002	332.03
359.384	349.2
359.766	346.94
360.148	352.36
360.53	337
360.912	337.67
361.294	314.4
361.676	323.66
362.057	315.08
362.439	331.57
362.821	352.59
363.203	334.96
363.584	341.97
363.966	320.95
364.348	341.52
364.729	317.11
365.111	316.21
365.493	316.88
365.874	324.79
366.256	320.73
366.637	312.59
367.019	327.28
367.4	308.52
367.781	302.2
368.163	310.78
368.544	301.97
368.925	303.33
369.306	324.34
369.688	302.42
370.069	325.25
370.45	303.33
370.831	294.29
371.212	306.04
371.593	329.09
371.974	311.91
372.355	325.02
372.736	300.84
373.117	316.43
373.498	318.47
373.879	307.62
374.26	286.6
374.641	315.98
375.021	314.4
375.402	327.51
375.783	313.72
376.163	325.02
376.544	336.09
376.925	312.14
377.305	325.7
377.686	346.71
378.066	318.24
378.447	332.48
378.827	303.55
379.208	305.13
379.588	311.69
379.968	317.34
380.349	331.35
380.729	334.96
381.109	334.28
381.489	336.77
381.87	371.35
382.25	316.43
382.63	334.51
383.01	331.57
383.39	342.19
383.77	347.84
384.15	348.97
384.53	351.46
384.91	347.62
385.29	350.56
385.67	346.94
386.049	350.56
386.429	356.88
386.809	348.07
387.189	351.91
387.568	366.15
387.948	344
388.328	367.28
388.707	362.08
389.087	355.08
389.466	353.27
389.846	345.81
390.225	350.1
390.605	372.7
390.984	351.69
391.363	342.19
391.743	372.93
392.122	378.58
392.501	383.55
392.881	351.91
393.26	362.76
393.639	365.92
394.018	361.63
394.397	378.13
394.776	362.08
395.155	374.06
395.534	394.62
395.913	373.61
396.292	388.29
396.671	390.55
397.05	387.39
397.429	407.05
397.808	400.95
398.186	377.9
398.565	390.1
398.944	386.49
399.323	377.9
399.701	396.2
400.08	410.22
400.458	403.89
400.837	408.41
401.215	397.56
401.594	378.8
401.972	404.57
402.351	411.57
402.729	383.32
403.107	409.76
403.486	413.83
403.864	406.15
404.242	426.49
404.62	388.07
404.999	417.22
405.377	421.06
405.755	420.16
406.133	428.97
406.511	438.46
406.889	455.86
407.267	467.84
407.645	435.75
408.023	433.27
408.401	438.69
408.779	449.08
409.156	457.45
409.534	462.42
409.912	454.96
410.29	472.13
410.667	439.82
411.045	465.58
411.422	456.32
411.8	466.03
412.178	468.07
412.555	493.6
412.933	496.31
413.31	499.7
413.687	504
414.065	493.15
414.442	523.43
414.819	506.48
415.197	506.71
415.574	531.57
415.951	543.32
416.328	531.12
416.705	520.49
417.082	538.57
417.46	555.75
417.837	541.74
418.214	551.45
418.591	569.76
418.967	548.74
419.344	553.04
419.721	554.17
420.098	561.85
420.475	568.4
420.852	554.84
421.228	585.35
421.605	586.26
421.982	596.2
422.358	580.83
422.735	614.5
423.111	612.7
423.488	605.24
423.864	620.15
424.241	618.12
424.617	648.18
424.994	632.13
425.37	629.87
425.746	619.02
426.123	653.15
426.499	639.36
426.875	659.93
427.251	662.41
427.627	678.23
428.003	652.02
428.379	700.6
428.756	689.76
429.132	714.84
429.507	691.56
429.883	691.79
430.259	714.84
430.635	715.52
431.011	730.21
431.387	724.33
431.763	743.09
432.138	755.06
432.514	780.15
432.89	768.85
433.265	785.35
433.641	787.83
434.016	783.09
434.392	798
434.767	826.25
435.143	822.41
435.518	821.5
435.894	815.85
436.269	831
436.644	826.48
437.02	831.45
437.395	834.38
437.77	872.8
438.145	865.8
438.52	860.15
438.895	887.26
439.271	870.99
439.646	897.21
440.021	892.69
440.395	904.89
440.77	910.09
441.145	895.85
441.52	884.55
441.895	917.55
442.27	893.82
442.645	913.03
443.019	941.5
443.394	929.75
443.769	954.16
444.143	945.57
444.518	964.55
444.892	964.1
445.267	976.98
445.641	981.95
446.016	985.57
446.39	980.37
446.764	968.62
447.139	987.6
447.513	1005
447.887	1018.79
448.262	991.22
448.636	1011.1
449.01	1038
449.384	1049.52
449.758	1046.36
450.132	1052.91
450.506	1064.21
450.88	1044.1
451.254	1055.4
451.628	1020.82
452.002	1081.16
452.376	1068.05
452.75	1056.75
453.123	1074.83
453.497	1111.21
453.871	1098.56
454.244	1084.55
454.618	1147.82
454.992	1122.51
455.365	1143.76
455.739	1138.78
456.112	1136.3
456.486	1138.56
456.859	1173.58
457.232	1188.95
457.606	1183.3
457.979	1198.22
458.352	1206.8
458.725	1226.46
459.099	1229.85
459.472	1237.31
459.845	1239.8
460.218	1281.38
460.591	1290.42
460.964	1263.98
461.337	1289.97
461.71	1310.53
462.083	1331.77
462.456	1327.25
462.829	1351.89
463.201	1343.75
463.574	1355.5
463.947	1345.56
464.32	1396.4
464.692	1408.61
465.065	1397.99
465.438	1445.67
465.81	1436.85
466.183	1478.66
466.555	1484.09
466.928	1487.7
467.3	1461.71
467.672	1498.1
468.045	1544.65
468.417	1559.34
468.789	1532.9
469.161	1550.98
469.534	1581.48
469.906	1604.76
470.278	1607.25
470.65	1664.87
471.022	1658.09
471.394	1684.31
471.766	1703.74
472.138	1721.14
472.51	1755.72
472.882	1792.33
473.253	1771.31
473.625	1836.84
473.997	1823.06
474.369	1821.7
474.74	1855.37
475.112	1895.83
475.484	1930.18
475.855	1937.63
476.227	1981.47
476.598	1995.48
476.97	2044.3
477.341	2054.24
477.713	2060.57
478.084	2113
478.455	2164.29
478.827	2202.26
479.198	2224.63
479.569	2247
479.94	2325.42
480.311	2345.08
480.682	2371.52
481.053	2418.98
481.424	2452.87
481.795	2449.94
482.166	2494.45
482.537	2524.51
482.908	2563.15
483.279	2602.47
483.65	2611.97
484.021	2672.08
484.391	2703.94
484.762	2743.26
485.133	2744.84
485.503	2812.64
485.874	2844.73
486.244	2907.1
486.615	2923.14
486.985	2939.87
487.356	3001.56
487.726	3047.21
488.097	3113.87
488.467	3104.38
488.837	3161.33
489.207	3192.29
489.578	3202.91
489.948	3233.64
490.318	3295.34
490.688	3293.76
491.058	3356.13
491.428	3369.46
491.798	3465.5
492.168	3452.62
492.538	3516.57
492.908	3528.78
493.278	3634.76
493.648	3592.5
494.017	3648.1
494.387	3657.36
494.757	3694.2
495.126	3753.86
495.496	3747.75
495.866	3756.12
496.235	3812.39
496.605	3820.75
496.974	3845.61
497.344	3895.32
497.713	3928.99
498.082	3945.26
498.452	3959.27
498.821	4019.84
499.19	3989.56
499.559	4064.13
499.928	4048.31
500.298	4079.27
500.667	4127.18
501.036	4114.75
501.405	4135.09
501.774	4164.01
502.143	4202.43
502.512	4228.65
502.88	4251.7
503.249	4259.83
503.618	4263.9
503.987	4277.91
504.356	4307.06
504.724	4280.4
505.093	4324.46
505.462	4342.77
505.83	4312.03
506.199	4378.02
506.567	4419.6
506.936	4445.14
507.304	4493.5
507.672	4495.31
508.041	4525.59
508.409	4568.3
508.777	4568.3
509.145	4571.69
509.514	4547.51
509.882	4637
510.25	4655.3
510.618	4614.62
510.986	4692.36
511.354	4673.83
511.722	4714.06
512.09	4744.34
512.458	4716.99
512.826	4745.92
513.193	4781.85
513.561	4754.28
513.929	4855.07
514.297	4906.82
514.664	4855.52
515.032	4878.35
515.4	4898.68
515.767	4917.22
516.135	4926.93
516.502	4901.85
516.869	4989.98
517.237	4978.46
517.604	4982.52
517.972	5008.29
518.339	5047.61
518.706	5096.19
519.073	5112.92
519.44	5066.14
519.808	5117.21
520.175	5067.95
520.542	5155.85
520.909	5219.13
521.276	5196.3
521.643	5182.07
522.009	5235.85
522.376	5290.09
522.743	5292.57
523.11	5323.53
523.477	5389.29
523.843	5357.43
524.21	5407.6
524.577	5434.04
524.943	5452.12
525.31	5465.22
525.676	5502.51
526.043	5547.71
526.409	5537.54
526.776	5618.67
527.142	5639
527.508	5668.61
527.874	5709.06
528.241	5681.04
528.607	5736.18
528.973	5747.48
529.339	5817.76
529.705	5794.25
530.071	5855.72
530.437	5882.61
530.803	5879
531.169	5913.12
531.535	5936.4
531.901	5968.49
532.267	6028.37
532.632	6016.17
532.998	6052.55
533.364	6089.16
533.73	6087.35
534.095	6150.18
534.461	6163.96
534.826	6153.12
535.192	6228.14
535.557	6284.19
535.923	6262.04
536.288	6253.45
536.653	6349.04
537.019	6331.64
537.384	6327.8
537.749	6424.52
538.114	6387.91
538.479	6424.97
538.845	6461.58
539.21	6427.01
539.575	6521.47
539.94	6538.64
540.305	6586.1
540.67	6583.16
541.034	6638.98
541.399	6623.39
541.764	6607.57
542.129	6713.55
542.494	6725.53
542.858	6714.68
543.223	6766.66
543.587	6802.59
543.952	6845.53
544.316	6878.97
544.681	6867.45
545.045	6875.81
545.41	6903.15
545.774	7009.14
546.138	6961
546.503	6933.66
546.867	6977.95
547.231	7059.98
547.595	7076.25
547.959	7153.54
548.324	7164.61
548.688	7145.86
549.052	7158.74
549.416	7167.1
549.779	7233.31
550.143	7245.97
550.507	7230.6
550.871	7315.57
551.235	7263.37
551.599	7373.2
551.962	7384.04
552.326	7395.34
552.689	7398.96
553.053	7392.4
553.417	7458.62
553.78	7495.23
554.143	7476.7
554.507	7532.74
554.87	7551.04
555.234	7617.94
555.597	7563.47
555.96	7563.47
556.323	7653.87
556.686	7626.07
557.05	7651.61
557.413	7694.54
557.776	7717.14
558.139	7786.07
558.502	7822.9
558.865	7877.36
559.228	7832.39
559.59	7892.05
559.953	7918.72
560.316	8009.34
560.679	7954.65
561.041	7981.09
561.404	8056.34
561.767	8090.24
562.129	8021.77
562.492	8108.77
562.854	8116.68
563.217	8137.02
563.579	8158.49
563.941	8268.54
564.304	8272.61
564.666	8271.25
565.028	8341.53
565.39	8327.52
565.753	8355.77
566.115	8377.46
566.477	8427.41
566.839	8415.43
567.201	8533.39
567.563	8495.65
567.925	8553.28
568.287	8569.55
568.648	8565.03
569.01	8652.94
569.372	8684.12
569.734	8718.47
570.095	8799.37
570.457	8777.68
570.819	8840.73
571.18	8815.64
571.542	8914.17
571.903	8940.39
572.265	8999.14
572.626	9059.93
572.987	9078.91
573.349	9119.59
573.71	9211.57
574.071	9154.84
574.432	9218.35
574.794	9374.27
575.155	9416.76
575.516	9429.41
575.877	9459.69
576.238	9586.7
576.599	9643.87
576.96	9700.37
577.32	9786.69
577.681	9861.27
578.042	9934.71
578.403	10035.5
578.763	10093.58
579.124	10085.67
579.485	10261.48
579.845	10429.84
580.206	10439.1
580.566	10518.42
580.927	10633.68
581.287	10844.74
581.648	10907.11
582.008	11028.02
582.368	11196.37
582.728	11330.83
583.089	11462.13
583.449	11664.83
583.809	11838.84
584.169	11963.58
584.529	12126.07
584.889	12347.53
585.249	12476.34
585.609	12602.66
585.969	12865.48
586.329	13030
586.688	13244.91
587.048	13538.23
587.408	13680.6
587.768	13842.4
588.127	14027.26
588.487	14295.5
588.846	14598.09
589.206	14762.83
589.565	14970.51
589.925	15258.64
590.284	15482.14
590.643	15762.58
591.003	16083.02
591.362	16308.1
591.721	16578.6
592.08	16920.52
592.44	17190.79
592.799	17414.51
593.158	17634.62
593.517	17959.58
593.876	18277.99
594.235	18524.77
594.593	18709.17
594.952	19058.31
595.311	19281.58
595.67	19632.53
596.029	19984.62
596.387	20294.44
596.746	20535.11
597.104	20756.8
597.463	21083.12
597.822	21437.46
598.18	21613.27
598.538	21940.04
598.897	22315.85
599.255	22442.18
599.613	23014.82
599.972	23145.66
600.33	23423.62
600.688	23541.36
601.046	23925.3
601.404	24300.89
601.762	24556.47
602.12	24916.24
602.478	25069.91
602.836	25375.89
603.194	25575.66
603.552	25767.06
603.91	25970.67
604.268	26376.31
604.625	26561.62
604.983	26893.59
605.341	26996.86
605.698	27447.7
606.056	27655.37
606.413	27829.83
606.771	28120.22
607.128	28402.47
607.485	28442.25
607.843	28745.06
608.2	28981.67
608.557	29323.13
608.914	29387.31
609.272	29777.8
609.629	29973.51
609.986	30328.52
610.343	30345.7
610.7	30755.41
611.057	30878.79
611.414	30982.07
611.771	31209.63
612.127	31519
612.484	31599.68
612.841	31805.77
613.198	31831.08
613.554	31920.8
613.911	32416.15
614.267	32537.51
614.624	32642.81
614.98	32748.12
615.337	33202.8
615.693	33150.15
616.05	33143.37
616.406	33588.78
616.762	33639.85
617.118	33644.6
617.475	33956.23
617.831	34080.29
618.187	34229.44
618.543	34369.77
618.899	34693.16
619.255	34660.84
619.611	34759.82
619.967	35093.15
620.323	35122.52
620.678	35147.15
621.034	35197.1
621.39	35375.17
621.746	35386.92
622.101	35788.95
622.457	35649.51
622.812	35759.79
623.168	35954.37
623.523	36091.08
623.879	36161.59
624.234	36112.55
624.589	36250.18
624.945	36326.78
625.3	36608.81
625.655	36548.47
626.01	36656.27
626.365	36729.49
626.72	36832.08
627.075	36822.82
627.43	36816.72
627.785	36960.44
628.14	37037.05
628.495	36974
628.85	37083.83
629.205	37161.11
629.559	37359.75
629.914	37258.06
630.269	37273.2
630.623	37190.49
630.978	37162.92
631.332	37390.71
631.687	37497.83
632.041	37422.35
632.396	37504.61
632.75	37390.03
633.104	37504.16
633.459	37472.52
633.813	37425.51
634.167	37454.44
634.521	37441.11
634.875	37586.19
635.229	37399.75
635.583	37279.53
635.937	37354.1
636.291	37384.38
636.645	37359.98
636.999	37349.81
637.352	37611.5
637.706	37393.65
638.06	37611.27
638.413	37473.2
638.767	37331.73
639.121	37465.74
639.474	37240.21
639.828	37265.07
640.181	37262.35
640.534	37363.37
640.888	37291.73
641.241	37232.07
641.594	37294.22
641.947	37369.92
642.301	37380.09
642.654	37391.39
643.007	37483.36
643.36	37309.58
643.713	37326.31
644.066	37440.88
644.419	37325.18
644.771	37151.4
645.124	36684.97
645.477	36649.26
645.83	36385.31
646.182	36343.96
646.535	36336.73
646.888	36307.8
647.24	36161.59
647.593	36375.37
647.945	36347.12
648.298	36112.78
648.65	36083.63
649.002	36046.57
649.355	36184.87
649.707	36050.63
650.059	36195.04
650.411	36724.06
650.763	36738.07
651.115	37131.74
651.467	37064.39
651.819	36929.25
652.171	36863.95
652.523	36818.98
652.875	36932.64
653.227	36825.08
653.578	36997.05
653.93	37018.52
654.282	36724.74
654.633	36605.87
654.985	36825.08
655.337	36759.99
655.688	36666.66
656.039	36835.7
656.391	36617.17
656.742	36574.91
657.094	36623.95
657.445	36713.22
657.796	36700.33
658.147	36654.46
658.498	36654.46
658.849	36738.75
659.2	36678.41
659.551	36643.16
659.902	36556.16
660.253	36658.98
660.604	36793.44
660.955	36457.4
661.306	36619.66
661.656	36476.84
662.007	36512.09
662.358	36598.19
662.708	36559.55
663.059	36631.86
663.409	36393
663.76	36659.66
664.11	36454.69
664.461	36635.03
664.811	36637.51
665.161	36508.7
665.511	36294.02
665.862	36458.08
666.212	36506.67
666.562	36658.98
666.912	36486.33
667.262	36431.64
667.612	36526.1
667.962	36523.84
668.312	36256.96
668.662	36691.75
669.011	36464.18
669.361	36423.73
669.711	36315.94
670.06	36324.3
670.41	36334.47
670.76	36413.11
671.109	36366.56
671.459	36383.51
671.808	36296.05
672.157	36393.9
672.507	36211.53
672.856	36147.58
673.205	36262.83
673.554	36368.82
673.904	36141.25
674.253	36267.35
674.602	36299.89
674.951	35693.13
675.3	35470.76
675.649	36084.53
675.998	36013.35
676.346	35993.01
676.695	36223.74
677.044	35998.21
677.393	36016.96
677.741	35979.9
678.09	35972.67
678.438	35937.64
678.787	35922.95
679.135	36005.21
679.484	35740.13
679.832	35858.77
680.181	35657.2
680.529	35870.07
680.877	35783.52
681.225	35727.03
681.573	35826.46
681.922	35624.88
682.27	35552.79
682.618	35466.02
682.966	35475.96
683.314	35430.76
683.661	35439.8
684.009	35340.37
684.357	35200.49
684.705	35135.63
685.053	35187.38
685.4	35021.28
685.748	34994.62
686.095	34968.4
686.443	34640.05
686.79	34772.93
687.138	34909.42
687.485	34819.03
687.832	34760.72
688.18	34788.07
688.527	34553.05
688.874	34367.29
689.221	34505.59
689.568	34414.97
689.915	34348.31
690.262	34210.46
690.609	34186.95
690.956	33922.78
691.303	34076.9
691.65	33817.47
691.997	33854.31
692.344	33741.54
692.69	33795.1
693.037	33796.46
693.383	33414.32
693.73	33518.95
694.077	33380.2
694.423	33408.22
694.769	33326.86
695.116	33090.26
695.462	33185.17
695.808	33067.44
696.155	33092.29
696.501	32791.74
696.847	32838.97
697.193	32596.04
697.539	32797.84
697.885	32574.57
698.231	32480.78
698.577	32449.15
698.923	32397.62
699.269	32239.43
699.614	32088.48
699.96	32102.26
700.306	32055.48
700.651	31905.21
700.997	31758.77
701.342	31817.98
701.688	31784.98
702.033	31627.02
702.379	31648.94
702.724	31502.28
703.069	31433.13
703.415	31209.63
703.76	31263.19
704.105	31167.82
704.45	31276.75
704.795	31101.61
705.14	30866.36
705.485	30834.5
705.83	30776.2
706.175	30790.43
706.52	30635.86
706.865	30682.19
707.209	30589.08
707.554	30453.72
707.899	30638.35
708.243	30390.9
708.588	30324.68
708.932	30161.75
709.277	30184.12
709.621	30073.16
709.966	29973.51
710.31	30092.15
710.654	29696.9
710.998	29754.75
711.342	29802.66
711.687	29700.97
712.031	29591.37
712.375	29405.16
712.719	29582.1
713.063	29515.44
713.407	29551.37
713.75	29346.63
714.094	29427.31
714.438	29232.28
714.782	29212.62
715.125	29138.27
715.469	29104.38
715.812	28898.96
716.156	28837.94
716.499	28920.2
716.843	28968.56
717.186	28707.32
717.53	28878.62
717.873	28790.03
718.216	28654.44
718.559	28568.34
718.902	28471.4
719.246	28470.72
719.589	28260.78
719.932	28234.12
720.275	28323.83
720.617	28239.31
720.96	28215.13
721.303	28199.99
721.646	28222.59
721.989	27908.93
722.331	28089.94
722.674	27992.31
723.016	28071.63
723.359	27847.01
723.701	27969.26
724.044	27698.99
724.386	27763.39
724.729	27677.52
725.071	27706.9
725.413	27755.71
725.755	27563.63
726.097	27429.17
726.439	27417.19
726.782	27415.15
727.124	27565.21
727.465	27362.95
727.807	27404.53
728.149	27294.03
728.491	27247.7
728.833	27301.49
729.175	27162.73
729.516	27163.86
729.858	27032.34
730.199	27215.39
730.541	27254.48
730.882	26964.55
731.224	27167.25
731.565	26885.9
731.906	26813.36
732.248	26908.95
732.589	26837.09
732.93	26692.24
733.271	26600.04
733.612	26646.81
733.953	26717.55
734.294	26591.67
734.635	26425.12
734.976	26539.02
735.317	26400.94
735.658	26312.58
735.999	26457.21
736.339	26404.79
736.68	26360.72
737.021	26327.27
737.361	26105.36
737.702	26348.52
738.042	26198.01
738.383	26139.93
738.723	26288.86
739.063	26149.65
739.404	26042.99
739.744	26123.89
740.084	25970.45
740.424	25991.69
740.764	25915.99
741.104	26035.53
741.444	25764.35
741.784	25829.66
742.124	25797.57
742.464	25852.94
742.804	25835.76
743.143	25648.65
743.483	25654.98
743.823	25528.65
744.162	25555.32
744.502	25581.53
744.841	25412.5
745.181	25523.91
745.52	25370.24
745.86	25502.89
746.199	25394.64
746.538	25409.11
746.877	25384.93
747.216	25319.16
747.556	25259.28
747.895	25217.7
748.234	25119.85
748.573	25059.74
748.911	25043.01
749.25	25106.74
749.589	24912.17
749.928	24951.72
750.267	24938.38
750.605	24959.17
750.944	24760.99
751.283	24692.06
751.621	24828.1
751.96	24657.26
752.298	24655.68
752.636	24625.17
752.975	24597.15
753.313	24468.57
753.651	24562.57
753.989	24329.81
754.327	24349.7
754.666	24283.71
755.004	24315.12
755.342	24338.4
755.679	24208.69
756.017	24031.29
756.355	24085.98
756.693	23931.18
757.031	24029.48
757.368	23877.85
757.706	23879.88
758.044	23747.23
758.381	23881.46
758.719	23710.17
759.056	23788.36
759.394	23653.9
759.731	23633.56
760.068	23477.41
760.405	23326
760.743	23332.78
