Data from hue_22_FLMS001491_00046.txt Node
Date: Tue Feb 07 17:10:11 GMT 2017
User: dcchb
Spectrometer: FLMS00149
Trigger mode: 0
Integration Time (sec): 2.000000E-2
Scans to average: 10
Electric dark correction enabled: true
Nonlinearity correction enabled: false
Boxcar width: 0
XAxis mode: Wavelengths
Number of Pixels in Spectrum: 2048
>>>>>Begin Spectral Data<<<<<
341.393	-5.04
341.776	-5.04
342.16	-5.04
342.543	-64.48
342.927	-73.29
343.31	-61.09
343.693	-74.42
344.077	-71.93
344.46	-72.61
344.843	-64.25
345.226	-52.5
345.61	-22.22
345.993	-18.6
346.376	-8.21
346.759	29.08
347.142	25.47
347.525	39.25
347.908	82.41
348.291	78.12
348.674	92.58
349.057	98.91
349.44	116.99
349.823	139.59
350.206	164.9
350.588	183.2
350.971	184.11
351.354	243.76
351.737	232.69
352.119	245.35
352.502	242.63
352.884	248.28
353.267	283.54
353.65	303.2
354.032	303.88
354.414	324.89
354.797	309.98
355.179	337.77
355.562	318.79
355.944	311.79
356.326	306.36
356.709	309.75
357.091	348.85
357.473	346.36
357.855	335.29
358.238	332.12
358.62	337.1
359.002	345.01
359.384	327.83
359.766	331.45
360.148	335.51
360.53	345.01
360.912	316.08
361.294	348.17
361.676	348.17
362.057	347.94
362.439	343.88
362.821	329.64
363.203	323.99
363.584	331.22
363.966	331.9
364.348	314.95
364.729	326.47
365.111	323.99
365.493	326.25
365.874	302.97
366.256	312.46
366.637	306.81
367.019	328.28
367.4	335.06
367.781	326.47
368.163	321.5
368.544	298.68
368.925	339.81
369.306	324.89
369.688	319.92
370.069	303.65
370.45	328.28
370.831	312.92
371.212	310.88
371.593	298.23
371.974	309.98
372.355	298.68
372.736	308.62
373.117	303.88
373.498	333.25
373.879	306.36
374.26	321.73
374.641	286.7
375.021	309.07
375.402	332.58
375.783	330.77
376.163	351.33
376.544	328.96
376.925	319.24
377.305	327.83
377.686	324.21
378.066	342.07
378.447	330.32
378.827	351.78
379.208	346.81
379.588	329.86
379.968	333.25
380.349	344.55
380.729	344.78
381.109	342.97
381.489	343.2
381.87	334.16
382.25	342.07
382.63	344.55
383.01	352.46
383.39	344.33
383.77	334.38
384.15	342.29
384.53	347.26
384.91	373.7
385.29	340.03
385.67	342.07
386.049	351.33
386.429	343.65
386.809	366.7
387.189	332.58
387.568	358.11
387.948	360.15
388.328	350.65
388.707	340.71
389.087	338.45
389.466	357.21
389.846	371.9
390.225	360.37
390.605	360.6
390.984	352.01
391.363	363.99
391.743	369.64
392.122	371.22
392.501	372.57
392.881	391.11
393.26	375.51
393.639	378.68
394.018	359.47
394.397	357.66
394.776	352.01
395.155	374.38
395.534	383.87
395.913	374.16
396.292	394.72
396.671	374.16
397.05	382.52
397.429	391.33
397.808	396.98
398.186	388.17
398.565	407.38
398.944	381.61
399.323	396.76
399.701	413.03
400.08	385.91
400.458	389.75
400.837	413.93
401.215	392.91
401.594	412.35
401.972	401.95
402.351	412.12
402.729	395.17
403.107	401.73
403.486	419.81
403.864	414.83
404.242	410.31
404.62	403.08
404.999	429.97
405.377	427.71
405.755	412.35
406.133	413.7
406.511	408.28
406.889	433.59
407.267	427.49
407.645	450.09
408.023	434.95
408.401	444.89
408.779	419.58
409.156	441.95
409.534	434.95
409.912	439.69
410.29	448.96
410.667	458.45
411.045	462.74
411.422	425.45
411.8	469.52
412.178	466.13
412.555	458.67
412.933	459.13
413.31	467.04
413.687	483.31
414.065	467.49
414.442	461.84
414.819	459.58
415.197	469.07
415.574	490.54
415.951	468.84
416.328	491.22
416.705	464.78
417.082	495.06
417.46	477.43
417.837	481.72
418.214	490.54
418.591	519.92
418.967	499.8
419.344	493.48
419.721	515.62
420.098	495.96
420.475	529.86
420.852	520.82
421.228	517.88
421.605	523.31
421.982	531.21
422.358	521.27
422.735	525.79
423.111	526.24
423.488	549.75
423.864	557.88
424.241	552.91
424.617	548.16
424.994	519.24
425.37	550.42
425.746	530.31
426.123	560.14
426.499	550.42
426.875	550.42
427.251	578.45
427.627	586.35
428.003	553.81
428.379	593.13
428.756	571.44
429.132	594.04
429.507	597.2
429.883	569.18
430.259	603.76
430.635	618.9
431.011	605.79
431.387	607.82
431.763	615.96
432.138	644.88
432.514	654.38
432.89	611.21
433.265	648.73
433.641	653.25
434.016	670.87
434.392	645.11
434.767	675.62
435.143	664.09
435.518	699.8
435.894	685.34
436.269	688.95
436.644	681.72
437.02	697.76
437.395	693.24
437.77	706.35
438.145	696.86
438.52	721.49
438.895	731.66
439.271	738.44
439.646	736.63
440.021	712.9
440.395	731.89
440.77	725.33
441.145	746.35
441.52	769.4
441.895	756.29
442.27	760.59
442.645	754.26
443.019	768.5
443.394	760.59
443.769	778.21
444.143	760.36
444.518	788.61
444.892	766.46
445.267	781.15
445.641	797.87
446.016	766.69
446.39	784.54
446.764	816.86
447.139	820.25
447.513	808.95
447.887	812.34
448.262	808.27
448.636	802.39
449.01	841.04
449.384	815.73
449.758	824.77
450.132	843.52
450.506	851.21
450.88	851.66
451.254	877.19
451.628	850.08
452.002	871.32
452.376	880.36
452.75	876.74
453.123	894.82
453.497	895.73
453.871	902.28
454.244	930.3
454.618	910.87
454.992	942.28
455.365	947.02
455.739	960.36
456.112	970.3
456.486	951.09
456.859	990.86
457.232	984.99
457.606	993.58
457.979	988.15
458.352	995.84
458.725	1000.81
459.099	1008.49
459.472	1046
459.845	1022.95
460.218	1071.31
460.591	1052.56
460.964	1052.11
461.337	1095.95
461.71	1103.18
462.083	1083.97
462.456	1135.94
462.829	1106.57
463.201	1134.14
463.574	1152.89
463.947	1157.19
464.32	1178.66
464.692	1189.95
465.065	1197.41
465.438	1199.22
465.81	1229.28
466.183	1230.18
466.555	1266.34
466.928	1248.71
467.3	1265.88
467.672	1297.52
468.045	1310.63
468.417	1332.78
468.789	1321.25
469.161	1342.04
469.534	1363.28
469.906	1408.25
470.278	1387.69
470.65	1417.97
471.022	1461.36
471.394	1473.34
471.766	1462.72
472.138	1495.94
472.51	1512.88
472.882	1524.86
473.253	1545.65
473.625	1596.05
473.997	1650.06
474.369	1637.17
474.74	1657.51
475.112	1684.4
475.484	1722.37
475.855	1771.18
476.227	1756.72
476.598	1781.58
476.97	1824.74
477.341	1871.29
477.713	1902.48
478.084	1916.94
478.455	1964.17
478.827	1995.36
479.198	2024.06
479.569	2011.4
479.94	2101.12
480.311	2115.81
480.682	2204.84
481.053	2247.78
481.424	2233.54
481.795	2293.65
482.166	2328
482.537	2360.32
482.908	2405.74
483.279	2415.23
483.65	2494.55
484.021	2525.74
484.391	2588.79
484.762	2610.93
485.133	2647.32
485.503	2683.47
485.874	2715.56
486.244	2790.82
486.615	2875.56
486.985	2839.85
487.356	2946.29
487.726	2964.15
488.097	3020.87
488.467	3011.38
488.837	3081.43
489.207	3158.49
489.578	3229.45
489.948	3253.4
490.318	3283.23
490.688	3309.45
491.058	3369.78
491.428	3425.83
491.798	3452.95
492.168	3533.62
492.538	3553.73
492.908	3568.88
493.278	3636.9
493.648	3584.24
494.017	3708.98
494.387	3744.24
494.757	3742.2
495.126	3814.07
495.496	3794.63
495.866	3856.55
496.235	3879.38
496.605	3977.23
496.974	3976.55
497.344	4006.38
497.713	4060.61
498.082	4059.26
498.452	4108.75
498.821	4148.97
499.19	4148.29
499.559	4253.15
499.928	4258.12
500.298	4245.47
500.667	4315.3
501.036	4311.45
501.405	4367.95
501.774	4371.11
502.143	4410.21
502.512	4409.98
502.88	4458.8
503.249	4511.22
503.618	4488.17
503.987	4543.99
504.356	4562.75
504.724	4544.89
505.093	4581.28
505.462	4628.06
505.83	4652.24
506.199	4642.97
506.567	4712.8
506.936	4712.35
507.304	4769.52
507.672	4804.55
508.041	4811.33
508.409	4839.58
508.777	4899.91
509.145	4899.69
509.514	4934.49
509.882	4941.95
510.25	4973.58
510.618	5004.09
510.986	4946.69
511.354	4985.79
511.722	5115.73
512.09	5102.85
512.458	5139.68
512.826	5128.16
513.193	5158.44
513.561	5182.84
513.929	5230.75
514.297	5234.37
514.664	5250.64
515.032	5282.05
515.4	5292.45
515.767	5324.99
516.135	5309.62
516.502	5310.52
516.869	5404.53
517.237	5436.85
517.604	5374.7
517.972	5389.17
518.339	5458.09
518.706	5464.64
519.073	5475.27
519.44	5545.09
519.808	5598.88
520.175	5556.17
520.542	5637.07
520.909	5645.2
521.276	5565.43
521.643	5663.28
522.009	5688.37
522.376	5752.55
522.743	5763.85
523.11	5818.31
523.477	5884.75
523.843	5900.11
524.21	5943.28
524.577	5955.48
524.943	6021.01
525.31	6021.24
525.676	6035.93
526.043	6046.32
526.409	6070.28
526.776	6206.77
527.142	6173.55
527.508	6216.04
527.874	6196.83
528.241	6299.42
528.607	6287.45
528.973	6350.27
529.339	6340.33
529.705	6389.82
530.071	6437.95
530.437	6454.9
530.803	6539.64
531.169	6557.27
531.535	6560.89
531.901	6568.12
532.267	6555.46
532.632	6628.23
532.998	6702.8
533.364	6679.3
533.73	6675.46
534.095	6797.04
534.461	6779.19
534.826	6830.94
535.192	6821.22
535.557	6904.83
535.923	6884.72
536.288	6953.64
536.653	6922.23
537.019	6938.73
537.384	6943.25
537.749	6944.61
538.114	7015.34
538.479	7041.78
538.845	7119.97
539.21	7057.37
539.575	7091.49
539.94	7151.83
540.305	7233.64
540.67	7225.05
541.034	7194.77
541.399	7250.36
541.764	7307.99
542.129	7340.98
542.494	7395.89
542.858	7356.57
543.223	7383.01
543.587	7463.69
543.952	7459.17
544.316	7518.38
544.681	7549.34
545.045	7566.96
545.41	7640.86
545.774	7612.61
546.138	7629.79
546.503	7578.94
546.867	7622.78
547.231	7691.93
547.595	7700.97
547.959	7741.87
548.324	7686.51
548.688	7820.06
549.052	7799.95
549.416	7863.23
549.779	7869.78
550.143	7859.38
550.507	7957.23
550.871	7930.34
551.235	7947.74
551.599	8071.58
551.962	8081.07
552.326	8018.02
552.689	8114.29
553.053	8102.09
553.417	8114.97
553.78	8280.84
554.143	8227.96
554.507	8244.23
554.87	8239.49
555.234	8361.07
555.597	8327.85
555.96	8296.89
556.323	8357.68
556.686	8419.82
557.05	8472.7
557.413	8475.19
557.776	8478.8
558.139	8491.23
558.502	8545.69
558.865	8570.1
559.228	8602.87
559.59	8627.05
559.953	8636.31
560.316	8716.76
560.679	8726.25
561.041	8789.08
561.404	8798.12
561.767	8844.22
562.129	8844.67
562.492	8892.8
562.854	8949.07
563.217	8905.23
563.579	8961.95
563.941	8963.31
564.304	9064.32
564.666	9109.97
565.028	9118.79
565.39	9100.71
565.753	9189.07
566.115	9160.82
566.477	9229.97
566.839	9267.93
567.201	9334.83
567.563	9359.23
567.925	9385.67
568.287	9370.08
568.648	9448.95
569.01	9450.53
569.372	9509.28
569.734	9536.85
570.095	9535.5
570.457	9650.98
570.819	9670.64
571.18	9686.45
571.542	9761.93
571.903	9743.18
572.265	9794.47
572.626	9930.74
572.987	9858.65
573.349	9934.36
573.71	9996.5
574.071	10044.86
574.432	10105.88
574.794	10169.38
575.155	10214.35
575.516	10204.86
575.877	10343.84
576.238	10403.27
576.599	10435.59
576.96	10529.6
577.32	10578.63
577.681	10701.34
578.042	10804.17
578.403	10813.88
578.763	10848.01
579.124	11020.2
579.485	11101.33
579.845	11177.26
580.206	11270.14
580.566	11380.2
580.927	11430.36
581.287	11655.44
581.648	11740.41
582.008	11911.48
582.368	12040.97
582.728	12144.02
583.089	12326.84
583.449	12460.62
583.809	12682.53
584.169	12814.51
584.529	12816.99
584.889	13190.54
585.249	13236.64
585.609	13395.28
585.969	13695.61
586.329	13818.55
586.688	14118.2
587.048	14262.61
587.408	14411.3
587.768	14618.08
588.127	14906.2
588.487	15116.82
588.846	15459.41
589.206	15549.13
589.565	15820.53
589.925	16145.27
590.284	16426.62
590.643	16701.41
591.003	16872.25
591.362	17180.27
591.721	17552.24
592.08	17744.55
592.44	18041.26
592.799	18358.32
593.158	18667.91
593.517	18924.86
593.876	19311.74
594.235	19599.64
594.593	19930.93
594.952	20169.12
595.311	20346.74
595.67	20707.63
596.029	21070.56
596.387	21439.37
596.746	21830.99
597.104	21950.31
597.463	22260.59
597.822	22700.12
598.18	22900.34
598.538	23192.09
598.897	23577.39
599.255	23736.03
599.613	24308.67
599.972	24506.4
600.33	24893.74
600.688	25165.14
601.046	25494.4
601.404	25864.56
601.762	26095.29
602.12	26585.67
602.478	26810.98
602.836	26932.55
603.194	27300.45
603.552	27607.11
603.91	27931.62
604.268	28216.81
604.625	28372.29
604.983	28806.18
605.341	28932.5
605.698	29320.29
606.056	29544.46
606.413	29777.23
606.771	30183.99
607.128	30439.81
607.485	30440.03
607.843	30771.78
608.2	31187.58
608.557	31509.16
608.914	31680.45
609.272	32144.62
609.629	32296.48
609.986	32522.24
610.343	32591.16
610.7	33038.38
611.057	33062.79
611.414	33307.3
611.771	33617.35
612.127	33939.15
612.484	33971.47
612.841	34385.47
613.198	34408.74
613.554	34636.08
613.911	34982.29
614.267	35191.77
614.624	35265.44
614.98	35454.82
615.337	35664.3
615.693	35897.97
616.05	36059.32
616.406	36293.89
616.762	36301.57
617.118	36503.6
617.475	36704.95
617.831	36908.11
618.187	37022.68
618.543	37328.44
618.899	37509
619.255	37688.2
619.611	37736.79
619.967	37934.3
620.323	38012.26
620.678	38159.6
621.034	38031.02
621.39	38319.6
621.746	38408.19
622.101	38861.51
622.457	38780.6
622.812	38831.22
623.168	39101.05
623.523	39247.03
623.879	39491.09
624.234	39244.1
624.589	39514.37
624.945	39519.79
625.3	39737.87
625.655	39659
626.01	39828.71
626.365	39890.18
626.72	39799.33
627.075	39930.4
627.43	40114.35
627.785	40069.84
628.14	40138.54
628.495	40329.04
628.85	40413.33
629.205	40200
629.559	40403.84
629.914	40458.75
630.269	40466.66
630.623	40489.71
630.978	40458.98
631.332	40598.18
631.687	40699.42
632.041	40572.65
632.396	40725.86
632.75	40770.61
633.104	40837.05
633.459	40689.48
633.813	40777.39
634.167	40693.55
634.521	40859.65
634.875	40933.99
635.229	40684.96
635.583	40640.44
635.937	40634.57
636.291	40714.34
636.645	40665.07
636.999	40760.89
637.352	40813.55
637.706	40734.9
638.06	40821.91
638.413	40837.27
638.767	40788.24
639.121	40901
639.474	40537.17
639.828	40687
640.181	40859.19
640.534	40824.39
640.888	40526.32
641.241	40520.67
641.594	40663.72
641.947	40836.6
642.301	40637.28
642.654	40689.25
643.007	40762.25
643.36	40668.69
643.713	40595.25
644.066	40799.76
644.419	40537.39
644.771	40211.08
645.124	39999.56
645.477	39962.95
645.83	39721.37
646.182	39576.97
646.535	39610.19
646.888	39586.23
647.24	39373.81
647.593	39628.72
647.945	39567.93
648.298	39393.92
648.65	39313.02
649.002	39239.12
649.355	39462.62
649.707	39364.54
650.059	39516.63
650.411	40014.47
650.763	39965.66
651.115	40491.75
651.467	40340.56
651.819	40245.2
652.171	40264.41
652.523	40203.17
652.875	40234.13
653.227	40109.16
653.578	40298.76
653.93	40205.88
654.282	40088.59
654.633	39863.74
654.985	40100.34
655.337	40049.95
655.688	40176.27
656.039	40296.95
656.391	39978.77
656.742	39968.37
657.094	40000.69
657.445	40251.98
657.796	39913
658.147	39849.28
658.498	39874.14
658.849	39954.81
659.2	40029.39
659.551	39970.18
659.902	40000.69
660.253	39864.64
660.604	40100.8
660.955	39944.87
661.306	39919.56
661.656	40020.35
662.007	40054.24
662.358	40024.87
662.708	39851.31
663.059	40018.09
663.409	39769.05
663.76	39992.1
664.11	39892.89
664.461	40066.22
664.811	39838.66
665.161	39914.59
665.511	39848.15
665.862	39941.03
666.212	39880.01
666.562	39894.7
666.912	39797.98
667.262	39744.65
667.612	39775.38
667.962	39880.69
668.312	39851.08
668.662	39952.55
669.011	39861.25
669.361	39741.71
669.711	39782.84
670.06	39828.94
670.41	39651.32
670.76	39539.68
671.109	39735.38
671.459	39774.02
671.808	39640.47
672.157	39734.7
672.507	39591.88
672.856	39572.22
673.205	39524.54
673.554	39751.88
673.904	39575.61
674.253	39755.72
674.602	39622.16
674.951	39068.05
675.3	38878.91
675.649	39495.39
675.998	39416.07
676.346	39416.75
676.695	39494.48
677.044	39222.85
677.393	39455.84
677.741	39335.17
678.09	39484.54
678.438	39160.93
678.787	39280.7
679.135	39393.47
679.484	38948.51
679.832	39140.37
680.181	38944.44
680.529	39216.98
680.877	39061.5
681.225	39029.41
681.573	39194.61
681.922	38843.88
682.27	38720.72
682.618	38865.8
682.966	38783.99
683.314	38691.57
683.661	38648.4
684.009	38464
684.357	38411.57
684.705	38489.09
685.053	38490.44
685.4	38385.13
685.748	38243.44
686.095	38146.95
686.443	38080.06
686.79	38038.93
687.138	38042.77
687.485	38095.88
687.832	37962.1
688.18	38035.09
688.527	37780.86
688.874	37713.29
689.221	37691.82
689.568	37567.53
689.915	37540.64
690.262	37703.57
690.609	37450.02
690.956	37275.11
691.303	37199.86
691.65	37091.38
691.997	37154.43
692.344	36928.45
692.69	36800.09
693.037	36929.81
693.383	36534.79
693.73	36812.52
694.077	36524.62
694.423	36574.11
694.769	36404.17
695.116	36425.64
695.462	36305.42
695.808	36146.78
696.155	36313.55
696.501	35932.77
696.847	36012.32
697.193	35775.71
697.539	35934.35
697.885	35658.65
698.231	35556.51
698.577	35572.55
698.923	35475.38
699.269	35326.23
699.614	35074.71
699.96	35018.44
700.306	35017.99
700.651	34922.4
700.997	34907.94
701.342	34740.94
701.688	34731.9
702.033	34536.87
702.379	34586.36
702.724	34424.79
703.069	34506.37
703.415	34133.5
703.76	34194.74
704.105	34256.88
704.45	34067.51
704.795	33785.71
705.14	33879.49
705.485	33851.02
705.83	33695.31
706.175	33779.15
706.52	33601.08
706.865	33466.85
707.209	33433.4
707.554	33357.24
707.899	33424.59
708.243	33219.85
708.588	33149.11
708.932	32897.6
709.277	32868.9
709.621	32950.02
709.966	32753.87
710.31	32892.4
710.654	32550.26
710.998	32785.96
711.342	32747.99
711.687	32590.71
712.031	32286.54
712.375	32344.39
712.719	32366.08
713.063	32293.77
713.407	32452.41
713.75	32075.47
714.094	32141.46
714.438	32079.76
714.782	32001.8
715.125	31962.7
715.469	32000.22
715.812	31724.97
716.156	31666.22
716.499	31651.07
716.843	31642.71
717.186	31418.54
717.53	31613.11
717.873	31506.45
718.216	31390.52
718.559	31213.57
718.902	31054.25
719.246	31247.7
719.589	31055.38
719.932	31023.75
720.275	31085.21
720.617	31061.26
720.96	30889.06
721.303	31002.05
721.646	31023.75
721.989	30644.32
722.331	30849.74
722.674	30727.93
723.016	30672.57
723.359	30708.05
723.701	30738.56
724.044	30451.33
724.386	30388.73
724.729	30372.01
725.071	30323.65
725.413	30317.55
725.755	30434.84
726.097	30144.22
726.439	30087.05
726.782	30104
727.124	30190.77
727.465	30031.91
727.807	29978.58
728.149	29921.85
728.491	29903.32
728.833	29917.33
729.175	29766.83
729.516	29670.79
729.858	29767.73
730.199	29730.45
730.541	29648.64
730.882	29607.06
731.224	29713.72
731.565	29431.7
731.906	29476.89
732.248	29537.68
732.589	29329.1
732.93	29351.7
733.271	29306.73
733.612	29314.86
733.953	29220.86
734.294	29175.21
734.635	29023.35
734.976	29201.42
735.317	29042.1
735.658	29125.94
735.999	28945.38
736.339	28948.55
736.68	28961.88
737.021	28780.87
737.361	28876.01
737.702	28998.71
738.042	28859.28
738.383	28760.08
738.723	28777.93
739.063	28706.07
739.404	28615.22
739.744	28647.54
740.084	28440.76
740.424	28504.49
740.764	28453.87
741.104	28662.45
741.444	28390.82
741.784	28277.15
742.124	28403.7
742.464	28157.83
742.804	28295
743.143	28203.03
743.483	28181.56
743.823	28049.36
744.162	28058.85
744.502	28062.02
744.841	27929.82
745.181	28068.57
745.52	27910.38
745.86	27984.05
746.199	28027.44
746.538	27834.23
746.877	27836.71
747.216	27825.86
747.556	27895.24
747.895	27752.87
748.234	27600.79
748.573	27502.26
748.911	27645.53
749.25	27690.95
749.589	27484.18
749.928	27458.42
750.267	27499.09
750.605	27493.9
750.944	27294.35
751.283	27241.02
751.621	27328.02
751.96	27316.5
752.298	27300.68
752.636	27201.25
752.975	27052.55
753.313	26956.51
753.651	27116.96
753.989	27008.26
754.327	26980.46
754.666	26756.29
755.004	26873.8
755.342	26857.3
755.679	26765.33
756.017	26784.99
756.355	26779.56
756.693	26567.59
757.031	26670.41
757.368	26492.79
757.706	26492.57
758.044	26379.12
758.381	26378.9
758.719	26300.25
759.056	26345.45
759.394	26105.91
759.731	26068.85
760.068	26095.74
760.405	25979.81
