Data from hue_22_FLMS001491_00098.txt Node
Date: Tue Feb 07 17:10:58 GMT 2017
User: dcchb
Spectrometer: FLMS00149
Trigger mode: 0
Integration Time (sec): 2.000000E-2
Scans to average: 10
Electric dark correction enabled: true
Nonlinearity correction enabled: false
Boxcar width: 0
XAxis mode: Wavelengths
Number of Pixels in Spectrum: 2048
>>>>>Begin Spectral Data<<<<<
341.393	-22.61
341.776	-22.61
342.16	-22.61
342.543	-58.09
342.927	-76.17
343.31	-58.77
343.693	-84.98
344.077	-50.63
344.46	-51.54
344.843	-62.16
345.226	-35.49
345.61	-36.62
345.993	-17.41
346.376	-2.73
346.759	-10.64
347.142	31.4
347.525	32.98
347.908	57.16
348.291	88.12
348.674	106.2
349.057	95.12
349.44	132.19
349.823	123.37
350.206	155.01
350.588	182.81
350.971	206.31
351.354	209.7
351.737	234.56
352.119	246.08
352.502	271.39
352.884	275.68
353.267	290.37
353.65	270.04
354.032	286.53
354.414	306.42
354.797	297.61
355.179	323.37
355.562	304.61
355.944	305.97
356.326	343.03
356.709	336.02
357.091	315.46
357.473	333.08
357.855	325.18
358.238	343.48
358.62	332.41
359.002	332.18
359.384	332.86
359.766	325.4
360.148	326.98
360.53	324.05
360.912	324.27
361.294	315.91
361.676	341.67
362.057	321.79
362.439	317.72
362.821	331.5
363.203	337.6
363.584	337.83
363.966	320.88
364.348	336.47
364.729	329.69
365.111	337.38
365.493	319.07
365.874	320.43
366.256	308.68
366.637	297.83
367.019	321.56
367.4	312.97
367.781	298.06
368.163	323.37
368.544	303.48
368.925	298.96
369.306	320.2
369.688	307.1
370.069	328.56
370.45	299.41
370.831	339.86
371.212	308
371.593	325.4
371.974	320.66
372.355	320.66
372.736	299.41
373.117	300.09
373.498	308.9
373.879	285.85
374.26	326.98
374.641	338.73
375.021	329.02
375.402	322.01
375.783	316.59
376.163	339.64
376.544	321.33
376.925	322.69
377.305	320.88
377.686	321.79
378.066	348.9
378.447	318.4
378.827	314.1
379.208	333.76
379.588	341.45
379.968	325.18
380.349	326.08
380.729	311.39
381.109	350.49
381.489	330.6
381.87	330.82
382.25	352.52
382.63	340.54
383.01	331.73
383.39	331.5
383.77	332.18
384.15	330.82
384.53	343.25
384.91	340.99
385.29	345.97
385.67	343.71
386.049	357.04
386.429	352.97
386.809	325.18
387.189	324.05
387.568	347.77
387.948	356.59
388.328	354.55
388.707	353.42
389.087	363.59
389.466	357.49
389.846	362.46
390.225	362.46
390.605	353.65
390.984	362.01
391.363	364.27
391.743	366.3
392.122	359.98
392.501	364.27
392.881	387.32
393.26	376.25
393.639	376.25
394.018	375.12
394.397	371.73
394.776	386.19
395.155	372.86
395.534	370.15
395.913	374.89
396.292	375.34
396.671	364.04
397.05	376.25
397.429	359.98
397.808	389.81
398.186	380.09
398.565	388.45
398.944	358.62
399.323	374.21
399.701	380.99
400.08	383.7
400.458	383.93
400.837	413.08
401.215	407.88
401.594	411.73
401.972	386.64
402.351	401.78
402.729	395.46
403.107	402.69
403.486	387.77
403.864	411.95
404.242	405.4
404.62	406.53
404.999	404.27
405.377	408.56
405.755	406.75
406.133	413.08
406.511	405.17
406.889	404.5
407.267	403.14
407.645	418.05
408.023	405.17
408.401	419.64
408.779	429.58
409.156	445.62
409.534	439.52
409.912	440.88
410.29	437.71
410.667	425.06
411.045	435.23
411.422	430.93
411.8	439.75
412.178	443.59
412.555	462.8
412.933	439.97
413.31	461.44
413.687	480.88
414.065	466.64
414.442	454.89
414.819	450.37
415.197	450.6
415.574	475
415.951	465.28
416.328	477.04
416.705	476.13
417.082	471.16
417.46	479.3
417.837	495.34
418.214	465.51
418.591	484.27
418.967	474.1
419.344	499.63
419.721	495.79
420.098	476.13
420.475	472.52
420.852	497.83
421.228	494.66
421.605	499.63
421.982	512.06
422.358	521.55
422.735	533.08
423.111	497.37
423.488	537.6
423.864	520.42
424.241	514.77
424.617	513.64
424.994	509.58
425.37	508.45
425.746	553.19
426.123	526.75
426.499	538.05
426.875	543.25
427.251	551.38
427.627	553.87
428.003	561.1
428.379	559.75
428.756	556.81
429.132	553.42
429.507	584.38
429.883	571.27
430.259	599.97
430.635	587.32
431.011	598.39
431.387	595
431.763	606.75
432.138	602.46
432.514	618.05
432.89	610.14
433.265	618.27
433.641	644.94
434.016	637.03
434.392	655.79
434.767	634.32
435.143	632.29
435.518	641.55
435.894	650.82
436.269	644.71
436.644	654.66
437.02	660.53
437.395	680.65
437.77	665.05
438.145	664.83
438.52	673.41
438.895	663.7
439.271	688.78
439.646	702.34
440.021	688.33
440.395	694.66
440.77	704.15
441.145	714.77
441.52	712.74
441.895	700.76
442.27	743.7
442.645	733.98
443.019	732.4
443.394	741.44
443.769	756.8
444.143	740.53
444.518	751.83
444.892	718.16
445.267	745.95
445.641	731.49
446.016	739.85
446.39	769.01
446.764	756.12
447.139	761.1
447.513	763.81
447.887	803.58
448.262	784.82
448.636	757.93
449.01	779.17
449.384	798.38
449.758	813.07
450.132	812.85
450.506	800.87
450.88	786.41
451.254	819.4
451.628	806.29
452.002	818.27
452.376	834.31
452.75	830.25
453.123	828.66
453.497	852.39
453.871	868.66
454.244	879.96
454.618	881.32
454.992	856.69
455.365	862.79
455.739	906.85
456.112	914.76
456.486	914.99
456.859	945.05
457.232	928.78
457.606	958.6
457.979	929.68
458.352	938.94
458.725	990.92
459.099	971.71
459.472	975.55
459.845	1004.25
460.218	1004.48
460.591	1006.51
460.964	1002.9
461.337	1030.02
461.71	1061.65
462.083	1032.28
462.456	1042.44
462.829	1063.01
463.201	1079.05
463.574	1050.81
463.947	1077.25
464.32	1102.56
464.692	1117.47
465.065	1118.83
465.438	1129.45
465.81	1151.37
466.183	1145.72
466.555	1187.53
466.928	1205.6
467.3	1215.77
467.672	1203.57
468.045	1244.92
468.417	1249.9
468.789	1267.52
469.161	1272.72
469.534	1284.25
469.906	1314.75
470.278	1330.57
470.65	1338.03
471.022	1383
471.394	1398.59
471.766	1423.9
472.138	1433.39
472.51	1473.39
472.882	1483.11
473.253	1494.18
473.625	1528.76
473.997	1542.54
474.369	1569.44
474.74	1578.02
475.112	1602.2
475.484	1642.88
475.855	1638.59
476.227	1670.9
476.598	1733.5
476.97	1726.27
477.341	1754.74
477.713	1802.88
478.084	1834.74
478.455	1873.83
478.827	1858.92
479.198	1932.59
479.569	1956.77
479.94	2030.67
480.311	2050.78
480.682	2085.13
481.053	2124.22
481.424	2187.72
481.795	2210.32
482.166	2240.15
482.537	2279.02
482.908	2362.41
483.279	2362.41
483.65	2406.48
484.021	2456.87
484.391	2519.24
484.762	2565.57
485.133	2563.08
485.503	2599.47
485.874	2657.32
486.244	2685.56
486.615	2749.52
486.985	2759.24
487.356	2834.49
487.726	2886.92
488.097	2986.12
488.467	2946.12
488.837	3047.14
489.207	3093.24
489.578	3127.14
489.948	3186.79
490.318	3176.17
490.688	3222.5
491.058	3254.36
491.428	3349.28
491.798	3380.69
492.168	3470.18
492.538	3443.51
492.908	3525.32
493.278	3586.33
493.648	3609.16
494.017	3643.28
494.387	3627.01
494.757	3683.96
495.126	3761.47
495.496	3787.23
495.866	3823.61
496.235	3869.71
496.605	3885.53
496.974	3955.81
497.344	3941.13
497.713	4006.89
498.082	4042.82
498.452	4073.33
498.821	4124.62
499.19	4140.22
499.559	4127.79
499.928	4176.15
500.298	4246.88
500.667	4293.43
501.036	4285.07
501.405	4322.13
501.774	4336.37
502.143	4360.55
502.512	4403.49
502.88	4437.61
503.249	4466.08
503.618	4478.29
503.987	4524.16
504.356	4562.35
504.724	4548.79
505.093	4584.05
505.462	4552.18
505.83	4655.91
506.199	4645.51
506.567	4721.44
506.936	4711.95
507.304	4733.19
507.672	4788.79
508.041	4805.74
508.409	4849.12
508.777	4899.97
509.145	4875.79
509.514	4889.12
509.882	4900.65
510.25	4958.95
510.618	4948.1
510.986	4963.47
511.354	5005.28
511.722	5026.07
512.09	5119.17
512.458	5078.72
512.826	5132.51
513.193	5148.1
513.561	5105.16
513.929	5184.93
514.297	5235.55
514.664	5198.72
515.032	5241.88
515.4	5257.25
515.767	5312.39
516.135	5356.91
516.502	5272.84
516.869	5364.82
517.237	5367.53
517.604	5386.28
517.972	5392.61
518.339	5435.32
518.706	5463.57
519.073	5443.01
519.44	5483.91
519.808	5528.2
520.175	5462.67
520.542	5588.31
520.909	5602.32
521.276	5606.62
521.643	5643.45
522.009	5617.01
522.376	5677.35
522.743	5681.19
523.11	5758.03
523.477	5767.52
523.843	5812.94
524.21	5876.67
524.577	5947.17
524.943	5894.07
525.31	5988.75
525.676	5965.03
526.043	5986.04
526.409	6053.16
526.776	6050.45
527.142	6126.15
527.508	6114.4
527.874	6158.02
528.241	6231.46
528.607	6195.98
528.973	6235.3
529.339	6247.73
529.705	6304
530.071	6339.93
530.437	6411.34
530.803	6391
531.169	6421.96
531.535	6414.05
531.901	6433.04
532.267	6480.04
532.632	6556.42
532.998	6493.15
533.364	6590.1
533.73	6572.24
534.095	6720.04
534.461	6751.67
534.826	6734.27
535.192	6722.97
535.557	6772.01
535.923	6745.57
536.288	6849.52
536.653	6833.03
537.019	6792.58
537.384	6885.68
537.749	6950.31
538.114	6942.85
538.479	6922.74
538.845	6996.64
539.21	6951.89
539.575	7090.42
539.94	7051.55
540.305	7126.35
540.67	7084.55
541.034	7140.14
541.399	7160.25
541.764	7170.42
542.129	7164.54
542.494	7235.73
542.858	7237.54
543.223	7292.22
543.587	7298.78
543.952	7415.38
544.316	7337.19
544.681	7391.88
545.045	7459.68
545.41	7472.33
545.774	7473.01
546.138	7497.42
546.503	7558.66
546.867	7525.89
547.231	7660.8
547.595	7614.25
547.959	7709.39
548.324	7666.68
548.688	7690.18
549.052	7744.87
549.416	7749.84
549.779	7804.07
550.143	7800.91
550.507	7894.02
550.871	7870.29
551.235	7875.26
551.599	7962.49
551.962	7923.62
552.326	7960.68
552.689	8013.33
553.053	8030.96
553.417	8030.51
553.78	8065.54
554.143	8146.44
554.507	8105.99
554.87	8154.8
555.234	8297.39
555.597	8158.42
555.96	8202.26
556.323	8306.21
556.686	8315.25
557.05	8374.23
557.413	8326.09
557.776	8435.92
558.139	8427.79
558.502	8450.84
558.865	8450.16
559.228	8546.43
559.59	8496.26
559.953	8506.88
560.316	8594.56
560.679	8660.78
561.041	8644.96
561.404	8717.27
561.767	8785.07
562.129	8654
562.492	8709.81
562.854	8745.74
563.217	8800.66
563.579	8827.32
563.941	8868
564.304	8881.79
564.666	8890.6
565.028	8975.8
565.39	8975.12
565.753	9030.71
566.115	9075.23
566.477	9152.74
566.839	9181.44
567.201	9225.73
567.563	9219.86
567.925	9336.92
568.287	9314.32
568.648	9406.29
569.01	9365.84
569.372	9392.51
569.734	9393.19
570.095	9438.38
570.457	9520.87
570.819	9502.56
571.18	9607.19
571.542	9621.43
571.903	9567.87
572.265	9807.41
572.626	9771.48
572.987	9763.12
573.349	9858.48
573.71	9867.3
574.071	9959.05
574.432	10030
574.794	10120.17
575.155	10148.42
575.516	10126.95
575.877	10259.15
576.238	10300.28
576.599	10380.05
576.96	10433.61
577.32	10530.78
577.681	10593.15
578.042	10736.2
578.403	10792.02
578.763	10939.36
579.124	11008.74
579.485	11062.97
579.845	11187.71
580.206	11320.37
580.566	11446.92
580.927	11571.21
581.287	11655.27
581.648	11804.42
582.008	11919.9
582.368	12132.77
582.728	12322.15
583.089	12463.84
583.449	12566.66
583.809	12808.91
584.169	13108.34
584.529	13099.75
584.889	13463.13
585.249	13488.9
585.609	13707.87
585.969	13981.31
586.329	14183.57
586.688	14428.08
587.048	14647.28
587.408	14884.79
587.768	15117.55
588.127	15416.76
588.487	15633.7
588.846	16010.19
589.206	16127.02
589.565	16564.97
589.925	16758.19
590.284	17138.74
590.643	17439.3
591.003	17750.25
591.362	18079.51
591.721	18402.67
592.08	18638.59
592.44	19007.17
592.799	19381.85
593.158	19647.38
593.517	19964.88
593.876	20245.1
594.235	20488.03
594.593	20976.84
594.952	21362.36
595.311	21592.41
595.67	22090.48
596.029	22428.1
596.387	22728.43
596.746	23125.71
597.104	23358.24
597.463	23661.96
597.822	24258.33
598.18	24463.75
598.538	24876.39
598.897	25282.94
599.255	25398.41
599.613	26086.76
599.972	26305.96
600.33	26654.43
600.688	26945.94
601.046	27292.38
601.404	27731.69
601.762	27960.83
602.12	28456.19
602.478	28736.86
602.836	29033.35
603.194	29113.57
603.552	29706.78
603.91	29845.53
604.268	30258.85
604.625	30422.01
604.983	30878.27
605.341	31145.16
605.698	31635.31
606.056	31802.09
606.413	32072.81
606.771	32250.44
607.128	32782.4
607.485	32825.79
607.843	33183.07
608.2	33492.44
608.557	33945.76
608.914	34148.47
609.272	34512.75
609.629	34725.17
609.986	35082.45
610.343	35110.02
610.7	35673.62
611.057	35761.98
611.414	35910
611.771	36272.93
612.127	36700.49
612.484	36697.1
612.841	37055.73
613.198	37090.54
613.554	37329.4
613.911	37816.84
614.267	37922.83
614.624	38050.96
614.98	38222.26
615.337	38588.8
615.693	38819.53
616.05	38746.09
616.406	39123.93
616.762	39101.78
617.118	39419.29
617.475	39608.66
617.831	39860.86
618.187	39954.42
618.543	40248.19
618.899	40565.02
619.255	40581.52
619.611	40647.05
619.967	40961.39
620.323	41205.46
620.678	41189.41
621.034	41235.06
621.39	41347.6
621.746	41485.9
622.101	41928.15
622.457	41748.72
622.812	41827.13
623.168	42207.01
623.523	42159.1
623.879	42444.07
624.234	42223.51
624.589	42541.01
624.945	42467.34
625.3	42776.94
625.655	42732.2
626.01	42990.95
626.365	42933.55
626.72	43020.78
627.075	43032.75
627.43	42919.31
627.785	43020.32
628.14	43251.05
628.495	43261.67
628.85	43354.55
629.205	43214.89
629.559	43581.21
629.914	43273.2
630.269	43505.51
630.623	43428.9
630.978	43589.35
631.332	43602.91
631.687	43733.07
632.041	43619.4
632.396	43774.65
632.75	43673.64
633.104	43862.11
633.459	43611.04
633.813	43752.73
634.167	43697.14
634.521	43780.76
634.875	43867.98
635.229	43887.42
635.583	43701.89
635.937	43723.58
636.291	43793.41
636.645	43792.51
636.999	43693.3
637.352	43966.74
637.706	43642.23
638.06	43920.19
638.413	43901.2
638.767	43747.76
639.121	43892.84
639.474	43657.6
639.828	43634.32
640.181	43761.55
640.534	43751.83
640.888	43725.39
641.241	43424.83
641.594	43562.23
641.947	43698.27
642.301	43579.63
642.654	43699.18
643.007	43806.29
643.36	43658.27
643.713	43609.01
644.066	43709.57
644.419	43509.12
644.771	43286.53
645.124	42976.71
645.477	42873.66
645.83	42781.23
646.182	42486.55
646.535	42480.45
646.888	42597.96
647.24	42334.69
647.593	42579.66
647.945	42394.58
648.298	42336.27
648.65	42351.64
649.002	42199.55
649.355	42171.76
649.707	42392.09
650.059	42525.65
650.411	42838.63
650.763	43068.23
651.115	43445.62
651.467	43386.19
651.819	43263.48
652.171	43155.46
652.523	43132.19
652.875	43109.13
653.227	42956.6
653.578	43274.33
653.93	43151.62
654.282	42947.56
654.633	42816.71
654.985	42955.24
655.337	43050.83
655.688	42989.59
656.039	43215.8
656.391	42887.67
656.742	42974.45
657.094	42986.43
657.445	43117.27
657.796	43023.26
658.147	42954.56
658.498	42924.96
658.849	42964.51
659.2	42947.78
659.551	42774
659.902	43092.64
660.253	42775.36
660.604	42890.38
660.955	42737.85
661.306	42936.48
661.656	42767.22
662.007	42839.09
662.358	42717.28
662.708	42807.67
663.059	42769.26
663.409	42599.77
663.76	42878.18
664.11	42926.31
664.461	42878.63
664.811	42868.24
665.161	42798.86
665.511	42722.48
665.862	42791.86
666.212	42818.52
666.562	42798.86
666.912	42642.93
667.262	42775.81
667.612	42648.58
667.962	42753.89
668.312	42686.1
668.662	42835.02
669.011	42681.12
669.361	42598.41
669.711	42620.33
670.06	42604.06
670.41	42542.37
670.76	42508.47
671.109	42525.42
671.459	42567.45
671.808	42387.35
672.157	42551.64
672.507	42393.45
672.856	42258.31
673.205	42366.1
673.554	42627.57
673.904	42411.3
674.253	42524.97
674.602	42432.99
674.951	41794.37
675.3	41703.07
675.649	42390.96
675.998	42113.91
676.346	42231.42
676.695	42437.29
677.044	41984.87
677.393	42182.38
677.741	42392.32
678.09	42195.49
678.438	42168.59
678.787	42180.12
679.135	42180.35
679.484	41816.74
679.832	42044.98
680.181	41868.26
680.529	41924.99
680.877	41733.35
681.225	41668.04
681.573	41886.12
681.922	41617.65
682.27	41492.91
682.618	41536.07
682.966	41468.05
683.314	41548.72
683.661	41344.89
684.009	41281.16
684.357	41139.92
684.705	41097.89
685.053	41130.43
685.4	41120.94
685.748	41069.19
686.095	40955.07
686.443	40854.28
686.79	40798.24
687.138	40809.53
687.485	40952.58
687.832	40722.3
688.18	40770.21
688.527	40441.18
688.874	40543.1
689.221	40370.9
689.568	40374.52
689.915	40267.63
690.262	40323.22
690.609	40121.42
690.956	40000.06
691.303	40123.22
691.65	39811.59
691.997	39741.99
692.344	39579.74
692.69	39578.38
693.037	39370.25
693.383	39230.37
693.73	39408.22
694.077	39063.82
694.423	38980.43
694.769	39031.28
695.116	38928.91
695.462	38850.04
695.808	38709.93
696.155	38802.81
696.501	38565.07
696.847	38498.63
697.193	38343.61
697.539	38476.94
697.885	38211.64
698.231	38202.37
698.577	38125.09
698.923	38067.46
699.269	37847.35
699.614	37681.25
699.96	37535.95
700.306	37509.96
700.651	37376.86
700.997	37390.64
701.342	37336.63
701.688	37073.36
702.033	37166.47
702.379	37051.67
702.724	36924.44
703.069	36864.33
703.415	36703.2
703.76	36752.01
704.105	36664.11
704.45	36737.32
704.795	36441.51
705.14	36398.58
705.485	36215.08
705.83	36152.03
706.175	36202.2
706.52	35992.26
706.865	35881.75
707.209	35858.03
707.554	35739.16
707.899	35676.11
708.243	35621.42
708.588	35544.59
708.932	35251.71
709.277	35279.28
709.621	35365.38
709.966	35196.57
710.31	35254.43
710.654	34940.31
710.998	35021.89
711.342	35101.21
711.687	34891.27
712.031	34689.02
712.375	34699.64
712.719	34775.79
713.063	34623.48
713.407	34733.76
713.75	34536.25
714.094	34564.5
714.438	34261.68
714.782	34378.97
715.125	34144.17
715.469	34349.82
715.812	34114.57
716.156	33919.77
716.499	33866.21
716.843	33899.21
717.186	33673.45
717.53	33896.95
717.873	33810.62
718.216	33720.91
718.559	33583.51
718.902	33437.3
719.246	33400.01
719.589	33199.79
719.932	33207.47
720.275	33287.92
720.617	33185.1
720.96	33055.16
721.303	33105.1
721.646	33172.67
721.989	32884.32
722.331	32990.3
722.674	32949.63
723.016	32921.61
723.359	32857.43
723.701	32922.28
724.044	32613.37
724.386	32513.71
724.729	32731.33
725.071	32517.55
725.413	32589.41
725.755	32461.51
726.097	32310.32
726.439	32184
726.782	32274.84
727.124	32330.89
727.465	32111.91
727.807	32125.24
728.149	32111.91
728.491	32027.17
728.833	31982.65
729.175	31811.35
729.516	31837.79
729.858	31802.99
730.199	31855.19
730.541	31722.32
730.882	31650.68
731.224	31817.68
731.565	31628.53
731.906	31618.82
732.248	31577.69
732.589	31518.71
732.93	31353.06
733.271	31341.08
733.612	31430.8
733.953	31292.72
734.294	31121.43
734.635	31162.33
734.976	31235.55
735.317	31028.32
735.658	30966.18
735.999	30997.36
736.339	30896.57
736.68	31069.45
737.021	31036.46
737.361	30839.17
737.702	30866.97
738.042	30782.68
738.383	30702
738.723	30690.7
739.063	30559.86
739.404	30698.61
739.744	30645.06
740.084	30589.92
740.424	30589.92
740.764	30529.13
741.104	30508.79
741.444	30367.32
741.784	30388.34
742.124	30296.59
742.464	30203.26
742.804	30123.49
743.143	30180.89
743.483	30264.95
743.823	30047.78
744.162	29872.87
744.502	30102.02
744.841	30026.77
745.181	30119.42
745.52	29783.84
745.86	29916.26
746.199	29898.41
746.538	29897.05
746.877	29827.68
747.216	29881.69
747.556	29704.29
747.895	29687.11
748.234	29729.15
748.573	29539.77
748.911	29550.62
749.25	29442.6
749.589	29325.09
749.928	29336.62
750.267	29421.59
750.605	29291.42
750.944	29193.12
751.283	29170.07
751.621	29195.38
751.96	29025.89
752.298	28989.28
752.636	29080.13
752.975	28859.79
753.313	28793.13
753.651	28897.31
753.989	28633.13
754.327	28694.37
754.666	28523.08
755.004	28590.19
755.342	28613.02
755.679	28474.04
756.017	28354.04
756.355	28412.35
756.693	28288.51
757.031	28356.75
757.368	28040.15
757.706	28170.32
758.044	28041.06
758.381	28141.39
758.719	27904.11
759.056	27959.7
759.394	27917.44
759.731	27542.31
760.068	27627.28
760.405	27580.05
