Data from hue_290_FLMS001491_00005.txt Node
Date: Tue Feb 07 15:52:07 GMT 2017
User: dcchb
Spectrometer: FLMS00149
Trigger mode: 0
Integration Time (sec): 2.000000E-2
Scans to average: 10
Electric dark correction enabled: true
Nonlinearity correction enabled: false
Boxcar width: 0
XAxis mode: Wavelengths
Number of Pixels in Spectrum: 2048
>>>>>Begin Spectral Data<<<<<
341.393	1.12
341.776	1.12
342.16	1.12
342.543	-46.57
342.927	-85.66
343.31	-64.87
343.693	-53.8
344.077	-59.9
344.46	-61.26
344.843	-70.29
345.226	-29.17
345.61	-19.45
345.993	-12.44
346.376	7.67
346.759	0.21
347.142	21.91
347.525	35.69
347.908	48.35
348.291	65.29
348.674	85.18
349.057	106.88
349.44	135.12
349.823	150.26
350.206	172.86
350.588	176.48
350.971	212.18
351.354	226.87
351.737	229.58
352.119	256.7
352.502	281.56
352.884	289.7
353.267	257.38
353.65	294.67
354.032	310.71
354.414	292.86
354.797	300.77
355.179	304.38
355.562	320.88
355.944	326.76
356.326	327.43
356.709	323.14
357.091	325.63
357.473	322.01
357.855	324.27
358.238	332.18
358.62	328.56
359.002	313.42
359.384	332.63
359.766	335.12
360.148	325.63
360.53	342.35
360.912	341.67
361.294	316.81
361.676	334.67
362.057	319.98
362.439	325.18
362.821	324.72
363.203	336.93
363.584	336.7
363.966	312.75
364.348	309.81
364.729	313.2
365.111	336.25
365.493	326.08
365.874	317.72
366.256	322.46
366.637	331.05
367.019	323.82
367.4	327.66
367.781	313.2
368.163	301.22
368.544	307.77
368.925	323.82
369.306	329.24
369.688	317.04
370.069	291.05
370.45	322.69
370.831	321.56
371.212	299.19
371.593	312.52
371.974	317.94
372.355	308
372.736	336.25
373.117	330.82
373.498	316.81
373.879	297.38
374.26	305.97
374.641	309.36
375.021	298.74
375.402	322.92
375.783	305.74
376.163	317.04
376.544	335.34
376.925	316.81
377.305	312.52
377.686	327.21
378.066	318.4
378.447	322.01
378.827	322.92
379.208	348.45
379.588	325.4
379.968	318.4
380.349	328.11
380.729	355
381.109	330.15
381.489	334.67
381.87	343.71
382.25	338.96
382.63	349.81
383.01	330.6
383.39	330.37
383.77	342.35
384.15	336.25
384.53	351.84
384.91	349.13
385.29	347.77
385.67	344.84
386.049	349.81
386.429	346.87
386.809	338.06
387.189	353.65
387.568	345.97
387.948	368.11
388.328	353.87
388.707	362.91
389.087	363.14
389.466	362.46
389.846	364.04
390.225	378.28
390.605	363.14
390.984	364.95
391.363	376.93
391.743	362.46
392.122	381.67
392.501	368.11
392.881	396.13
393.26	384.16
393.639	383.48
394.018	407.88
394.397	404.27
394.776	371.05
395.155	389.13
395.534	393.42
395.913	376.93
396.292	402.91
396.671	412.4
397.05	419.18
397.429	417.15
397.808	400.88
398.186	379.41
398.565	409.24
398.944	401.11
399.323	408.56
399.701	434.78
400.08	413.76
400.458	432.06
400.837	435
401.215	416.92
401.594	436.81
401.972	442.91
402.351	437.04
402.729	442.23
403.107	428.22
403.486	435
403.864	451.95
404.242	413.08
404.62	469.35
404.999	454.21
405.377	444.04
405.755	466.64
406.133	469.35
406.511	476.36
406.889	464.83
407.267	478.84
407.645	477.49
408.023	482.91
408.401	483.59
408.779	493.53
409.156	512.29
409.534	504.38
409.912	528.56
410.29	538.5
410.667	526.75
411.045	561.78
411.422	565.62
411.8	552.51
412.178	546.64
412.555	568.78
412.933	592.51
413.31	588.9
413.687	601.78
414.065	605.62
414.442	618.95
414.819	607.2
415.197	602.91
415.574	616.01
415.951	653.3
416.328	639.52
416.705	642.45
417.082	659.18
417.46	651.72
417.837	661.21
418.214	681.32
418.591	677.48
418.967	662.79
419.344	687.2
419.721	725.84
420.098	717.26
420.475	725.16
420.852	712.74
421.228	732.85
421.605	753.64
421.982	765.16
422.358	747.99
422.735	755.45
423.111	781.89
423.488	784.6
423.864	793.41
424.241	817.14
424.617	811.72
424.994	813.3
425.37	839.29
425.746	841.55
426.123	851.71
426.499	874.09
426.875	841.09
427.251	861.21
427.627	908.89
428.003	893.07
428.379	910.02
428.756	900.3
429.132	925.16
429.507	942.11
429.883	936.01
430.259	945.5
430.635	929
431.011	932.84
431.387	979.4
431.763	1007.42
432.138	1028.21
432.514	1025.04
432.89	1041.77
433.265	1068.88
433.641	1084.25
434.016	1081.99
434.392	1086.96
434.767	1098.71
435.143	1123.12
435.518	1115.44
435.894	1144.81
436.269	1148.88
436.644	1168.77
437.02	1189.56
437.395	1185.49
437.77	1220.29
438.145	1199.05
438.52	1230.69
438.895	1245.6
439.271	1253.74
439.646	1278.14
440.021	1287.41
440.395	1270.46
440.77	1264.13
441.145	1298.93
441.52	1341.87
441.895	1308.43
442.27	1335.09
442.645	1350.01
443.019	1353.62
443.394	1350.01
443.769	1356.33
444.143	1367.63
444.518	1397.92
444.892	1372.61
445.267	1388.42
445.641	1394.75
446.016	1410.57
446.39	1415.09
446.764	1411.47
447.139	1398.37
447.513	1411.02
447.887	1433.17
448.262	1448.31
448.636	1460.74
449.01	1429.55
449.384	1470
449.758	1457.12
450.132	1477.91
450.506	1504.13
450.88	1491.47
451.254	1489.66
451.628	1534.86
452.002	1540.74
452.376	1548.42
452.75	1535.31
453.123	1535.31
453.497	1569.66
453.871	1580.96
454.244	1588.19
454.618	1582.32
454.992	1634.75
455.365	1627.06
455.739	1667.29
456.112	1666.83
456.486	1646.72
456.859	1672.26
457.232	1687.63
457.606	1688.08
457.979	1720.62
458.352	1760.84
458.725	1742.54
459.099	1751.35
459.472	1764.91
459.845	1801.07
460.218	1806.04
460.591	1817.34
460.964	1804.23
461.337	1867.96
461.71	1890.56
462.083	1912.7
462.456	1909.09
462.829	1887.39
463.201	1914.51
463.574	1883.78
463.947	1932.14
464.32	1967.84
464.692	2010.1
465.065	1999.48
465.438	2026.15
465.81	2047.16
466.183	2028.86
466.555	2125.13
466.928	2097.33
467.3	2079.03
467.672	2103.43
468.045	2139.36
468.417	2162.64
468.789	2167.61
469.161	2195.18
469.534	2230.44
469.906	2222.75
470.278	2276.54
470.65	2298.68
471.022	2319.47
471.394	2389.08
471.766	2331.68
472.138	2361.51
472.51	2385.01
472.882	2432.24
473.253	2438.79
473.625	2486.25
473.997	2501.16
474.369	2540.03
474.74	2556.75
475.112	2600.6
475.484	2640.37
475.855	2677.43
476.227	2687.82
476.598	2737.99
476.97	2717.65
477.341	2764.88
477.713	2803.08
478.084	2832.45
478.455	2876.29
478.827	2879.46
479.198	2976.63
479.569	2987.93
479.94	3010.08
480.311	3028.61
480.682	3060.24
481.053	3140.92
481.424	3157.87
481.795	3228.83
482.166	3189.73
482.537	3279.9
482.908	3320.12
483.279	3317.86
483.65	3346.34
484.021	3474.7
484.391	3434.47
484.762	3455.71
485.133	3453.91
485.503	3501.59
485.874	3544.3
486.244	3598.54
486.615	3665.2
486.985	3681.7
487.356	3718.31
487.726	3782.94
488.097	3797.85
488.467	3782.49
488.837	3871.52
489.207	3916.49
489.578	3970.05
489.948	3989.49
490.318	4005.76
490.688	4001.69
491.058	4052.31
491.428	4088.24
491.798	4112.42
492.168	4238.52
492.538	4233.55
492.908	4199.65
493.278	4352.41
493.648	4297.95
494.017	4291.85
494.387	4326.65
494.757	4364.16
495.126	4361.45
495.496	4418.4
495.866	4439.42
496.235	4443.71
496.605	4527.32
496.974	4471.73
497.344	4527.55
497.713	4583.82
498.082	4578.85
498.452	4624.27
498.821	4656.13
499.19	4660.65
499.559	4673.99
499.928	4723.03
500.298	4786.3
500.667	4733.19
501.036	4787.2
501.405	4793.53
501.774	4834.89
502.143	4849.12
502.512	4836.47
502.88	4879.63
503.249	4867.2
503.618	4888.9
503.987	4939.74
504.356	4906.98
504.724	4958.5
505.093	4949.69
505.462	4979.06
505.83	5006.86
506.199	5092.28
506.567	5063.81
506.936	5043.02
507.304	5093.64
507.672	5108.55
508.041	5170.02
508.409	5168.21
508.777	5170.02
509.145	5201.66
509.514	5235.55
509.882	5209.34
510.25	5237.36
510.618	5244.59
510.986	5273.97
511.354	5308.77
511.722	5329.56
512.09	5408.66
512.458	5384.25
512.826	5391.93
513.193	5451.59
513.561	5426.96
513.929	5433.97
514.297	5459.05
514.664	5487.53
515.032	5538.37
515.4	5528.88
515.767	5538.82
516.135	5539.28
516.502	5462.44
516.869	5635.54
517.237	5613.85
517.604	5584.02
517.972	5627.41
518.339	5633.74
518.706	5628.76
519.073	5693.4
519.44	5753.51
519.808	5793.28
520.175	5705.6
520.542	5795.09
520.909	5825.37
521.276	5770.23
521.643	5854.07
522.009	5815.88
522.376	5916.44
522.743	5895.88
523.11	5956.44
523.477	5922.77
523.843	6036.21
524.21	6002.54
524.577	6048.19
524.943	6068.07
525.31	6104.23
525.676	6156.21
526.043	6124.57
526.409	6212.7
526.776	6257.45
527.142	6260.61
527.508	6262.42
527.874	6337.9
528.241	6301.29
528.607	6298.13
528.973	6373.15
529.339	6412.92
529.705	6452.02
530.071	6393.49
530.437	6438.46
530.803	6505.35
531.169	6529.98
531.535	6515.52
531.901	6462.41
532.267	6581.96
532.632	6625.57
532.998	6579.93
533.364	6668.74
533.73	6651.11
534.095	6684.1
534.461	6767.27
534.826	6807.49
535.192	6706.7
535.557	6818.79
535.923	6813.37
536.288	6827.38
536.653	6822.41
537.019	6882.52
537.384	6879.8
537.749	6908.05
538.114	6898.34
538.479	6925.23
538.845	6901.95
539.21	6929.97
539.575	6967.26
539.94	7032.57
540.305	7066.92
540.67	7056.75
541.034	7091.78
541.399	7050.65
541.764	7135.39
542.129	7108.73
542.494	7179.46
542.858	7134.26
543.223	7183.07
543.587	7197.99
543.952	7193.92
544.316	7238.67
544.681	7214.71
545.045	7263.98
545.41	7295.16
545.774	7372.67
546.138	7332.67
546.503	7317.08
546.867	7326.57
547.231	7414.93
547.595	7457.42
547.959	7404.54
548.324	7466
548.688	7445.67
549.052	7489.05
549.416	7493.12
549.779	7563.63
550.143	7495.61
550.507	7598.88
550.871	7582.84
551.235	7548.94
551.599	7641.37
551.962	7646.79
552.326	7673.91
552.689	7656.28
553.053	7654.93
553.417	7657.64
553.78	7759.56
554.143	7737.64
554.507	7793.45
554.87	7800.91
555.234	7833
555.597	7776.73
555.96	7772.21
556.323	7909.38
556.686	7870.06
557.05	7880.46
557.413	7922.04
557.776	7900.8
558.139	7898.76
558.502	7982.15
558.865	7932.66
559.228	8023.73
559.59	8040.45
559.953	8028.02
560.316	8082.26
560.679	8114.57
561.041	8120.9
561.404	8162.48
561.767	8237.74
562.129	8180.11
562.492	8239.54
562.854	8277.51
563.217	8218.07
563.579	8250.16
563.941	8355.25
564.304	8393.44
564.666	8438.41
565.028	8364.29
565.39	8395.7
565.753	8443.61
566.115	8548.24
566.477	8542.59
566.839	8520.67
567.201	8646.31
567.563	8649.7
567.925	8725.18
568.287	8731.73
568.648	8684.96
569.01	8691.96
569.372	8762.47
569.734	8768.79
570.095	8854.89
570.457	8892.18
570.819	8902.8
571.18	8870.71
571.542	8935.57
571.903	8995.91
572.265	9002.24
572.626	8952.74
572.987	9064.61
573.349	9126.07
573.71	9223.92
574.071	9187.99
574.432	9276.58
574.794	9342.34
575.155	9383.69
575.516	9277.48
575.877	9397.03
576.238	9465.05
576.599	9492.17
576.96	9451.71
577.32	9596.57
577.681	9701.65
578.042	9653.29
578.403	9773.74
578.763	9814.19
579.124	9821.65
579.485	9837.92
579.845	10036.78
580.206	10047.18
580.566	10105.48
580.927	10161.07
581.287	10285.82
581.648	10338.7
582.008	10304.8
582.368	10457.56
582.728	10618.92
583.089	10584.11
583.449	10732.36
583.809	10897.33
584.169	10898.23
584.529	10958.79
584.889	11143.2
585.249	11194.72
585.609	11259.58
585.969	11411.66
586.329	11507.03
586.688	11587.03
587.048	11745.89
587.408	11864.98
587.768	11935.72
588.127	12010.52
588.487	12153.79
588.846	12381.58
589.206	12448.47
589.565	12604.85
589.925	12627.9
590.284	12847.56
590.643	12988.12
591.003	13155.35
591.362	13238.51
591.721	13310.82
592.08	13445.96
592.44	13654.32
592.799	13804.82
593.158	13885.72
593.517	14020.18
593.876	14114.42
594.235	14367.97
594.593	14468.98
594.952	14553.5
595.311	14701.52
595.67	14845.92
596.029	15071.45
596.387	15105.58
596.746	15320.04
597.104	15406.13
597.463	15486.58
597.822	15633.47
598.18	15690.42
598.538	15792.56
598.897	16110.75
599.255	16056.06
599.613	16477.29
599.972	16427.12
600.33	16594.35
600.688	16554.13
601.046	16792.31
601.404	16959.31
601.762	17002.48
602.12	17157.05
602.478	17337.38
602.836	17396.82
603.194	17345.07
603.552	17479.75
603.91	17451.73
604.268	17722.91
604.625	17760.87
604.983	17959.06
605.341	17981.43
605.698	18057.59
606.056	18168.1
606.413	18292.84
606.771	18438.82
607.128	18492.16
607.485	18482.21
607.843	18655.31
608.2	18806.27
608.557	18888.08
608.914	19011.01
609.272	19154.51
609.629	19144.34
609.986	19260.5
610.343	19329.87
610.7	19483.54
611.057	19384.79
611.414	19490.09
611.771	19633.14
612.127	19678.56
612.484	19696.64
612.841	19902.51
613.198	19819.13
613.554	19879.01
613.911	20078.78
614.267	20111.55
614.624	20106.8
614.98	20130.98
615.337	20378.21
615.693	20381.82
616.05	20444.19
616.406	20598.31
616.762	20583.4
617.118	20556.06
617.475	20644.87
617.831	20653.91
618.187	20797.63
618.543	20834.92
618.899	20999.66
619.255	20910.85
619.611	20886.67
619.967	20967.12
620.323	21054.8
620.678	21021.35
621.034	20993.78
621.39	21061.35
621.746	21136.61
622.101	21304.28
622.457	21228.81
622.812	21182.93
623.168	21368.01
623.523	21496.6
623.879	21425.86
624.234	21375.7
624.589	21481
624.945	21504.73
625.3	21452.53
625.655	21598.06
626.01	21612.75
626.365	21492.98
626.72	21538.85
627.075	21540.89
627.43	21543.15
627.785	21540.21
628.14	21611.4
628.495	21561.9
628.85	21561.45
629.205	21565.75
629.559	21702.92
629.914	21590.83
630.269	21588.8
630.623	21565.29
630.978	21475.58
631.332	21613.2
631.687	21727.55
632.041	21648.23
632.396	21707.66
632.75	21572.98
633.104	21659.08
633.459	21481.45
633.813	21408.24
634.167	21463.15
634.521	21559.19
634.875	21609.36
635.229	21524.84
635.583	21367.56
635.937	21453.43
636.291	21408.01
636.645	21363.94
636.999	21379.31
637.352	21410.5
637.706	21250.05
638.06	21396.03
638.413	21318.97
638.767	21296.6
639.121	21409.14
639.474	21347.22
639.828	21139.77
640.181	21307
640.534	21341.35
640.888	21134.35
641.241	21131.86
641.594	21254.34
641.947	21375.47
642.301	21241.46
642.654	21270.84
643.007	21261.57
643.36	21234.68
643.713	21257.28
644.066	21322.59
644.419	21212.54
644.771	21071.52
645.124	20857.97
645.477	20845.09
645.83	20663.85
646.182	20579.56
646.535	20607.35
646.888	20671.08
647.24	20511.31
647.593	20715.37
647.945	20618.65
648.298	20545.89
648.65	20442.84
649.002	20472.89
649.355	20528.94
649.707	20453.01
650.059	20639.22
650.411	20792.43
650.763	20851.87
651.115	21120.79
651.467	21148.36
651.819	21088.7
652.171	20951.75
652.523	21051.18
652.875	20964.86
653.227	20876.73
653.578	21096.38
653.93	20992.43
654.282	21055.25
654.633	20827.91
654.985	20892.54
655.337	20975.25
655.688	20973.45
656.039	21130.96
656.391	20953.11
656.742	20999.43
657.094	20932.09
657.445	21005.76
657.796	20968.47
658.147	20896.61
658.498	20910.4
658.849	20929.83
659.2	21000.79
659.551	20969.38
659.902	21095.48
660.253	21015.03
660.604	21110.39
660.955	21125.76
661.306	21144.29
661.656	20965.76
662.007	21043.95
662.358	20996.5
662.708	21097.74
663.059	21174.57
663.409	20963.5
663.76	21121.01
664.11	21140.22
664.461	21223.61
664.811	21231.52
665.161	21104.29
665.511	21149.03
665.862	21063.16
666.212	21223.83
666.562	21118.3
666.912	21053.22
667.262	21156.27
667.612	21050.96
667.962	21126.89
668.312	21157.4
668.662	21099.54
669.011	21094.57
669.361	21081.92
669.711	20952.66
670.06	21062.03
670.41	21021.81
670.76	20966.67
671.109	21039.88
671.459	20934.8
671.808	20938.19
672.157	20932.99
672.507	20957.4
672.856	20803.28
673.205	20913.33
673.554	20994.91
673.904	20879.66
674.253	21024.97
674.602	20941.81
674.951	20554.7
675.3	20454.14
675.649	20850.06
675.998	20710.63
676.346	20774.35
676.695	20874.69
677.044	20695.94
677.393	20716.73
677.741	20717.18
678.09	20686.9
678.438	20606.45
678.787	20746.56
679.135	20735.94
679.484	20530.52
679.832	20628.82
680.181	20443.29
680.529	20524.87
680.877	20509.05
681.225	20439.67
681.573	20551.31
681.922	20463.63
682.27	20331.43
682.618	20395.38
682.966	20356.06
683.314	20354.7
683.661	20207.82
684.009	20194.48
684.357	20183.64
684.705	20128.95
685.053	20057.99
685.4	20167.82
685.748	20088.95
686.095	20009.4
686.443	19969.63
686.79	19920.14
687.138	19889.18
687.485	19872.68
687.832	19806.24
688.18	19823.42
688.527	19739.58
688.874	19532.58
689.221	19629.53
689.568	19573.48
689.915	19477.21
690.262	19458.46
690.609	19369.42
690.956	19312.25
691.303	19369.42
691.65	19193.38
691.997	19230.89
692.344	19065.93
692.69	19086.04
693.037	19106.83
693.383	18935.31
693.73	18989.54
694.077	18927.62
694.423	18787.97
694.769	18920.62
695.116	18730.11
695.462	18730.34
695.808	18627.97
696.155	18638.37
696.501	18480.18
696.847	18452.83
697.193	18334.19
697.539	18499.61
697.885	18199.06
698.231	18174.2
698.577	18251.26
698.923	18109.34
699.269	18089.68
699.614	17963.36
699.96	17833.87
700.306	17911.15
700.651	17795.45
700.997	17759.97
701.342	17672.97
701.688	17665.28
702.033	17608.56
702.379	17684.72
702.724	17525.85
703.069	17421.67
703.415	17265.29
703.76	17322.02
704.105	17305.97
704.45	17226.43
704.795	17184.17
705.14	17079.31
705.485	17032.53
705.83	17056.71
706.175	16998.18
706.52	16887
706.865	16831.63
707.209	16833.89
707.554	16784.86
707.899	16798.19
708.243	16650.62
708.588	16642.94
708.932	16603.39
709.277	16451.08
709.621	16547.8
709.966	16402.27
710.31	16425.99
710.654	16213.57
710.998	16257.19
711.342	16347.13
711.687	16239.56
712.031	16207.92
712.375	16043.86
712.719	16093.35
713.063	16060.58
713.407	16170.86
713.75	16034.14
714.094	16116.62
714.438	15969.28
714.782	15950.53
715.125	15894.71
715.469	15906.91
715.812	15841.6
716.156	15794.37
716.499	15775.84
716.843	15738.1
717.186	15739.46
717.53	15750.98
717.873	15681.16
718.216	15715.05
718.559	15605.9
718.902	15547.83
719.246	15563.64
719.589	15576.07
719.932	15431.44
720.275	15479.13
720.617	15384.44
720.96	15434.16
721.303	15431.9
721.646	15433.25
721.989	15331.11
722.331	15365.46
722.674	15349.19
723.016	15405.68
723.359	15297.21
723.701	15371.33
724.044	15206.37
724.386	15195.97
724.729	15324.1
725.071	15191
725.413	15282.75
725.755	15220.38
726.097	15111.9
726.439	15095.18
726.782	15041.4
727.124	15091.57
727.465	15084.56
727.807	15160.27
728.149	15050.89
728.491	15012.47
728.833	15077.78
729.175	15017.9
729.516	15064.9
729.858	14981.29
730.199	14966.37
730.541	14968.63
730.882	14955.52
731.224	15013.38
731.565	14831.69
731.906	14952.36
732.248	14966.6
732.589	14881.85
732.93	14852.48
733.271	14855.87
733.612	14908.52
733.953	14893.15
734.294	14842.08
734.635	14885.47
734.976	14882.53
735.317	14894.06
735.658	14801.4
735.999	14858.58
736.339	14811.57
736.68	14895.87
737.021	14809.54
737.361	14739.71
737.702	14860.61
738.042	14797.79
738.383	14833.04
738.723	14931.57
739.063	14803.21
739.404	14894.51
739.744	14806.15
740.084	14875.53
740.424	14968.18
740.764	14922.98
741.104	14913.04
741.444	14824.91
741.784	14863.1
742.124	14926.15
742.464	14912.36
742.804	14940.16
743.143	14947.84
743.483	14949.65
743.823	14868.07
744.162	14971.34
744.502	15000.95
744.841	15037.78
745.181	15148.06
745.52	15130.44
745.86	15174.05
746.199	15113.71
746.538	15223.99
746.877	15320.26
747.216	15244.56
747.556	15263.31
747.895	15352.35
748.234	15375.17
748.573	15385.34
748.911	15513.25
749.25	15599.35
749.589	15585.56
749.928	15698.78
750.267	15718.67
750.605	15819.23
750.944	15792.34
751.283	15951.43
751.621	15989.62
751.96	16063.97
752.298	16138.54
752.636	16268.94
752.975	16277.75
753.313	16312.55
753.651	16490.85
753.989	16565.88
754.327	16685.87
754.666	16672.77
755.004	16801.8
755.342	16996.6
755.679	17130.38
756.017	17077.05
756.355	17265.52
756.693	17370.83
757.031	17428.23
757.368	17511.62
757.706	17614.89
758.044	17768.11
758.381	17846.3
758.719	17971.04
759.056	18148.66
759.394	18161.77
