Data from hue_38_FLMS001491_00083.txt Node
Date: Tue Feb 07 17:32:05 GMT 2017
User: dcchb
Spectrometer: FLMS00149
Trigger mode: 0
Integration Time (sec): 2.000000E-2
Scans to average: 10
Electric dark correction enabled: true
Nonlinearity correction enabled: false
Boxcar width: 0
XAxis mode: Wavelengths
Number of Pixels in Spectrum: 2048
>>>>>Begin Spectral Data<<<<<
341.393	-33.59
341.776	-33.59
342.16	-33.59
342.543	-44.89
342.927	-58.67
343.31	-80.37
343.693	-76.3
344.077	-58.22
344.46	-73.59
344.843	-58.44
345.226	-38.11
345.61	-35.85
345.993	-21.84
346.376	0.31
346.759	-3.08
347.142	32.4
347.525	61.33
347.908	59.97
348.291	84.6
348.674	93.19
349.057	113.98
349.44	125.73
349.823	140.19
350.206	184.26
350.588	200.08
350.971	212.96
351.354	231.27
351.737	249.8
352.119	262
352.502	269.91
352.884	264.94
353.267	280.08
353.65	296.35
354.032	295.9
354.414	310.59
354.797	324.6
355.179	338.83
355.562	310.13
355.944	330.02
356.326	346.06
356.709	339.74
357.091	316.69
357.473	359.17
357.855	325.95
358.238	349
358.62	342.9
359.002	351.49
359.384	334.54
359.766	344.93
360.148	324.14
360.53	345.61
360.912	340.19
361.294	339.28
361.676	320.98
362.057	344.71
362.439	332.51
362.821	346.52
363.203	332.05
363.584	330.92
363.966	318.72
364.348	321.43
364.729	317.36
365.111	322.56
365.493	313.07
365.874	328.66
366.256	315.33
366.637	308.55
367.019	311.49
367.4	313.07
367.781	308.33
368.163	334.31
368.544	310.36
368.925	336.57
369.306	321.21
369.688	322.56
370.069	299.51
370.45	325.5
370.831	297.93
371.212	321.21
371.593	318.72
371.974	324.37
372.355	304.94
372.736	329.79
373.117	316.91
373.498	313.07
373.879	316.69
374.26	321.43
374.641	302.9
375.021	320.08
375.402	307.87
375.783	303.81
376.163	336.12
376.544	313.52
376.925	318.72
377.305	328.44
377.686	316.91
378.066	323.69
378.447	335.44
378.827	337.48
379.208	347.42
379.588	351.71
379.968	309.23
380.349	323.01
380.729	333.64
381.109	348.32
381.489	336.12
381.87	347.65
382.25	357.14
382.63	338.15
383.01	354.65
383.39	333.41
383.77	345.39
384.15	348.1
384.53	360.53
384.91	358.72
385.29	355.78
385.67	351.71
386.049	346.52
386.429	369.79
386.809	354.65
387.189	352.84
387.568	364.14
387.948	331.38
388.328	359.62
388.707	372.5
389.087	344.93
389.466	379.96
389.846	370.24
390.225	358.95
390.605	386.74
390.984	365.95
391.363	368.21
391.743	377.7
392.122	375.67
392.501	378.15
392.881	372.05
393.26	369.11
393.639	391.94
394.018	388.1
394.397	380.64
394.776	377.93
395.155	372.73
395.534	385.61
395.913	393.07
396.292	402.56
396.671	387.42
397.05	391.71
397.429	386.06
397.808	390.58
398.186	387.42
398.565	397.36
398.944	412.73
399.323	384.48
399.701	394.88
400.08	414.54
400.458	400.3
400.837	407.31
401.215	431.03
401.594	389.45
401.972	396.68
402.351	401.2
402.729	398.94
403.107	414.54
403.486	420.41
403.864	419.06
404.242	428.32
404.62	406.85
404.999	415.89
405.377	419.06
405.755	439.17
406.133	433.97
406.511	441.43
406.889	421.77
407.267	422.22
407.645	448.21
408.023	447.76
408.401	434.42
408.779	454.31
409.156	442.33
409.534	443.24
409.912	462.9
410.29	440.07
410.667	459.28
411.045	451.6
411.422	468.1
411.8	459.51
412.178	465.38
412.555	475.33
412.933	472.39
413.31	492.73
413.687	465.84
414.065	469
414.442	479.62
414.819	492.5
415.197	492.05
415.574	486.85
415.951	484.14
416.328	517.36
416.705	505.83
417.082	499.28
417.46	499.51
417.837	483.46
418.214	515.78
418.591	537.92
418.967	492.95
419.344	521.2
419.721	537.02
420.098	524.59
420.475	529.56
420.852	538.38
421.228	560.3
421.605	530.01
421.982	537.47
422.358	537.25
422.735	559.17
423.111	550.13
423.488	557.81
423.864	565.04
424.241	582.44
424.617	568.21
424.994	569.56
425.37	568.43
425.746	586.51
426.123	593.29
426.499	590.58
426.875	582.22
427.251	579.5
427.627	586.28
428.003	587.19
428.379	594.87
428.756	578.37
429.132	635.1
429.507	617.47
429.883	601.2
430.259	642.33
430.635	636.9
431.011	624.02
431.387	641.88
431.763	653.4
432.138	657.69
432.514	645.72
432.89	651.82
433.265	682.1
433.641	694.76
434.016	681.87
434.392	701.31
434.767	699.28
435.143	702.21
435.518	709.44
435.894	702.67
436.269	725.49
436.644	706.05
437.02	715.77
437.395	734.98
437.77	744.92
438.145	756.9
438.52	768.88
438.895	740.86
439.271	763.23
439.646	769.33
440.021	760.52
440.395	770.46
440.77	772.27
441.145	772.27
441.52	787.41
441.895	784.47
442.27	770.91
442.645	769.1
443.019	797.35
443.394	812.72
443.769	824.92
444.143	775.43
444.518	814.75
444.892	831.48
445.267	817.24
445.641	819.5
446.016	820.4
446.39	831.7
446.764	855.2
447.139	846.16
447.513	848.42
447.887	864.24
448.262	852.27
448.636	870.57
449.01	864.47
449.384	883.68
449.758	884.81
450.132	885.49
450.506	880.51
450.88	902.89
451.254	870.34
451.628	895.65
452.002	920.51
452.376	919.61
452.75	932.72
453.123	934.07
453.497	940.4
453.871	958.93
454.244	972.49
454.618	973.17
454.992	1005.26
455.365	993.05
455.739	998.02
456.112	1012.04
456.486	1013.62
456.859	1021.07
457.232	1038.93
457.606	1070.11
457.979	1061.53
458.352	1053.39
458.725	1079.38
459.099	1096.55
459.472	1119.83
459.845	1117.57
460.218	1120.06
460.591	1145.37
460.964	1129.55
461.337	1137.23
461.71	1187.85
462.083	1170.22
462.456	1205.48
462.829	1209.77
463.201	1236.44
463.574	1221.07
463.947	1262.42
464.32	1274.63
464.692	1287.96
465.065	1300.39
465.438	1304.68
465.81	1340.61
466.183	1329.09
466.555	1364.12
466.928	1358.92
467.3	1381.52
467.672	1435.53
468.045	1425.81
468.417	1465.36
468.789	1473.72
469.161	1494.06
469.534	1521.4
469.906	1565.69
470.278	1590.55
470.65	1599.14
471.022	1620.61
471.394	1648.63
471.766	1696.54
472.138	1690.21
472.51	1753.94
472.882	1772.24
473.253	1800.26
473.625	1819.92
473.997	1875.52
474.369	1947.83
474.74	1920.71
475.112	1947.83
475.484	2056.08
475.855	2085
476.227	2108.96
476.598	2183.3
476.97	2209.07
477.341	2269.86
477.713	2306.92
478.084	2355.05
478.455	2426.46
478.827	2453.81
479.198	2531.32
479.569	2585.1
479.94	2667.81
480.311	2722.73
480.682	2768.37
481.053	2871.2
481.424	2948.03
481.795	3018.76
482.166	3104.86
482.537	3188.48
482.908	3299.43
483.279	3357.74
483.65	3424.4
484.021	3474.57
484.391	3558.18
484.762	3651.74
485.133	3713.66
485.503	3829.59
485.874	3926.08
486.244	4032.97
486.615	4154.33
486.985	4212.86
487.356	4341.67
487.726	4414.43
488.097	4476.58
488.467	4586.86
488.837	4769.9
489.207	4823.46
489.578	4900.07
489.948	5055.32
490.318	5121.31
490.688	5195.43
491.058	5298.48
491.428	5459.15
491.798	5546.15
492.168	5691.46
492.538	5755.64
492.908	5828.63
493.278	5959.7
493.648	6047.61
494.017	6215.51
494.387	6306.59
494.757	6380.26
495.126	6495.96
495.496	6557.65
495.866	6646.46
496.235	6714.26
496.605	6819.57
496.974	6899.56
497.344	7046
497.713	7149.28
498.082	7208.26
498.452	7369.38
498.821	7460.91
499.19	7480.57
499.559	7607.79
499.928	7713.33
500.298	7762.37
500.667	7840.33
501.036	7989.93
501.405	8099.53
501.774	8089.36
502.143	8247.1
502.512	8298.4
502.88	8413.87
503.249	8453.87
503.618	8527.09
503.987	8594.66
504.356	8681.89
504.724	8760.76
505.093	8836.46
505.462	8912.84
505.83	9030.58
506.199	9030.36
506.567	9178.37
506.936	9246.62
507.304	9327.52
507.672	9470.8
508.041	9485.26
508.409	9589.21
508.777	9739.72
509.145	9719.15
509.514	9744.01
509.882	9796.44
510.25	9966.83
510.618	9938.35
510.986	10088.41
511.354	10174.51
511.722	10224.9
512.09	10333.37
512.458	10339.02
512.826	10424.22
513.193	10507.83
513.561	10549.86
513.929	10627.15
514.297	10756.41
514.664	10806.35
515.032	10922.74
515.4	10965.45
515.767	10978.78
516.135	11010.87
516.502	11030.3
516.869	11179.45
517.237	11259.68
517.604	11252.44
517.972	11355.49
518.339	11466.45
518.706	11461.48
519.073	11542.83
519.44	11637.97
519.808	11756.61
520.175	11757.97
520.542	11969.94
520.909	11941.92
521.276	11950.5
521.643	12096.26
522.009	12140.33
522.376	12207.22
522.743	12304.62
523.11	12468.01
523.477	12549.13
523.843	12563.6
524.21	12661.9
524.577	12807.21
524.943	12826.87
525.31	12924.72
525.676	13084.26
526.043	13029.12
526.409	13104.15
526.776	13258.27
527.142	13266.85
527.508	13363.58
527.874	13412.61
528.241	13510.24
528.607	13553.85
528.973	13760.63
529.339	13721.76
529.705	13801.08
530.071	13904.35
530.437	13986.61
530.803	14132.14
531.169	14185.02
531.535	14159.03
531.901	14232.93
532.267	14344.11
532.632	14476.54
532.998	14549.08
533.364	14559.48
533.73	14698
534.095	14715.4
534.461	14834.04
534.826	14894.61
535.192	14878.79
535.557	15048.28
535.923	15058.9
536.288	15085.11
536.653	15158.1
537.019	15071.33
537.384	15268.84
537.749	15229.51
538.114	15349.29
538.479	15370.53
538.845	15479.23
539.21	15496.63
539.575	15664.08
539.94	15711.31
540.305	15739.33
540.67	15678.09
541.034	15855.71
541.399	15856.62
541.764	15847.8
542.129	15963.96
542.494	15993.11
542.858	16149.72
543.223	16103.84
543.587	16217.51
543.952	16246.66
544.316	16264.74
544.681	16295.25
545.045	16504.74
545.41	16497.5
545.774	16577.73
546.138	16604.85
546.503	16697.95
546.867	16733.43
547.231	16889.13
547.595	16904.73
547.959	16919.19
548.324	16947.89
548.688	17078.51
549.052	17167.32
549.416	17209.8
549.779	17193.53
550.143	17237.82
550.507	17323.47
550.871	17327.09
551.235	17342.23
551.599	17518.49
551.962	17612.05
552.326	17573.41
552.689	17719.84
553.053	17672.39
553.417	17600.53
553.78	17966.17
554.143	17829.45
554.507	17979.5
554.87	18032.38
555.234	18108.54
555.597	18163
555.96	18268.08
556.323	18323.67
556.686	18325.7
557.05	18480.05
557.413	18544
557.776	18470.79
558.139	18683.44
558.502	18686.83
558.865	18701.74
559.228	18854.28
559.59	18906.03
559.953	18992.81
560.316	19123.42
560.679	19031.22
561.041	19144.21
561.404	19270.54
561.767	19326.13
562.129	19228.28
562.492	19428.95
562.854	19544.66
563.217	19456.52
563.579	19621.72
563.941	19663.52
564.304	19812.9
564.666	19932.22
565.028	19903.29
565.39	19974.93
565.753	20177.18
566.115	20253.56
566.477	20199.78
566.839	20298.31
567.201	20377.85
567.563	20525.65
567.925	20596.15
568.287	20541.69
568.648	20645.42
569.01	20787.79
569.372	20877.5
569.734	20855.81
570.095	21018.29
570.457	21223.71
570.819	21211.96
571.18	21201.34
571.542	21389.58
571.903	21343.25
572.265	21565.39
572.626	21614.43
572.987	21720.87
573.349	21714.54
573.71	21869.34
574.071	21977.36
574.432	22058.04
574.794	22264.36
575.155	22291.48
575.516	22256.67
575.877	22448.76
576.238	22522.66
576.599	22595.2
576.96	22746.15
577.32	22781.41
577.681	23047.84
578.042	23287.16
578.403	23175.97
578.763	23439.92
579.124	23500.48
579.485	23814.15
579.845	23911.09
580.206	23990.64
580.566	24024.54
580.927	24289.39
581.287	24560.34
581.648	24594.69
582.008	24727.34
582.368	24867.23
582.728	24997.85
583.089	25107.67
583.449	25329.36
583.809	25538.85
584.169	25776.36
584.529	25870.14
584.889	26259.28
585.249	26177.25
585.609	26269
585.969	26748.76
586.329	26861.3
586.688	27047.28
587.048	27101.29
587.408	27295.64
587.768	27538.57
588.127	27785.79
588.487	27917.32
588.846	28265.1
589.206	28326.35
589.565	28590.29
589.925	28887.01
590.284	28981.47
590.643	29256.26
591.003	29606.31
591.362	29810.6
591.721	29879.07
592.08	30102.12
592.44	30426.18
592.799	30476.12
593.158	30796.56
593.517	30863.23
593.876	31108.42
594.235	31194.97
594.593	31445.59
594.952	31819.81
595.311	31754.73
595.67	32103.2
596.029	32422.06
596.387	32679.68
596.746	32919.67
597.104	32889.16
597.463	33095.71
597.822	33402.14
598.18	33477.85
598.538	33636.04
598.897	34016.14
599.255	33912.19
599.613	34559.18
599.972	34294.78
600.33	34687.99
600.688	34824.93
601.046	34944.93
601.404	35388.08
601.762	35360.96
602.12	35645.93
602.478	35704.23
602.836	35929.99
603.194	35773.38
603.552	36099.47
603.91	36116.42
604.268	36581.5
604.625	36385.79
604.983	36655.62
605.341	36716.63
605.698	37065.1
606.056	37216.96
606.413	37320.91
606.771	37527.01
607.128	37610.4
607.485	37620.56
607.843	37733.56
608.2	37879.09
608.557	38325.86
608.914	38142.13
609.272	38461.45
609.629	38697.82
609.986	38963.58
610.343	38656.47
610.7	39134.87
611.057	39261.88
611.414	39105.27
611.771	39317.7
612.127	39623.9
612.484	39513.4
612.841	39958.36
613.198	39844.46
613.554	39988.19
613.911	40074.96
614.267	40224.56
614.624	40200.61
614.98	40344.11
615.337	40662.07
615.693	40516.08
616.05	40639.69
616.406	40950.65
616.762	40879.46
617.118	40942.96
617.475	40987.93
617.831	41077.65
618.187	41337.53
618.543	41375.27
618.899	41597.18
619.255	41608.48
619.611	41628.59
619.967	41774.81
620.323	42015.25
620.678	41752.43
621.034	41831.3
621.39	41811.19
621.746	41908.59
622.101	42381.34
622.457	42111.52
622.812	42351.74
623.168	42388.57
623.523	42367.78
623.879	42545.41
624.234	42322.36
624.589	42572.98
624.945	42561.23
625.3	42551.06
625.655	42581.79
626.01	42618.63
626.365	42653.43
626.72	42761.22
627.075	42691.62
627.43	42666.76
627.785	42633.09
628.14	42827.43
628.495	42948.56
628.85	42797.6
629.205	42864.72
629.559	43078.05
629.914	42684.61
630.269	42897.26
630.623	42846.64
630.978	42818.39
631.332	42944.94
631.687	43134.09
632.041	43056.35
632.396	43035.34
632.75	42909.69
633.104	43064.26
633.459	42933.87
633.813	42975.23
634.167	42911.27
634.521	42812.07
634.875	43011.16
635.229	42985.85
635.583	42805.51
635.937	42852.07
636.291	42703.82
636.645	42884.83
636.999	42770.26
637.352	42853.87
637.706	42622.69
638.06	42814.33
638.413	42867.21
638.767	42675.57
639.121	42809.58
639.474	42506.99
639.828	42532.53
640.181	42715.35
640.534	42620.21
640.888	42574.56
641.241	42371.63
641.594	42502.02
641.947	42599.42
642.301	42377.95
642.654	42533.43
643.007	42537.72
643.36	42342.7
643.713	42432.42
644.066	42455.92
644.419	42300.22
644.771	41943.84
645.124	41678.08
645.477	41649.61
645.83	41433.35
646.182	41190.19
646.535	41243.29
646.888	41367.36
647.24	41090.08
647.593	41321.26
647.945	41168.95
648.298	41011.66
648.65	41080.59
649.002	40821.38
649.355	41118.33
649.707	40905.68
650.059	41176.4
650.411	41733
650.763	41785.43
651.115	42072.2
651.467	41898.42
651.819	41902.71
652.171	41897.74
652.523	41893.67
652.875	41844.41
653.227	41637.63
653.578	42061.58
653.93	41929.6
654.282	41829.95
654.633	41650.06
654.985	41646.67
655.337	41729.83
655.688	41681.25
656.039	41756.5
656.391	41602.83
656.742	41633.79
657.094	41598.54
657.445	41814.58
657.796	41611.42
658.147	41561.03
658.498	41640.8
658.849	41653.68
659.2	41530.29
659.551	41504.3
659.902	41711.98
660.253	41484.42
660.604	41589.5
660.955	41302.28
661.306	41528.26
661.656	41381.82
662.007	41603.74
662.358	41441.03
662.708	41354.48
663.059	41306.8
663.409	41098.67
663.76	41389.28
664.11	41348.15
664.461	41463.4
664.811	41440.58
665.161	41381.82
665.511	41248.04
665.862	41447.58
666.212	41475.83
666.562	41515.6
666.912	41349.96
667.262	41202.62
667.612	41397.41
667.962	41399.45
668.312	41295.04
668.662	41483.97
669.011	41388.38
669.361	41271.99
669.711	41263.63
670.06	41120.36
670.41	41281.49
670.76	41010.53
671.109	41182.96
671.459	41101.83
671.808	40941.16
672.157	41214.37
672.507	40926.69
672.856	40931.66
673.205	41128.27
673.554	41142.73
673.904	40959.01
674.253	41276.74
674.602	41113.13
674.951	40618
675.3	40336.88
675.649	41124.65
675.998	41059.12
676.346	40882.4
676.695	41081.26
677.044	40839.24
677.393	40834.94
677.741	40967.6
678.09	40929.63
678.438	40796.75
678.787	40841.72
679.135	40904.09
679.484	40641.05
679.832	40674.5
680.181	40369.87
680.529	40622.75
680.877	40389.76
681.225	40446.03
681.573	40594.5
681.922	40420.04
682.27	40261.4
682.618	40415.07
682.966	40271.34
683.314	40213.49
683.661	40088.52
684.009	39999.94
684.357	39815.99
684.705	39955.87
685.053	39773.05
685.4	39868.19
685.748	39619.83
686.095	39712.71
686.443	39524.24
686.79	39503.9
687.138	39554.07
687.485	39551.59
687.832	39475.2
688.18	39518.37
688.527	39170.58
688.874	39215.55
689.221	39187.98
689.568	39025.95
689.915	39034.76
690.262	39032.28
690.609	38782.34
690.956	38617.83
691.303	38736.92
691.65	38477.04
691.997	38510.94
692.344	38321.56
692.69	38356.14
693.037	38387.55
693.383	37916.15
693.73	38187.78
694.077	37842.71
694.423	37896.72
694.769	37829.15
695.116	37718.64
695.462	37707.34
695.808	37363.62
696.155	37624.86
696.501	37289.27
696.847	37361.81
697.193	37013.35
697.539	37162.5
697.885	36897.87
698.231	36843.41
698.577	36747.82
698.923	36797.99
699.269	36598.67
699.614	36416.53
699.96	36393.25
700.306	36502.85
700.651	36264.89
700.997	36297.89
701.342	36106.48
701.688	36129.98
702.033	35857.22
702.379	35968.63
702.724	35949.2
703.069	35881.63
703.415	35565.25
703.76	35440.73
704.105	35506.04
704.45	35497.91
704.795	35261.53
705.14	35191.7
705.485	35187.18
705.83	34953.74
706.175	34969.79
706.52	34928.88
706.865	34759.17
707.209	34739.96
707.554	34643.47
707.899	34828.55
708.243	34407.99
708.588	34316.47
708.932	34206.19
709.277	34248.9
709.621	34310.14
709.966	34036.25
710.31	34085.06
710.654	33712.19
710.998	33946.08
711.342	33910.15
711.687	33824.73
712.031	33611.4
712.375	33481.92
712.719	33491.41
713.063	33480.56
713.407	33615.47
713.75	33478.53
714.094	33509.03
714.438	33195.82
714.782	33337.74
715.125	33071.08
715.469	33114.02
715.812	33091.42
716.156	32947.24
716.499	32812.33
716.843	32952.89
717.186	32726
717.53	32813.69
717.873	32784.08
718.216	32584.09
718.559	32558.1
718.902	32364.88
719.246	32426.35
719.589	32200.59
719.932	32218.67
720.275	32215.96
720.617	32230.42
720.96	32181.61
721.303	32139.13
721.646	32036.3
721.989	31908.62
722.331	32034.27
722.674	31893.94
723.016	31928.74
723.359	31783.66
723.701	31780.49
724.044	31589.99
724.386	31454.85
724.729	31582.76
725.071	31427.51
725.413	31525.81
725.755	31422.08
726.097	31298.47
726.439	31275.42
726.782	31175.31
727.124	31262.09
727.465	31232.94
727.807	31117.68
728.149	31118.81
728.491	30986.84
728.833	31034.75
729.175	31022.32
729.516	30937.58
729.858	30896
730.199	30778.48
730.541	30718.15
730.882	30686.06
731.224	30785.72
731.565	30556.8
731.906	30618.71
732.248	30559.06
732.589	30455.1
732.93	30339.17
733.271	30347.08
733.612	30431.15
733.953	30397.03
734.294	30327.42
734.635	30231.83
734.976	30148.9
735.317	30126.98
735.658	30131.27
735.999	30020.31
736.339	30032.97
736.68	30090.37
737.021	29994.32
737.361	29833.88
737.702	29893.76
738.042	29963.82
738.383	29706.65
738.723	29941.44
739.063	29674.78
739.404	29821.22
739.744	29726.53
740.084	29591.62
740.424	29689.93
740.764	29630.04
741.104	29668.91
741.444	29393.21
741.784	29388.01
742.124	29504.85
742.464	29426.2
742.804	29369.48
743.143	29219.88
743.483	29181.46
743.823	29112.54
744.162	29236.15
744.502	29200.45
744.841	28979.89
745.181	29150.05
745.52	28906.22
745.86	29039.1
746.199	28895.37
746.538	28842.49
746.877	28895.37
747.216	28875.03
747.556	28699.44
747.895	28806.78
748.234	28514.36
748.573	28589.62
748.911	28591.65
749.25	28568.6
749.589	28466.68
749.928	28454.93
750.267	28397.53
750.605	28302.39
750.944	28260.36
751.283	28119.35
751.621	28238.44
751.96	28006.58
752.298	28156.41
752.636	28139.23
752.975	27912.12
753.313	27812.69
753.651	28002.74
753.989	27819.01
754.327	27840.71
754.666	27687.04
755.004	27764.55
755.342	27770.2
755.679	27752.58
756.017	27490.44
756.355	27548.74
756.693	27417.22
757.031	27518.91
