Data from hue_290_FLMS001491_00093.txt Node
Date: Tue Feb 07 15:53:44 GMT 2017
User: dcchb
Spectrometer: FLMS00149
Trigger mode: 0
Integration Time (sec): 2.000000E-2
Scans to average: 10
Electric dark correction enabled: true
Nonlinearity correction enabled: false
Boxcar width: 0
XAxis mode: Wavelengths
Number of Pixels in Spectrum: 2048
>>>>>Begin Spectral Data<<<<<
341.393	-22.27
341.776	-22.27
342.16	-22.27
342.543	-55.72
342.927	-67.92
343.31	-71.09
343.693	-83.51
344.077	-67.47
344.46	-51.88
344.843	-72.22
345.226	-35.15
345.61	-55.49
345.993	-11.43
346.376	3.71
346.759	15.24
347.142	26.76
347.525	50.27
347.908	63.37
348.291	75.58
348.674	100.44
349.057	112.86
349.44	128.01
349.823	152.64
350.206	184.95
350.588	191.51
350.971	209.58
351.354	204.39
351.737	224.27
352.119	253.65
352.502	261.56
352.884	271.73
353.267	270.6
353.65	283.03
354.032	288.23
354.414	294.33
354.797	306.76
355.179	320.54
355.562	318.73
355.944	310.83
356.326	329.13
356.709	328
357.091	332.97
357.473	320.99
357.855	345.63
358.238	334.1
358.62	323.25
359.002	344.95
359.384	344.72
359.766	332.52
360.148	333.2
360.53	326.42
360.912	325.51
361.294	336.59
361.676	330.49
362.057	329.13
362.439	335.01
362.821	326.87
363.203	323.71
363.584	329.13
363.966	320.77
364.348	310.83
364.729	325.29
365.111	316.02
365.493	332.52
365.874	313.08
366.256	302.69
366.637	308.79
367.019	322.58
367.4	288
367.781	299.75
368.163	329.13
368.544	304.05
368.925	319.64
369.306	318.73
369.688	304.27
370.069	301.33
370.45	304.5
370.831	308.79
371.212	309.02
371.593	317.15
371.974	298.62
372.355	321.45
372.736	321.45
373.117	311.96
373.498	328.23
373.879	321.22
374.26	303.59
374.641	306.53
375.021	300.66
375.402	318.06
375.783	310.15
376.163	354.21
376.544	322.35
376.925	318.73
377.305	350.15
377.686	353.76
378.066	324.61
378.447	335.46
378.827	321.45
379.208	355.12
379.588	330.71
379.968	314.44
380.349	318.28
380.729	354.89
381.109	346.3
381.489	336.81
381.87	341.56
382.25	327.32
382.63	332.75
383.01	346.98
383.39	350.37
383.77	343.37
384.15	350.15
384.53	339.98
384.91	377.04
385.29	355.57
385.67	341.56
386.049	335.01
386.429	351.95
386.809	351.73
387.189	356.7
387.568	354.44
387.948	354.89
388.328	368.45
388.707	363.93
389.087	370.26
389.466	379.75
389.846	345.17
390.225	366.64
390.605	385.4
390.984	372.74
391.363	365.96
391.743	384.04
392.122	383.37
392.501	390.82
392.881	373.65
393.26	397.38
393.639	381.33
394.018	405.51
394.397	392.63
394.776	389.92
395.155	388.34
395.534	392.18
395.913	377.94
396.292	383.59
396.671	409.35
397.05	366.87
397.429	402.12
397.808	420.2
398.186	391.5
398.565	409.35
398.944	404.16
399.323	404.83
399.701	405.51
400.08	419.3
400.458	418.62
400.837	407.09
401.215	422.91
401.594	429.24
401.972	413.42
402.351	427.21
402.729	437.6
403.107	429.24
403.486	430.6
403.864	417.94
404.242	448.9
404.62	460.2
404.999	460.43
405.377	436.7
405.755	482.12
406.133	460.43
406.511	481.89
406.889	490.71
407.267	490.03
407.645	485.06
408.023	494.55
408.401	474.66
408.779	499.07
409.156	477.37
409.534	507.88
409.912	516.7
410.29	502.01
410.667	501.33
411.045	544.27
411.422	538.16
411.8	537.03
412.178	564.6
412.555	565.96
412.933	575
413.31	600.99
413.687	593.76
414.065	599.41
414.442	575.22
414.819	596.47
415.197	631.72
415.574	630.59
415.951	618.16
416.328	638.73
416.705	655.67
417.082	652.96
417.46	646.18
417.837	663.58
418.214	643.47
418.591	697.48
418.967	700.19
419.344	712.62
419.721	708.1
420.098	701.78
420.475	705.39
420.852	706.52
421.228	732.51
421.605	733.19
421.982	759.4
422.358	756.46
422.735	780.42
423.111	775.9
423.488	802.34
423.864	792.85
424.241	835.11
424.617	827.2
424.994	850.25
425.37	851.38
425.746	852.51
426.123	862.9
426.499	844.6
426.875	880.53
427.251	889.79
427.627	899.28
428.003	942.45
428.379	922.11
428.756	934.09
429.132	941.09
429.507	955.33
429.883	993.52
430.259	982.9
430.635	984.25
431.011	1001.2
431.387	1023.35
431.763	1017.47
432.138	1051.37
432.514	1064.25
432.89	1063.35
433.265	1074.19
433.641	1090.47
434.016	1107.19
434.392	1132.05
434.767	1122.56
435.143	1138.37
435.518	1152.16
435.894	1166.4
436.269	1175.89
436.644	1199.16
437.02	1216.56
437.395	1217.92
437.77	1237.58
438.145	1264.7
438.52	1264.25
438.895	1282.1
439.271	1259.05
439.646	1299.5
440.021	1309.89
440.395	1303.34
440.77	1316.67
441.145	1301.31
441.52	1360.97
441.895	1345.83
442.27	1363.9
442.645	1361.19
443.019	1360.29
443.394	1366.16
443.769	1405.71
444.143	1410.46
444.518	1415.43
444.892	1393.28
445.267	1419.5
445.641	1440.29
446.016	1428.54
446.39	1447.74
446.764	1419.27
447.139	1431.93
447.513	1471.25
447.887	1459.72
448.262	1448.2
448.636	1480.96
449.01	1462.43
449.384	1480.96
449.758	1511.02
450.132	1523.22
450.506	1523.22
450.88	1515.99
451.254	1560.96
451.628	1554.18
452.002	1578.36
452.376	1598.93
452.75	1588.53
453.123	1611.36
453.497	1598.93
453.871	1591.7
454.244	1647.74
454.618	1666.04
454.992	1660.17
455.365	1685.93
455.739	1716.89
456.112	1694.97
456.486	1716.44
456.859	1718.92
457.232	1759.83
457.606	1778.58
457.979	1732.48
458.352	1805.7
458.725	1788.98
459.099	1784.68
459.472	1837.34
459.845	1852.25
460.218	1849.77
460.591	1861.52
460.964	1855.64
461.337	1926.6
461.71	1926.15
462.083	1913.49
462.456	1944
462.829	1962.53
463.201	1997.33
463.574	2003.21
463.947	2005.02
464.32	2037.79
464.692	2051.12
465.065	2039.37
465.438	2120.72
465.81	2081.85
466.183	2099.25
466.555	2164.11
466.928	2184.22
467.3	2169.99
467.672	2206.37
468.045	2196.88
468.417	2231.68
468.789	2246.82
469.161	2244.11
469.534	2234.39
469.906	2363.65
470.278	2363.65
470.65	2363.88
471.022	2398.68
471.394	2428.51
471.766	2426.93
472.138	2454.95
472.51	2453.37
472.882	2529.98
473.253	2551.67
473.625	2580.82
473.997	2623.53
474.369	2618.79
474.74	2623.53
475.112	2654.94
475.484	2731.33
475.855	2719.12
476.227	2767.26
476.598	2804.54
476.97	2794.6
477.341	2886.35
477.713	2907.37
478.084	2892.23
478.455	2979.46
478.827	2969.96
479.198	3066.23
479.569	3058.1
479.94	3108.72
480.311	3134.03
480.682	3188.94
481.053	3270.3
481.424	3260.35
481.795	3332.67
482.166	3329.05
482.537	3371.31
482.908	3402.5
483.279	3416.96
483.65	3442.49
484.021	3534.02
484.391	3569.27
484.762	3585.32
485.133	3625.54
485.503	3670.96
485.874	3712.09
486.244	3724.52
486.615	3813.56
486.985	3817.85
487.356	3876.83
487.726	3881.8
488.097	3955.48
488.467	3893.56
488.837	4057.39
489.207	4070.95
489.578	4117.5
489.948	4115.47
490.318	4154.34
490.688	4179.42
491.058	4235.47
491.428	4247.22
491.798	4297.84
492.168	4348.23
492.538	4330.15
492.908	4393.43
493.278	4470.94
493.648	4432.75
494.017	4555.91
494.387	4539.87
494.757	4550.04
495.126	4577.83
495.496	4597.27
495.866	4626.64
496.235	4681.56
496.605	4687.66
496.974	4689.69
497.344	4774.21
497.713	4805.4
498.082	4816.7
498.452	4810.37
498.821	4893.3
499.19	4856.02
499.559	4925.62
499.928	4925.39
500.298	4944.15
500.667	4943.25
501.036	4932.85
501.405	5063.02
501.774	5018.5
502.143	5035.9
502.512	5036.35
502.88	5092.39
503.249	5087.42
503.618	5160.87
503.987	5136.24
504.356	5125.39
504.724	5150.02
505.093	5133.98
505.462	5215.1
505.83	5237.02
506.199	5245.38
506.567	5301.88
506.936	5294.87
507.304	5350.24
507.672	5385.49
508.041	5380.07
508.409	5405.83
508.777	5392.73
509.145	5391.6
509.514	5392.73
509.882	5426.4
510.25	5481.76
510.618	5488.54
510.986	5478.82
511.354	5529.22
511.722	5553.85
512.09	5594.3
512.458	5559.05
512.826	5622.78
513.193	5692.83
513.561	5613.96
513.929	5692.6
514.297	5710.23
514.664	5739.83
515.032	5740.74
515.4	5780.51
515.767	5796.33
516.135	5820.96
516.502	5785.94
516.869	5824.8
517.237	5863.9
517.604	5842.43
517.972	5841.75
518.339	5859.83
518.706	5889.89
519.073	5902.09
519.44	5929.21
519.808	5949.32
520.175	6016.21
520.542	6077.45
520.909	6102.99
521.276	6023.67
521.643	6034.29
522.009	6153.16
522.376	6172.59
522.743	6172.59
523.11	6209.65
523.477	6227.28
523.843	6249.2
524.21	6304.57
524.577	6291.23
524.943	6307.96
525.31	6311.12
525.676	6413.26
526.043	6470.44
526.409	6455.3
526.776	6474.28
527.142	6488.97
527.508	6501.17
527.874	6562.64
528.241	6644.44
528.607	6600.83
528.973	6662.75
529.339	6638.12
529.705	6753.37
530.071	6739.58
530.437	6785.01
530.803	6775.29
531.169	6849.86
531.535	6835.85
531.901	6843.31
532.267	6856.64
532.632	6922.85
532.998	6932.12
533.364	7002.4
533.73	6957.43
534.095	7023.64
534.461	7035.17
534.826	7028.39
535.192	7035.62
535.557	7107.71
535.923	7065.22
536.288	7107.93
536.653	7200.81
537.019	7144.77
537.384	7276.97
537.749	7207.59
538.114	7294.6
538.479	7223.64
538.845	7244.65
539.21	7242.62
539.575	7283.07
539.94	7360.36
540.305	7362.84
540.67	7323.75
541.034	7348.61
541.399	7415.05
541.764	7376.63
542.129	7487.81
542.494	7491.88
542.858	7511.54
543.223	7487.36
543.587	7536.17
543.952	7555.15
544.316	7571.2
544.681	7479.45
545.045	7695.49
545.41	7673.8
545.774	7675.15
546.138	7715.6
546.503	7716.28
546.867	7756.96
547.231	7756.05
547.595	7749.95
547.959	7811.19
548.324	7781.36
548.688	7831.98
549.052	7833.34
549.416	7849.38
549.779	7877.18
550.143	7876.28
550.507	7945.43
550.871	7938.87
551.235	7947.23
551.599	7946.78
551.962	7973.22
552.326	7955.14
552.689	8057.29
553.053	7969.61
553.417	8026.33
553.78	8130.28
554.143	8051.41
554.507	8133.44
554.87	8104.52
555.234	8198.3
555.597	8114.69
555.96	8158.75
556.323	8181.8
556.686	8201.47
557.05	8296.15
557.413	8218.19
557.776	8202.14
558.139	8311.97
558.502	8324.4
558.865	8346.55
559.228	8351.74
559.59	8399.65
559.953	8435.81
560.316	8490.72
560.679	8450.95
561.041	8456.15
561.404	8573.88
561.767	8525.98
562.129	8510.38
562.492	8576.37
562.854	8615.69
563.217	8688.01
563.579	8671.51
563.941	8731.85
564.304	8782.69
564.666	8753.54
565.028	8767.55
565.39	8783.14
565.753	8827.44
566.115	8843.93
566.477	8865.63
566.839	8880.32
567.201	8982.69
567.563	8953.99
567.925	9077.83
568.287	8969.81
568.648	9039.86
569.01	9102.01
569.372	9166.19
569.734	9128.67
570.095	9224.94
570.457	9265.39
570.819	9233.75
571.18	9292.74
571.542	9311.49
571.903	9311.72
572.265	9409.12
572.626	9436.23
572.987	9409.79
573.349	9434.2
573.71	9504.48
574.071	9586.97
574.432	9604.37
574.794	9785.83
575.155	9704.02
575.516	9640.07
575.877	9738.37
576.238	9820.41
576.599	9934.53
576.96	9963.68
577.32	9944.24
577.681	10066.73
578.042	10133.39
578.403	10181.53
578.763	10221.75
579.124	10227.4
579.485	10351.69
579.845	10366.38
580.206	10473.04
580.566	10576.32
580.927	10557.79
581.287	10739.25
581.648	10676.2
582.008	10901.28
582.368	10946.25
582.728	11074.16
583.089	11108.28
583.449	11228.05
583.809	11266.47
584.169	11355.73
584.529	11527.03
584.889	11606.12
585.249	11680.92
585.609	11813.12
585.969	11869.17
586.329	12039.78
586.688	12147.35
587.048	12231.42
587.408	12313.45
587.768	12419.43
588.127	12562.48
588.487	12630.95
588.846	12862.59
589.206	12917.05
589.565	13081.56
589.925	13273.2
590.284	13352.74
590.643	13578.95
591.003	13671.38
591.362	13790.02
591.721	13906.17
592.08	14051.25
592.44	14272.72
592.799	14438.14
593.158	14462.54
593.517	14554.52
593.876	14746.6
594.235	14910.22
594.593	15077.22
594.952	15272.47
595.311	15380.94
595.67	15414.61
596.029	15661.16
596.387	15845.11
596.746	15944.09
597.104	15969.85
597.463	16111.54
597.822	16284.87
598.18	16383.17
598.538	16464.3
598.897	16758.3
599.255	16662.26
599.613	16917.39
599.972	17020.22
600.33	17027.67
600.688	17126.2
601.046	17381.11
601.404	17508.34
601.762	17619.07
602.12	17772.29
602.478	17926.86
602.836	18053.41
603.194	17913.75
603.552	18203.91
603.91	18174.76
604.268	18316.68
604.625	18466.96
604.983	18604.58
605.341	18545.6
605.698	18730.23
606.056	18824.01
606.413	18900.39
606.771	18960.96
607.128	19175.19
607.485	19134.06
607.843	19126.38
608.2	19354.17
608.557	19473.71
608.914	19565.69
609.272	19661.95
609.629	19831.44
609.986	19890.65
610.343	19946.92
610.7	19970.87
611.057	20080.25
611.414	20043.64
611.771	20180.81
612.127	20301.03
612.484	20322.95
612.841	20437.3
613.198	20374.25
613.554	20504.87
613.911	20660.8
614.267	20750.06
614.624	20715.03
614.98	20796.16
615.337	20943.95
615.693	20923.62
616.05	21008.59
616.406	21237.96
616.762	21036.16
617.118	21232.31
617.475	21247.45
617.831	21260.78
618.187	21406.99
618.543	21314.34
618.899	21424.62
619.255	21495.35
619.611	21553.43
619.967	21692.18
620.323	21665.29
620.678	21656.48
621.034	21650.38
621.39	21658.74
621.746	21676.82
622.101	22011.27
622.457	21835.23
622.812	21833.65
623.168	21887.66
623.523	21974.21
623.879	22026.86
624.234	21901.9
624.589	22062.57
624.945	22125.39
625.3	22095.56
625.655	22195.45
626.01	22200.65
626.365	22128.1
626.72	22169.46
627.075	22183.02
627.43	22216.24
627.785	22186.41
628.14	22198.61
628.495	22229.8
628.85	22197.93
629.205	22169.91
629.559	22247.88
629.914	22203.81
630.269	22127.88
630.623	22147.99
630.978	22112.96
631.332	22284.26
631.687	22318.61
632.041	22221.44
632.396	22213.3
632.75	22097.82
633.104	22196.58
633.459	22065.73
633.813	22091.72
634.167	22082.91
634.521	22044.27
634.875	22092.85
635.229	22092.4
635.583	22011.72
635.937	22040.2
636.291	22019.18
636.645	22131.49
636.999	22069.58
637.352	22049.01
637.706	21961.33
638.06	22145.73
638.413	21989.35
638.767	21925.17
639.121	22181.89
639.474	21819.19
639.828	21935.57
640.181	21939.18
640.534	21881.56
640.888	21807.66
641.241	21775.35
641.594	21843.59
641.947	21923.59
642.301	21992.29
642.654	21901.9
643.007	21814.89
643.36	21900.31
643.713	21722.92
644.066	21936.92
644.419	21745.29
644.771	21679.3
645.124	21526.54
645.477	21348.24
645.83	21330.16
646.182	21235.47
646.535	21161.35
646.888	21188.92
647.24	21066.21
647.593	21219.65
647.945	21208.81
648.298	21169.49
648.65	21119.32
649.002	21031.41
649.355	21122.48
649.707	21145.76
650.059	21231.41
650.411	21506.2
650.763	21410.16
651.115	21754.56
651.467	21706.87
651.819	21725.86
652.171	21639.08
652.523	21604.5
652.875	21583.94
653.227	21477.05
653.578	21780.77
653.93	21636.37
654.282	21610.83
654.633	21596.37
654.985	21640.21
655.337	21640.89
655.688	21666.2
656.039	21826.87
656.391	21541
656.742	21573.77
657.094	21578.51
657.445	21657.38
657.796	21765.4
658.147	21771.05
658.498	21619.19
658.849	21679.98
659.2	21656.7
659.551	21571.51
659.902	21642.02
660.253	21678.17
660.604	21677.49
660.955	21526.31
661.306	21836.13
661.656	21644.05
662.007	21669.81
662.358	21673.43
662.708	21760.88
663.059	21796.59
663.409	21622.13
663.76	21734.44
664.11	21751.62
664.461	21709.81
664.811	21762.69
665.161	21776.25
665.511	21710.94
665.862	21694.22
666.212	21800.2
666.562	21799.53
666.912	21756.14
667.262	21705.74
667.612	21763.37
667.962	21810.6
668.312	21585.97
668.662	21967.66
669.011	21773.54
669.361	21686.08
669.711	21732.86
670.06	21642.24
670.41	21656.48
670.76	21637.95
671.109	21750.49
671.459	21717.95
671.808	21677.72
672.157	21649.93
672.507	21571.51
672.856	21526.76
673.205	21567.89
673.554	21648.34
673.904	21511.17
674.253	21604.73
674.602	21519.31
674.951	21211.52
675.3	21119.77
675.649	21528.12
675.998	21460.1
676.346	21464.62
676.695	21465.98
677.044	21429.59
677.393	21465.75
677.741	21416.48
678.09	21258.3
678.438	21244.51
678.787	21355.02
679.135	21429.82
679.484	21186.21
679.832	21226.66
680.181	21146.44
680.529	21176.72
680.877	21036.83
681.225	21089.04
681.573	21145.31
681.922	20962.26
682.27	20916.16
682.618	21034.8
682.966	21010.39
683.314	20926.1
683.661	20803.39
684.009	20786.67
684.357	20878.19
684.705	20721.81
685.053	20762.49
685.4	20675.71
685.748	20593.23
686.095	20660.35
686.443	20537.64
686.79	20428.49
687.138	20447.24
687.485	20534.93
687.832	20474.81
688.18	20388.04
688.527	20313.01
688.874	20235.72
689.221	20224.2
689.568	20185.56
689.915	20053.36
690.262	20077.31
690.609	19857.2
690.956	19955.96
691.303	19894.94
691.65	19825.34
691.997	19796.87
692.344	19605.91
692.69	19662.41
693.037	19696.53
693.383	19486.14
693.73	19556.87
694.077	19349.19
694.423	19393.04
694.769	19346.03
695.116	19295.64
695.462	19250.67
695.808	19306.03
696.155	19201.63
696.501	18948.08
696.847	18972.71
697.193	18964.8
697.539	18868.76
697.885	18685.03
698.231	18665.37
698.577	18736.78
698.923	18647.74
699.269	18546.05
699.614	18529.56
699.96	18476
700.306	18506.73
700.651	18358.26
700.997	18280.52
701.342	18222.44
701.688	18292.5
702.033	18205.04
702.379	18133.86
702.724	18078.72
703.069	18092.5
703.415	17879.4
703.76	17798.27
704.105	17845.05
704.45	17737.94
704.795	17608
705.14	17628.11
705.485	17570.26
705.83	17551.73
706.175	17444.84
706.52	17442.35
706.865	17416.36
707.209	17337.04
707.554	17233.77
707.899	17293.88
708.243	17153.32
708.588	17158.07
708.932	16982.93
709.277	17141.34
709.621	16954.46
709.966	16869.49
710.31	16883.04
710.654	16758.3
710.998	16764.18
711.342	16805.53
711.687	16724.18
712.031	16686.89
712.375	16557.18
712.719	16611.87
713.063	16616.84
713.407	16682.15
713.75	16439.44
714.094	16496.61
714.438	16448.03
714.782	16461.13
715.125	16471.98
715.469	16425.2
715.812	16237.86
716.156	16219.79
716.499	16314.47
716.843	16285.77
717.186	16214.81
717.53	16310.4
717.873	16168.71
718.216	16135.04
718.559	16051.43
718.902	15959.45
719.246	16000.13
719.589	16012.56
719.932	15925.56
720.275	15949.06
720.617	15916.74
720.96	15914.26
721.303	15977.53
721.646	15893.69
721.989	15836.74
722.331	15904.09
722.674	15766.92
723.016	15864.54
723.359	15748.16
723.701	15829.51
724.044	15679.91
724.386	15661.83
724.729	15721.49
725.071	15677.65
725.413	15606.24
725.755	15623.19
726.097	15593.14
726.439	15436.76
726.782	15503.87
727.124	15537.54
727.465	15502.29
727.807	15496.41
728.149	15419.13
728.491	15402.86
728.833	15438.56
729.175	15475.62
729.516	15405.34
729.858	15437.89
730.199	15436.98
730.541	15446.47
730.882	15392.46
731.224	15408.06
731.565	15338.45
731.906	15406.02
732.248	15387.04
732.589	15335.97
732.93	15241.05
733.271	15232.24
733.612	15347.72
733.953	15420.48
734.294	15264.56
734.635	15261.39
734.976	15352.24
735.317	15316.31
735.658	15340.94
735.999	15331
736.339	15274.05
736.68	15351.79
737.021	15302.75
737.361	15243.99
737.702	15335.29
738.042	15245.57
738.383	15287.38
738.723	15350.88
739.063	15316.08
739.404	15274.05
739.744	15391.78
740.084	15328.51
740.424	15363.99
740.764	15365.12
741.104	15431.78
741.444	15282.18
741.784	15326.25
742.124	15417.77
742.464	15425.91
742.804	15335.74
743.143	15408.28
743.483	15481.95
743.823	15430.65
744.162	15444.44
744.502	15437.89
744.841	15420.26
745.181	15562.63
745.52	15540.03
745.86	15581.38
746.199	15635.85
746.538	15678.1
746.877	15734.37
747.216	15756.52
747.556	15772.34
747.895	15853.47
748.234	15896.4
748.573	15782.28
748.911	15987.7
749.25	15953.8
749.589	16017.53
749.928	16152.67
750.267	16237.19
750.605	16293.23
750.944	16364.64
751.283	16395.37
751.621	16548.14
751.96	16578.65
752.298	16584.3
752.636	16765.76
752.975	16780.45
753.313	16829.94
753.651	16984.74
753.989	16890.5
754.327	17083.49
754.666	17058.41
755.004	17266.99
755.342	17412.97
755.679	17511.95
756.017	17499.07
756.355	17627.43
756.693	17700.2
757.031	17949.91
757.368	17914.88
757.706	18131.37
758.044	18084.37
758.381	18211.37
758.719	18294.99
759.056	18466.28
