Data from hue_38_FLMS001491_00004.txt Node
Date: Tue Feb 07 17:30:58 GMT 2017
User: dcchb
Spectrometer: FLMS00149
Trigger mode: 0
Integration Time (sec): 2.000000E-2
Scans to average: 10
Electric dark correction enabled: true
Nonlinearity correction enabled: false
Boxcar width: 0
XAxis mode: Wavelengths
Number of Pixels in Spectrum: 2048
>>>>>Begin Spectral Data<<<<<
341.393	-37.33
341.776	-37.33
342.16	-37.33
342.543	-73.03
342.927	-61.06
343.31	-54.5
343.693	-93.6
344.077	-62.64
344.46	-61.74
344.843	-42.98
345.226	-56.99
345.61	-7.27
345.993	-16.31
346.376	-0.95
346.759	3.12
347.142	32.27
347.525	45.83
347.908	55.32
348.291	63.01
348.674	86.28
349.057	111.14
349.44	132.16
349.823	141.2
350.206	155.21
350.588	184.59
350.971	211.7
351.354	234.08
351.737	227.52
352.119	257.13
352.502	256.67
352.884	281.31
353.267	279.05
353.65	298.25
354.032	302.32
354.414	309.78
354.797	327.86
355.179	307.97
355.562	338.93
355.944	316.79
356.326	334.41
356.709	345.49
357.091	334.86
357.473	346.16
357.855	328.31
358.238	335.77
358.62	348.42
359.002	335.99
359.384	349.55
359.766	340.74
360.148	359.95
360.53	358.82
360.912	366.28
361.294	337.8
361.676	359.27
362.057	332.38
362.439	336.67
362.821	354.98
363.203	340.29
363.584	323.11
363.966	321.76
364.348	320.4
364.729	345.26
365.111	326.28
365.493	338.25
365.874	325.15
366.256	313.85
366.637	316.11
367.019	313.85
367.4	304.36
367.781	316.33
368.163	326.5
368.544	317.92
368.925	306.84
369.306	324.47
369.688	325.6
370.069	306.62
370.45	316.56
370.831	337.12
371.212	313.62
371.593	297.35
371.974	321.08
372.355	313.62
372.736	331.93
373.117	321.08
373.498	326.5
373.879	328.54
374.26	315.43
374.641	310.46
375.021	317.01
375.402	315.66
375.783	326.95
376.163	324.02
376.544	334.64
376.925	321.08
377.305	335.54
377.686	328.08
378.066	325.6
378.447	320.85
378.827	333.96
379.208	337.58
379.588	320.4
379.968	354.75
380.349	344.36
380.729	343.68
381.109	333.51
381.489	337.8
381.87	334.41
382.25	336.22
382.63	357.46
383.01	342.55
383.39	354.3
383.77	348.42
384.15	322.66
384.53	343
384.91	344.13
385.29	353.17
385.67	353.39
386.049	357.01
386.429	356.33
386.809	352.49
387.189	345.94
387.568	357.01
387.948	372.15
388.328	349.55
388.707	364.92
389.087	360.17
389.466	354.52
389.846	375.54
390.225	381.42
390.605	370.34
390.984	386.39
391.363	385.71
391.743	365.82
392.122	375.77
392.501	373.06
392.881	377.57
393.26	377.35
393.639	379.61
394.018	388.87
394.397	392.26
394.776	385.26
395.155	390.68
395.534	381.42
395.913	390.91
396.292	387.74
396.671	405.14
397.05	390.46
397.429	361.53
397.808	386.61
398.186	412.6
398.565	400.63
398.944	390.68
399.323	410.12
399.701	394.98
400.08	410.12
400.458	399.5
400.837	402.43
401.215	401.53
401.594	393.62
401.972	419.38
402.351	422.77
402.729	407.86
403.107	406.73
403.486	439.95
403.864	410.57
404.242	409.44
404.62	427.07
404.999	413.96
405.377	412.83
405.755	415.54
406.133	436.78
406.511	415.09
406.889	431.13
407.267	440.4
407.645	448.31
408.023	436.1
408.401	450.79
408.779	437.91
409.156	436.56
409.534	435.88
409.912	434.07
410.29	455.99
410.667	489.21
411.045	468.65
411.422	480.62
411.8	472.94
412.178	475.65
412.555	466.61
412.933	488.53
413.31	473.17
413.687	505.71
414.065	494.41
414.442	501.64
414.819	491.92
415.197	500.28
415.574	480.17
415.951	506.61
416.328	498.7
416.705	515.88
417.082	515.88
417.46	519.49
417.837	515.88
418.214	523.33
418.591	531.24
418.967	530.34
419.344	547.29
419.721	527.85
420.098	543.9
420.475	544.12
420.852	553.84
421.228	551.81
421.605	531.47
421.982	555.88
422.358	560.17
422.735	551.13
423.111	559.49
423.488	572.82
423.864	582.54
424.241	556.78
424.617	578.93
424.994	561.07
425.37	583.9
425.746	594.07
426.123	581.41
426.499	613.27
426.875	604.01
427.251	595.87
427.627	584.58
428.003	619.6
428.379	610.79
428.756	604.46
429.132	638.58
429.507	621.86
429.883	652.82
430.259	627.29
430.635	634.97
431.011	654.4
431.387	656.44
431.763	668.19
432.138	667.06
432.514	681.3
432.89	652.14
433.265	701.86
433.641	676.78
434.016	690.11
434.392	712.48
434.767	698.47
435.143	722.88
435.518	719.26
435.894	736.21
436.269	733.05
436.644	725.14
437.02	727.4
437.395	715.65
437.77	741.63
438.145	760.84
438.52	740.5
438.895	810.56
439.271	769.65
439.646	804.91
440.021	771.01
440.395	771.24
440.77	785.7
441.145	782.76
441.52	811.91
441.895	812.37
442.27	831.8
442.645	794.96
443.019	809.65
443.394	821.63
443.769	817.79
444.143	822.53
444.518	827.51
444.892	851.23
445.267	840.16
445.641	838.35
446.016	870.44
446.39	838.58
446.764	849.43
447.139	871.8
447.513	835.19
447.887	889.43
448.262	878.58
448.636	876.32
449.01	923.32
449.384	904.11
449.758	925.81
450.132	901.4
450.506	903.44
450.88	905.24
451.254	912.7
451.628	938.24
452.002	947.73
452.376	956.77
452.75	976.88
453.123	931.68
453.497	969.65
453.871	982.3
454.244	969.88
454.618	1004.68
454.992	1020.04
455.365	1026.15
455.739	1024.11
456.112	1046.71
456.486	1025.69
456.859	1054.17
457.232	1068.63
457.606	1082.87
457.979	1076.54
458.352	1092.36
458.725	1114.5
459.099	1153.83
459.472	1145.01
459.845	1136.42
460.218	1168.51
460.591	1175.97
460.964	1162.86
461.337	1210.32
461.71	1210.32
462.083	1232.24
462.456	1229.3
462.829	1230.21
463.201	1254.61
463.574	1288.51
463.947	1296.87
464.32	1309.53
464.692	1331.22
465.065	1320.6
465.438	1376.19
465.81	1367.61
466.183	1395.18
466.555	1422.75
466.928	1434.72
467.3	1446.47
467.672	1463.87
468.045	1483.31
468.417	1515.4
468.789	1523.08
469.161	1497.32
469.534	1555.17
469.906	1605.57
470.278	1598.11
470.65	1622.74
471.022	1639.91
471.394	1707.03
471.766	1725.79
472.138	1750.42
472.51	1747.71
472.882	1818.21
473.253	1834.94
473.625	1877.87
473.997	1930.3
474.369	1959.45
474.74	1994.71
475.112	2012.56
475.484	2048.27
475.855	2091.43
476.227	2147.7
476.598	2185.21
476.97	2246
477.341	2280.35
477.713	2321.48
478.084	2374.13
478.455	2460.23
478.827	2481.7
479.198	2569.61
479.569	2575.03
479.94	2660.45
480.311	2718.53
480.682	2810.51
481.053	2895.7
481.424	2957.39
481.795	2999.88
482.166	3103.38
482.537	3125.3
482.908	3253.21
483.279	3315.8
483.65	3395.12
484.021	3466.76
484.391	3539.07
484.762	3619.52
485.133	3680.09
485.503	3733.19
485.874	3850.25
486.244	3944.26
486.615	4082.34
486.985	4177.93
487.356	4228.1
487.726	4332.73
488.097	4449.11
488.467	4506.96
488.837	4653.17
489.207	4767.74
489.578	4833.73
489.948	4920.28
490.318	5000.5
490.688	5079.15
491.058	5191.69
491.428	5328.86
491.798	5411.57
492.168	5561.39
492.538	5677.77
492.908	5722.75
493.278	5830.99
493.648	5875.06
494.017	6030.08
494.387	6120.93
494.757	6265.1
495.126	6315.95
495.496	6390.52
495.866	6450.18
496.235	6615.6
496.605	6692.89
496.974	6768.37
497.344	6868.25
497.713	6951.87
498.082	7024.63
498.452	7188.7
498.821	7222.59
499.19	7306.43
499.559	7402.25
499.928	7464.17
500.298	7510.95
500.667	7719.3
501.036	7696.03
501.405	7865.06
501.774	7899.41
502.143	7963.36
502.512	8063.02
502.88	8157.26
503.249	8237.93
503.618	8270.47
503.987	8341.43
504.356	8399.96
504.724	8548.21
505.093	8566.74
505.462	8616.91
505.83	8758.37
506.199	8814.42
506.567	8941.42
506.936	9007.86
507.304	9154.07
507.672	9051.47
508.041	9173.05
508.409	9326.27
508.777	9394.51
509.145	9417.34
509.514	9499.82
509.882	9589.31
510.25	9648.52
510.618	9677.67
510.986	9708.63
511.354	9877.21
511.722	9875.18
512.09	10042.18
512.458	10052.57
512.826	10136.19
513.193	10174.61
513.561	10253.93
513.929	10290.99
514.297	10467.25
514.664	10493.47
515.032	10566.69
515.4	10589.51
515.767	10682.16
516.135	10752.22
516.502	10733.01
516.869	10933.23
517.237	10953.79
517.604	10943.17
517.972	11127.12
518.339	11202.83
518.706	11106.11
519.073	11286.67
519.44	11332.32
519.808	11452.99
520.175	11415.48
520.542	11550.16
520.909	11689.14
521.276	11653.21
521.643	11713.1
522.009	11827.44
522.376	12010.94
522.743	11946.08
523.11	12092.07
523.477	12180.88
523.843	12276.25
524.21	12381.1
524.577	12372.51
524.943	12542.9
525.31	12581.55
525.676	12723.92
526.043	12674.65
526.409	12854.08
526.776	12991.71
527.142	12957.13
527.508	13011.59
527.874	13163.45
528.241	13196.22
528.607	13261.76
528.973	13380.85
529.339	13431.69
529.705	13584.69
530.071	13570.9
530.437	13639.37
530.803	13784.91
531.169	13840.05
531.535	13920.72
531.901	13934.96
532.267	13964.79
532.632	14094.28
532.998	14098.34
533.364	14183.54
533.73	14221.96
534.095	14379.69
534.461	14414.27
534.826	14489.97
535.192	14602.29
535.557	14664.88
535.923	14568.39
536.288	14634.38
536.653	14720.02
537.019	14756.41
537.384	14844.54
537.749	14816.29
538.114	14939.68
538.479	15044.99
538.845	15051.99
539.21	14972.22
539.575	15077.98
539.94	15222.38
540.305	15277.07
540.67	15257.64
541.034	15354.13
541.399	15362.04
541.764	15428.25
542.129	15518.65
542.494	15664.63
542.858	15705.53
543.223	15674.12
543.587	15736.94
543.952	15810.62
544.316	15894.91
544.681	15971.74
545.045	15983.49
545.41	16117.27
545.774	16114.11
546.138	16143.26
546.503	16252.64
546.867	16276.14
547.231	16411.5
547.595	16387.55
547.959	16424.61
548.324	16476.81
548.688	16509.35
549.052	16571.27
549.416	16713.87
549.779	16770.14
550.143	16752.74
550.507	16881.32
550.871	16998.38
551.235	16870.7
551.599	17085.84
551.962	17088.77
552.326	17238.83
552.689	17328.32
553.053	17124.03
553.417	17289.67
553.78	17504.36
554.143	17265.49
554.507	17471.59
554.87	17529.44
555.234	17781.19
555.597	17544.81
555.96	17712.03
556.323	17821.41
556.686	17817.79
557.05	17922.2
557.413	17984.12
557.776	18001.07
558.139	18193.38
558.502	18135.98
558.865	18174.17
559.228	18295.3
559.59	18342.07
559.953	18498.68
560.316	18643.08
560.679	18595.63
561.041	18676.75
561.404	18816.19
561.767	18862.74
562.129	18830.87
562.492	18998.33
562.854	19006.46
563.217	18929.86
563.579	19042.85
563.941	19206.91
564.304	19284.65
564.666	19433.34
565.028	19464.53
565.39	19490.74
565.753	19569.61
566.115	19609.16
566.477	19736.16
566.839	19731.64
567.201	19968.25
567.563	19925.54
567.925	20160.56
568.287	20086.21
568.648	20068.36
569.01	20245.53
569.372	20353.55
569.734	20332.76
570.095	20491.85
570.457	20653.65
570.819	20663.14
571.18	20744.04
571.542	20868.11
571.903	20818.85
572.265	20950.14
572.626	21051.83
572.987	21029.69
573.349	21153.53
573.71	21371.6
574.071	21502.9
574.432	21413.86
574.794	21729.1
575.155	21738.14
575.516	21687.3
575.877	21888.42
576.238	21925.93
576.599	22206.15
576.96	22207.51
577.32	22356.88
577.681	22488.63
578.042	22601.62
578.403	22775.63
578.763	22800.49
579.124	22877.77
579.485	23131.1
579.845	23263.07
580.206	23398.89
580.566	23493.58
580.927	23644.53
581.287	23844.53
581.648	23857.86
582.008	24257.62
582.368	24180.79
582.728	24461.01
583.089	24557.96
583.449	24719.08
583.809	25015.8
584.169	25136.47
584.529	25252.4
584.889	25628.44
585.249	25625.95
585.609	25725.61
585.969	26067.29
586.329	26151.13
586.688	26441.07
587.048	26605.59
587.408	26690.78
587.768	27069.08
588.127	27213.48
588.487	27434.49
588.846	27799.23
589.206	27819.11
589.565	27984.98
589.925	28352.66
590.284	28390.85
590.643	28819.54
591.003	28933.89
591.362	29132.52
591.721	29455.91
592.08	29554.21
592.44	29798.27
592.799	29995.1
593.158	30161.65
593.517	30405.26
593.876	30705.36
594.235	30739.71
594.593	31133.83
594.952	31261.73
595.311	31375.18
595.67	31667.37
596.029	31994.37
596.387	32278.88
596.746	32541.93
597.104	32519.1
597.463	32825.54
597.822	33001.58
598.18	32979.2
598.538	33179.2
598.897	33685.63
599.255	33458.29
599.613	34147.53
599.972	34016.69
600.33	34330.58
600.688	34323.8
601.046	34575.55
601.404	34811.92
601.762	34935.08
602.12	35215.08
602.478	35451.91
602.836	35520.15
603.194	35625.46
603.552	35800.6
603.91	35798.56
604.268	36167.59
604.625	36147.93
604.983	36520.35
605.341	36469.96
605.698	36769.39
606.056	36931.19
606.413	36928.7
606.771	37256.38
607.128	37476.71
607.485	37399.65
607.843	37540.67
608.2	37845.06
608.557	38049.35
608.914	37914.44
609.272	38193.98
609.629	38617.7
609.986	38565.05
610.343	38584.48
610.7	38918.71
611.057	39021.53
611.414	39018.59
611.771	39239.83
612.127	39474.63
612.484	39467.85
612.841	39737.44
613.198	39589.65
613.554	39778.12
613.911	39967.49
614.267	39988.74
614.624	40093.37
614.98	40166.81
615.337	40345.79
615.693	40433.92
616.05	40564.99
616.406	40708.94
616.762	40654.93
617.118	40820.81
617.475	40887.47
617.831	41160.01
618.187	41233.9
618.543	41215.37
618.899	41455.36
619.255	41547.34
619.611	41470.96
619.967	41672.53
620.323	41664.62
620.678	41591.41
621.034	41739.43
621.39	41746.2
621.746	41783.04
622.101	42352.52
622.457	41961.34
622.812	42179.41
623.168	42226.87
623.523	42406.98
623.879	42544.15
624.234	42149.36
624.589	42288.79
624.945	42509.35
625.3	42534.66
625.655	42395.23
626.01	42482.68
626.365	42523.59
626.72	42507.77
627.075	42655.56
627.43	42693.07
627.785	42613.07
628.14	42717.48
628.495	42764.48
628.85	42726.74
629.205	42719.29
629.559	42919.28
629.914	42657.82
630.269	43017.36
630.623	42754.77
630.978	42703.69
631.332	42863.24
631.687	43015.55
632.041	42854.42
632.396	42871.15
632.75	42851.94
633.104	43008.54
633.459	42722.45
633.813	42733.98
634.167	42717.93
634.521	42896.23
634.875	42800.19
635.229	42837.02
635.583	42578.95
635.937	42859.17
636.291	42672.51
636.645	42691.26
636.999	42866.85
637.352	42745.05
637.706	42656.01
638.06	42739.62
638.413	42639.97
638.767	42503.25
639.121	42598.84
639.474	42413.08
639.828	42515.45
640.181	42429.58
640.534	42602.45
640.888	42424.83
641.241	42138.28
641.594	42372.85
641.947	42539.18
642.301	42203.14
642.654	42349.58
643.007	42367.66
643.36	42379.63
643.713	42195.01
644.066	42414.44
644.419	42151.17
644.771	41863.49
645.124	41610.16
645.477	41403.39
645.83	41263.51
646.182	41204.75
646.535	41139.89
646.888	41103.06
647.24	40910.29
647.593	41214.92
647.945	41024.42
648.298	40857.87
648.65	40841.82
649.002	40746.91
649.355	41119.55
649.707	40859.67
650.059	41069.16
650.411	41416.72
650.763	41569.94
651.115	41858.29
651.467	41799.76
651.819	41822.59
652.171	41849.7
652.523	41624.63
652.875	41692.87
653.227	41514.35
653.578	41823.49
653.93	41711.18
654.282	41407.91
654.633	41426.89
654.985	41629.15
655.337	41576.94
655.688	41537.62
656.039	41707.56
656.391	41336.72
656.742	41467.57
657.094	41441.35
657.445	41595.25
657.796	41542.14
658.147	41581.69
658.498	41449.72
658.849	41461.69
659.2	41358.42
659.551	41360.9
659.902	41485.19
660.253	41414.01
660.604	41462.14
660.955	41265.54
661.306	41312.54
661.656	41241.81
662.007	41400
662.358	41273
662.708	41366.1
663.059	41283.17
663.409	41076.62
663.76	41259.89
664.11	41230.51
664.461	41244.3
664.811	41270.06
665.161	41181.47
665.511	41158.42
665.862	41242.72
666.212	41234.81
666.562	41180.12
666.912	41109.16
667.262	41097.63
667.612	41165.2
667.962	41179.67
668.312	41143.96
668.662	41283.17
669.011	41225.99
669.361	41085.43
669.711	41063.74
670.06	40998.65
670.41	41111.42
670.76	41019.44
671.109	41126.56
671.459	41002.04
671.808	40868.94
672.157	40985.32
672.507	40707.14
672.856	40794.82
673.205	40866
673.554	40923.63
673.904	40884.98
674.253	41064.41
674.602	40779
674.951	40376.75
675.3	40062.86
675.649	40815.83
675.998	40676.4
676.346	40678.44
676.695	40910.52
677.044	40515.05
677.393	40587.37
677.741	40819
678.09	40649.74
678.438	40487.71
678.787	40589.4
679.135	40640.02
679.484	40316.41
679.832	40503.75
680.181	40312.12
680.529	40523.86
680.877	40180.82
681.225	40237.32
681.573	40314.38
681.922	40118
682.27	39974.27
682.618	40238.45
682.966	39967.04
683.314	40054.95
683.661	40056.08
684.009	39738.8
684.357	39640.05
684.705	39727.95
685.053	39647.28
685.4	39667.16
685.748	39501.52
686.095	39447.96
686.443	39338.81
686.79	39238.7
687.138	39430.56
687.485	39351.24
687.832	39240.06
688.18	39157.12
688.527	39057.91
688.874	39102.21
689.221	38920.52
689.568	38973.17
689.915	38757.13
690.262	38776.57
690.609	38588.55
690.956	38412.51
691.303	38417.48
691.65	38386.52
691.997	38305.62
692.344	38146.98
692.69	38211.83
693.037	38091.39
693.383	37743.82
693.73	37792.64
694.077	37706.54
694.423	37623.38
694.769	37550.61
695.116	37521.68
695.462	37535.92
695.808	37340.22
696.155	37416.6
696.501	37096.16
696.847	37136.61
697.193	36903.85
697.539	37080.56
697.885	36724.87
698.231	36700.24
698.577	36630.86
698.923	36623.18
699.269	36452.56
699.614	36326.69
699.96	36305.9
700.306	36177.99
700.651	36010.08
700.997	36043.08
701.342	35942.06
701.688	35806.93
702.033	35834.95
702.379	35815.51
702.724	35775.51
703.069	35722.86
703.415	35266.83
703.76	35439.03
704.105	35457.33
704.45	35292.59
704.795	35005.14
705.14	34958.13
705.485	34811.47
705.83	34731.25
706.175	34807.4
706.52	34773.05
706.865	34647.41
707.209	34585.04
707.554	34532.61
707.899	34465.49
708.243	34272.5
708.588	34211.49
708.932	34043.58
709.277	34128.33
709.621	34017.59
709.966	33889.46
710.31	33895.56
710.654	33495.8
710.998	33648.11
711.342	33796.58
711.687	33518.17
712.031	33444.73
712.375	33352.53
712.719	33392.07
713.063	33289.93
713.407	33302.36
713.75	33100.56
714.094	33199.76
714.438	33071.63
714.782	33017.17
715.125	32848.13
715.469	32999.77
715.812	32874.57
716.156	32587.58
716.499	32624.64
716.843	32796.61
717.186	32468.03
717.53	32691.3
717.873	32587.8
718.216	32469.61
718.559	32484.75
718.902	32142.62
719.246	32248.15
719.589	32136.74
719.932	32027.59
720.275	32002.05
720.617	32017.19
720.96	31849.29
721.303	31833.02
721.646	31821.49
721.989	31681.84
722.331	31871.66
722.674	31660.37
723.016	31677.54
723.359	31520.94
723.701	31623.08
724.044	31438.9
724.386	31180.61
724.729	31543.54
725.071	31420.15
725.413	31221.51
725.755	31305.35
726.097	31217.89
726.439	30913.72
726.782	31093.15
727.124	31136.54
727.465	30914.85
727.807	30980.84
728.149	30915.75
728.491	30926.6
728.833	30756.89
729.175	30849.54
729.516	30659.04
729.858	30645.48
730.199	30622.88
730.541	30492.26
730.882	30539.95
731.224	30663.11
731.565	30479.83
731.906	30470.34
732.248	30498.36
732.589	30273.51
732.93	30157.36
733.271	30230.35
733.612	30230.58
733.953	30173.85
734.294	29972.95
734.635	30134.98
734.976	30123.91
735.317	30001.88
735.658	29911.94
735.999	29964.59
736.339	29889.34
736.68	29929.57
737.021	29755.79
737.361	29760.98
737.702	29785.39
738.042	29656.35
738.383	29627.65
738.723	29633.3
739.063	29571.61
739.404	29672.62
739.744	29524.61
740.084	29380.88
740.424	29397.6
740.764	29269.47
741.104	29496.36
741.444	29266.08
741.784	29080.77
742.124	29285.52
742.464	29151.28
742.804	29015.92
743.143	29143.6
743.483	29067.67
743.823	28673.33
744.162	28848.69
744.502	28834.68
744.841	28837.84
745.181	28914.68
745.52	28787.68
745.86	28771.86
746.199	28710.16
746.538	28816.83
746.877	28688.47
747.216	28641.46
747.556	28500.23
747.895	28573.67
748.234	28354.92
748.573	28369.38
748.911	28323.05
749.25	28451.64
749.589	28201.7
749.928	28206.45
750.267	28344.98
750.605	28184.75
750.944	28158.09
751.283	28003.97
751.621	27975.72
751.96	27902.05
752.298	27844.42
752.636	27851.2
752.975	27608.5
753.313	27675.39
753.651	27775.95
753.989	27591.55
754.327	27571.66
754.666	27509.52
755.004	27556.75
755.342	27480.59
755.679	27426.36
756.017	27288.73
756.355	27459.57
756.693	27254.61
