Data from hue_32_FLMS001491_00064.txt Node
Date: Tue Feb 07 17:23:44 GMT 2017
User: dcchb
Spectrometer: FLMS00149
Trigger mode: 0
Integration Time (sec): 2.000000E-2
Scans to average: 10
Electric dark correction enabled: true
Nonlinearity correction enabled: false
Boxcar width: 0
XAxis mode: Wavelengths
Number of Pixels in Spectrum: 2048
>>>>>Begin Spectral Data<<<<<
341.393	-27.08
341.776	-27.08
342.16	-27.08
342.543	-42.67
342.927	-60.07
343.31	-81.31
343.693	-62.33
344.077	-74.98
344.46	-56.23
344.843	-49.22
345.226	-32.95
345.61	-32.27
345.993	-14.42
346.376	-6.74
346.759	-0.64
347.142	12.47
347.525	55.41
347.908	50.66
348.291	86.59
348.674	94.5
349.057	111.45
349.44	138.34
349.823	141.28
350.206	170.21
350.588	205.01
350.971	213.82
351.354	236.87
351.737	257.44
352.119	285.23
352.502	266.93
352.884	276.65
353.267	289.07
353.65	292.69
354.032	296.76
354.414	311.22
354.797	315.74
355.179	362.74
355.562	333.14
355.944	343.99
356.326	339.92
356.709	335.17
357.091	334.95
357.473	334.5
357.855	326.36
358.238	339.02
358.62	351.45
359.002	348.06
359.384	357.55
359.766	325.91
360.148	332.46
360.53	350.54
360.912	334.5
361.294	353.48
361.676	333.59
362.057	318.9
362.439	346.7
362.821	337.89
363.203	324.78
363.584	339.69
363.966	353.03
364.348	324.55
364.729	305.12
365.111	346.7
365.493	323.42
365.874	329.75
366.256	340.37
366.637	314.84
367.019	321.84
367.4	325.68
367.781	308.96
368.163	314.61
368.544	322.75
368.925	320.49
369.306	350.09
369.688	306.47
370.069	324.1
370.45	319.58
370.831	308.96
371.212	338.11
371.593	319.36
371.974	313.71
372.355	310.99
372.736	316.87
373.117	334.5
373.498	308.51
373.879	339.02
374.26	306.02
374.641	326.59
375.021	325.68
375.402	333.59
375.783	309.64
376.163	332.91
376.544	349.64
376.925	325.46
377.305	322.29
377.686	338.56
378.066	326.14
378.447	329.3
378.827	325.91
379.208	348.96
379.588	331.56
379.968	331.33
380.349	339.92
380.729	341.95
381.109	348.06
381.489	335.63
381.87	355.29
382.25	318.9
382.63	339.24
383.01	351.9
383.39	336.3
383.77	354.61
384.15	363.87
384.53	359.58
384.91	350.77
385.29	365.91
385.67	346.7
386.049	353.93
386.429	363.87
386.809	353.93
387.189	355.06
387.568	355.29
387.948	358.23
388.328	364.55
388.707	376.3
389.087	380.82
389.466	374.5
389.846	367.04
390.225	375.63
390.605	356.19
390.984	384.44
391.363	371.56
391.743	381.95
392.122	377.21
392.501	387.38
392.881	385.12
393.26	390.99
393.639	404.1
394.018	385.12
394.397	376.3
394.776	401.39
395.155	408.39
395.534	400.03
395.913	393.03
396.292	386.47
396.671	386.7
397.05	382.41
397.429	405.68
397.808	405.23
398.186	398.22
398.565	402.29
398.944	391.44
399.323	393.25
399.701	430.54
400.08	393.93
400.458	398.9
400.837	418.34
401.215	401.16
401.594	434.83
401.972	402.52
402.351	429.18
402.729	405.91
403.107	424.21
403.486	451.56
403.864	416.75
404.242	447.94
404.62	430.77
404.999	419.01
405.377	424.89
405.755	414.04
406.133	436.42
406.511	435.51
406.889	430.31
407.267	435.74
407.645	438.67
408.023	462.86
408.401	439.35
408.779	440.71
409.156	459.47
409.534	468.96
409.912	471.89
410.29	481.61
410.667	457.66
411.045	475.74
411.422	465.79
411.8	475.96
412.178	471.22
412.555	485.91
412.933	497.43
413.31	471.67
413.687	510.09
414.065	497.88
414.442	491.33
414.819	504.89
415.197	520.48
415.574	493.59
415.951	496.53
416.328	496.98
416.705	521.84
417.082	508.96
417.46	511.67
417.837	523.87
418.214	528.16
418.591	512.8
418.967	543.53
419.344	532.91
419.721	535.4
420.098	542.4
420.475	552.12
420.852	537.43
421.228	552.34
421.605	548.5
421.982	548.73
422.358	549.86
422.735	550.54
423.111	572.68
423.488	567.49
423.864	589.63
424.241	566.81
424.617	582.4
424.994	574.49
425.37	575.39
425.746	570.87
426.123	607.94
426.499	599.8
426.875	611.55
427.251	617.88
427.627	609.74
428.003	608.16
428.379	631.44
428.756	616.07
429.132	645.45
429.507	623.08
429.883	650.65
430.259	642.06
430.635	656.75
431.011	624.21
431.387	655.17
431.763	679.57
432.138	668.95
432.514	675.96
432.89	662.85
433.265	686.13
433.641	699.46
434.016	692.91
434.392	727.03
434.767	703.53
435.143	726.12
435.518	722.06
435.894	733.36
436.269	725.9
436.644	733.36
437.02	718.44
437.395	739.91
437.77	738.55
438.145	767.48
438.52	755.73
438.895	772
439.271	743.98
439.646	786.69
440.021	777.42
440.395	795.73
440.77	774.49
441.145	788.04
441.52	808.38
441.895	801.6
442.27	796.86
442.645	799.12
443.019	819.68
443.394	810.42
443.769	844.54
444.143	810.64
444.518	826.24
444.892	837.31
445.267	874.82
445.641	845.9
446.016	851.09
446.39	837.99
446.764	868.04
447.139	847.25
447.513	860.81
447.887	863.3
448.262	860.81
448.636	878.66
449.01	918.21
449.384	917.53
449.758	910.53
450.132	910.07
450.506	911.2
450.88	933.35
451.254	916.85
451.628	912.33
452.002	957.31
452.376	952.11
452.75	963.86
453.123	965.67
453.497	947.59
453.871	990.75
454.244	988.94
454.618	999.79
454.992	1033.46
455.365	1015.16
455.739	1044.99
456.112	1048.15
456.486	1018.09
456.859	1049.51
457.232	1039.56
457.606	1076.17
457.979	1063.07
458.352	1094.48
458.725	1087.25
459.099	1113.23
459.472	1131.99
459.845	1186.45
460.218	1165.44
460.591	1160.01
460.964	1168.6
461.337	1171.54
461.71	1202.5
462.083	1242.95
462.456	1239.78
462.829	1243.85
463.201	1264.19
463.574	1279.78
463.947	1263.06
464.32	1328.82
464.692	1319.78
465.065	1330.4
465.438	1334.02
465.81	1368.59
466.183	1386.45
466.555	1396.16
466.928	1436.84
467.3	1401.36
467.672	1446.56
468.045	1485.65
468.417	1463.05
468.789	1489.49
469.161	1510.96
469.534	1554.35
469.906	1566.78
470.278	1558.42
470.65	1604.75
471.022	1647.91
471.394	1693.33
471.766	1683.61
472.138	1719.77
472.51	1718.19
472.882	1797.06
473.253	1817.62
473.625	1846.77
473.997	1843.84
474.369	1901.24
474.74	1933.1
475.112	1956.83
475.484	1974.45
475.855	2046.09
476.227	2089.7
476.598	2122.02
476.97	2166.54
477.341	2208.57
477.713	2264.16
478.084	2302.58
478.455	2338.29
478.827	2411.28
479.198	2470.94
479.569	2523.82
479.94	2582.57
480.311	2616.24
480.682	2699.41
481.053	2754.09
481.424	2836.13
481.795	2874.54
482.166	2958.61
482.537	3007.19
482.908	3090.81
483.279	3160.86
483.65	3213.29
484.021	3301.88
484.391	3373.74
484.762	3442.21
485.133	3481.08
485.503	3539.16
485.874	3658.25
486.244	3695.54
486.615	3838.81
486.985	3885.14
487.356	3975.53
487.726	4016.66
488.097	4168.29
488.467	4174.85
488.837	4284.68
489.207	4395.86
489.578	4482.18
489.948	4559.02
490.318	4710.88
490.688	4718.56
491.058	4842.4
491.428	4909.29
491.798	5001.72
492.168	5118.33
492.538	5206.01
492.908	5282.62
493.278	5379.79
493.648	5426.11
494.017	5534.13
494.387	5608.03
494.757	5631.31
495.126	5799.89
495.496	5835.37
495.866	5877.85
496.235	6011.64
496.605	6097.74
496.974	6160.11
497.344	6230.39
497.713	6255.47
498.082	6374.34
498.452	6467.89
498.821	6522.13
499.19	6533.88
499.559	6613.43
499.928	6707.21
500.298	6819.3
500.667	6855.91
501.036	6895.23
501.405	6990.59
501.774	7057.26
502.143	7097.71
502.512	7132.28
502.88	7191.04
503.249	7260.64
503.618	7328.44
503.987	7336.8
504.356	7460.19
504.724	7556
505.093	7613.4
505.462	7657.47
505.83	7682.33
506.199	7749.67
506.567	7869.21
506.936	7904.24
507.304	7953.05
507.672	8044.35
508.041	8111.02
508.409	8220.39
508.777	8213.16
509.145	8297.45
509.514	8326.38
509.882	8320.73
510.25	8408.63
510.618	8424.68
510.986	8538.8
511.354	8579.7
511.722	8702.41
512.09	8771.34
512.458	8724.78
512.826	8866.25
513.193	8864.22
513.561	8934.95
513.929	8977.43
514.297	9045.68
514.664	9094.49
515.032	9196.86
515.4	9266.47
515.767	9257.2
516.135	9289.74
516.502	9195.28
516.869	9432.11
517.237	9456.97
517.604	9427.14
517.972	9502.84
518.339	9588.72
518.706	9578.55
519.073	9579
519.44	9629.17
519.808	9818.99
520.175	9781.03
520.542	9872.1
520.909	10010.63
521.276	9927.01
521.643	9990.97
522.009	10068.25
522.376	10193.22
522.743	10187.12
523.11	10313.9
523.477	10412.42
523.843	10421.69
524.21	10557.5
524.577	10539.88
524.943	10656.26
525.31	10707.33
525.676	10730.38
526.043	10859.42
526.409	10951.62
526.776	10945.97
527.142	11060.99
527.508	11032.52
527.874	11120.43
528.241	11189.13
528.607	11218.73
528.973	11368.56
529.339	11383.47
529.705	11430.93
530.071	11620.53
530.437	11555.22
530.803	11599.96
531.169	11705.05
531.535	11705.27
531.901	11740.98
532.267	11799.28
532.632	11880.18
532.998	11889.22
533.364	12000.18
533.73	12011.03
534.095	12119.05
534.461	12134.86
534.826	12281.08
535.192	12286.5
535.557	12378.25
535.923	12313.16
536.288	12449.88
536.653	12559.03
537.019	12551.35
537.384	12558.13
537.749	12574.18
538.114	12556.1
538.479	12601.97
538.845	12666.6
539.21	12721.29
539.575	12760.16
539.94	12832.47
540.305	12999.47
540.67	12944.56
541.034	13054.84
541.399	13022.98
541.764	13135.52
542.129	13131.9
542.494	13269.52
542.858	13300.03
543.223	13311.33
543.587	13425.23
543.952	13341.39
544.316	13427.03
544.681	13449.41
545.045	13608.95
545.41	13602.85
545.774	13613.7
546.138	13636.29
546.503	13762.17
546.867	13671.1
547.231	13811.66
547.595	13854.82
547.959	13877.87
548.324	13945.89
548.688	13925.33
549.052	14077.64
549.416	14133.23
549.779	14128.48
550.143	14134.81
550.507	14274.02
550.871	14335.26
551.235	14401.25
551.599	14426.78
551.962	14409.16
552.326	14512.43
552.689	14604.86
553.053	14516.04
553.417	14589.72
553.78	14780.22
554.143	14681.24
554.507	14855.7
554.87	14838.3
555.234	14931.85
555.597	15004.62
555.96	14956.03
556.323	15079.19
556.686	15017.73
557.05	15185.86
557.413	15234.9
557.776	15194.22
558.139	15348.79
558.502	15356.93
558.865	15349.24
559.228	15442.35
559.59	15551.05
559.953	15601.44
560.316	15667.65
560.679	15604.38
561.041	15727.54
561.404	15765.73
561.767	15887.76
562.129	15860.87
562.492	16069.68
562.854	15972.5
563.217	16013.18
563.579	16080.52
563.941	16166.85
564.304	16263.34
564.666	16318.94
565.028	16370.69
565.39	16482.77
565.753	16465.15
566.115	16564.58
566.477	16577.01
566.839	16725.25
567.201	16744.69
567.563	16776.55
567.925	16899.26
568.287	16868.3
568.648	16907.85
569.01	17056.09
569.372	17147.39
569.734	17091.8
570.095	17223.77
570.457	17267.84
570.819	17351.9
571.18	17292.47
571.542	17482.29
571.903	17514.84
572.265	17708.5
572.626	17665.57
572.987	17763.42
573.349	17916.86
573.71	17873.92
574.071	18046.35
574.432	18056.06
574.794	18258.09
575.155	18244.08
575.516	18326.79
575.877	18473
576.238	18546.45
576.599	18689.72
576.96	18744.18
577.32	18886.78
577.681	19062.82
578.042	19204.28
578.403	19261.91
578.763	19448.12
579.124	19505.74
579.485	19716.13
579.845	19987.31
580.206	19935.79
580.566	20100.3
580.927	20242.45
581.287	20526.28
581.648	20517.24
582.008	20868.87
582.368	21013.5
582.728	21115.65
583.089	21292.14
583.449	21488.52
583.809	21642.41
584.169	21913.82
584.529	22140.25
584.889	22352.67
585.249	22457.98
585.609	22690.52
585.969	23108.81
586.329	23108.36
586.688	23355.36
587.048	23624.96
587.408	23813.88
587.768	23918.74
588.127	24266.52
588.487	24482.34
588.846	24897.01
589.206	24945.38
589.565	25204.35
589.925	25583.78
590.284	25749.65
590.643	26029.41
591.003	26251.56
591.362	26616.07
591.721	26868.04
592.08	27030.29
592.44	27418.76
592.799	27714.12
593.158	27810.61
593.517	28099.64
593.876	28434.77
594.235	28766.52
594.593	28902.56
594.952	29204.47
595.311	29376.67
595.67	29655.76
596.029	30218
596.387	30309.53
596.746	30622.51
597.104	30719.46
597.463	30989.96
597.822	31290.07
598.18	31517.86
598.538	31740.22
598.897	32110.38
599.255	32226.77
599.613	32744.04
599.972	32661.56
600.33	33065.61
600.688	33080.98
601.046	33491.14
601.404	33854.52
601.762	33828.31
602.12	34402.98
602.478	34428.97
602.836	34703.54
603.194	34670.54
603.552	34835.74
603.91	35137.2
604.268	35319.57
604.625	35516.17
604.983	35842.26
605.341	35895.14
605.698	36201.35
606.056	36519.76
606.413	36595.01
606.771	36803.82
607.128	37075.23
607.485	37065.96
607.843	37166.07
608.2	37578.04
608.557	37860.74
608.914	37848.54
609.272	38107.97
609.629	38170.34
609.986	38546.37
610.343	38509.54
610.7	38996.53
611.057	38847.61
611.414	39050.54
611.771	39211.21
612.127	39462.73
612.484	39574.6
612.841	39667.93
613.198	39820.01
613.554	39921.93
613.911	40172.32
614.267	40401.24
614.624	40369.83
614.98	40569.15
615.337	40739.08
615.693	40777.28
616.05	40844.62
616.406	41220.2
616.762	41212.29
617.118	41173.2
617.475	41168
617.831	41398.05
618.187	41595.78
618.543	41602.34
618.899	41860.18
619.255	42019.95
619.611	41953.06
619.967	42148.31
620.323	42313.96
620.678	42134.53
621.034	42323.9
621.39	42423.79
621.746	42316.44
622.101	42843.44
622.457	42617.9
622.812	42802.76
623.168	42872.14
623.523	42952.59
623.879	43038.46
624.234	42943.55
624.589	43137.89
624.945	43152.13
625.3	43373.82
625.655	43196.87
626.01	43356.42
626.365	43392.12
626.72	43414.04
627.075	43333.59
627.43	43541.27
627.785	43395.96
628.14	43607.03
628.495	43711.44
628.85	43604.32
629.205	43513.7
629.559	43777.42
629.914	43607.94
630.269	43759.8
630.623	43633.47
630.978	43447.04
631.332	43724.09
631.687	43899
632.041	43663.3
632.396	43676.41
632.75	43608.84
633.104	43811.55
633.459	43577.65
633.813	43673.24
634.167	43717.76
634.521	43761.6
634.875	43820.36
635.229	43653.36
635.583	43534.49
635.937	43645.22
636.291	43517.54
636.645	43482.06
636.999	43566.35
637.352	43706.24
637.706	43652
638.06	43622.85
638.413	43586.24
638.767	43423.76
639.121	43539.01
639.474	43320.49
639.828	43389.18
640.181	43582.17
640.534	43571.1
640.888	43254.27
641.241	43238.23
641.594	43301.5
641.947	43418.56
642.301	43261.5
642.654	43367.94
643.007	43275.29
643.36	43297.89
643.713	43281.62
644.066	43317.32
644.419	42997.56
644.771	42969.31
645.124	42705.81
645.477	42604.8
645.83	42336.33
646.182	42033.29
646.535	41982.89
646.888	42139.05
647.24	41799.4
647.593	42188.31
647.945	41979.5
648.298	41832.61
648.65	41824.03
649.002	41779.51
649.355	42011.59
649.707	41948.32
650.059	41964.14
650.411	42593.05
650.763	42475.08
651.115	42881.63
651.467	42694.74
651.819	42847.96
652.171	42714.85
652.523	42739.48
652.875	42648.64
653.227	42384.69
653.578	42814.74
653.93	42648.19
654.282	42522.54
654.633	42477.12
654.985	42695.87
655.337	42555.76
655.688	42590.33
656.039	42644.34
656.391	42327.74
656.742	42562.09
657.094	42502.65
657.445	42716.43
657.796	42477.57
658.147	42376.33
658.498	42350.12
658.849	42443.45
659.2	42460.62
659.551	42266.28
659.902	42382.43
660.253	42358.48
660.604	42307.4
660.955	42184.24
661.306	42407.97
661.656	42188.09
662.007	42298.37
662.358	42314.64
662.708	42261.08
663.059	42193.28
663.409	41981.31
663.76	42240.06
664.11	42275.09
664.461	42371.36
664.811	42266.05
665.161	42253.17
665.511	42207.07
665.862	42272.83
666.212	42313.51
666.562	42327.52
666.912	42170.68
667.262	42068.99
667.612	42202.1
667.962	42149.22
668.312	42308.76
668.662	42338.36
669.011	42122.78
669.361	42078.26
669.711	42123.68
670.06	42087.07
670.41	42027.86
670.76	41958.71
671.109	42072.16
671.459	42126.84
671.808	41913.74
672.157	42164.58
672.507	41839.39
672.856	41869.68
673.205	41805.04
673.554	42061.08
673.904	41932.05
674.253	42097.01
674.602	41952.61
674.951	41352.4
675.3	41225.63
675.649	41822.67
675.998	41720.08
676.346	41907.64
676.695	41899.96
677.044	41749.23
677.393	41839.62
677.741	41691.83
678.09	41707.87
678.438	41647.99
678.787	41736.57
679.135	41715.33
679.484	41335
679.832	41633.75
680.181	41141.33
680.529	41404.6
680.877	41275.34
681.225	41288
681.573	41484.83
681.922	41121
682.27	40986.76
682.618	41067.89
682.966	40961.9
683.314	41032.18
683.661	40846.88
684.009	40726.88
684.357	40612.53
684.705	40780.89
685.053	40632.19
685.4	40633.1
685.748	40485.31
686.095	40524.4
686.443	40243.73
686.79	40326.21
687.138	40287.34
687.485	40340.68
687.832	40097.75
688.18	40181.36
688.527	39968.93
688.874	40016.17
689.221	39958.31
689.568	39787.02
689.915	39626.12
690.262	39562.84
690.609	39570.75
690.956	39530.75
691.303	39399.91
691.65	39168.05
691.997	39168.28
692.344	38987.27
692.69	39024.55
693.037	38907.49
693.383	38683.55
693.73	38913.37
694.077	38762.86
694.423	38659.14
694.769	38463.21
695.116	38523.32
695.462	38368.75
695.808	38231.81
696.155	38368.3
696.501	38008.53
696.847	38196.1
697.193	37654.19
697.539	37972.6
697.885	37567.19
698.231	37639.28
698.577	37655.32
698.923	37587.3
699.269	37309.57
699.614	37093.53
699.96	37130.59
700.306	37180.99
700.651	36987.77
700.997	36834.55
701.342	36817.38
701.688	36684.5
702.033	36648.34
702.379	36624.39
702.724	36493.32
703.069	36657.61
703.415	36105.99
703.76	36115.93
704.105	36106.44
704.45	36058.53
704.795	35832.09
705.14	35767.24
705.485	35735.6
705.83	35632.33
706.175	35679.78
706.52	35586.9
706.865	35445.89
707.209	35330.86
707.554	35171.55
707.899	35431.88
708.243	35129.74
708.588	35052
708.932	34831.22
709.277	34802.07
709.621	34881.61
709.966	34730.65
710.31	34747.83
710.654	34391.91
710.998	34563.88
711.342	34523.2
711.687	34306.94
712.031	34184.23
712.375	34041.41
712.719	34115.3
713.063	34106.72
713.407	34149.88
713.75	33965.7
714.094	33933.84
714.438	33740.62
714.782	33889.55
715.125	33646.39
715.469	33777.91
715.812	33501.31
716.156	33397.58
716.499	33461.54
716.843	33508.09
717.186	33256.8
717.53	33509.67
717.873	33355.78
718.216	33295.89
718.559	33184.48
718.902	32925.5
719.246	32969.8
719.589	32947.2
719.932	32806.19
720.275	32864.94
720.617	32869.69
720.96	32742.01
721.303	32775
721.646	32698.39
721.989	32471.5
722.331	32573.65
722.674	32592.41
723.016	32447.55
723.359	32417.95
723.701	32372.07
724.044	32140.44
724.386	32044.62
724.729	32224.73
725.071	32176.82
725.413	31992.2
725.755	32049.82
726.097	31941.8
726.439	31796.95
726.782	31744.74
727.124	31919.88
727.465	31805.08
727.807	31637.4
728.149	31628.14
728.491	31422.27
728.833	31556.95
729.175	31399.67
729.516	31435.15
729.858	31508.82
730.199	31424.75
730.541	31262.27
730.882	31329.39
731.224	31411.19
731.565	31143.63
731.906	31079.23
732.248	31157.42
732.589	31023.86
732.93	30949.06
733.271	30992.9
733.612	30943.18
733.953	30928.27
734.294	30766.01
734.635	30736.86
734.976	30785.9
735.317	30663.19
735.658	30657.77
735.999	30630.88
736.339	30502.07
736.68	30562.4
737.021	30562.4
737.361	30311.56
737.702	30477.43
738.042	30342.3
738.383	30338.45
738.723	30322.18
739.063	30182.3
739.404	30404.21
739.744	30219.81
740.084	30087.61
740.424	30214.16
740.764	30075.86
741.104	30255.52
741.444	30018.46
741.784	29853.04
742.124	30076.54
742.464	29925.81
742.804	29873.16
743.143	29766.72
743.483	29728.3
743.823	29665.7
744.162	29635.2
744.502	29573.5
744.841	29597
745.181	29605.82
745.52	29488.76
745.86	29572.15
746.199	29469.1
746.538	29469.32
746.877	29537.8
747.216	29444.24
747.556	29437.46
747.895	29275.66
748.234	29165.38
748.573	29164.02
748.911	29095.55
749.25	29105.04
749.589	29001.09
749.928	28984.82
750.267	29021.2
750.605	28907.3
750.944	28834.31
751.283	28759.74
751.621	28893.52
751.96	28545.73
752.298	28647.65
752.636	28594.32
752.975	28528.56
753.313	28360.65
753.651	28455.79
753.989	28277.49
754.327	28348
754.666	28319.98
755.004	28255.12
755.342	28230.03
755.679	28268.45
756.017	28032.98
756.355	28085.63
756.693	27985.3
757.031	27969.48
757.368	27846.77
757.706	27851.97
758.044	27716.83
