Data from hue_40_FLMS001491_39.txt Node
Date: Mon Feb 06 15:07:49 GMT 2017
User: dcchb
Spectrometer: FLMS00149
Trigger mode: 0
Integration Time (sec): 2.000000E-2
Scans to average: 10
Electric dark correction enabled: true
Nonlinearity correction enabled: false
Boxcar width: 0
XAxis mode: Wavelengths
Number of Pixels in Spectrum: 2048
>>>>>Begin Spectral Data<<<<<
341.393	-22.46
341.776	-22.46
342.16	-22.46
342.543	-65.39
342.927	-79.86
343.31	-63.13
343.693	-53.64
344.077	-66.07
344.46	-70.82
344.843	-49.57
345.226	-55.9
345.61	-20.2
345.993	-24.49
346.376	-14.32
346.759	13.7
347.142	23.64
347.525	40.14
347.908	37.2
348.291	55.28
348.674	126.92
349.057	121.27
349.44	114.49
349.823	152.45
350.206	176.63
350.588	192.68
350.971	203.98
351.354	214.37
351.737	248.5
352.119	253.24
352.502	260.7
352.884	254.6
353.267	288.04
353.65	303.18
354.032	296.63
354.414	314.48
354.797	306.57
355.179	299.79
355.562	322.62
355.944	293.24
356.326	331.43
356.709	346.35
357.091	323.3
357.473	343.18
357.855	343.18
358.238	328.95
358.62	357.87
359.002	349.96
359.384	350.41
359.766	343.41
360.148	358.78
360.53	359.91
360.912	326.69
361.294	312.68
361.676	322.39
362.057	322.84
362.439	324.65
362.821	330.75
363.203	344.76
363.584	317.87
363.966	323.3
364.348	325.78
364.729	303.86
365.111	314.03
365.493	321.71
365.874	316.97
366.256	315.16
366.637	326.69
367.019	303.18
367.4	306.12
367.781	298.66
368.163	311.55
368.544	314.94
368.925	318.78
369.306	311.09
369.688	308.83
370.069	310.19
370.45	310.87
370.831	319.45
371.212	316.74
371.593	328.04
371.974	306.57
372.355	317.2
372.736	311.55
373.117	319.23
373.498	302.28
373.879	320.13
374.26	324.65
374.641	335.73
375.021	322.84
375.402	312.22
375.783	337.31
376.163	342.28
376.544	319
376.925	321.71
377.305	341.15
377.686	319.68
378.066	323.52
378.447	301.15
378.827	333.92
379.208	316.74
379.588	333.47
379.968	308.83
380.349	326.23
380.729	338.66
381.109	305.44
381.489	344.99
381.87	328.27
382.25	340.02
382.63	342.73
383.01	329.62
383.39	326.91
383.77	332.11
384.15	342.05
384.53	327.36
384.91	331.43
385.29	328.95
385.67	342.96
386.049	337.53
386.429	360.36
386.809	341.6
387.189	338.44
387.568	348.15
387.948	350.19
388.328	352.9
388.707	343.18
389.087	369.62
389.466	363.3
389.846	345.67
390.225	371.2
390.605	364.65
390.984	350.87
391.363	363.07
391.743	355.84
392.122	340.25
392.501	331.66
392.881	369.85
393.26	372.33
393.639	362.17
394.018	377.76
394.397	356.97
394.776	349.74
395.155	347.7
395.534	373.01
395.913	367.59
396.292	378.44
396.671	377.08
397.05	385.67
397.429	381.15
397.808	399.23
398.186	379.11
398.565	375.5
398.944	361.71
399.323	376.85
399.701	353.13
400.08	357.42
400.458	366.91
400.837	384.09
401.215	388.83
401.594	372.56
401.972	391.32
402.351	395.39
402.729	389.74
403.107	389.06
403.486	392.22
403.864	388.61
404.242	412.11
404.62	384.76
404.999	383.86
405.377	404.65
405.755	391.54
406.133	406.91
406.511	390.87
406.889	426.12
407.267	401.94
407.645	413.24
408.023	401.71
408.401	395.39
408.779	420.47
409.156	445.55
409.534	425.21
409.912	429.73
410.29	412.33
410.667	429.28
411.045	437.64
411.422	415.5
411.8	434.03
412.178	422.5
412.555	434.03
412.933	460.92
413.31	439.68
413.687	431.99
414.065	465.21
414.442	445.78
414.819	456.85
415.197	446.01
415.574	465.67
415.951	474.03
416.328	459.79
416.705	484.42
417.082	464.76
417.46	495.5
417.837	475.16
418.214	469.51
418.591	482.16
418.967	490.07
419.344	481.26
419.721	464.76
420.098	484.42
420.475	493.91
420.852	475.16
421.228	494.37
421.605	500.02
421.982	515.16
422.358	494.37
422.735	503.4
423.111	506.34
423.488	523.29
423.864	515.83
424.241	528.04
424.617	526
424.994	494.82
425.37	519.22
425.746	523.52
426.123	553.12
426.499	523.29
426.875	524.65
427.251	539.79
427.627	537.53
428.003	524.65
428.379	527.36
428.756	545.21
429.132	575.95
429.507	583.63
429.883	582.5
430.259	566.68
430.635	569.17
431.011	583.4
431.387	589.73
431.763	583.18
432.138	604.65
432.514	573.23
432.89	571.88
433.265	598.77
433.641	615.04
434.016	606.9
434.392	620.69
434.767	605.32
435.143	633.57
435.518	627.7
435.894	629.5
436.269	644.19
436.644	629.5
437.02	636.51
437.395	636.73
437.77	665.66
438.145	674.25
438.52	664.3
438.895	654.14
439.271	678.99
439.646	688.03
440.021	658.2
440.395	647.81
440.77	676.06
441.145	687.58
441.52	684.42
441.895	697.75
442.27	702.27
442.645	718.09
443.019	715.38
443.394	701.59
443.769	694.13
444.143	691.87
444.518	705.89
444.892	702.5
445.267	699.11
445.641	738.88
446.016	750.86
446.39	735.26
446.764	730.97
447.139	722.61
447.513	750.63
447.887	765.54
448.262	752.66
448.636	763.96
449.01	758.77
449.384	770.74
449.758	784.3
450.132	762.16
450.506	784.08
450.88	779.56
451.254	781.59
451.628	789.05
452.002	814.58
452.376	816.84
452.75	808.03
453.123	821.14
453.497	824.53
453.871	829.5
454.244	840.8
454.618	839.89
454.992	842.83
455.365	858.65
455.739	865.2
456.112	888.48
456.486	864.53
456.859	875.37
457.232	890.97
457.606	900
457.979	908.14
458.352	922.38
458.725	925.54
459.099	922.38
459.472	958.31
459.845	939.78
460.218	968.93
460.591	1004.86
460.964	970.06
461.337	991.53
461.71	1008.48
462.083	997.4
462.456	1023.17
462.829	1027.46
463.201	1052.09
463.574	1065.65
463.947	1075.82
464.32	1076.27
464.692	1096.61
465.065	1082.37
465.438	1129.38
465.81	1116.27
466.183	1140.68
466.555	1150.17
466.928	1155.14
467.3	1162.37
467.672	1180
468.045	1205.31
468.417	1239.43
468.789	1243.05
469.161	1283.72
469.534	1260.67
469.906	1310.39
470.278	1335.47
470.65	1346.09
471.022	1363.27
471.394	1376.83
471.766	1427.45
472.138	1438.75
472.51	1468.8
472.882	1487.79
473.253	1540.67
473.625	1550.16
473.997	1570.95
474.369	1590.16
474.74	1646.65
475.112	1647.56
475.484	1682.36
475.855	1753.77
476.227	1753.77
476.598	1810.04
476.97	1819.53
477.341	1867.89
477.713	1964.38
478.084	1973.42
478.455	1996.7
478.827	2063.36
479.198	2131.16
479.569	2169.35
479.94	2217.48
480.311	2265.39
480.682	2324.83
481.053	2413.41
481.424	2478.04
481.795	2530.7
482.166	2591.71
482.537	2630.35
482.908	2717.58
483.279	2810.24
483.65	2859.73
484.021	2944.24
484.391	3012.94
484.762	3068.76
485.133	3123.45
485.503	3201.64
485.874	3308.3
486.244	3391.01
486.615	3486.15
486.985	3549.88
487.356	3680.5
487.726	3707.16
488.097	3850.89
488.467	3873.94
488.837	4016.31
489.207	4098.34
489.578	4217.66
489.948	4241.16
490.318	4343.76
490.688	4399.12
491.058	4539
491.428	4639.34
491.798	4717.98
492.168	4868.49
492.538	4865.32
492.908	5037.52
493.278	5164.07
493.648	5218.76
494.017	5347.8
494.387	5460.79
494.757	5519.77
495.126	5603.84
495.496	5677.05
495.866	5757.73
496.235	5844.51
496.605	5938.97
496.974	6028.46
497.344	6138.06
497.713	6185.52
498.082	6291.73
498.452	6387.77
498.821	6444.49
499.19	6559.52
499.559	6642.68
499.928	6720.64
500.298	6822.56
500.667	6906.63
501.036	6890.81
501.405	7016.91
501.774	7060.75
502.143	7163.57
502.512	7238.59
502.88	7328.76
503.249	7381.42
503.618	7499.83
503.987	7501.64
504.356	7568.98
504.724	7718.13
505.093	7730.56
505.462	7749.77
505.83	7956.32
506.199	7954.51
506.567	8104.56
506.936	8152.7
507.304	8216.65
507.672	8309.98
508.041	8351.11
508.409	8428.39
508.777	8555.4
509.145	8596.75
509.514	8622.29
509.882	8744.32
510.25	8723.3
510.618	8835.39
510.986	8887.59
511.354	8991.54
511.722	9050.75
512.09	9151.31
512.458	9169.62
512.826	9241.03
513.193	9348.82
513.561	9425.43
513.929	9443.96
514.297	9559.44
514.664	9597.63
515.032	9544.52
515.4	9714.69
515.767	9728.47
516.135	9834.46
516.502	9776.83
516.869	9979.54
517.237	9968.01
517.604	9967.79
517.972	10109.25
518.339	10170.27
518.706	10180.89
519.073	10266.54
519.44	10318.74
519.808	10403.26
520.175	10517.6
520.542	10592.41
520.909	10644.38
521.276	10627.21
521.643	10810.7
522.009	10820.2
522.376	10859.97
522.743	10962.56
523.11	11001.21
523.477	11116.01
523.843	11159.4
524.21	11279.17
524.577	11379.96
524.943	11423.34
525.31	11487.97
525.676	11616.33
526.043	11643.68
526.409	11786.72
526.776	11798.48
527.142	11861.07
527.508	11844.58
527.874	11939.26
528.241	12099.03
528.607	12113.5
528.973	12174.51
529.339	12236.43
529.705	12335.64
530.071	12430.55
530.437	12535.86
530.803	12591.45
531.169	12704.67
531.535	12702.86
531.901	12732.24
532.267	12831.89
532.632	12925.9
532.998	12951.21
533.364	13083.64
533.73	13053.36
534.095	13087.48
534.461	13189.4
534.826	13280.7
535.192	13255.39
535.557	13455.61
535.923	13432.78
536.288	13449.51
536.653	13521.59
537.019	13447.7
537.384	13671.19
537.749	13710.29
538.114	13731.53
538.479	13720.23
538.845	13786.45
539.21	13797.07
539.575	13869.38
539.94	13926.33
540.305	14096.27
540.67	14061.92
541.034	14084.52
541.399	14114.12
541.764	14232.99
542.129	14211.97
542.494	14310.27
542.858	14416.03
543.223	14437.5
543.587	14527.67
543.952	14509.36
544.316	14591.17
544.681	14611.73
545.045	14581.45
545.41	14731.28
545.774	14692.41
546.138	14835.01
546.503	14847.43
546.867	14891.28
547.231	15082.68
547.595	14990.03
547.959	15120.42
548.324	15128.33
548.688	15112.51
549.052	15236.8
549.416	15298.04
549.779	15329.68
550.143	15347.53
550.507	15461.43
550.871	15525.16
551.235	15486.74
551.599	15623.23
551.962	15601.76
552.326	15658.03
552.689	15740.74
553.053	15693.06
553.417	15725.83
553.78	16034.3
554.143	15989.33
554.507	16009.66
554.87	16125.82
555.234	16236.1
555.597	16154.97
555.96	16321.52
556.323	16414.17
556.686	16316.1
557.05	16433.38
557.413	16510.22
557.776	16507.5
558.139	16654.62
558.502	16594.73
558.865	16657.1
559.228	16804.22
559.59	16834.5
559.953	16882.18
560.316	17060.03
560.679	17086.7
561.041	17225.45
561.404	17184.32
561.767	17265.45
562.129	17283.08
562.492	17502.05
562.854	17367.59
563.217	17450.98
563.579	17495.95
563.941	17639
564.304	17663.41
564.666	17824.98
565.028	17890.97
565.39	17911.31
565.753	17989.05
566.115	18089.84
566.477	18076.05
566.839	18209.38
567.201	18221.13
567.563	18275.59
567.925	18441.69
568.287	18420.45
568.648	18447.57
569.01	18512.42
569.372	18751.29
569.734	18691.4
570.095	18802.13
570.457	18840.32
570.819	18974.56
571.18	19002.35
571.542	19088.23
571.903	19149.24
572.265	19218.62
572.626	19315.79
572.987	19456.58
573.349	19384.72
573.71	19537.25
574.071	19690.02
574.432	19706.06
574.794	19843.01
575.155	19900.86
575.516	19872.84
575.877	20007.75
576.238	20226.05
576.599	20227.63
576.96	20304.92
577.32	20373.39
577.681	20574.74
578.042	20698.81
578.403	20694.29
578.763	20800.72
579.124	20948.74
579.485	21174.5
579.845	21263.08
580.206	21230.09
580.566	21395.96
580.927	21576.52
581.287	21774.26
581.648	21728.38
582.008	21924.31
582.368	22141.93
582.728	22336.96
583.089	22264.19
583.449	22506.22
583.809	22634.8
584.169	22773.1
584.529	22924.74
584.889	23182.13
585.249	23242.92
585.609	23285.4
585.969	23499.41
586.329	23707.99
586.688	23912.73
587.048	24049.68
587.408	24125.83
587.768	24325.83
588.127	24569.21
588.487	24647.18
588.846	25045.58
589.206	24912.93
589.565	25072.25
589.925	25557.66
590.284	25526.48
590.643	25711.78
591.003	26023.41
591.362	26244.87
591.721	26232.67
592.08	26540.01
592.44	26906.55
592.799	26855.93
593.158	26978.64
593.517	27140.22
593.876	27426.76
594.235	27620.66
594.593	27771.61
594.952	27992.85
595.311	28175.45
595.67	28341.99
596.029	28699.27
596.387	28682.55
596.746	29031.92
597.104	29003.45
597.463	29141.3
597.822	29514.85
598.18	29542.64
598.538	29703.77
598.897	29949.86
599.255	29844.55
599.613	30432.11
599.972	30349.17
600.33	30474.82
600.688	30447.25
601.046	30726.34
601.404	31050.62
601.762	30960.23
602.12	31407
602.478	31552.31
602.836	31652.87
603.194	31639.31
603.552	31846.54
603.91	31870.49
604.268	32054.44
604.625	32089.02
604.983	32353.64
605.341	32349.57
605.698	32595.22
606.056	32708.89
606.413	32926.06
606.771	32959.5
607.128	33177.12
607.485	33137.58
607.843	33304.8
608.2	33601.74
608.557	33757.67
608.914	33621.18
609.272	33939.14
609.629	34097.32
609.986	34204.44
610.343	34095.97
610.7	34531.44
611.057	34511.32
611.414	34571.89
611.771	34770.98
612.127	34741.15
612.484	34900.69
612.841	34968.26
613.198	35049.62
613.554	35022.95
613.911	35416.16
614.267	35416.39
614.624	35390.4
614.98	35548.13
615.337	35727.11
615.693	35732.08
616.05	35743.16
616.406	36106.31
616.762	35920.1
617.118	35910.38
617.475	36105.18
617.831	36189.7
618.187	36278.96
618.543	36395.34
618.899	36748.1
619.255	36566.86
619.611	36633.75
619.967	36776.8
620.323	37033.52
620.678	36831.94
621.034	36784.94
621.39	36765.05
621.746	36854.31
622.101	37222.44
622.457	37040.07
622.812	37110.13
623.168	37226.96
623.523	37241.2
623.879	37412.72
624.234	37302.21
624.589	37365.49
624.945	37488.42
625.3	37437.57
625.655	37563.67
626.01	37610.23
626.365	37633.95
626.72	37645.03
627.075	37604.12
627.43	37713.27
627.785	37603.9
628.14	37733.61
628.495	37716.44
628.85	37821.07
629.205	37636.21
629.559	37947.84
629.914	37713.05
630.269	37802.76
630.623	37647.96
630.978	37663.33
631.332	37888.41
631.687	37967.28
632.041	37768.41
632.396	37880.73
632.75	37715.08
633.104	37856.55
633.459	37696.55
633.813	37734.52
634.167	37714.63
634.521	37718.47
634.875	37745.36
635.229	37712.37
635.583	37659.26
635.937	37718.25
636.291	37690
636.645	37640.96
636.999	37527.52
637.352	37573.39
637.706	37447.29
638.06	37700.62
638.413	37556.44
638.767	37407.97
639.121	37574.07
639.474	37274.87
639.828	37447.97
640.181	37398.48
640.534	37444.58
640.888	37248.43
641.241	37283.45
641.594	37304.47
641.947	37367.75
642.301	37214.76
642.654	37287.3
643.007	37340.18
643.36	37257.47
643.713	37100.18
644.066	37301.99
644.419	37097.24
644.771	36867.42
645.124	36582.23
645.477	36493.87
645.83	36170.49
646.182	36237.15
646.535	35964.85
646.888	36229.25
647.24	35895.69
647.593	36190.6
647.945	36095.24
648.298	35897.28
648.65	35952.42
649.002	35772.99
649.355	35943.15
649.707	35954.9
650.059	36137.95
650.411	36334.55
650.763	36518.5
651.115	36873.52
651.467	36693.87
651.819	36779.06
652.171	36756.01
652.523	36603.02
652.875	36588.78
653.227	36444.83
653.578	36791.49
653.93	36697.26
654.282	36424.72
654.633	36405.96
654.985	36398.05
655.337	36523.25
655.688	36397.15
656.039	36533.19
656.391	36325.51
656.742	36307.89
657.094	36300.43
657.445	36484.38
657.796	36413.42
658.147	36320.09
658.498	36365.74
658.849	36444.15
659.2	36296.14
659.551	36285.06
659.902	36272.63
660.253	36293.42
660.604	36283.48
660.955	36155.35
661.306	36311.5
661.656	36214.33
662.007	36243.03
662.358	36180.43
662.708	36129.81
663.059	36216.14
663.409	35991.74
663.76	36258.62
664.11	36131.39
664.461	36328.9
664.811	36178.62
665.161	36105.18
665.511	35987.67
665.862	36127.78
666.212	36382.24
666.562	36207.55
666.912	36111.73
667.262	36196.93
667.612	36129.13
667.962	36206.19
668.312	36016.6
668.662	36167.1
669.011	35985.64
669.361	35969.82
669.711	36020.44
670.06	35936.37
670.41	35945.86
670.76	35961.46
671.109	35995.8
671.459	35890.72
671.808	35894.56
672.157	36076.48
672.507	35817.5
672.856	35789.03
673.205	35791.29
673.554	35975.47
673.904	35772.76
674.253	35985.41
674.602	35887.79
674.951	35358.31
675.3	35243.73
675.649	35826.54
675.998	35657.96
676.346	35755.13
676.695	35748.81
677.044	35500.9
677.393	35652.76
677.741	35777.28
678.09	35530.96
678.438	35622.48
678.787	35481.47
679.135	35579.77
679.484	35396.27
679.832	35547.91
680.181	35403.5
680.529	35456.61
680.877	35303.17
681.225	35240.57
681.573	35505.2
681.922	35260.91
682.27	35037.41
682.618	35181.59
682.966	35064.53
683.314	35128.03
683.661	35027.02
684.009	34761.49
684.357	34887.81
684.705	34644.88
685.053	34767.81
685.4	34598.55
685.748	34455.51
686.095	34417.32
686.443	34445.11
686.79	34420.93
687.138	34426.58
687.485	34537.99
687.832	34299.8
688.18	34367.37
688.527	34079.92
688.874	34112.46
689.221	34047.38
689.568	34048.74
689.915	33966.48
690.262	33850.1
690.609	33738.24
690.956	33763.1
691.303	33660.27
691.65	33534.4
691.997	33505.47
692.344	33412.37
692.69	33454.18
693.037	33320.4
693.383	33025.26
693.73	33280.85
694.077	32958.14
694.423	32956.34
694.769	32897.13
695.116	32865.49
695.462	32703.91
695.808	32797.92
696.155	32748.43
696.501	32516.57
696.847	32471.15
697.193	32296.69
697.539	32325.17
697.885	32163.59
698.231	31920.21
698.577	32073.42
698.923	31940.09
699.269	31880.43
699.614	31705.97
699.96	31645.18
700.306	31560.22
700.651	31507.34
700.997	31551.18
701.342	31265.99
701.688	31301.24
702.033	31209.49
702.379	31199.77
702.724	31106.67
703.069	31078.42
703.415	30814.02
703.76	30811.53
704.105	30896.73
704.45	30816.51
704.795	30627.36
705.14	30525.67
705.485	30465.55
705.83	30223.98
706.175	30353.69
706.52	30324.54
706.865	30234.83
707.209	30068.96
707.554	30091.33
707.899	30062.4
708.243	30003.19
708.588	29880.03
708.932	29734.95
709.277	29623.32
709.621	29713.71
709.966	29515.98
710.31	29606.82
710.654	29398.69
710.998	29499.7
711.342	29460.61
711.687	29281.63
712.031	29185.14
712.375	29125.93
712.719	29195.31
713.063	29036.89
713.407	29092.48
713.75	29019.27
714.094	28912.38
714.438	28754.64
714.782	28812.94
715.125	28598.26
715.469	28730.91
715.812	28517.13
716.156	28432.16
716.499	28373.41
716.843	28457.92
717.186	28234.43
717.53	28429.45
717.873	28447.53
718.216	28354.65
718.559	28272.39
718.902	27913.76
719.246	28194.65
719.589	27950.59
719.932	27875.34
720.275	27957.82
720.617	27824.95
720.96	27729.58
721.303	27855.91
721.646	27751.05
721.989	27615.46
722.331	27737.49
722.674	27702.92
723.016	27583.82
723.359	27630.38
723.701	27662.46
724.044	27360.33
724.386	27319.65
724.729	27384.51
725.071	27266.77
725.413	27306.99
725.755	27226.09
726.097	27157.62
726.439	27142.03
726.782	26991.52
727.124	27069.26
727.465	26986.1
727.807	27075.14
728.149	26893.45
728.491	26893.22
728.833	26918.53
729.175	26787.46
729.516	26708.82
729.858	26650.29
730.199	26747.69
730.541	26676.5
730.882	26608.71
731.224	26615.71
731.565	26445.32
731.906	26520.8
732.248	26473.57
732.589	26299.11
732.93	26259.79
733.271	26278.09
733.612	26403.74
733.953	26299.11
734.294	26121.49
734.635	26221.6
734.976	26080.81
735.317	26054.6
735.658	25929.85
735.999	25937.31
736.339	25977.09
736.68	26011.89
737.021	25943.87
737.361	25823.42
737.702	25935.73
738.042	25966.24
738.383	25759.92
738.723	25813.7
739.063	25559.92
739.404	25719.01
739.744	25661.61
740.084	25411.22
740.424	25601.95
740.764	25392.24
741.104	25579.81
741.444	25396.08
741.784	25330.32
742.124	25390.66
742.464	25321.06
742.804	25308.4
743.143	25193.83
743.483	25220.5
743.823	25031.57
744.162	25022.08
744.502	25093.49
744.841	25031.35
745.181	25070.44
745.52	24987.28
745.86	24934.85
746.199	25020.5
746.538	24856.44
746.877	24915.87
747.216	24844.46
747.556	24833.84
747.895	24808.08
748.234	24684.24
748.573	24649.44
748.911	24557.46
749.25	24615.54
749.589	24606.27
749.928	24512.49
750.267	24599.95
750.605	24497.8
750.944	24355.89
751.283	24440.4
751.621	24371.03
751.96	24273.85
752.298	24229.79
752.636	24271.59
752.975	24021.66
753.313	23955.44
753.651	24130.35
753.989	23964.03
754.327	23959.29
754.666	23807.2
755.004	23871.15
755.342	23859.63
755.679	23785.05
756.017	23651.04
756.355	23791.38
756.693	23580.99
757.031	23603.36
757.368	23471.39
757.706	23292.86
