Data from hue_250_FLMS001491_00050.txt Node
Date: Tue Feb 07 16:01:03 GMT 2017
User: dcchb
Spectrometer: FLMS00149
Trigger mode: 0
Integration Time (sec): 2.000000E-2
Scans to average: 10
Electric dark correction enabled: true
Nonlinearity correction enabled: false
Boxcar width: 0
XAxis mode: Wavelengths
Number of Pixels in Spectrum: 2048
>>>>>Begin Spectral Data<<<<<
341.393	11
341.776	11
342.16	11
342.543	-71.71
342.927	-68.77
343.31	-67.87
343.693	-70.35
344.077	-65.83
344.46	-65.38
344.843	-39.17
345.226	-50.01
345.61	-23.57
345.993	-17.25
346.376	-13.63
346.759	7.39
347.142	12.58
347.525	58.23
347.908	51.68
348.291	76.76
348.674	102.3
349.057	104.11
349.44	105.92
349.823	113.82
350.206	158.8
350.588	185.24
350.971	193.82
351.354	195.86
351.737	197.66
352.119	239.02
352.502	254.16
352.884	253.26
353.267	263.88
353.65	292.8
354.032	284.89
354.414	279.92
354.797	276.76
355.179	309.3
355.562	298.68
355.944	312.69
356.326	292.35
356.709	313.59
357.091	326.02
357.473	325.8
357.855	314.72
358.238	304.33
358.62	313.59
359.002	326.93
359.384	320.82
359.766	319.47
360.148	323.76
360.53	333.93
360.912	332.12
361.294	314.5
361.676	322.63
362.057	308.85
362.439	311.79
362.821	307.04
363.203	305.68
363.584	292.8
363.966	323.31
364.348	305.68
364.729	309.75
365.111	303.2
365.493	334.61
365.874	327.6
366.256	296.19
366.637	313.59
367.019	295.06
367.4	301.39
367.781	307.04
368.163	297.32
368.544	301.84
368.925	314.95
369.306	313.14
369.688	290.77
370.069	305.46
370.45	301.62
370.831	308.62
371.212	290.77
371.593	308.17
371.974	298.23
372.355	271.11
372.736	312.24
373.117	301.16
373.498	278.57
373.879	312.69
374.26	296.19
374.641	303.42
375.021	299.81
375.402	285.57
375.783	316.98
376.163	322.41
376.544	292.8
376.925	319.02
377.305	321.5
377.686	310.43
378.066	306.59
378.447	313.59
378.827	315.63
379.208	322.41
379.588	324.21
379.968	326.47
380.349	323.08
380.729	311.56
381.109	341.16
381.489	302.97
381.87	314.72
382.25	316.31
382.63	338.9
383.01	324.44
383.39	347.26
383.77	323.76
384.15	347.04
384.53	333.93
384.91	336.19
385.29	356.76
385.67	361.05
386.049	336.19
386.429	352.69
386.809	331.45
387.189	344.55
387.568	345.23
387.948	345.01
388.328	333.48
388.707	348.62
389.087	343.42
389.466	364.89
389.846	351.33
390.225	344.33
390.605	380.03
390.984	369.41
391.363	372.57
391.743	359.02
392.122	355.4
392.501	374.61
392.881	361.28
393.26	354.04
393.639	387.94
394.018	370.09
394.397	394.5
394.776	382.74
395.155	381.61
395.534	392.46
395.913	375.29
396.292	398.11
396.671	379.35
397.05	375.29
397.429	388.85
397.808	395.63
398.186	381.39
398.565	378.22
398.944	390.2
399.323	391.33
399.701	377.55
400.08	381.61
400.458	385
400.837	429.97
401.215	412.57
401.594	438.34
401.972	407.38
402.351	406.47
402.729	442.63
403.107	416.42
403.486	412.8
403.864	425.45
404.242	446.7
404.62	428.17
404.999	454.15
405.377	431.56
405.755	466.13
406.133	469.52
406.511	457.54
406.889	443.08
407.267	455.96
407.645	451.44
408.023	472.46
408.401	468.17
408.779	477.66
409.156	481.27
409.534	473.82
409.912	496.19
410.29	515.17
410.667	487.83
411.045	530.76
411.422	523.31
411.8	521.95
412.178	526.47
412.555	537.32
412.933	547.71
413.31	555.62
413.687	546.58
414.065	559.01
414.442	564.43
414.819	568.73
415.197	573.02
415.574	586.58
415.951	583.64
416.328	588.84
416.705	601.04
417.082	598.78
417.46	612.57
417.837	642.4
418.214	630.42
418.591	648.05
418.967	618.22
419.344	624.32
419.721	671.1
420.098	666.35
420.475	665
420.852	663.41
421.228	663.41
421.605	675.39
421.982	688.5
422.358	710.87
422.735	712.9
423.111	733.92
423.488	730.76
423.864	733.02
424.241	740.7
424.617	762.4
424.994	776.41
425.37	784.77
425.746	792
426.123	789.29
426.499	786.35
426.875	802.85
427.251	847.59
427.627	845.33
428.003	836.97
428.379	834.48
428.756	875.84
429.132	857.31
429.507	888.27
429.883	892.11
430.259	880.58
430.635	918.32
431.011	908.83
431.387	952.45
431.763	954.48
432.138	942.96
432.514	985.21
432.89	959.45
433.265	1006.46
433.641	1016.17
434.016	1003.97
434.392	1057.3
434.767	1065.89
435.143	1070.64
435.518	1089.62
435.894	1072.67
436.269	1123.74
436.644	1135.72
437.02	1125.55
437.395	1160.58
437.77	1192.67
438.145	1177.75
438.52	1187.92
438.895	1202.38
439.271	1222.5
439.646	1269.95
440.021	1250.97
440.395	1249.39
440.77	1280.12
441.145	1290.74
441.52	1341.14
441.895	1319.44
442.27	1330.74
442.645	1326.22
443.019	1353.11
443.394	1351.08
443.769	1404.86
444.143	1339.1
444.518	1404.86
444.892	1389.72
445.267	1437.18
445.641	1424.3
446.016	1441.7
446.39	1420.23
446.764	1472.66
447.139	1460
447.513	1477.4
447.887	1479.44
448.262	1474.47
448.636	1500.68
449.01	1513.34
449.384	1565.09
449.758	1551.53
450.132	1536.61
450.506	1563.5
450.88	1572.77
451.254	1593.79
451.628	1604.41
452.002	1609.83
452.376	1621.58
452.75	1627.46
453.123	1659.77
453.497	1674.91
453.871	1695.25
454.244	1707.46
454.618	1750.62
454.992	1752.2
455.365	1747.45
455.739	1769.6
456.112	1781.58
456.486	1840.33
456.859	1847.34
457.232	1866.55
457.606	1874.91
457.979	1875.36
458.352	1941.35
458.725	1940.9
459.099	1951.52
459.472	1974.34
459.845	2011.85
460.218	2012.53
460.591	2034.45
460.964	2061.8
461.337	2099.08
461.71	2102.47
462.083	2094.34
462.456	2116.26
462.829	2134.34
463.201	2177.95
463.574	2184.05
463.947	2213.2
464.32	2248.46
464.692	2264.5
465.065	2321.68
465.438	2276.03
465.81	2326.87
466.183	2373.65
466.555	2401.45
466.928	2416.14
467.3	2424.5
467.672	2468.57
468.045	2509.24
468.417	2534.1
468.789	2499.75
469.161	2529.81
469.534	2608.9
469.906	2651.84
470.278	2629.46
470.65	2688.22
471.022	2736.81
471.394	2757.82
471.766	2782.68
472.138	2779.74
472.51	2811.61
472.882	2897.03
473.253	2934.99
473.625	2989.68
473.997	3002.34
474.369	3031.26
474.74	3074.42
475.112	3127.76
475.484	3172.05
475.855	3216.34
476.227	3231.48
476.598	3306.74
476.97	3318.71
477.341	3383.12
477.713	3448.65
478.084	3471.7
478.455	3530.01
478.827	3539.5
479.198	3652.26
479.569	3661.3
479.94	3754.41
480.311	3777.91
480.682	3807.74
481.053	3925.25
481.424	3941.75
481.795	3949.2
482.166	4055.87
482.537	4095.64
482.908	4184
483.279	4176.77
483.65	4286.6
484.021	4299.03
484.391	4348.52
484.762	4388.97
485.133	4439.36
485.503	4502.64
485.874	4523.2
486.244	4607.04
486.615	4671.9
486.985	4727.49
487.356	4778.33
487.726	4839.35
488.097	4903.98
488.467	4906.47
488.837	5031.66
489.207	5058.78
489.578	5101.04
489.948	5139.23
490.318	5220.13
490.688	5179.68
491.058	5308.94
491.428	5323.41
491.798	5427.36
492.168	5485.66
492.538	5484.08
492.908	5562.04
493.278	5666
493.648	5610.18
494.017	5662.15
494.387	5771.08
494.757	5738.31
495.126	5750.29
495.496	5764.3
495.866	5818.76
496.235	5951.19
496.605	5940.79
496.974	5899.66
497.344	5974.24
497.713	6047.91
498.082	6050.84
498.452	6141.69
498.821	6152.08
499.19	6154.57
499.559	6189.82
499.928	6216.26
500.298	6231.63
500.667	6309.59
501.036	6265.98
501.405	6354.11
501.774	6390.27
502.143	6384.62
502.512	6442.02
502.88	6470.49
503.249	6458.06
503.618	6468.91
503.987	6520.89
504.356	6570.83
504.724	6547.78
505.093	6573.32
505.462	6552.98
505.83	6633.43
506.199	6697.83
506.567	6696.02
506.936	6764.27
507.304	6807.21
507.672	6759.75
508.041	6771.28
508.409	6881.33
508.777	6852.63
509.145	6943.02
509.514	6903.25
509.882	6922.91
510.25	6973.53
510.618	7006.98
510.986	6973.98
511.354	6971.27
511.722	7057.6
512.09	7129.46
512.458	7105.05
512.826	7136.24
513.193	7144.6
513.561	7161.1
513.929	7232.96
514.297	7239.74
514.664	7227.08
515.032	7282.22
515.4	7258.04
515.767	7330.36
516.135	7332.39
516.502	7289.68
516.869	7394.76
517.237	7405.84
517.604	7413.75
517.972	7406.06
518.339	7462.11
518.706	7468.43
519.073	7475.44
519.44	7465.95
519.808	7569.9
520.175	7493.52
520.542	7630.01
520.909	7536
521.276	7544.36
521.643	7659.84
522.009	7703.23
522.376	7650.58
522.743	7693.74
523.11	7754.75
523.477	7811.93
523.843	7782.55
524.21	7839.72
524.577	7876.33
524.943	7845.37
525.31	7946.61
525.676	7889.67
526.043	7912.94
526.409	7942.55
526.776	7959.04
527.142	8015.76
527.508	8039.27
527.874	8021.19
528.241	8107.74
528.607	7993.39
528.973	8185.48
529.339	8091.24
529.705	8120.85
530.071	8247.4
530.437	8210.33
530.803	8248.3
531.169	8213.95
531.535	8225.7
531.901	8237.68
532.267	8168.75
532.632	8279.26
532.998	8248.3
533.364	8308.64
533.73	8277.9
534.095	8277.45
534.461	8312.93
534.826	8277.45
535.192	8296.89
535.557	8311.58
535.923	8352.48
536.288	8341.18
536.653	8343.44
537.019	8297.34
537.384	8293.27
537.749	8297.56
538.114	8287.62
538.479	8327.62
538.845	8354.96
539.21	8273.61
539.575	8282.2
539.94	8338.02
540.305	8359.94
540.67	8296.89
541.034	8312.71
541.399	8363.33
541.764	8349.54
542.129	8368.3
542.494	8322.2
542.858	8317.45
543.223	8307.06
543.587	8324.23
543.952	8289.43
544.316	8317
544.681	8311.8
545.045	8324.68
545.41	8352.25
545.774	8276.1
546.138	8307.73
546.503	8296.21
546.867	8323.33
547.231	8290.78
547.595	8324.46
547.959	8323.55
548.324	8357.68
548.688	8330.78
549.052	8365.36
549.416	8375.08
549.779	8314.96
550.143	8339.6
550.507	8389.77
550.871	8374.85
551.235	8320.84
551.599	8325.81
551.962	8376.21
552.326	8339.6
552.689	8372.82
553.053	8368.07
553.417	8327.85
553.78	8434.06
554.143	8361.97
554.507	8377.56
554.87	8394.06
555.234	8432.48
555.597	8391.8
555.96	8380.5
556.323	8420.95
556.686	8370.78
557.05	8459.14
557.413	8482.19
557.776	8397.9
558.139	8398.8
558.502	8443.32
558.865	8474.96
559.228	8482.64
559.59	8531
559.953	8542.98
560.316	8622.3
560.679	8513.15
561.041	8620.27
561.404	8609.87
561.767	8659.36
562.129	8678.8
562.492	8782.98
562.854	8755.18
563.217	8728.29
563.579	8692.81
563.941	8721.06
564.304	8846.93
564.666	8892.58
565.028	8862.07
565.39	8844.67
565.753	8976.42
566.115	8938.68
566.477	8970.09
566.839	8912.92
567.201	8972.12
567.563	9050.99
567.925	9059.35
568.287	9027.49
568.648	9001.95
569.01	9046.02
569.372	9197.65
569.734	9149.75
570.095	9161.95
570.457	9181.16
570.819	9243.53
571.18	9170.99
571.542	9296.63
571.903	9260.48
572.265	9268.61
572.626	9330.76
572.987	9353.36
573.349	9433.35
573.71	9371.66
574.071	9382.96
574.432	9415.05
574.794	9522.16
575.155	9447.36
575.516	9459.12
575.877	9554.93
576.238	9530.75
576.599	9576.4
576.96	9593.12
577.32	9585.89
577.681	9606
578.042	9633.8
578.403	9597.64
578.763	9631.54
579.124	9693.69
579.485	9749.05
579.845	9723.29
580.206	9777.75
580.566	9705.21
580.927	9777.07
581.287	9858.43
581.648	9821.82
582.008	9833.57
582.368	9855.72
582.728	9831.08
583.089	9779.79
583.449	9851.65
583.809	9862.49
584.169	9914.47
584.529	9914.02
584.889	9987.24
585.249	9863.62
585.609	9941.59
585.969	9986.56
586.329	9941.36
586.688	9987.69
587.048	9972.77
587.408	9969.38
587.768	10020
588.127	10065.2
588.487	10008.71
588.846	10047.57
589.206	10056.84
589.565	10008.25
589.925	10028.59
590.284	10085.09
590.643	10102.49
591.003	10110.4
591.362	10166.89
591.721	10142.71
592.08	10147.01
592.44	10091.87
592.799	10211.64
593.158	10125.09
593.517	10168.7
593.876	10245.76
594.235	10139.32
594.593	10179.55
594.952	10231.75
595.311	10216.16
595.67	10254.35
596.029	10293.22
596.387	10273.11
596.746	10278.98
597.104	10311.3
597.463	10217.06
597.822	10252.77
598.18	10248.93
598.538	10283.27
598.897	10264.97
599.255	10269.49
599.613	10416.38
599.972	10329.15
600.33	10356.27
600.688	10350.62
601.046	10329.38
601.404	10425.87
601.762	10289.15
602.12	10369.15
602.478	10355.36
602.836	10413.21
603.194	10365.76
603.552	10331.18
603.91	10372.99
604.268	10396.94
604.625	10370.5
604.983	10422.25
605.341	10371.63
605.698	10458.41
606.056	10423.61
606.413	10450.95
606.771	10448.92
607.128	10421.58
607.485	10438.3
607.843	10475.13
608.2	10533.44
608.557	10549.93
608.914	10467.22
609.272	10580.44
609.629	10563.27
609.986	10608.01
610.343	10558.3
610.7	10605.98
611.057	10593.32
611.414	10529.14
611.771	10627.45
612.127	10667.22
612.484	10608.46
612.841	10654.56
613.198	10651.85
613.554	10645.3
613.911	10664.96
614.267	10604.62
614.624	10695.69
614.98	10685.07
615.337	10721.91
615.693	10680.33
616.05	10664.73
616.406	10786.54
616.762	10707.22
617.118	10712.87
617.475	10737.05
617.831	10793.54
618.187	10755.8
618.543	10783.15
618.899	10770.49
619.255	10750.61
619.611	10727.56
619.967	10813.88
620.323	10813.88
620.678	10727.78
621.034	10782.47
621.39	10773.66
621.746	10759.42
622.101	10925.97
622.457	10776.82
622.812	10762.81
623.168	10816.14
623.523	10855.24
623.879	10837.16
624.234	10719.2
624.589	10785.41
624.945	10816.59
625.3	10815.24
625.655	10782.92
626.01	10856.14
626.365	10824.96
626.72	10763.94
627.075	10807.55
627.43	10729.59
627.785	10763.49
628.14	10744.05
628.495	10812.07
628.85	10760.1
629.205	10711.51
629.559	10798.29
629.914	10751.96
630.269	10753.54
630.623	10675.13
630.978	10656.37
631.332	10766.43
631.687	10756.48
632.041	10700.44
632.396	10719.42
632.75	10668.8
633.104	10684.17
633.459	10598.75
633.813	10605.07
634.167	10540.9
634.521	10622.93
634.875	10555.81
635.229	10626.99
635.583	10554.68
635.937	10492.08
636.291	10526.43
636.645	10544.06
636.999	10477.39
637.352	10524.62
637.706	10454.34
638.06	10464.74
638.413	10440.11
638.767	10436.94
639.121	10492.99
639.474	10383.39
639.828	10387.23
640.181	10412.76
640.534	10454.8
640.888	10427.23
641.241	10373.89
641.594	10328.7
641.947	10353.1
642.301	10301.35
642.654	10368.02
643.007	10281.01
643.36	10325.53
643.713	10305.65
644.066	10356.95
644.419	10235.37
644.771	10241.69
645.124	10128.48
645.477	10132.77
645.83	10044.41
646.182	9987.46
646.535	10012.1
646.888	9947.46
647.24	9901.82
647.593	10032.21
647.945	9999.44
648.298	9918.76
648.65	9963.74
649.002	9905.66
649.355	9925.54
649.707	9919.67
650.059	9966.45
650.411	10104.97
650.763	10090.29
651.115	10259.32
651.467	10198.53
651.819	10180
652.171	10145.43
652.523	10117.4
652.875	10087.57
653.227	10103.17
653.578	10179.77
653.93	10143.84
654.282	10125.76
654.633	10089.83
654.985	10120.12
655.337	10097.97
655.688	10063.85
656.039	10060.91
656.391	10029.27
656.742	10077.63
657.094	10062.04
657.445	10041.47
657.796	10095.71
658.147	10053.9
658.498	10144.97
658.849	10005.99
659.2	10029.5
659.551	10084.41
659.902	10090.06
660.253	10055.03
660.604	10008.93
660.955	10046.9
661.306	10049.83
661.656	10020.23
662.007	10050.74
662.358	10056.61
662.708	10093.45
663.059	10093.9
663.409	9988.14
663.76	10043.51
664.11	10065.65
664.461	10074.92
664.811	10071.75
665.161	10059.33
665.511	10069.27
665.862	10079.66
666.212	10038.99
666.562	10089.83
666.912	10017.75
667.262	10030.85
667.612	10036.73
667.962	9980.01
668.312	10032.66
668.662	10102.94
669.011	10028.82
669.361	10034.02
669.711	10065.88
670.06	9950.85
670.41	10013.23
670.76	9895.04
671.109	10022.94
671.459	9993.56
671.808	9997.18
672.157	9989.27
672.507	9966.45
672.856	9922.38
673.205	9975.49
673.554	9994.92
673.904	9970.29
674.253	9942.94
674.602	9973.9
674.951	9870.4
675.3	9757.19
675.649	9920.8
675.998	9869.05
676.346	9918.54
676.695	9991.53
677.044	9874.92
677.393	9813.91
677.741	9888.71
678.09	9827.92
678.438	9846.45
678.787	9795.6
679.135	9888.26
679.484	9733.91
679.832	9771.65
680.181	9725.32
680.529	9747.7
680.877	9791.08
681.225	9717.19
681.573	9787.69
681.922	9681.93
682.27	9653.23
682.618	9694.59
682.966	9660.24
683.314	9705.66
683.661	9604.2
684.009	9591.99
684.357	9531.2
684.705	9505.67
685.053	9588.15
685.4	9566.91
685.748	9487.14
686.095	9496.63
686.443	9434.71
686.79	9449.4
687.138	9369.17
687.485	9435.16
687.832	9368.04
688.18	9377.54
688.527	9364.65
688.874	9317.65
689.221	9347.71
689.568	9280.82
689.915	9245.11
690.262	9215.96
690.609	9188.84
690.956	9179.8
691.303	9129.18
691.65	9107.03
691.997	9070.43
692.344	9055.06
692.69	9077.43
693.037	9107.03
693.383	8999.92
693.73	8929.19
694.077	8941.39
694.423	8985.68
694.769	8869.3
695.116	8885.12
695.462	8863.43
695.808	8729.42
696.155	8832.24
696.501	8747.5
696.847	8760.38
697.193	8736.65
697.539	8699.59
697.885	8616.88
698.231	8605.13
698.577	8611.91
698.923	8561.06
699.269	8532.59
699.614	8491.01
699.96	8460.72
700.306	8440.61
700.651	8396.54
700.997	8387.96
701.342	8363.55
701.688	8349.31
702.033	8267.51
702.379	8296.89
702.724	8313.61
703.069	8255.31
703.415	8247.62
703.76	8223.89
704.105	8198.81
704.45	8136.44
704.795	8082.65
705.14	8021.41
705.485	8134.63
705.83	8018.25
706.175	8053.95
706.52	8029.77
706.865	8005.37
707.209	7961.53
707.554	7926.5
707.899	7949.32
708.243	7867.29
708.588	7873.62
708.932	7825.03
709.277	7788.88
709.621	7856.22
709.966	7771.25
710.31	7845.6
710.654	7752.04
710.998	7647.64
711.342	7715.66
711.687	7737.13
712.031	7630.01
712.375	7647.86
712.719	7667.3
713.063	7601.54
713.407	7565.61
713.75	7559.96
714.094	7562.67
714.438	7481.99
714.782	7524.03
715.125	7476.12
715.469	7580.3
715.812	7469.79
716.156	7392.73
716.499	7423.46
716.843	7541.2
717.186	7391.6
717.53	7389.11
717.873	7427.3
718.216	7437.25
718.559	7375.78
718.902	7307.53
719.246	7323.58
719.589	7338.95
719.932	7308.21
720.275	7356.35
720.617	7254.43
720.96	7288.78
721.303	7334.2
721.646	7269.79
721.989	7228.67
722.331	7273.64
722.674	7239.74
723.016	7234.32
723.359	7220.08
723.701	7230.25
724.044	7232.73
724.386	7171.27
724.729	7235.22
725.071	7238.61
725.413	7241.77
725.755	7148.22
726.097	7134.43
726.439	7112.06
726.782	7187.31
727.124	7189.12
727.465	7130.82
727.807	7147.09
728.149	7142.34
728.491	7162.68
728.833	7172.62
729.175	7103.92
729.516	7112.96
729.858	7086.75
730.199	7084.71
730.541	7015.56
730.882	7075.22
731.224	7111.15
731.565	7019.18
731.906	7085.84
732.248	7052.4
732.589	7076.81
732.93	7015.79
733.271	7018.73
733.612	7049.46
733.953	7055.56
734.294	6981.21
734.635	6977.83
734.976	7022.8
735.317	7036.13
735.658	6987.54
735.999	7060.76
736.339	6970.37
736.68	7039.74
737.021	7017.15
737.361	7017.15
737.702	7034.09
738.042	7032.29
738.383	6940.99
738.723	7053.98
739.063	7037.48
739.404	7044.94
739.744	7035.22
740.084	7039.07
740.424	7004.04
740.764	7108.67
741.104	7095.11
741.444	7033.87
741.784	6968.33
742.124	7063.02
742.464	7106.86
742.804	7063.02
743.143	7078.39
743.483	7085.84
743.823	7058.95
744.162	7133.53
744.502	7140.31
744.841	7150.25
745.181	7198.16
745.52	7113.64
745.86	7148.89
746.199	7262.56
746.538	7229.34
746.877	7285.16
747.216	7307.08
747.556	7288.1
747.895	7331.04
748.234	7349.57
748.573	7328.55
748.911	7424.82
749.25	7389.79
749.589	7409.9
749.928	7477.92
750.267	7595.89
750.605	7612.84
750.944	7640.63
751.283	7656.23
751.621	7776.45
751.96	7702.1
752.298	7845.15
752.636	7864.58
752.975	7911.13
753.313	7953.17
753.651	8066.84
753.989	8102.32
754.327	8206.95
754.666	8258.47
755.004	8324.23
755.342	8391.35
755.679	8464.79
756.017	8476.77
756.355	8654.39
756.693	8653.26
757.031	8829.08
757.368	8860.04
757.706	8974.16
758.044	9069.07
758.381	9154.04
758.719	9276.3
759.056	9312.68
759.394	9405.78
759.731	9469.96
760.068	9554.03
760.405	9684.87
760.743	9684.65
761.08	9938.43
761.417	9905.21
761.754	9969.61
762.091	10190.85
762.428	10166.44
762.765	10320.56
763.102	10409.83
763.438	10507.45
763.775	10601.23
764.112	10718.74
764.449	10859.53
764.785	10828.12
765.122	10941.11
765.458	11003.03
