Data from hue_22_FLMS001491_00029.txt Node
Date: Tue Feb 07 17:09:53 GMT 2017
User: dcchb
Spectrometer: FLMS00149
Trigger mode: 0
Integration Time (sec): 2.000000E-2
Scans to average: 10
Electric dark correction enabled: true
Nonlinearity correction enabled: false
Boxcar width: 0
XAxis mode: Wavelengths
Number of Pixels in Spectrum: 2048
>>>>>Begin Spectral Data<<<<<
341.393	-19.49
341.776	-19.49
342.16	-19.49
342.543	-58.59
342.927	-64.91
343.31	-93.16
343.693	-64.69
344.077	-44.58
344.46	-50
344.843	-48.64
345.226	-40.51
345.61	-25.82
345.993	-18.14
346.376	8.98
346.759	5.82
347.142	27.29
347.525	22.99
347.908	62.09
348.291	68.64
348.674	77.91
349.057	111.8
349.44	146.61
349.823	155.87
350.206	164.01
350.588	192.48
350.971	226.15
351.354	239.94
351.737	243.55
352.119	250.56
352.502	280.61
352.884	266.83
353.267	279.94
353.65	277.45
354.032	284
354.414	300.73
354.797	320.16
355.179	330.33
355.562	323.78
355.944	332.14
356.326	331.46
356.709	349.54
357.091	348.63
357.473	338.01
357.855	354.51
358.238	360.39
358.62	357.67
359.002	325.58
359.384	340.5
359.766	336.21
360.148	326.26
360.53	357
360.912	353.83
361.294	342.31
361.676	352.48
362.057	356.09
362.439	360.61
362.821	340.27
363.203	355.41
363.584	339.14
363.966	338.01
364.348	317.45
364.729	307.51
365.111	306.83
365.493	343.21
365.874	317.9
366.256	333.04
366.637	321.74
367.019	308.86
367.4	329.88
367.781	323.1
368.163	320.16
368.544	321.52
368.925	321.52
369.306	323.55
369.688	320.61
370.069	299.6
370.45	324
370.831	323.78
371.212	323.1
371.593	339.6
371.974	326.49
372.355	312.25
372.736	324
373.117	309.54
373.498	303.21
373.879	300.05
374.26	300.95
374.641	336.66
375.021	337.79
375.402	330.78
375.783	325.36
376.163	333.49
376.544	324.45
376.925	327.84
377.305	326.49
377.686	327.84
378.066	329.43
378.447	342.31
378.827	348.86
379.208	333.04
379.588	337.11
379.968	342.31
380.349	333.04
380.729	324.91
381.109	331.46
381.489	330.1
381.87	328.07
382.25	316.32
382.63	344.34
383.01	350.67
383.39	349.54
383.77	343.89
384.15	361.06
384.53	354.96
384.91	344.34
385.29	381.18
385.67	334.62
386.049	352.7
386.429	353.15
386.809	371.91
387.189	358.13
387.568	336.21
387.948	363.55
388.328	370.78
388.707	372.82
389.087	352.93
389.466	344.79
389.846	344.12
390.225	360.16
390.605	375.3
390.984	370.33
391.363	380.5
391.743	377.56
392.122	371.01
392.501	366.04
392.881	393.15
393.26	377.79
393.639	398.35
394.018	383.21
394.397	371.69
394.776	383.66
395.155	396.54
395.534	377.79
395.913	376.66
396.292	397.9
396.671	389.09
397.05	385.47
397.429	389.31
397.808	378.46
398.186	410.1
398.565	400.38
398.944	403.32
399.323	402.64
399.701	418.01
400.08	419.37
400.458	405.58
400.837	407.62
401.215	402.42
401.594	399.93
401.972	407.84
402.351	380.95
402.729	405.58
403.107	418.69
403.486	443.1
403.864	411.46
404.242	415.53
404.62	411.68
404.999	453.26
405.377	432.25
405.755	436.09
406.133	447.16
406.511	429.99
406.889	428.63
407.267	433.83
407.645	425.92
408.023	432.93
408.401	420.95
408.779	446.71
409.156	453.26
409.534	442.64
409.912	445.36
410.29	458.01
410.667	451.23
411.045	461.17
411.422	441.06
411.8	468.86
412.178	464.56
412.555	480.83
412.933	468.41
413.31	466.6
413.687	481.29
414.065	472.25
414.442	503.66
414.819	491.23
415.197	498.69
415.574	480.61
415.951	488.97
416.328	492.81
416.705	493.26
417.082	485.81
417.46	510.21
417.837	497.56
418.214	506.6
418.591	494.17
418.967	511.12
419.344	529.2
419.721	517.67
420.098	517.44
420.475	536.2
420.852	526.94
421.228	528.29
421.605	529.42
421.982	524.22
422.358	539.82
422.735	557.22
423.111	536.43
423.488	564.67
423.864	558.12
424.241	552.25
424.617	553.15
424.994	554.51
425.37	568.06
425.746	551.12
426.123	579.59
426.499	580.72
426.875	577.78
427.251	592.02
427.627	608.74
428.003	583.88
428.379	602.41
428.756	616.2
429.132	598.57
429.507	620.04
429.883	606.48
430.259	616.88
430.635	607.16
431.011	614.39
431.387	634.5
431.763	615.97
432.138	657.1
432.514	660.72
432.89	635.18
433.265	676.08
433.641	681.96
434.016	698
434.392	687.61
434.767	691.45
435.143	691.45
435.518	674.95
435.894	701.85
436.269	692.13
436.644	676.08
437.02	694.39
437.395	716.08
437.77	737.1
438.145	715.18
438.52	726.48
438.895	738.68
439.271	744.56
439.646	728.51
440.021	745.46
440.395	772.13
440.77	752.92
441.145	764.9
441.52	751.56
441.895	786.36
442.27	760.6
442.645	779.81
443.019	798.11
443.394	775.74
443.769	799.92
444.143	783.65
444.518	798.79
444.892	794.72
445.267	817.78
445.641	818.45
446.016	800.37
446.39	810.32
446.764	805.35
447.139	839.47
447.513	814.39
447.887	847.15
448.262	846.02
448.636	829.75
449.01	844.67
449.384	832.46
449.758	856.19
450.132	858.68
450.506	870.2
450.88	883.31
451.254	879.92
451.628	896.42
452.002	906.36
452.376	899.35
452.75	905.68
453.123	905.46
453.497	914.5
453.871	917.21
454.244	936.64
454.618	960.6
454.992	975.74
455.365	963.31
455.739	989.75
456.112	993.14
456.486	979.58
456.859	986.13
457.232	995.85
457.606	997.88
457.979	1027.94
458.352	1041.72
458.725	1074.49
459.099	1060.71
459.472	1060.71
459.845	1081.5
460.218	1087.37
460.591	1093.25
460.964	1096.64
461.337	1123.98
461.71	1127.37
462.083	1168.05
462.456	1147.48
462.829	1163.3
463.201	1186.13
463.574	1171.44
463.947	1183.42
464.32	1212.34
464.692	1217.54
465.065	1224.77
465.438	1236.52
465.81	1275.62
466.183	1281.49
466.555	1320.81
466.928	1315.39
467.3	1301.38
467.672	1333.24
468.045	1339.34
468.417	1367.59
468.789	1377.53
469.161	1389.96
469.534	1380.7
469.906	1429.28
470.278	1439.45
470.65	1467.02
471.022	1508.83
471.394	1505.89
471.766	1543.86
472.138	1550.41
472.51	1544.31
472.882	1590.41
473.253	1627.7
473.625	1651.65
473.997	1666.57
474.369	1681.93
474.74	1739.33
475.112	1751.31
475.484	1779.33
475.855	1813
476.227	1795.6
476.598	1868.59
476.97	1892.78
477.341	1923.96
477.713	1941.59
478.084	1938.65
478.455	2027.23
478.827	2058.65
479.198	2142.26
479.569	2098.42
479.94	2191.52
480.311	2206.44
480.682	2276.04
481.053	2283.27
481.424	2321.24
481.795	2363.5
482.166	2408.24
482.537	2450.95
482.908	2489.82
483.279	2505.41
483.65	2565.07
484.021	2602.81
484.391	2672.42
484.762	2687.1
485.133	2713.32
485.503	2767.78
485.874	2863.82
486.244	2873.77
486.615	2910.38
486.985	2969.36
487.356	3051.84
487.726	3050.94
488.097	3104.04
488.467	3131.61
488.837	3277.6
489.207	3297.03
489.578	3299.29
489.948	3354.21
490.318	3425.16
490.688	3478.27
491.058	3494.31
491.428	3542.9
491.798	3578.38
492.168	3677.13
492.538	3709
492.908	3766.17
493.278	3766.85
493.648	3801.43
494.017	3858.37
494.387	3928.88
494.757	3920.97
495.126	3949.9
495.496	3993.51
495.866	4024.24
496.235	4101.98
496.605	4099.04
496.974	4135.65
497.344	4174.75
497.713	4184.69
498.082	4243.22
498.452	4262.2
498.821	4281.41
499.19	4344.69
499.559	4395.08
499.928	4441.63
500.298	4442.54
500.667	4531.58
501.036	4470.11
501.405	4552.82
501.774	4568.64
502.143	4568.86
502.512	4562.76
502.88	4641.4
503.249	4633.27
503.618	4662.87
503.987	4697.9
504.356	4740.84
504.724	4766.6
505.093	4785.58
505.462	4799.82
505.83	4872.81
506.199	4863.54
506.567	4922.98
506.936	4903.77
507.304	4978.57
507.672	5014.95
508.041	5028.74
508.409	5054.95
508.777	5104.89
509.145	5080.04
509.514	5154.61
509.882	5150.99
510.25	5129.53
510.618	5168.17
510.986	5185.8
511.354	5226.7
511.722	5278.67
512.09	5311.44
512.458	5329.07
512.826	5366.81
513.193	5376.98
513.561	5370.88
513.929	5434.38
514.297	5480.7
514.664	5466.69
515.032	5486.58
515.4	5506.92
515.767	5517.76
516.135	5603.19
516.502	5571.77
516.869	5591.66
517.237	5615.84
517.604	5670.08
517.972	5666.24
518.339	5706.23
518.706	5713.24
519.073	5756.63
519.44	5716.4
519.808	5839.56
520.175	5816.74
520.542	5877.08
520.909	5872.33
521.276	5881.37
521.643	5944.42
522.009	5974.7
522.376	5988.26
522.743	6047.69
523.11	6073.68
523.477	6130.86
523.843	6128.6
524.21	6208.14
524.577	6220.57
524.943	6200.23
525.31	6251.98
525.676	6293.34
526.043	6348.7
526.409	6376.72
526.776	6403.62
527.142	6430.06
527.508	6456.04
527.874	6489.94
528.241	6588.7
528.607	6591.63
528.973	6662.59
529.339	6571.52
529.705	6689.49
530.071	6756.6
530.437	6716.83
530.803	6818.97
531.169	6820.1
531.535	6824.85
531.901	6886.09
532.267	6820.33
532.632	6955.47
532.998	6953.21
533.364	6969.7
533.73	7045.63
534.095	7112.3
534.461	7087.21
534.826	7137.83
535.192	7147.33
535.557	7221.22
535.923	7223.26
536.288	7268.9
536.653	7314.1
537.019	7267.1
537.384	7351.61
537.749	7336.93
538.114	7342.58
538.479	7375.34
538.845	7401.56
539.21	7429.13
539.575	7486.75
539.94	7499.18
540.305	7542.57
540.67	7574.43
541.034	7557.94
541.399	7602.68
541.764	7622.12
542.129	7698.27
542.494	7679.29
542.858	7714.99
543.223	7754.09
543.587	7819.62
543.952	7879.96
544.316	7894.88
544.681	7940.75
545.045	7953.18
545.41	7989.79
545.774	8029.79
546.138	7988.89
546.503	8040.18
546.867	8069.79
547.231	8154.98
547.595	8127.41
547.959	8185.94
548.324	8203.57
548.688	8204.93
549.052	8264.58
549.416	8202.67
549.779	8220.97
550.143	8313.62
550.507	8336.22
550.871	8400.4
551.235	8429.33
551.599	8437.91
551.962	8442.66
552.326	8470.46
552.689	8539.83
553.053	8508.19
553.417	8570.57
553.78	8643.78
554.143	8590
554.507	8648.53
554.87	8686.04
555.234	8749.77
555.597	8723.78
555.96	8732.37
556.323	8749.77
556.686	8841.52
557.05	8914.96
557.413	8920.84
557.776	8894.85
558.139	8997.45
558.502	8973.49
558.865	9013.49
559.228	9043.77
559.59	9081.29
559.953	9044
560.316	9194.28
560.679	9140.27
561.041	9209.64
561.404	9358.57
561.767	9353.37
562.129	9302.3
562.492	9367.15
562.854	9360.38
563.217	9348.17
563.579	9430.43
563.941	9476.53
564.304	9499.35
564.666	9571.9
565.028	9602.85
565.39	9515.4
565.753	9577.09
566.115	9665
566.477	9737.31
566.839	9745.9
567.201	9796.97
567.563	9841.27
567.925	9915.84
568.287	9854.6
568.648	9891.43
569.01	10030.19
569.372	10095.72
569.734	10042.84
570.095	10106.8
570.457	10149.28
570.819	10115.61
571.18	10239
571.542	10201.71
571.903	10312.44
572.265	10369.16
572.626	10339.56
572.987	10375.94
573.349	10421.14
573.71	10526.45
574.071	10581.13
574.432	10572.32
574.794	10725.76
575.155	10722.83
575.516	10719.21
575.877	10900.45
576.238	10942.71
576.599	10986.77
576.96	11096.15
577.32	11173.21
577.681	11266.99
578.042	11329.59
578.403	11395.12
578.763	11455.46
579.124	11537.04
579.485	11676.92
579.845	11753.53
580.206	11942.68
580.566	12012.28
580.927	12061.77
581.287	12327.3
581.648	12356
582.008	12532.5
582.368	12673.28
582.728	12796.44
583.089	12903.79
583.449	13118.24
583.809	13146.04
584.169	13412.25
584.529	13600.94
584.889	13890.2
585.249	13943.98
585.609	14009.97
585.969	14300.81
586.329	14540.13
586.688	14678.88
587.048	14961.81
587.408	15096.72
587.768	15353.44
588.127	15581.23
588.487	15819.19
588.846	16133.76
589.206	16340.76
589.565	16592.73
589.925	16969.21
590.284	17130.11
590.643	17399.03
591.003	17629.99
591.362	18010.09
591.721	18296.19
592.08	18514.26
592.44	18825.21
592.799	19136.39
593.158	19393.56
593.517	19707
593.876	20031.28
594.235	20238.06
594.593	20685.95
594.952	20901.31
595.311	21130.91
595.67	21591.92
596.029	21999.14
596.387	22258.12
596.746	22530.65
597.104	22773.36
597.463	23077.98
597.822	23463.06
598.18	23744.63
598.538	24232.53
598.897	24478.85
599.255	24649.24
599.613	25262.56
599.972	25346.4
600.33	25701.19
600.688	25988.86
601.046	26391.79
601.404	26759.47
601.762	26914.49
602.12	27385.21
602.478	27680.12
602.836	27941.36
603.194	28161.69
603.552	28484.39
603.91	28568.68
604.268	29109.69
604.625	29370.47
604.983	29692.27
605.341	29759.16
605.698	30133.84
606.056	30526.6
606.413	30737.89
606.771	31061.5
607.128	31378.78
607.485	31436.86
607.843	31834.36
608.2	32231.64
608.557	32404.97
608.914	32605.64
609.272	33071.39
609.629	33277.71
609.986	33524.03
610.343	33585.5
610.7	34043.79
611.057	34230.91
611.414	34339.15
611.771	34546.83
612.127	34917.67
612.484	34995.41
612.841	35244.67
613.198	35438.56
613.554	35553.36
613.911	36049.62
614.267	36189.5
614.624	36284.87
614.98	36521.7
615.337	36806.89
615.693	36980.67
616.05	37104.5
616.406	37360.77
616.762	37499.3
617.118	37772.96
617.475	37819.06
617.831	38013.86
618.187	38288.43
618.543	38432.38
618.899	38716.67
619.255	38709.21
619.611	38923.67
619.967	39109.2
620.323	39306.03
620.678	39375.63
621.034	39285.01
621.39	39463.54
621.746	39441.17
622.101	40108.49
622.457	39797.09
622.812	40022.62
623.168	40218.55
623.523	40278.88
623.879	40633.23
624.234	40386.45
624.589	40572.21
624.945	40717.97
625.3	40929.49
625.655	40928.81
626.01	40955.48
626.365	41015.81
626.72	41136.49
627.075	41101.24
627.43	41207.45
627.785	41165.19
628.14	41295.81
628.495	41505.74
628.85	41496.71
629.205	41333.32
629.559	41661.67
629.914	41485.86
630.269	41644.95
630.623	41632.52
630.978	41646.53
631.332	41846.98
631.687	41830.71
632.041	41769.01
632.396	41916.13
632.75	41862.12
633.104	42002.23
633.459	41781.44
633.813	41921.33
634.167	41910.25
634.521	42048.78
634.875	42099.85
635.229	41925.17
635.583	41936.24
635.937	41954.32
636.291	41945.06
636.645	42018.5
636.999	41967.65
637.352	42025.96
637.706	41895.34
638.06	42017.14
638.413	41919.97
638.767	41887.43
639.121	42034.09
639.474	41883.36
639.828	41899.41
640.181	42053.08
640.534	41960.65
640.888	41922.91
641.241	41745.29
641.594	41875.45
641.947	41985.96
642.301	41877.03
642.654	41954.09
643.007	41909.35
643.36	41914.77
643.713	41770.6
644.066	41915.23
644.419	41745.74
644.771	41378.06
645.124	41147.34
645.477	41047.68
645.83	41000.22
646.182	40936.49
646.535	40733.56
646.888	40779.21
647.24	40806.1
647.593	41004.29
647.945	40639.33
648.298	40639.78
648.65	40632.55
649.002	40532.66
649.355	40630.51
649.707	40638.65
650.059	40783.73
650.411	41257.62
650.763	41389.36
651.115	41593.65
651.467	41494.45
651.819	41442.92
652.171	41395.01
652.523	41355.47
652.875	41425.29
653.227	41218.07
653.578	41564.95
653.93	41384.84
654.282	41255.36
654.633	41192.08
654.985	41374
655.337	41357.5
655.688	41240.22
656.039	41428.01
656.391	41289.48
656.742	41277.95
657.094	41324.28
657.445	41357.73
657.796	41327.44
658.147	41316.6
658.498	41186.21
658.849	41234.11
659.2	41293.77
659.551	41115.02
659.902	41351.4
660.253	41170.16
660.604	41226.88
660.955	41052.2
661.306	41313.89
661.656	41271.4
662.007	41107.79
662.358	41116.15
662.708	41089.94
663.059	41113.44
663.409	40993.89
663.76	41331.51
664.11	41189.14
664.461	41214
664.811	41178.75
665.161	41136.49
665.511	40984.4
665.862	41047.9
666.212	41204.96
666.562	41154.79
666.912	41166.09
667.262	41039.09
667.612	41082.93
667.962	41056.72
668.312	40927.91
668.662	41191.63
669.011	41119.31
669.361	41002.03
669.711	40928.58
670.06	40928.36
670.41	40831.64
670.76	40880.9
671.109	41035.93
671.459	40977.17
671.808	41013.33
672.157	41131.52
672.507	40645.65
672.856	40846.1
673.205	40812.88
673.554	40897.17
673.904	40737.18
674.253	40998.19
674.602	40822.6
674.951	40306.23
675.3	40149.4
675.649	40711.64
675.998	40622.6
676.346	40738.99
676.695	40806.78
677.044	40463.96
677.393	40618.08
677.741	40640.91
678.09	40612.21
678.438	40337.19
678.787	40543.96
679.135	40534.02
679.484	40306.23
679.832	40517.52
680.181	40149.17
680.529	40431.87
680.877	40283.18
681.225	40044.31
681.573	40443.63
681.922	40135.39
682.27	40165.67
682.618	40026.69
682.966	39947.82
683.314	39885.22
683.661	39933.36
684.009	39695.4
684.357	39785.34
684.705	39658.11
685.053	39723.42
685.4	39740.82
685.748	39472.8
686.095	39550.32
686.443	39296.76
686.79	39329.08
687.138	39354.61
687.485	39379.47
687.832	39126.82
688.18	39215.64
688.527	39017.45
688.874	39065.58
689.221	38860.39
689.568	38845.93
689.915	38777
690.262	38722.32
690.609	38607.29
690.956	38538.82
691.303	38482.32
691.65	38206.17
691.997	38400.29
692.344	38116.91
692.69	38010.7
693.037	38198.49
693.383	37843.47
693.73	37916.23
694.077	37755.56
694.423	37735
694.769	37545.17
695.116	37447.09
695.462	37554.89
695.808	37259.75
696.155	37428.56
696.501	37119.19
696.847	37242.35
697.193	36899.99
697.539	36955.13
697.885	36777.06
698.231	36570.73
698.577	36758.75
698.923	36584.74
699.269	36467.91
699.614	36260.91
699.96	36184.08
700.306	36282.15
700.651	35924.65
700.997	35953.35
701.342	35956.06
701.688	35910.41
702.033	35608.95
702.379	35699.34
702.724	35493.93
703.069	35745.67
703.415	35296.87
703.76	35322.86
704.105	35278.11
704.45	35289.19
704.795	35065.01
705.14	35122.64
705.485	35088.96
705.83	34825.47
706.175	34781.63
706.52	34832.7
706.865	34623.89
707.209	34583.67
707.554	34471.58
707.899	34581.18
708.243	34419.38
708.588	34226.16
708.932	34074.3
709.277	34138.03
709.621	34137.35
709.966	33957.47
710.31	33984.81
710.654	33632.28
710.998	33710.92
711.342	33716.35
711.687	33639.51
712.031	33469.35
712.375	33409.91
712.719	33420.99
713.063	33344.15
713.407	33435.45
713.75	33275.23
714.094	33274.1
714.438	33074.33
714.782	33135.34
715.125	32804.5
715.469	33016.25
715.812	32809.25
716.156	32695.13
716.499	32774
716.843	32848.57
717.186	32552.08
717.53	32738.74
717.873	32605.64
718.216	32614
718.559	32528.13
718.902	32212.43
719.246	32364.29
719.589	32231.64
719.932	32094.01
720.275	32032.32
720.617	32079.1
720.96	31985.77
721.303	31960.01
721.646	32039.78
721.989	31851.76
722.331	31983.96
722.674	31714.82
723.016	31691.54
723.359	31621.94
723.701	31624.42
724.044	31501.94
724.386	31367.71
724.729	31548.27
725.071	31435.05
725.413	31269.86
725.755	31369.51
726.097	31257.88
726.439	31107.83
726.782	31207.03
727.124	31245.68
727.465	31066.7
727.807	30926.81
728.149	31062.4
728.491	30960.26
728.833	30938.34
729.175	30778.34
729.516	30648.4
729.858	30785.12
730.199	30813.6
730.541	30708.51
730.882	30636.88
731.224	30565.47
731.565	30429.2
731.906	30520.04
732.248	30476.66
732.589	30373.83
732.93	30238.92
733.271	30157.12
733.612	30348.07
733.953	30248.87
734.294	30201.86
734.635	30082.32
734.976	30175.87
735.317	30092.26
735.658	30017.91
735.999	29909.89
736.339	29930.23
736.68	30064.92
737.021	29757.81
737.361	29708.99
737.702	29939.5
738.042	29903.79
738.383	29786.28
738.723	29741.08
739.063	29596.91
739.404	29648.66
739.744	29641.42
740.084	29446.17
740.424	29288.21
740.764	29365.05
741.104	29589.22
741.444	29404.82
741.784	29335.22
742.124	29383.13
742.464	29294.31
742.804	29162.34
743.143	29147.88
743.483	29170.93
743.823	29010.48
744.162	29080.76
744.502	29040.31
744.841	28920.99
745.181	28976.13
745.52	28914.44
745.86	28903.14
746.199	28824.5
746.538	28637.38
746.877	28836.02
747.216	28727.1
747.556	28685.52
747.895	28673.31
748.234	28558.06
748.573	28587.89
748.911	28674.9
749.25	28590.38
749.589	28410.04
749.928	28477.61
750.267	28461.34
750.605	28385.86
750.944	28251.86
751.283	28173.67
751.621	28298.63
751.96	28083.72
752.298	28102.71
752.636	28043.73
752.975	27903.62
753.313	27843.51
753.651	28012.09
753.989	27860.45
754.327	27725.99
754.666	27625.21
755.004	27591.31
755.342	27681.93
755.679	27593.34
756.017	27479.9
756.355	27591.31
756.693	27397.42
757.031	27423.18
757.368	27264.09
757.706	27255.5
758.044	27158.78
758.381	27139.34
758.719	27104.99
759.056	27112.45
759.394	27017.54
759.731	26871.1
760.068	26742.74
760.405	26626.81
760.743	26577.1
