Data from hue_260_FLMS001491_00025.txt Node
Date: Tue Feb 07 15:58:47 GMT 2017
User: dcchb
Spectrometer: FLMS00149
Trigger mode: 0
Integration Time (sec): 2.000000E-2
Scans to average: 10
Electric dark correction enabled: true
Nonlinearity correction enabled: false
Boxcar width: 0
XAxis mode: Wavelengths
Number of Pixels in Spectrum: 2048
>>>>>Begin Spectral Data<<<<<
341.393	-3.52
341.776	-3.52
342.16	-3.52
342.543	-46.91
342.927	-50.52
343.31	-78.54
343.693	-54.81
344.077	-74.93
344.46	-62.72
344.843	-54.81
345.226	-54.59
345.61	-29.05
345.993	-20.01
346.376	-2.84
346.759	41.45
347.142	25.86
347.525	59.76
347.908	43.94
348.291	85.75
348.674	82.58
349.057	92.98
349.44	137.95
349.823	153.77
350.206	167.78
350.588	210.26
350.971	206.87
351.354	223.82
351.737	207.78
352.119	245.52
352.502	256.59
352.884	277.83
353.267	275.12
353.65	281
354.032	283.93
354.414	289.58
354.797	301.56
355.179	322.58
355.562	308.79
355.944	319.64
356.326	352.18
356.709	313.31
357.091	345.4
357.473	336.36
357.855	329.58
358.238	332.75
358.62	328.68
359.002	320.32
359.384	332.29
359.766	337.04
360.148	328.23
360.53	326.42
360.912	323.71
361.294	332.07
361.676	318.28
362.057	342.91
362.439	328.23
362.821	316.25
363.203	327.32
363.584	320.99
363.966	322.8
364.348	318.06
364.729	302.92
365.111	309.02
365.493	295.91
365.874	324.38
366.256	287.77
366.637	304.95
367.019	299.98
367.4	306.53
367.781	308.57
368.163	298.85
368.544	316.02
368.925	300.43
369.306	324.16
369.688	293.42
370.069	311.28
370.45	302.46
370.831	289.36
371.212	301.11
371.593	281.22
371.974	307.21
372.355	304.27
372.736	324.61
373.117	311.73
373.498	309.24
373.879	297.27
374.26	341.33
374.641	327.1
375.021	314.44
375.402	323.93
375.783	344.5
376.163	331.62
376.544	306.08
376.925	308.11
377.305	317.6
377.686	321.22
378.066	316.7
378.447	312.18
378.827	337.49
379.208	321.22
379.588	340.88
379.968	337.49
380.349	333.2
380.729	321.67
381.109	330.71
381.489	311.28
381.87	310.37
382.25	340.43
382.63	334.1
383.01	324.61
383.39	347.89
383.77	332.29
384.15	331.84
384.53	343.37
384.91	333.2
385.29	322.35
385.67	354.21
386.049	350.82
386.429	338.4
386.809	359.64
387.189	354.67
387.568	339.3
387.948	345.85
388.328	327.55
388.707	344.95
389.087	367.09
389.466	343.37
389.846	365.29
390.225	353.76
390.605	387.43
390.984	365.29
391.363	380.65
391.743	356.7
392.122	370.48
392.501	370.94
392.881	379.98
393.26	366.42
393.639	359.64
394.018	359.19
394.397	398.51
394.776	375.68
395.155	390.82
395.534	396.02
395.913	381.33
396.292	381.56
396.671	386.76
397.05	381.11
397.429	374.1
397.808	398.05
398.186	378.17
398.565	397.83
398.944	405.96
399.323	395.34
399.701	398.73
400.08	404.83
400.458	411.39
400.837	418.17
401.215	407.77
401.594	415.68
401.972	413.87
402.351	414.78
402.729	407.55
403.107	414.55
403.486	449.58
403.864	438.51
404.242	441.67
404.62	434.89
404.999	436.25
405.377	447.54
405.755	447.54
406.133	459.07
406.511	453.42
406.889	457.04
407.267	478.73
407.645	474.44
408.023	486.64
408.401	476.92
408.779	490.93
409.156	478.96
409.534	486.41
409.912	516.24
410.29	510.82
410.667	526.19
411.045	520.54
411.422	538.84
411.8	533.19
412.178	542.01
412.555	541.33
412.933	569.12
413.31	540.88
413.687	567.54
414.065	576.58
414.442	560.08
414.819	588.33
415.197	586.52
415.574	638.27
415.951	605.28
416.328	634.66
416.705	626.75
417.082	612.51
417.46	665.62
417.837	681.44
418.214	662
418.591	656.35
418.967	640.31
419.344	681.66
419.721	700.87
420.098	699.74
420.475	680.76
420.852	716.46
421.228	739.51
421.605	720.08
421.982	725.28
422.358	744.49
422.735	763.02
423.111	768.67
423.488	775.9
423.864	793.98
424.241	801.89
424.617	829.91
424.994	839.85
425.37	820.19
425.746	829.46
426.123	835.11
426.499	849.79
426.875	858.83
427.251	874.43
427.627	887.76
428.003	916.68
428.379	946.06
428.756	904.26
429.132	918.49
429.507	967.98
429.883	958.04
430.259	964.59
430.635	991.03
431.011	945.38
431.387	1005.5
431.763	1041.88
432.138	1028.77
432.514	1039.62
432.89	1069.45
433.265	1057.25
433.641	1094.31
434.016	1112.61
434.392	1135.89
434.767	1144.93
435.143	1175.44
435.518	1156.9
435.894	1203.91
436.269	1179.95
436.644	1224.02
437.02	1257.47
437.395	1234.19
437.77	1298.14
438.145	1316.9
438.52	1284.81
438.895	1337.69
439.271	1316.45
439.646	1373.62
440.021	1402.1
440.395	1398.93
440.77	1381.76
441.145	1440.74
441.52	1468.31
441.895	1442.55
442.27	1448.2
442.645	1436.22
443.019	1483.22
443.394	1463.34
443.769	1511.92
444.143	1490.23
444.518	1540.62
444.892	1532.71
445.267	1553.96
445.641	1575.42
446.016	1562.32
446.39	1586.05
446.764	1615.65
447.139	1594.18
447.513	1615.2
447.887	1614.07
448.262	1650.68
448.636	1640.73
449.01	1648.19
449.384	1669.66
449.758	1666.95
450.132	1716.66
450.506	1727.96
450.88	1767.96
451.254	1722.77
451.628	1759.6
452.002	1735.19
452.376	1784.01
452.75	1789.66
453.123	1814.97
453.497	1852.93
453.871	1855.19
454.244	1896.09
454.618	1918.47
454.992	1888.18
455.365	1920.05
455.739	1951.23
456.112	1983.78
456.486	1966.83
456.859	2019.93
457.232	2019.03
457.606	2017.45
457.979	2028.29
458.352	2090.89
458.725	2115.98
459.099	2154.17
459.472	2160.49
459.845	2201.4
460.218	2181.28
460.591	2218.35
460.964	2198.46
461.337	2249.98
461.71	2286.14
462.083	2331.11
462.456	2289.76
462.829	2316.2
463.201	2379.02
463.574	2356.42
463.947	2398.23
464.32	2456.53
464.692	2486.81
465.065	2495.17
465.438	2518.68
465.81	2542.63
466.183	2577.66
466.555	2626.7
466.928	2641.16
467.3	2631.89
467.672	2700.37
468.045	2740.59
468.417	2754.6
468.789	2769.52
469.161	2786.92
469.534	2873.02
469.906	2879.35
470.278	2915.28
470.65	2915.95
471.022	2985.33
471.394	3040.24
471.766	3022.84
472.138	3075.72
472.51	3154.82
472.882	3179.68
473.253	3222.16
473.625	3241.6
473.997	3328.82
474.369	3313.46
474.74	3340.35
475.112	3389.61
475.484	3466.45
475.855	3492.66
476.227	3520.68
476.598	3588.25
476.97	3605.65
477.341	3712.54
477.713	3734.46
478.084	3751.19
478.455	3845.65
478.827	3899.43
479.198	3992.31
479.569	3978.75
479.94	4031.18
480.311	4158.41
480.682	4211.06
481.053	4247.44
481.424	4269.14
481.795	4357.27
482.166	4388.91
482.537	4421
482.908	4545.52
483.279	4550.94
483.65	4618.28
484.021	4701.22
484.391	4773.53
484.762	4744.83
485.133	4861.21
485.503	4882.68
485.874	4945.05
486.244	5022.11
486.615	5092.39
486.985	5112.51
487.356	5162
487.726	5255.1
488.097	5319.73
488.467	5355.44
488.837	5394.53
489.207	5434.08
489.578	5499.84
489.948	5635.2
490.318	5682.89
490.688	5659.84
491.058	5688.08
491.428	5815.99
491.798	5857.57
492.168	5968.76
492.538	5999.49
492.908	6033.16
493.278	6037.68
493.648	6076.78
494.017	6164.68
494.387	6207.62
494.757	6230.67
495.126	6298.69
495.496	6308.63
495.866	6295.3
496.235	6382.76
496.605	6462.08
496.974	6487.61
497.344	6503.66
497.713	6557.21
498.082	6598.34
498.452	6598.8
498.821	6636.53
499.19	6611.22
499.559	6721.73
499.928	6740.71
500.298	6756.31
500.667	6779.81
501.036	6755.63
501.405	6874.95
501.774	6862.52
502.143	6940.26
502.512	6931.67
502.88	6988.39
503.249	6942.74
503.618	7018.67
503.987	7055.05
504.356	7081.27
504.724	7062.51
505.093	7122.62
505.462	7107.71
505.83	7165.11
506.199	7166.24
506.567	7290.75
506.936	7240.59
507.304	7284.43
507.672	7273.81
508.041	7312.45
508.409	7401.71
508.777	7375.72
509.145	7434.71
509.514	7424.54
509.882	7480.81
510.25	7484.65
510.618	7510.86
510.986	7541.6
511.354	7556.96
511.722	7559.67
512.09	7628.37
512.458	7646
512.826	7600.13
513.193	7654.13
513.561	7667.24
513.929	7694.13
514.297	7774.81
514.664	7738.88
515.032	7743.85
515.4	7781.14
515.767	7840.8
516.135	7821.59
516.502	7763.06
516.869	7885.54
517.237	7890.96
517.604	7852.55
517.972	7849.38
518.339	7924.86
518.706	7878.54
519.073	7942.94
519.44	7911.98
519.808	7989.27
520.175	7957.63
520.542	8050.28
520.909	8084.86
521.276	8069.72
521.643	8085.99
522.009	8134.35
522.376	8099.55
522.743	8129.6
523.11	8177.74
523.477	8241.92
523.843	8223.16
524.21	8259.54
524.577	8261.35
524.943	8297.06
525.31	8324.4
525.676	8313.33
526.043	8382.48
526.409	8373.44
526.776	8408.01
527.142	8383.83
527.508	8481.68
527.874	8471.97
528.241	8475.81
528.607	8543.83
528.973	8533.21
529.339	8467.45
529.705	8612.08
530.071	8609.14
530.437	8631.06
530.803	8670.15
531.169	8590.38
531.535	8628.35
531.901	8561.91
532.267	8620.21
532.632	8624.28
532.998	8630.38
533.364	8646.2
533.73	8645.97
534.095	8683.49
534.461	8668.35
534.826	8657.95
535.192	8629.25
535.557	8683.71
535.923	8710.38
536.288	8694.56
536.653	8672.87
537.019	8588.35
537.384	8679.19
537.749	8628.8
538.114	8676.25
538.479	8614.34
538.845	8647.56
539.21	8619.08
539.575	8674.9
539.94	8646.65
540.305	8725.97
540.67	8584.05
541.034	8642.58
541.399	8650.72
541.764	8650.94
542.129	8629.02
542.494	8626.09
542.858	8619.53
543.223	8626.54
543.587	8656.37
543.952	8603.94
544.316	8669.7
544.681	8604.84
545.045	8626.54
545.41	8564.62
545.774	8605.97
546.138	8587.9
546.503	8572.53
546.867	8560.33
547.231	8549.48
547.595	8626.99
547.959	8532.53
548.324	8574.79
548.688	8594
549.052	8571.85
549.416	8498.41
549.779	8519.87
550.143	8537.05
550.507	8544.51
550.871	8503.38
551.235	8525.98
551.599	8571.4
551.962	8588.8
552.326	8553.55
552.689	8510.38
553.053	8480.55
553.417	8496.6
553.78	8557.61
554.143	8530.5
554.507	8590.61
554.87	8547.44
555.234	8634.67
555.597	8508.35
555.96	8554
556.323	8575.47
556.686	8579.53
557.05	8618.4
557.413	8563.72
557.776	8548.8
558.139	8589.93
558.502	8597.61
558.865	8567.56
559.228	8607.78
559.59	8600.1
559.953	8590.83
560.316	8676.71
560.679	8629.7
561.041	8653.88
561.404	8643.26
561.767	8768.23
562.129	8653.88
562.492	8776.14
562.854	8695.01
563.217	8750.6
563.579	8725.07
563.941	8747.44
564.304	8815.01
564.666	8844.16
565.028	8814.78
565.39	8809.13
565.753	8853.43
566.115	8895.01
566.477	8911.28
566.839	8852.3
567.201	9011.84
567.563	8910.6
567.925	9061.1
568.287	9018.62
568.648	9071.95
569.01	9078.73
569.372	9100.65
569.734	9100.42
570.095	9143.59
570.457	9128.22
570.819	9199.18
571.18	9158.5
571.542	9174.32
571.903	9160.31
572.265	9202.57
572.626	9265.84
572.987	9256.58
573.349	9293.64
573.71	9359.4
574.071	9283.92
574.432	9339.74
574.794	9462
575.155	9382.9
575.516	9366.63
575.877	9431.94
576.238	9463.58
576.599	9523.24
576.96	9545.38
577.32	9513.52
577.681	9520.53
578.042	9570.47
578.403	9533.63
578.763	9560.53
579.124	9599.62
579.485	9622.22
579.845	9709
580.206	9659.96
580.566	9698.83
580.927	9750.58
581.287	9812.72
581.648	9732.95
582.008	9758.94
582.368	9772.27
582.728	9796.23
583.089	9785.83
583.449	9828.54
583.809	9871.48
584.169	9929.33
584.529	9865.15
584.889	9987.86
585.249	9948.76
585.609	9846.85
585.969	9993.51
586.329	9957.8
586.688	10014.75
587.048	9928.88
587.408	10026.28
587.768	10070.34
588.127	9998.48
588.487	10013.85
588.846	10099.95
589.206	10079.61
589.565	10086.16
589.925	10110.57
590.284	10102.88
590.643	10123
591.003	10127.74
591.362	10199.15
591.721	10153.5
592.08	10209.55
592.44	10256.33
592.799	10189.21
593.158	10249.09
593.517	10202.77
593.876	10252.94
594.235	10264.46
594.593	10222.65
594.952	10282.09
595.311	10263.33
595.67	10325.03
596.029	10395.08
596.387	10298.59
596.746	10359.15
597.104	10332.48
597.463	10388.75
597.822	10412.03
598.18	10360.5
598.538	10368.64
598.897	10425.81
599.255	10353.95
599.613	10471.24
599.972	10406.38
600.33	10391.69
600.688	10386.04
601.046	10401.18
601.404	10481.63
601.762	10442.08
602.12	10490.44
602.478	10489.54
602.836	10470.78
603.194	10499.26
603.552	10507.39
603.91	10451.12
604.268	10537
604.625	10486.15
604.983	10516.88
605.341	10503.33
605.698	10542.87
606.056	10548.3
606.413	10586.04
606.771	10567.96
607.128	10537.22
607.485	10612.93
607.843	10575.87
608.2	10691.34
608.557	10643.89
608.914	10611.8
609.272	10687.05
609.629	10630.1
609.986	10685.92
610.343	10668.74
610.7	10716.2
611.057	10784
611.414	10758.69
611.771	10796.2
612.127	10806.59
612.484	10711.46
612.841	10784.9
613.198	10796.2
613.554	10697.67
613.911	10785.8
614.267	10889.53
614.624	10762.3
614.98	10836.42
615.337	10899.7
615.693	10784
616.05	10857.44
616.406	10879.36
616.762	10854.95
617.118	10823.77
617.475	10738.35
617.831	10878.23
618.187	10900.6
618.543	10854.95
618.899	10939.7
619.255	10889.98
619.611	10916.2
619.967	10985.35
620.323	11029.87
620.678	10988.51
621.034	10919.81
621.39	10965.69
621.746	10925.69
622.101	11033.03
622.457	10999.36
622.812	10957.78
623.168	10961.62
623.523	11007.95
623.879	10991.9
624.234	10946.48
624.589	10942.41
624.945	10997.78
625.3	11013.82
625.655	10960.71
626.01	10995.29
626.365	10915.29
626.72	10919.36
627.075	10894.73
627.43	10878
627.785	10795.07
628.14	10853.6
628.495	10860.15
628.85	10909.87
629.205	10776.99
629.559	10932.01
629.914	10854.95
630.269	10843.66
630.623	10828.06
630.978	10842.07
631.332	10904.44
631.687	10803.43
632.041	10812.92
632.396	10799.14
632.75	10773.37
633.104	10812.7
633.459	10746.03
633.813	10744.68
634.167	10781.51
634.521	10722.08
634.875	10780.83
635.229	10741.96
635.583	10666.71
635.937	10648.18
636.291	10692.7
636.645	10721.85
636.999	10667.84
637.352	10650.44
637.706	10651.12
638.06	10647.5
638.413	10632.36
638.767	10613.15
639.121	10577.9
639.474	10506.94
639.828	10596.43
640.181	10583.55
640.534	10553.49
640.888	10531.8
641.241	10436.89
641.594	10468.98
641.947	10524.34
642.301	10487.28
642.654	10495.87
643.007	10527.28
643.36	10384.46
643.713	10434.17
644.066	10485.47
644.419	10370.22
644.771	10318.92
645.124	10211.81
645.477	10208.19
645.83	10144.69
646.182	10132.94
646.535	10100.85
646.888	10083.22
647.24	10092.04
647.593	10068.76
647.945	10092.04
648.298	10049.33
648.65	10033.51
649.002	10109.21
649.355	10075.99
649.707	10045.94
650.059	10096.1
650.411	10216.78
650.763	10240.73
651.115	10348.75
651.467	10240.28
651.819	10322.99
652.171	10295.87
652.523	10235.08
652.875	10299.49
653.227	10232.6
653.578	10318.02
653.93	10268.3
654.282	10241.64
654.633	10210.68
654.985	10289.09
655.337	10247.29
655.688	10290.9
656.039	10246.16
656.391	10263.11
656.742	10258.13
657.094	10267.63
657.445	10273.73
657.796	10287.51
658.147	10328.87
658.498	10226.5
658.849	10299.26
659.2	10308.3
659.551	10183.11
659.902	10292.48
660.253	10195.99
660.604	10261.3
660.955	10154.63
661.306	10328.87
661.656	10268.08
662.007	10270.34
662.358	10250.22
662.708	10325.93
663.059	10271.47
663.409	10285.48
663.76	10335.42
664.11	10300.62
664.461	10296.78
664.811	10281.41
665.161	10329.77
665.511	10265.82
665.862	10270.11
666.212	10334.29
666.562	10266.27
666.912	10341.07
667.262	10231.47
667.612	10310.11
667.962	10316.21
668.312	10249.55
668.662	10319.6
669.011	10299.72
669.361	10296.55
669.711	10276.66
670.06	10218.36
670.41	10246.38
670.76	10256.55
671.109	10257.23
671.459	10264.46
671.808	10278.25
672.157	10252.26
672.507	10167.52
672.856	10257.91
673.205	10192.37
673.554	10309.21
673.904	10127.97
674.253	10204.8
674.602	10147.85
674.951	10059.04
675.3	9986.5
675.649	10155.09
675.998	10155.54
676.346	10114.86
676.695	10148.98
677.044	10056.56
677.393	10075.54
677.741	10108.08
678.09	10111.7
678.438	10042.32
678.787	10030.34
679.135	10047.52
679.484	10023.11
679.832	10034.86
680.181	10009.33
680.529	10001.87
680.877	9985.37
681.225	9946.05
681.573	10031.93
681.922	9921.19
682.27	9868.54
682.618	9905.38
682.966	9768.2
683.314	9859.05
683.661	9798.71
684.009	9802.55
684.357	9753.97
684.705	9708.54
685.053	9786.28
685.4	9698.37
685.748	9767.75
686.095	9626.51
686.443	9661.09
686.79	9546.29
687.138	9608.43
687.485	9620.86
687.832	9571.82
688.18	9596.91
688.527	9504.48
688.874	9454.99
689.221	9448.89
689.568	9462.22
689.915	9408.21
690.262	9432.39
690.609	9302.45
690.956	9314.43
691.303	9257.93
691.65	9258.39
691.997	9211.61
692.344	9199.41
692.69	9187.43
693.037	9149.01
693.383	9081.22
693.73	9153.76
694.077	9100.88
694.423	9059.07
694.769	9035.57
695.116	9013.42
695.462	8985.63
695.808	8897.94
696.155	8968
696.501	8981.56
696.847	8833.76
697.193	8859.98
697.539	8809.36
697.885	8761
698.231	8765.52
698.577	8718.06
698.923	8701.56
699.269	8659.76
699.614	8563.04
699.96	8612.3
700.306	8672.64
700.651	8497.5
700.997	8549.03
701.342	8484.85
701.688	8467.22
702.033	8418.18
702.379	8396.71
702.724	8386.32
703.069	8407.56
703.415	8306.32
703.76	8352.42
704.105	8329.6
704.45	8267.23
704.795	8231.07
705.14	8158.75
705.485	8137.96
705.83	8128.02
706.175	8162.82
706.52	8045.54
706.865	8104.07
707.209	8073.33
707.554	8041.02
707.899	8041.02
708.243	7849.61
708.588	7995.59
708.932	7874.24
709.277	7919.66
709.621	7910.85
709.966	7839.21
710.31	7907.46
710.654	7740.91
710.998	7755.15
711.342	7780.01
711.687	7810.06
712.031	7770.29
712.375	7748.14
712.719	7699.11
713.063	7621.82
713.407	7695.94
713.75	7682.38
714.094	7659.56
714.438	7628.6
714.782	7610.07
715.125	7589.28
715.469	7560.58
715.812	7552.67
716.156	7520.81
716.499	7536.85
716.843	7525.1
717.186	7422.73
717.53	7490.52
717.873	7441.03
718.216	7489.39
718.559	7442.84
718.902	7414.82
719.246	7443.29
719.589	7418.21
719.932	7348.15
720.275	7362.17
720.617	7344.09
720.96	7393.35
721.303	7324.43
721.646	7387.93
721.989	7326.69
722.331	7330.75
722.674	7302.51
723.016	7345.89
723.359	7310.87
723.701	7341.83
724.044	7311.55
724.386	7239
724.729	7286.91
725.071	7240.59
725.413	7276.52
725.755	7222.51
726.097	7201.72
726.439	7177.99
726.782	7248.04
727.124	7223.86
727.465	7164.66
727.807	7188.61
728.149	7244.88
728.491	7186.58
728.833	7170.08
729.175	7198.78
729.516	7165.11
729.858	7217.76
730.199	7199.68
730.541	7166.92
730.882	7182.06
731.224	7169.85
731.565	7135.96
731.906	7160.36
732.248	7159.23
732.589	7123.3
732.93	7054.6
733.271	7104.54
733.612	7112
733.953	7088.05
734.294	7123.98
734.635	7060.93
734.976	7111.32
735.317	7119.46
735.658	7130.31
735.999	7103.64
736.339	7082.62
736.68	7140.02
737.021	7098.22
737.361	7110.42
737.702	7156.29
738.042	7201.49
738.383	7175.28
738.723	7192.9
739.063	7092.34
739.404	7145.45
739.744	7170.08
740.084	7153.58
740.424	7229.97
740.764	7173.92
741.104	7142.28
741.444	7139.12
741.784	7157.65
742.124	7155.39
742.464	7209.85
742.804	7167.14
743.143	7193.13
743.483	7208.27
743.823	7262.73
744.162	7235.61
744.502	7295.5
744.841	7293.92
745.181	7353.8
745.52	7302.51
745.86	7359.91
746.199	7414.82
746.538	7486
746.877	7500.69
747.216	7514.03
747.556	7584.53
747.895	7591.09
748.234	7555.61
748.573	7627.24
748.911	7699.11
749.25	7750.63
749.589	7752.44
749.928	7880.57
750.267	7890.74
750.605	7969.61
750.944	8013.45
751.283	8004.41
751.621	8118.53
751.96	8164.18
752.298	8203.5
752.636	8357.85
752.975	8351.97
753.313	8429.03
753.651	8577.27
753.989	8627.44
754.327	8668.35
754.666	8745.63
755.004	8877.38
755.342	8993.08
755.679	9080.31
756.017	9049.8
756.355	9261.1
756.693	9345.39
757.031	9444.14
757.368	9538.38
757.706	9709.9
758.044	9770.24
758.381	9893.4
758.719	10001.64
759.056	10139.04
759.394	10262.88
759.731	10340.62
760.068	10536.32
760.405	10588.75
760.743	10729.08
761.08	10902.41
761.417	11027.15
761.754	11132.46
762.091	11212.46
762.428	11307.6
762.765	11447.93
763.102	11603.86
763.438	11751.2
763.775	11809.28
764.112	11926.56
764.449	12138.08
