Data from hue_22_FLMS001491_00044.txt Node
Date: Tue Feb 07 17:10:10 GMT 2017
User: dcchb
Spectrometer: FLMS00149
Trigger mode: 0
Integration Time (sec): 2.000000E-2
Scans to average: 10
Electric dark correction enabled: true
Nonlinearity correction enabled: false
Boxcar width: 0
XAxis mode: Wavelengths
Number of Pixels in Spectrum: 2048
>>>>>Begin Spectral Data<<<<<
341.393	-24.36
341.776	-24.36
342.16	-24.36
342.543	-73.63
342.927	-77.02
343.31	-83.35
343.693	-67.07
344.077	-64.59
344.46	-56.91
344.843	-61.88
345.226	-28.43
345.61	-28.66
345.993	-23.23
346.376	-12.16
346.759	13.38
347.142	15.86
347.525	33.49
347.908	68.74
348.291	82.75
348.674	114.84
349.057	97.21
349.44	116.65
349.823	144.9
350.206	160.72
350.588	176.76
350.971	206.36
351.354	231.67
351.737	214.27
352.119	249.53
352.502	260.83
352.884	265.8
353.267	287.94
353.65	302.63
354.032	290.2
354.414	306.93
354.797	290.88
355.179	324.78
355.562	335.4
355.944	322.97
356.326	325.91
356.709	327.04
357.091	341.5
357.473	324.33
357.855	316.19
358.238	334.04
358.62	343.99
359.002	329.75
359.384	352.35
359.766	323.42
360.148	350.99
360.53	351.67
360.912	324.55
361.294	321.16
361.676	318.9
362.057	335.4
362.439	313.48
362.821	329.3
363.203	337.43
363.584	316.87
363.966	319.81
364.348	336.98
364.729	305.57
365.111	297.89
365.493	326.14
365.874	328.17
366.256	290.88
366.637	310.09
367.019	321.39
367.4	316.19
367.781	325.01
368.163	320.94
368.544	311.67
368.925	311.45
369.306	319.58
369.688	303.09
370.069	322.75
370.45	291.79
370.831	314.84
371.212	324.33
371.593	309.19
371.974	317.77
372.355	284.1
372.736	326.14
373.117	318.45
373.498	305.57
373.879	307.6
374.26	329.75
374.641	301.05
375.021	301.05
375.402	306.7
375.783	298.57
376.163	323.88
376.544	327.04
376.925	303.99
377.305	327.94
377.686	339.69
378.066	317.55
378.447	332.01
378.827	339.02
379.208	339.69
379.588	343.99
379.968	325.91
380.349	336.76
380.729	335.63
381.109	351.67
381.489	334.04
381.87	328.17
382.25	332.01
382.63	339.24
383.01	332.91
383.39	325.01
383.77	326.14
384.15	325.46
384.53	331.33
384.91	340.15
385.29	340.6
385.67	341.95
386.049	362.74
386.429	333.37
386.809	370.43
387.189	372.46
387.568	369.98
387.948	359.81
388.328	350.54
388.707	367.04
389.087	346.7
389.466	374.04
389.846	350.09
390.225	369.75
390.605	383.76
390.984	348.96
391.363	375.63
391.743	386.47
392.122	368.62
392.501	360.26
392.881	351.9
393.26	381.28
393.639	390.54
394.018	381.05
394.397	372.24
394.776	366.81
395.155	376.76
395.534	393.25
395.913	378.56
396.292	385.12
396.671	370.2
397.05	372.46
397.429	379.02
397.808	376.3
398.186	378.79
398.565	390.77
398.944	396.42
399.323	386.02
399.701	393.48
400.08	372.24
400.458	398.68
400.837	391.22
401.215	371.11
401.594	376.76
401.972	399.35
402.351	413.14
402.729	391.67
403.107	413.14
403.486	408.62
403.864	409.07
404.242	406.13
404.62	399.58
404.999	397.55
405.377	400.03
405.755	411.78
406.133	428.96
406.511	413.36
406.889	435.96
407.267	421.73
407.645	443.65
408.023	452.23
408.401	440.26
408.779	442.29
409.156	445.45
409.534	426.7
409.912	439.8
410.29	454.49
410.667	439.58
411.045	452.23
411.422	470.09
411.8	465.34
412.178	447.49
412.555	455.17
412.933	470.31
413.31	466.47
413.687	442.06
414.065	466.7
414.442	459.24
414.819	462.86
415.197	489.07
415.574	480.26
415.951	500.14
416.328	475.28
416.705	488.39
417.082	467.6
417.46	478.45
417.837	505.57
418.214	494.49
418.591	502.4
418.967	497.2
419.344	515.74
419.721	484.1
420.098	525
420.475	489.97
420.852	541.72
421.228	502.85
421.605	506.92
421.982	534.49
422.358	496.07
422.735	511.44
423.111	539.01
423.488	547.82
423.864	560.03
424.241	555.96
424.617	544.21
424.994	545.34
425.37	567.94
425.746	522.29
426.123	567.94
426.499	555.06
426.875	561.16
427.251	566.36
427.627	573.81
428.003	567.71
428.379	574.49
428.756	582.85
429.132	586.24
429.507	612.68
429.883	589.86
430.259	621.27
430.635	605.45
431.011	592.34
431.387	620.37
431.763	604.32
432.138	609.29
432.514	636.41
432.89	619.46
433.265	635.05
433.641	653.13
434.016	655.84
434.392	630.31
434.767	665.79
435.143	646.13
435.518	652.68
435.894	670.76
436.269	681.15
436.644	692.68
437.02	689.06
437.395	685.45
437.77	689.74
438.145	700.59
438.52	690.19
438.895	723.87
439.271	721.83
439.646	713.92
440.021	716.86
440.395	722.74
440.77	716.41
441.145	713.24
441.52	743.3
441.895	743.75
442.27	754.82
442.645	757.54
443.019	744.66
443.394	753.02
443.769	776.07
444.143	783.52
444.518	776.07
444.892	755.73
445.267	770.64
445.641	790.98
446.016	800.02
446.39	798.21
446.764	791.43
447.139	804.54
447.513	814.26
447.887	804.54
448.262	813.58
448.636	810.64
449.01	842.05
449.384	825.56
449.758	813.58
450.132	841.15
450.506	837.76
450.88	841.6
451.254	834.6
451.628	868.04
452.002	878.89
452.376	863.97
452.75	892.45
453.123	890.19
453.497	896.74
453.871	886.57
454.244	918.66
454.618	918.21
454.992	911.88
455.365	931.32
455.739	962.73
456.112	973.35
456.486	968.38
456.859	960.7
457.232	992.33
457.606	993.46
457.979	987.59
458.352	992.33
458.725	1021.71
459.099	1015.38
459.472	1025.1
459.845	1056.96
460.218	1040.92
460.591	1050.64
460.964	1017.64
461.337	1114.82
461.71	1114.14
462.083	1112.56
462.456	1099.45
462.829	1136.28
463.201	1136.96
463.574	1145.1
463.947	1162.95
464.32	1173.57
464.692	1190.29
465.065	1205.89
465.438	1188.94
465.81	1236.17
466.183	1206.34
466.555	1272.1
466.928	1250.18
467.3	1238.88
467.672	1264.64
468.045	1307.35
468.417	1336.05
468.789	1338.76
469.161	1335.37
469.534	1360.91
469.906	1377.63
470.278	1414.02
470.65	1407.24
471.022	1448.82
471.394	1461.47
471.766	1465.99
472.138	1489.49
472.51	1540.57
472.882	1551.87
473.253	1580.34
473.625	1571.3
473.997	1601.81
474.369	1633.22
474.74	1663.95
475.112	1682.48
475.484	1709.15
475.855	1746.44
476.227	1771.3
476.598	1823.5
476.97	1858.75
477.341	1841.58
477.713	1918.86
478.084	1889.94
478.455	1931.07
478.827	1996.37
479.198	2044.28
479.569	2073.43
479.94	2098.74
480.311	2105.52
480.682	2168.8
481.053	2241.57
481.424	2245.63
481.795	2305.29
482.166	2324.5
482.537	2348.23
482.908	2415.57
483.279	2452.41
483.65	2468.45
484.021	2559.07
484.391	2564.04
484.762	2579.18
485.133	2630.48
485.503	2682.01
485.874	2734.66
486.244	2786.64
486.615	2811.04
486.985	2850.59
487.356	2935.56
487.726	2948.44
488.097	3025.5
488.467	3027.76
488.837	3110.24
489.207	3127.42
489.578	3201.09
489.948	3233.18
490.318	3295.32
490.688	3305.49
491.058	3346.17
491.428	3395.89
491.798	3461.42
492.168	3498.26
492.538	3549.55
492.908	3561.3
493.278	3629.55
493.648	3636.33
494.017	3713.17
494.387	3753.62
494.757	3795.65
495.126	3810.11
495.496	3845.36
495.866	3900.28
496.235	3907.06
496.605	3934.18
496.974	4027.28
497.344	4046.04
497.713	4045.13
498.082	4098.24
498.452	4146.83
498.821	4162.42
499.19	4180.5
499.559	4224.11
499.928	4262.76
500.298	4237.67
500.667	4274.96
501.036	4280.83
501.405	4306.37
501.774	4362.64
502.143	4403.77
502.512	4422.98
502.88	4452.35
503.249	4465.46
503.618	4523.99
503.987	4526.48
504.356	4530.54
504.724	4549.53
505.093	4613.48
505.462	4597.89
505.83	4658
506.199	4678.56
506.567	4762.63
506.936	4760.14
507.304	4768.96
507.672	4805.57
508.041	4848.95
508.409	4819.35
508.777	4874.94
509.145	4886.02
509.514	4866.13
509.882	4926.24
510.25	4916.75
510.618	5008.95
510.986	4962.62
511.354	5068.84
511.722	5069.74
512.09	5116.52
512.458	5084.88
512.826	5176.4
513.193	5183.18
513.561	5196.52
513.929	5168.95
514.297	5232.67
514.664	5300.24
515.032	5249.4
515.4	5315.83
515.767	5307.25
516.135	5345.44
516.502	5315.61
516.869	5417.75
517.237	5392.67
517.604	5389.28
517.972	5445.77
518.339	5444.64
518.706	5460.92
519.073	5500.01
519.44	5523.96
519.808	5551.99
520.175	5533.91
520.542	5637.41
520.909	5685.09
521.276	5596.73
521.643	5717.18
522.009	5660.46
522.376	5765.77
522.743	5745.88
523.11	5836.95
523.477	5869.04
523.843	5936.16
524.21	5895.93
524.577	5985.87
524.943	5948.36
525.31	6056.38
525.676	6051.63
526.043	6076.49
526.409	6107.68
526.776	6135.47
527.142	6217.51
527.508	6173.44
527.874	6243.95
528.241	6245.53
528.607	6293.44
528.973	6352.42
529.339	6289.82
529.705	6463.15
530.071	6432.87
530.437	6431.29
530.803	6491.62
531.169	6531.85
531.535	6546.31
531.901	6623.82
532.267	6536.37
532.632	6616.37
532.998	6640.09
533.364	6675.8
533.73	6689.13
534.095	6793.08
534.461	6751.96
534.826	6801.67
535.192	6825.4
535.557	6950.37
535.923	6882.8
536.288	6922.12
536.653	6918.73
537.019	6924.38
537.384	6948.33
537.749	6991.04
538.114	7019.74
538.479	6990.82
538.845	7115.56
539.21	7035.11
539.575	7127.54
539.94	7141.1
540.305	7187.42
540.67	7185.62
541.034	7252.96
541.399	7306.06
541.764	7290.47
542.129	7313.75
542.494	7330.02
542.858	7418.83
543.223	7385.61
543.587	7477.13
543.952	7455.67
544.316	7474.42
544.681	7440.07
545.045	7512.39
545.41	7643.91
545.774	7623.12
546.138	7666.51
546.503	7591.93
546.867	7630.12
547.231	7753.74
547.595	7690.69
547.959	7782.89
548.324	7765.94
548.688	7819.5
549.052	7849.33
549.416	7865.15
549.779	7914.64
550.143	7913.51
550.507	8042.99
550.871	7965.26
551.235	7962.09
551.599	8075.31
551.962	8068.98
552.326	8083.9
552.689	8122.99
553.053	8130
553.417	8083.67
553.78	8216.55
554.143	8222.43
554.507	8266.72
554.87	8197.79
555.234	8370.67
555.597	8278.24
555.96	8316.43
556.323	8347.62
556.686	8414.06
557.05	8437.56
557.413	8479.82
557.776	8421.06
558.139	8565.92
558.502	8553.04
558.865	8539.7
559.228	8582.42
559.59	8688.18
559.953	8661.06
560.316	8721.17
560.679	8753.71
561.041	8761.17
561.404	8816.08
561.767	8814.5
562.129	8781.73
562.492	9003.87
562.854	8855.4
563.217	8923.88
563.579	8995.96
563.941	9022.18
564.304	9101.95
564.666	9112.12
565.028	9108.73
565.39	9129.75
565.753	9176.3
566.115	9231.66
566.477	9259.69
566.839	9293.36
567.201	9322.74
567.563	9277.31
567.925	9354.37
568.287	9424.65
568.648	9417.42
569.01	9488.15
569.372	9515.05
569.734	9498.1
570.095	9625.1
570.457	9573.58
570.819	9678.88
571.18	9692.89
571.542	9785.55
571.903	9794.36
572.265	9745.55
572.626	9884.75
572.987	9878.65
573.349	10022.83
573.71	10012.66
574.071	9985.54
574.432	10068.03
574.794	10136.5
575.155	10242.03
575.516	10227.8
575.877	10360.67
576.238	10379.88
576.599	10462.82
576.96	10519.77
577.32	10615.58
577.681	10635.69
578.042	10740.78
578.403	10861.68
578.763	10962.24
579.124	10987.55
579.485	11109.13
579.845	11188
580.206	11237.71
580.566	11419.4
580.927	11493.53
581.287	11656.69
581.648	11717.93
582.008	11857.81
582.368	12019.39
582.728	12178.48
583.089	12304.8
583.449	12399.72
583.809	12594.29
584.169	12850.55
584.529	12874.96
584.889	13208.06
585.249	13302.29
585.609	13377.77
585.969	13654.6
586.329	13853.24
586.688	14062.95
587.048	14291.42
587.408	14446.67
587.768	14581.35
588.127	14952.42
588.487	15127.78
588.846	15475.57
589.206	15532.06
589.565	15782.68
589.925	16149.9
590.284	16451.14
590.643	16596.44
591.003	16876.66
591.362	17243.43
591.721	17568.17
592.08	17817.43
592.44	18037.53
592.799	18488.37
593.158	18717.29
593.517	18844.29
593.876	19212.87
594.235	19506.65
594.593	19791.84
594.952	20203.13
595.311	20399.73
595.67	20750.01
596.029	21163.33
596.387	21504.79
596.746	21769.87
597.104	22010.76
597.463	22270.87
597.822	22688.94
598.18	23068.81
598.538	23331.86
598.897	23635.35
599.255	23769.13
599.613	24397.37
599.972	24585.16
600.33	24925.26
600.688	25303.56
601.046	25592.36
601.404	25942.19
601.762	26232.35
602.12	26478.89
602.478	26719.34
602.836	27134.92
603.194	27196.39
603.552	27641.58
603.91	27771.97
604.268	28188.45
604.625	28489.24
604.983	28807.19
605.341	28828.44
605.698	29315.43
606.056	29640.17
606.413	29790.45
606.771	30182.07
607.128	30481.95
607.485	30579.13
607.843	30803.75
608.2	31170.52
608.557	31465.2
608.914	31648.48
609.272	31957.85
609.629	32271.06
609.986	32618.85
610.343	32642.35
610.7	33110.81
611.057	33241.65
611.414	33351.03
611.771	33547.63
612.127	33899.49
612.484	34003.22
612.841	34306.48
613.198	34364.56
613.554	34610.88
613.911	35031.21
614.267	35195.5
614.624	35189.17
614.98	35427.36
615.337	35844.3
615.693	35884.75
616.05	36119.32
616.406	36389.59
616.762	36372.65
617.118	36445.41
617.475	36695.35
617.831	37048.79
618.187	37187.77
618.543	37333.07
618.899	37539.62
619.255	37655.32
619.611	37604.93
619.967	37996.78
620.323	38132.15
620.678	38104.58
621.034	38150.68
621.39	38375.53
621.746	38433.83
622.101	38976.64
622.457	38598.8
622.812	38952.69
623.168	39089.18
623.523	39188.39
623.879	39286.47
624.234	39145.68
624.589	39473.81
624.945	39514.03
625.3	39680.81
625.655	39859.11
626.01	39850.29
626.365	39932.78
626.72	39966.68
627.075	39912.67
627.43	39981.36
627.785	39990.86
628.14	40174.58
628.495	40191.53
628.85	40265.2
629.205	40280.11
629.559	40650.72
629.914	40374.12
630.269	40533.89
630.623	40523.95
630.978	40425.42
631.332	40727.56
631.687	40729.37
632.041	40537.96
632.396	40746.54
632.75	40675.58
633.104	40774.79
633.459	40620.44
633.813	40730.5
634.167	40596.94
634.521	40714.68
634.875	40864.73
635.229	40848.69
635.583	40662.02
635.937	40668.35
636.291	40794.68
636.645	40792.42
636.999	40690.95
637.352	40895.46
637.706	40655.92
638.06	40823.38
638.413	40780.44
638.767	40798.52
639.121	40763.72
639.474	40702.25
639.828	40625.19
640.181	40800.55
640.534	40734.11
640.888	40710.16
641.241	40624.74
641.594	40621.8
641.947	40751.06
642.301	40672.87
642.654	40717.84
643.007	40811.4
643.36	40637.62
643.713	40756.48
644.066	40789.93
644.419	40664.28
644.771	40368.92
645.124	39991.99
645.477	39978.88
645.83	39701.82
646.182	39701.15
646.535	39462.51
646.888	39559
647.24	39449.63
647.593	39509.51
647.945	39512.68
648.298	39396.97
648.65	39460.02
649.002	39234.94
649.355	39507.7
649.707	39499.12
650.059	39461.15
650.411	40030.18
650.763	40124.64
651.115	40413.22
651.467	40478.53
651.819	40338.87
652.171	40351.3
652.523	40210.96
652.875	40257.51
653.227	40094.36
653.578	40262.71
653.93	40288.7
654.282	39982.72
654.633	40045.77
654.985	40177.52
655.337	40189.04
655.688	40135.03
656.039	40269.27
656.391	39997.18
656.742	39913.12
657.094	39878.99
657.445	40191.08
657.796	40024.75
658.147	40027.24
658.498	40039.44
658.849	40009.39
659.2	40016.84
659.551	40002.38
659.902	40003.74
660.253	39994.7
660.604	40015.94
660.955	39883.74
661.306	39984.53
661.656	40003.28
662.007	39958.99
662.358	39937.3
662.708	39953.57
663.059	39973.23
663.409	39661.37
663.76	39916.05
664.11	40048.71
664.461	39929.16
664.811	39928.48
665.161	39905.21
665.511	39830.63
665.862	39769.17
666.212	39928.94
666.562	39930.97
666.912	39906.11
667.262	39679.23
667.612	39833.12
667.962	39906.56
668.312	39799
668.662	39988.6
669.011	39825.89
669.361	39807.13
669.711	39786.11
670.06	39807.36
670.41	39660.24
670.76	39755.83
671.109	39861.59
671.459	39770.52
671.808	39745.66
672.157	39850.75
672.507	39484.65
672.856	39610.3
673.205	39679.23
673.554	39720.13
673.904	39536.63
674.253	39766
674.602	39570.75
674.951	39079.24
675.3	39001.5
675.649	39609.62
675.998	39508.83
676.346	39479.46
676.695	39481.94
677.044	39375.05
677.393	39275.62
677.741	39369.63
678.09	39385
678.438	39261.61
678.787	39324.43
679.135	39392.23
679.484	39095.51
679.832	39266.13
680.181	39005.12
680.529	39164.66
680.877	39055.74
681.225	39121.5
681.573	39119.69
681.922	38885.57
682.27	38914.73
682.618	38904.56
682.966	38724.9
683.314	38858.91
683.661	38597.45
684.009	38445.59
684.357	38462.76
684.705	38396.09
685.053	38545.7
685.4	38444.23
685.748	38221.64
686.095	38284.46
686.443	38167.85
686.79	38092.37
687.138	38247.62
687.485	38170.56
687.832	37995.43
688.18	37987.07
688.527	37794.75
688.874	37795.21
689.221	37701.65
689.568	37650.58
689.915	37538.49
690.262	37456.46
690.609	37501.43
690.956	37408.32
691.303	37324.26
691.65	37229.57
691.997	37205.39
692.344	36970.82
692.69	36973.99
693.037	36866.64
693.383	36510.95
693.73	36768.57
694.077	36568.12
694.423	36489.25
694.769	36433.89
695.116	36368.58
695.462	36241.8
695.808	36046.1
696.155	36283.83
696.501	35898.53
696.847	36012.2
697.193	35682.95
697.539	35899.89
697.885	35610.86
698.231	35588.94
698.577	35618.77
698.923	35520.46
699.269	35424.65
699.614	34984.66
699.96	35079.12
700.306	35078.89
700.651	34841.61
700.997	34862.4
701.342	34779.69
701.688	34635.97
702.033	34718
702.379	34602.52
702.724	34538.8
703.069	34630.54
703.415	34152.59
703.76	34288.86
704.105	34155.98
704.45	34146.72
704.795	33974.74
705.14	33744.92
705.485	33809.55
705.83	33731.81
706.175	33734.52
706.52	33600.29
706.865	33475.77
707.209	33619.72
707.554	33316.23
707.899	33361.2
708.243	33174.31
708.588	33252.5
708.932	32920.98
709.277	32966.63
709.621	33040.08
709.966	32721.22
710.31	32875.79
710.654	32593.99
710.998	32560.09
711.342	32605.96
711.687	32460.88
712.031	32323.49
712.375	32240.78
712.719	32369.36
713.063	32232.64
713.407	32405.97
713.75	32277.39
714.094	32097.5
714.438	31984.29
714.782	32125.53
715.125	31828.36
715.469	31982.03
715.812	31775.93
716.156	31651.87
716.499	31639.21
716.843	31646.22
717.186	31542.49
717.53	31649.61
717.873	31555.14
718.216	31444.87
718.559	31289.62
718.902	31214.81
719.246	31289.16
719.589	31053.69
719.932	30968.49
720.275	31077.64
720.617	31039.45
720.96	30990.41
721.303	31044.2
721.646	30866.8
721.989	30785.9
722.331	30843.3
722.674	30717.43
723.016	30700.03
723.359	30697.09
723.701	30777.09
724.044	30559.24
724.386	30366.02
724.729	30474.04
725.071	30389.53
725.413	30437.66
725.755	30339.36
726.097	30192.24
726.439	30056.88
726.782	30140.72
727.124	30220.49
727.465	29982.3
727.807	30018.01
728.149	29922.42
728.491	29791.8
728.833	29977.33
729.175	29963.77
729.516	29904.34
729.858	29704.12
730.199	29695.98
730.541	29662.77
730.882	29588.87
731.224	29706.61
731.565	29472.26
731.906	29450.57
732.248	29500.74
732.589	29279.27
732.93	29251.7
733.271	29377.12
733.612	29275.2
733.953	29235.88
734.294	29169.9
734.635	29084.02
734.976	29130.35
735.317	28976.46
735.658	28990.01
735.999	29092.16
736.339	28917.47
736.68	29051.48
737.021	28964.48
737.361	28841.32
737.702	28906.4
738.042	28792.05
738.383	28768.33
738.723	28812.84
739.063	28660.53
739.404	28747.54
739.744	28639.74
740.084	28572.17
740.424	28602.45
740.764	28529.01
741.104	28555
741.444	28410.82
741.784	28283.59
742.124	28384.15
742.464	28322.46
742.804	28207.89
743.143	28214.22
743.483	28265.06
743.823	27955.92
744.162	27966.99
744.502	28096.48
744.841	27909.37
745.181	28163.6
745.52	27877.28
745.86	27998.4
746.199	27882.47
746.538	27876.6
746.877	27968.35
747.216	27966.09
747.556	27829.37
747.895	27863.94
748.234	27736.94
748.573	27667.34
748.911	27614.01
749.25	27569.71
749.589	27450.85
749.928	27501.69
750.267	27642.71
750.605	27499.21
750.944	27429.6
751.283	27373.33
751.621	27407.91
751.96	27354.58
752.298	27194.58
752.636	27298.99
752.975	27010.63
753.313	27085.66
753.651	27235.26
753.989	26914.59
754.327	26948.03
754.666	26829.85
755.004	26864.42
755.342	26822.16
755.679	26864.65
756.017	26680.47
756.355	26790.07
756.693	26552.34
757.031	26656.74
757.368	26515.96
757.706	26466.69
758.044	26419.91
758.381	26450.87
758.719	26350.76
759.056	26278.9
759.394	26143.76
759.731	25990.32
760.068	25934.5
