Data from hue_70_FLMS001491_98.txt Node
Date: Mon Feb 06 15:21:47 GMT 2017
User: dcchb
Spectrometer: FLMS00149
Trigger mode: 0
Integration Time (sec): 2.000000E-2
Scans to average: 10
Electric dark correction enabled: true
Nonlinearity correction enabled: false
Boxcar width: 0
XAxis mode: Wavelengths
Number of Pixels in Spectrum: 2048
>>>>>Begin Spectral Data<<<<<
341.393	-13.42
341.776	-13.42
342.16	-13.42
342.543	-65.17
342.927	-61.1
343.31	-70.37
343.693	-84.6
344.077	-60.2
344.46	-52.29
344.843	-42.34
345.226	-36.24
345.61	-28.56
345.993	-24.72
346.376	14.15
346.759	15.28
347.142	11.44
347.525	33.13
347.908	47.15
348.291	90.08
348.674	85.11
349.057	102.96
349.44	133.47
349.823	145.22
350.206	178.44
350.588	197.42
350.971	227.03
351.354	226.35
351.737	247.37
352.119	254.82
352.502	272.45
352.884	292.79
353.267	284.43
353.65	284.2
354.032	295.73
354.414	311.32
354.797	329.62
355.179	320.36
355.562	341.15
355.944	341.6
356.326	335.05
356.709	342.05
357.091	346.12
357.473	350.87
357.855	371.88
358.238	365.56
358.62	348.38
359.002	329.17
359.384	344.76
359.766	334.82
360.148	333.69
360.53	354.93
360.912	324.88
361.294	349.06
361.676	332.79
362.057	329.4
362.439	344.09
362.821	319.23
363.203	331.88
363.584	336.4
363.966	345.67
364.348	326.46
364.729	345.89
365.111	314.03
365.493	328.04
365.874	308.61
366.256	309.06
366.637	331.21
367.019	311.09
367.4	346.35
367.781	327.59
368.163	340.25
368.544	327.14
368.925	306.12
369.306	311.77
369.688	311.77
370.069	315.84
370.45	320.36
370.831	316.29
371.212	307.25
371.593	314.26
371.974	310.42
372.355	320.58
372.736	298.66
373.117	302.73
373.498	318.1
373.879	316.52
374.26	304.31
374.641	327.59
375.021	331.21
375.402	329.17
375.783	319.23
376.163	348.38
376.544	344.99
376.925	313.81
377.305	326.91
377.686	318.1
378.066	325.33
378.447	324.2
378.827	333.01
379.208	327.59
379.588	321.26
379.968	330.53
380.349	335.73
380.729	330.53
381.109	327.82
381.489	348.83
381.87	332.34
382.25	327.82
382.63	340.92
383.01	351.09
383.39	326.46
383.77	330.75
384.15	353.13
384.53	337.08
384.91	346.57
385.29	331.21
385.67	354.48
386.049	354.93
386.429	354.93
386.809	344.31
387.189	352
387.568	356.06
387.948	383.41
388.328	341.83
388.707	366.46
389.087	345.44
389.466	354.71
389.846	379.11
390.225	378.21
390.605	374.14
390.984	370.3
391.363	359
391.743	370.98
392.122	380.24
392.501	368.49
392.881	358.1
393.26	361.94
393.639	376.18
394.018	378.44
394.397	385.67
394.776	357.65
395.155	379.79
395.534	373.46
395.913	377.98
396.292	366.69
396.671	403.29
397.05	384.99
397.429	375.05
397.808	382.5
398.186	387.7
398.565	360.81
398.944	359.68
399.323	379.79
399.701	386.57
400.08	386.35
400.458	375.05
400.837	387.7
401.215	403.29
401.594	376.63
401.972	384.09
402.351	400.36
402.729	415.05
403.107	402.62
403.486	410.3
403.864	421.15
404.242	408.04
404.62	402.62
404.999	391.32
405.377	409.17
405.755	391.54
406.133	421.6
406.511	413.46
406.889	423.18
407.267	427.7
407.645	425.44
408.023	435.61
408.401	410.75
408.779	426.34
409.156	438.55
409.534	424.99
409.912	437.19
410.29	429.73
410.667	446.23
411.045	433.8
411.422	447.81
411.8	448.27
412.178	457.98
412.555	450.98
412.933	456.85
413.31	461.82
413.687	460.69
414.065	469.73
414.442	462.28
414.819	471.09
415.197	484.87
415.574	490.52
415.951	462.05
416.328	496.4
416.705	495.95
417.082	470.86
417.46	465.67
417.837	476.06
418.214	472.22
418.591	503.63
418.967	491.2
419.344	490.52
419.721	486.68
420.098	504.99
420.475	484.2
420.852	517.87
421.228	502.5
421.605	514.93
421.982	504.08
422.358	514.93
422.735	521.03
423.111	512.44
423.488	520.35
423.864	533.46
424.241	515.61
424.617	539.34
424.994	540.92
425.37	513.12
425.746	530.07
426.123	538.21
426.499	554.93
426.875	548.6
427.251	560.58
427.627	563.74
428.003	571.88
428.379	565.55
428.756	573.01
429.132	582.95
429.507	576.85
429.883	586.57
430.259	588.6
430.635	602.16
431.011	608.03
431.387	606.68
431.763	605.55
432.138	608.49
432.514	637.19
432.89	629.05
433.265	621.59
433.641	628.37
434.016	647.36
434.392	671.08
434.767	655.94
435.143	652.1
435.518	646
435.894	648.71
436.269	663.17
436.644	662.5
437.02	699.78
437.395	662.72
437.77	686
438.145	700.91
438.52	682.16
438.895	691.42
439.271	698.43
439.646	704.53
440.021	722.38
440.395	680.12
440.77	701.14
441.145	712.21
441.52	725.32
441.895	733.23
442.27	728.26
442.645	733.23
443.019	727.13
443.394	735.94
443.769	748.14
444.143	723.06
444.518	765.77
444.892	759.9
445.267	758.31
445.641	759.22
446.016	761.93
446.39	768.48
446.764	785.88
447.139	759.67
447.513	781.14
447.887	812.78
448.262	774.36
448.636	777.07
449.01	817.75
449.384	818.65
449.758	806.22
450.132	823.85
450.506	839.44
450.88	816.84
451.254	820.46
451.628	813.91
452.002	854.13
452.376	831.53
452.75	859.1
453.123	872.66
453.497	872.66
453.871	872.89
454.244	902.72
454.618	897.74
454.992	889.38
455.365	874.47
455.739	927.8
456.112	935.71
456.486	918.99
456.859	938.2
457.232	964.86
457.606	972.09
457.979	951.98
458.352	996.73
458.725	990.17
459.099	1027.46
459.472	1008.48
459.845	1046.44
460.218	1065.42
460.591	1042.37
460.964	1057.06
461.337	1064.75
461.71	1109.94
462.083	1107
462.456	1097.06
462.829	1102.03
463.201	1126.89
463.574	1148.13
463.947	1174.35
464.32	1208.25
464.692	1183.84
465.065	1195.82
465.438	1237.62
465.81	1253.89
466.183	1253.89
466.555	1278.3
466.928	1295.25
467.3	1315.59
467.672	1343.61
468.045	1350.16
468.417	1342.25
468.789	1396.04
469.161	1367.79
469.534	1431.97
469.906	1455.47
470.278	1450.05
470.65	1502.47
471.022	1539.54
471.394	1542.93
471.766	1580.89
472.138	1594.45
472.51	1632.41
472.882	1662.7
473.253	1685.97
473.625	1727.33
473.997	1751.28
474.369	1810.72
474.74	1850.71
475.112	1893.42
475.484	1939.07
475.855	1961.22
476.227	2025.85
476.598	2080.76
476.97	2122.35
477.341	2192.4
477.713	2241.44
478.084	2272.17
478.455	2348.33
478.827	2376.8
479.198	2487.08
479.569	2509.91
479.94	2589.45
480.311	2715.1
480.682	2732.5
481.053	2840.52
481.424	2933.85
481.795	2958.48
482.166	3090.46
482.537	3151.47
482.908	3264.46
483.279	3327.51
483.65	3457
484.021	3544.45
484.391	3620.61
484.762	3722.53
485.133	3823.77
485.503	3908.74
485.874	4016.76
486.244	4147.83
486.615	4301.27
486.985	4358.9
487.356	4507.59
487.726	4627.36
488.097	4798.21
488.467	4850.18
488.837	5047.69
489.207	5106.45
489.578	5261.7
489.948	5346.22
490.318	5527.45
490.688	5660.11
491.058	5813.1
491.428	5957.95
491.798	6053.09
492.168	6249.92
492.538	6269.81
492.908	6465.96
493.278	6695.78
493.648	6760.64
494.017	6868.89
494.387	7031.59
494.757	7147.52
495.126	7347.52
495.496	7411.7
495.866	7554.74
496.235	7677.91
496.605	7901.18
496.974	8016.88
497.344	8125.35
497.713	8286.03
498.082	8444.66
498.452	8549.07
498.821	8675.17
499.19	8752.23
499.559	9001.94
499.928	9085.1
500.298	9235.6
500.667	9276.96
501.036	9433.57
501.405	9589.49
501.774	9664.29
502.143	9754.01
502.512	9961.69
502.88	10048.01
503.249	10105.86
503.618	10312.41
503.987	10305.18
504.356	10597.6
504.724	10632.4
505.093	10704.94
505.462	10796.92
505.83	10918.27
506.199	11061.09
506.567	11282.1
506.936	11267.42
507.304	11545.6
507.672	11554.87
508.041	11604.13
508.409	11813.16
508.777	11885.93
509.145	12058.81
509.514	12119.82
509.882	12282.53
510.25	12295.19
510.618	12396.65
510.986	12527.95
511.354	12591
511.722	12777.43
512.09	12932.46
512.458	12952.8
512.826	13082.96
513.193	13158.21
513.561	13143.52
513.929	13314.59
514.297	13509.62
514.664	13584.42
515.032	13707.35
515.4	13723.4
515.767	13862.83
516.135	13920.45
516.502	13861.7
516.869	14167.45
517.237	14256.26
517.604	14189.15
517.972	14403.38
518.339	14484.51
518.706	14582.36
519.073	14649.93
519.44	14758.17
519.808	14827.32
520.175	14899.86
520.542	15048.79
520.909	15091.04
521.276	15187.09
521.643	15251.49
522.009	15383.24
522.376	15418.04
522.743	15503.46
523.11	15755.89
523.477	15857.13
523.843	15848.54
524.21	15976.22
524.577	16135.99
524.943	16161.75
525.31	16252.6
525.676	16451.23
526.043	16515.64
526.409	16614.17
526.776	16752.47
527.142	16756.31
527.508	16828.17
527.874	16952.69
528.241	16995.63
528.607	17140.71
528.973	17206.47
529.339	17206.47
529.705	17427.93
530.071	17511.09
530.437	17506.35
530.803	17519.23
531.169	17663.41
531.535	17576.63
531.901	17648.49
532.267	17808.94
532.632	17779.33
532.998	17741.82
533.364	17836.51
533.73	18029.05
534.095	17999.89
534.461	18096.16
534.826	18154.69
535.192	18170.51
535.557	18303.84
535.923	18243.05
536.288	18340.9
536.653	18287.57
537.019	18298.42
537.384	18405.08
537.749	18491.41
538.114	18408.92
538.479	18454.35
538.845	18507.9
539.21	18466.32
539.575	18507.23
539.94	18516.94
540.305	18613.21
540.67	18568.24
541.034	18710.61
541.399	18746.99
541.764	18756.26
542.129	18762.36
542.494	18739.54
542.858	18761.46
543.223	18826.76
543.587	18916.25
543.952	18881
544.316	18906.99
544.681	18883.03
545.045	18912.19
545.41	18983.82
545.774	18969.81
546.138	18960.55
546.503	18969.36
546.867	18867.89
547.231	19144.27
547.595	19124.38
547.959	19138.85
548.324	19095.01
548.688	19134.78
549.052	19205.51
549.416	19175.46
549.779	19149.24
550.143	19146.76
550.507	19306.3
550.871	19279.63
551.235	19226.75
551.599	19379.74
551.962	19389.01
552.326	19424.72
552.689	19520.08
553.053	19394.21
553.417	19479.18
553.78	19605.28
554.143	19548.78
554.507	19621.09
554.87	19563.47
555.234	19743.35
555.597	19614.31
555.96	19737.93
556.323	19826.29
556.686	19778.83
557.05	19844.59
557.413	19831.26
557.776	19924.36
558.139	20020.18
558.502	19968.43
558.865	19995.1
559.228	20119.61
559.59	20118.03
559.953	20296.33
560.316	20231.7
560.679	20275.31
561.041	20443.9
561.404	20345.82
561.767	20481.86
562.129	20553.95
562.492	20685.47
562.854	20588.53
563.217	20558.7
563.579	20618.58
563.941	20826.94
564.304	20911.23
564.666	20963.88
565.028	20966.14
565.39	21006.37
565.753	21066.93
566.115	21123.2
566.477	21195.06
566.839	21279.13
567.201	21310.54
567.563	21326.81
567.925	21579.69
568.287	21493.59
568.648	21494.49
569.01	21667.82
569.372	21732
569.734	21711.43
570.095	21708.5
570.457	21896.97
570.819	21892.67
571.18	21877.08
571.542	22002.5
571.903	22053.35
572.265	22113.68
572.626	22106
572.987	22172.89
573.349	22219.67
573.71	22182.38
574.071	22261.7
574.432	22230.97
574.794	22432.55
575.155	22345.77
575.516	22387.8
575.877	22512.77
576.238	22402.94
576.599	22543.05
576.96	22512.32
577.32	22574.91
577.681	22703.5
578.042	22761.8
578.403	22634.8
578.763	22686.78
579.124	22678.19
579.485	22823.95
579.845	22898.52
580.206	22738.53
580.566	22727.91
580.927	22790.95
581.287	22946.43
581.648	22848.13
582.008	22902.14
582.368	22922.25
582.728	22889.48
583.089	22849.03
583.449	22914.12
583.809	22985.75
584.169	22947.33
584.529	22875.92
584.889	23104.84
585.249	22885.87
585.609	22963.83
585.969	22893.32
586.329	22856.04
586.688	22812.87
587.048	22957.96
587.408	22924.28
587.768	22935.58
588.127	22951.4
588.487	22899.43
588.846	23076.37
589.206	22962.48
589.565	22976.49
589.925	23018.07
590.284	22895.36
590.643	23100.55
591.003	22969.93
591.362	23006.77
591.721	22987.33
592.08	22945.53
592.44	23002.02
592.799	23056.71
593.158	22948.01
593.517	23010.61
593.876	23031.63
594.235	23000.89
594.593	23064.62
594.952	23056.48
595.311	22926.32
595.67	23085.18
596.029	23109.59
596.387	23184.39
596.746	23111.85
597.104	22976.71
597.463	23002.47
597.822	23087.67
598.18	22937.39
598.538	23041.34
598.897	23239.76
599.255	22982.59
599.613	23171.06
599.972	23050.61
600.33	23279.53
600.688	23093.77
601.046	23153.43
601.404	23252.19
601.762	23221.68
602.12	23287.44
602.478	23289.92
602.836	23277.95
603.194	23176.26
603.552	23225.29
603.91	23198.18
604.268	23350.71
604.625	23133.32
604.983	23421.67
605.341	23218.51
605.698	23353.65
606.056	23334.89
606.413	23346.65
606.771	23447.21
607.128	23476.81
607.485	23453.31
607.843	23334.67
608.2	23532.86
608.557	23538.28
608.914	23471.16
609.272	23574.21
609.629	23608.33
609.986	23671.38
610.343	23636.58
610.7	23753.64
611.057	23712.74
611.414	23660.31
611.771	23830.93
612.127	23867.76
612.484	23789.35
612.841	23933.98
613.198	23852.62
613.554	23948.89
613.911	23998.38
614.267	24002.67
614.624	24119.51
614.98	24082.9
615.337	24088.32
615.693	24101.43
616.05	24065.27
616.406	24149.79
616.762	24189.56
617.118	24142.33
617.475	24177.36
617.831	24256.9
618.187	24163.8
618.543	24274.31
618.899	24378.71
619.255	24334.87
619.611	24331.03
619.967	24346.39
620.323	24571.7
620.678	24293.06
621.034	24381.87
621.39	24289.9
621.746	24382.78
622.101	24655.09
622.457	24450.12
622.812	24538.03
623.168	24520.63
623.523	24541.19
623.879	24569.21
624.234	24508.2
624.589	24566.95
624.945	24615.54
625.3	24641.08
625.655	24567.86
626.01	24585.71
626.365	24639.95
626.72	24596.56
627.075	24663
627.43	24691.02
627.785	24578.03
628.14	24548.87
628.495	24559.72
628.85	24610.57
629.205	24569.44
629.559	24654.41
629.914	24537.35
630.269	24620.51
630.623	24583.45
630.978	24512.49
631.332	24528.76
631.687	24611.7
632.041	24472.27
632.396	24551.13
632.75	24453.74
633.104	24537.12
633.459	24373.96
633.813	24354.98
634.167	24417.58
634.521	24430.23
634.875	24477.46
635.229	24413.74
635.583	24206.28
635.937	24226.85
636.291	24178.49
636.645	24172.84
636.999	24072.73
637.352	24258.49
637.706	24143.46
638.06	24096.46
638.413	24083.8
638.767	24125.83
639.121	24044.93
639.474	23936.24
639.828	24021.43
640.181	24012.62
640.534	24009.91
640.888	23918.16
641.241	23960.42
641.594	23935.78
641.947	23978.72
642.301	23980.98
642.654	23883.13
643.007	23987.31
643.36	23804.26
643.713	23825.5
644.066	23918.16
644.419	23747.99
644.771	23631.84
645.124	23524.27
645.477	23352.97
645.83	23325.18
646.182	23208.57
646.535	23210.6
646.888	23150.49
647.24	23028.69
647.593	23139.19
647.945	23109.14
648.298	22945.75
648.65	22997.95
649.002	22925.64
649.355	23120.21
649.707	23019.87
650.059	23086.99
650.411	23451.73
650.763	23392.29
651.115	23610.59
651.467	23459.86
651.819	23521.56
652.171	23565.62
652.523	23468.9
652.875	23538.51
653.227	23366.08
653.578	23543.03
653.93	23522.23
654.282	23338.06
654.633	23367.21
654.985	23434.78
655.337	23392.29
655.688	23403.82
656.039	23524.95
656.391	23368.57
656.742	23294.22
657.094	23387.77
657.445	23527.21
657.796	23454.67
658.147	23381.67
658.498	23346.19
658.849	23391.62
659.2	23359.75
659.551	23347.1
659.902	23340.54
660.253	23348.45
660.604	23432.29
660.955	23250.6
661.306	23450.15
661.656	23382.8
662.007	23318.17
662.358	23272.52
662.708	23351.84
663.059	23352.97
663.409	23205.18
663.76	23382.13
664.11	23418.28
664.461	23355.46
664.811	23417.38
665.161	23430.71
665.511	23277.95
665.862	23401.56
666.212	23527.21
666.562	23369.47
666.912	23316.59
667.262	23359.75
667.612	23431.16
667.962	23291.96
668.312	23296.7
668.662	23390.94
669.011	23406.31
669.361	23258.29
669.711	23373.09
670.06	23389.58
670.41	23217.16
670.76	23305.07
671.109	23347.1
671.459	23278.4
671.808	23297.16
672.157	23211.73
672.507	23186.65
672.856	23200.89
673.205	23184.62
673.554	23200.66
673.904	23005.19
674.253	23270.49
674.602	23158.18
674.951	22817.62
675.3	22684.29
675.649	22998.41
675.998	23039.54
676.346	23064.17
676.695	23098.52
677.044	22891.97
677.393	22959.99
677.741	23051.51
678.09	23018.52
678.438	22904.85
678.787	22949.37
679.135	23024.17
679.484	22817.17
679.832	22997.5
680.181	22725.65
680.529	22742.37
680.877	22770.39
681.225	22675.03
681.573	22871.18
681.922	22635.7
682.27	22603.61
682.618	22596.84
682.966	22529.49
683.314	22542.37
683.661	22519.55
684.009	22532.43
684.357	22314.58
684.705	22323.62
685.053	22323.62
685.4	22291.31
685.748	22161.59
686.095	22138.99
686.443	22147.58
686.79	22024.42
687.138	22092.89
687.485	21973.8
687.832	21985.1
688.18	21860.81
688.527	21787.14
688.874	21771.55
689.221	21820.81
689.568	21694.26
689.915	21621.04
690.262	21608.39
690.609	21562.29
690.956	21522.74
691.303	21464.66
691.65	21295.85
691.997	21343.53
692.344	21196.87
692.69	21178.12
693.037	21167.49
693.383	21080.72
693.73	21093.37
694.077	21057.89
694.423	20929.76
694.769	20861.29
695.116	20844.34
695.462	20741.06
695.808	20789.2
696.155	20749.2
696.501	20652.71
696.847	20566.83
697.193	20453.39
697.539	20442.77
697.885	20302.21
698.231	20303.56
698.577	20180.85
698.923	20194.19
699.269	20081.42
699.614	19967.07
699.96	19858.6
700.306	19925.49
700.651	19931.37
700.997	19765.72
701.342	19659.29
701.688	19688.66
702.033	19575.9
702.379	19513.75
702.724	19466.3
703.069	19596.46
703.415	19337.94
703.76	19284.15
704.105	19386.3
704.45	19321.44
704.795	19137.27
705.14	19029.7
705.485	19165.29
705.83	19005.74
706.175	19006.2
706.52	18828.35
706.865	18863.83
707.209	18831.06
707.554	18792.42
707.899	18781.34
708.243	18648.46
708.588	18620.67
708.932	18474.01
709.277	18429.71
709.621	18444.18
709.966	18281.92
710.31	18380.9
710.654	18224.29
710.998	18203.73
711.342	18287.8
711.687	18217.74
712.031	18048.48
712.375	18131.87
712.719	18039.21
713.063	17982.95
713.407	18036.96
713.75	17922.16
714.094	17946.79
714.438	17851.2
714.782	17860.01
715.125	17759.67
715.469	17820.69
715.812	17768.49
716.156	17685.33
716.499	17679.45
716.843	17721.03
717.186	17502.05
717.53	17721.48
717.873	17618.89
718.216	17529.62
718.559	17434.03
718.902	17406.92
719.246	17452.79
719.589	17407.14
719.932	17269.97
720.275	17351.32
720.617	17297.09
720.96	17271.78
721.303	17239.24
721.646	17222.06
721.989	17123.53
722.331	17216.41
722.674	17241.95
723.016	17220.93
723.359	17049.18
723.701	17075.85
724.044	17052.8
724.386	16852.81
724.729	17010.32
725.071	16952.24
725.413	17091.44
725.755	16959.02
726.097	16888.51
726.439	16695.52
726.782	16874.95
727.124	16874.73
727.465	16754.73
727.807	16724.67
728.149	16694.39
728.491	16755.18
728.833	16785.91
729.175	16716.76
729.516	16742.98
729.858	16709.76
730.199	16700.95
730.541	16621.17
730.882	16664.34
731.224	16694.84
731.565	16549.08
731.906	16607.61
732.248	16694.62
732.589	16432.7
732.93	16500.72
733.271	16488.3
733.612	16527.39
733.953	16524.23
734.294	16541.85
734.635	16375.76
734.976	16448.75
735.317	16452.14
735.658	16406.26
735.999	16376.43
736.339	16395.19
736.68	16450.33
737.021	16498.92
737.361	16374.85
737.702	16501.18
738.042	16420.95
738.383	16443.55
738.723	16396.09
739.063	16338.69
739.404	16434.06
739.744	16335.08
740.084	16346.38
740.424	16406.94
740.764	16372.14
741.104	16381.63
741.444	16337.56
741.784	16303.89
742.124	16426.38
742.464	16399.48
742.804	16375.3
743.143	16418.69
743.483	16349.77
743.823	16330.33
744.162	16306.15
744.502	16438.81
744.841	16430.22
745.181	16517.22
745.52	16384.8
745.86	16553.15
746.199	16468.86
746.538	16541.4
746.877	16529.2
747.216	16605.58
747.556	16547.28
747.895	16660.72
748.234	16535.53
748.573	16596.54
748.911	16595.41
749.25	16657.56
749.589	16648.07
749.928	16760.6
750.267	16816.2
750.605	16889.41
750.944	16891.22
751.283	16859.81
751.621	16999.69
751.96	16963.54
752.298	16962.18
752.636	17067.04
752.975	17157.66
753.313	17181.38
753.651	17296.18
753.989	17286.47
754.327	17345
754.666	17342.96
755.004	17401.49
755.342	17558.78
755.679	17589.96
756.017	17576.4
756.355	17673.8
756.693	17707.92
757.031	17865.21
