Data from hue_330_FLMS001491_68.txt Node
Date: Mon Feb 06 15:45:44 GMT 2017
User: dcchb
Spectrometer: FLMS00149
Trigger mode: 0
Integration Time (sec): 2.000000E-2
Scans to average: 10
Electric dark correction enabled: true
Nonlinearity correction enabled: false
Boxcar width: 0
XAxis mode: Wavelengths
Number of Pixels in Spectrum: 2048
>>>>>Begin Spectral Data<<<<<
341.393	2.22
341.776	2.22
342.16	2.22
342.543	-55.63
342.927	-73.94
343.31	-80.49
343.693	-45.69
344.077	-86.14
344.46	-49.53
344.843	-41.4
345.226	-59.48
345.61	-39.59
345.993	-15.86
346.376	-12.02
346.759	16
347.142	26.4
347.525	49
347.908	49.45
348.291	71.14
348.674	111.59
349.057	106.62
349.44	129.67
349.823	128.09
350.206	140.74
350.588	186.39
350.971	213.74
351.354	220.52
351.737	230.01
352.119	246.28
352.502	255.77
352.884	265.49
353.267	282.66
353.65	277.01
354.032	286.5
354.414	308.42
354.797	300.97
355.179	311.36
355.562	328.31
355.944	334.86
356.326	315.43
356.709	318.59
357.091	327.86
357.473	330.57
357.855	336.45
358.238	334.64
358.62	339.61
359.002	333.73
359.384	310.68
359.766	318.37
360.148	345.94
360.53	335.32
360.912	325.82
361.294	324.24
361.676	314.75
362.057	322.21
362.439	334.64
362.821	324.92
363.203	305.49
363.584	319.05
363.966	323.11
364.348	331.25
364.729	297.35
365.111	307.97
365.493	314.3
365.874	330.57
366.256	305.71
366.637	313.62
367.019	321.31
367.4	317.69
367.781	286.96
368.163	306.39
368.544	331.7
368.925	321.53
369.306	303.45
369.688	317.69
370.069	288.54
370.45	294.64
370.831	296.9
371.212	320.63
371.593	295.54
371.974	313.4
372.355	310.46
372.736	310.91
373.117	289.22
373.498	328.31
373.879	307.52
374.26	309.78
374.641	311.36
375.021	318.82
375.402	309.78
375.783	286.28
376.163	286.5
376.544	295.54
376.925	320.4
377.305	310.23
377.686	326.5
378.066	319.5
378.447	337.12
378.827	320.18
379.208	313.17
379.588	305.94
379.968	338.03
380.349	324.24
380.729	330.12
381.109	305.03
381.489	313.4
381.87	315.66
382.25	328.76
382.63	344.13
383.01	336.9
383.39	333.06
383.77	332.15
384.15	324.24
384.53	340.51
384.91	335.09
385.29	375.77
385.67	344.13
386.049	332.83
386.429	341.64
386.809	336.9
387.189	330.8
387.568	335.32
387.948	355.65
388.328	333.28
388.707	345.49
389.087	345.03
389.466	345.71
389.846	334.41
390.225	352.49
390.605	340.06
390.984	381.42
391.363	359.72
391.743	371.7
392.122	367.18
392.501	394.52
392.881	362.66
393.26	366.73
393.639	359.27
394.018	363.34
394.397	376.44
394.776	373.96
395.155	361.08
395.534	363.56
395.913	370.57
396.292	364.47
396.671	394.3
397.05	373.06
397.429	367.63
397.808	377.12
398.186	381.19
398.565	398.37
398.944	392.94
399.323	397.69
399.701	386.39
400.08	369.21
400.458	369.44
400.837	395.88
401.215	385.94
401.594	392.72
401.972	376.44
402.351	392.94
402.729	389.78
403.107	390.68
403.486	400.4
403.864	395.2
404.242	421.42
404.62	403.79
404.999	405.82
405.377	405.6
405.755	430.68
406.133	420.29
406.511	412.15
406.889	426.16
407.267	430.68
407.645	436.78
408.023	420.51
408.401	410.57
408.779	435.43
409.156	432.94
409.534	465.48
409.912	419.16
410.29	454.63
410.667	442.66
411.045	465.71
411.422	468.87
411.8	461.19
412.178	477.23
412.555	477.23
412.933	486.5
413.31	491.02
413.687	507.51
414.065	508.64
414.442	502.09
414.819	532.6
415.197	524.24
415.574	529.66
415.951	538.47
416.328	530.79
416.705	535.76
417.082	558.59
417.46	529.44
417.837	552.94
418.214	557.68
418.591	544.58
418.967	559.72
419.344	582.09
419.721	588.19
420.098	602.43
420.475	580.96
420.852	583.67
421.228	612.37
421.605	589.55
421.982	608.3
422.358	615.53
422.735	627.96
423.111	601.3
423.488	645.14
423.864	626.83
424.241	656.21
424.617	634.74
424.994	667.74
425.37	665.48
425.746	646.27
426.123	673.84
426.499	662.99
426.875	689.88
427.251	688.75
427.627	701.41
428.003	704.8
428.379	715.65
428.756	714.29
429.132	714.97
429.507	732.14
429.883	723.1
430.259	743.67
430.635	741.63
431.011	772.82
431.387	754.51
431.763	770.33
432.138	801.52
432.514	783.89
432.89	773.72
433.265	840.39
433.641	804.23
434.016	818.69
434.392	828.18
434.767	839.48
435.143	834.96
435.518	835.19
435.894	860.05
436.269	894.4
436.644	879.26
437.02	881.97
437.395	886.49
437.77	909.99
438.145	925.36
438.52	931.68
438.895	925.13
439.271	906.15
439.646	946.37
440.021	940.27
440.395	961.51
440.77	927.84
441.145	953.38
441.52	940.5
441.895	964.45
442.27	968.29
442.645	973.94
443.019	961.74
443.394	963.55
443.769	986.37
444.143	996.77
444.518	1016.2
444.892	994.51
445.267	1002.64
445.641	1034.28
446.016	995.64
446.39	1001.51
446.764	1013.72
447.139	1027.05
447.513	1018.46
447.887	1034.28
448.262	1026.6
448.636	1014.39
449.01	1050.78
449.384	1040.83
449.758	1051.46
450.132	1043.09
450.506	1075.64
450.88	1054.39
451.254	1058.46
451.628	1060.04
452.002	1100.72
452.376	1099.82
452.75	1094.84
453.123	1105.92
453.497	1097.78
453.871	1112.7
454.244	1149.08
454.618	1131
454.992	1125.13
455.365	1135.07
455.739	1172.58
456.112	1163.99
456.486	1206.25
456.859	1196.31
457.232	1225.46
457.606	1199.25
457.979	1195.41
458.352	1253.26
458.725	1205.8
459.099	1224.56
459.472	1249.19
459.845	1258.91
460.218	1259.81
460.591	1262.07
460.964	1299.81
461.337	1305.46
461.71	1311.34
462.083	1344.78
462.456	1312.24
462.829	1346.14
463.201	1323.99
463.574	1326.02
463.947	1369.41
464.32	1384.33
464.692	1380.49
465.065	1405.34
465.438	1427.72
465.81	1443.31
466.183	1412.8
466.555	1473.59
466.928	1469.07
467.3	1482.18
467.672	1473.37
468.045	1501.16
468.417	1532.12
468.789	1501.16
469.161	1552.23
469.534	1526.25
469.906	1574.61
470.278	1574.83
470.65	1599.92
471.022	1631.1
471.394	1622.97
471.766	1642.63
472.138	1663.87
472.51	1681.5
472.882	1714.94
473.253	1689.63
473.625	1739.57
473.997	1777.54
474.369	1770.53
474.74	1805.79
475.112	1821.83
475.484	1849.63
475.855	1854.15
476.227	1883.3
476.598	1855.5
476.97	1879.46
477.341	1983.63
477.713	1933.92
478.084	1994.71
478.455	2021.6
478.827	2002.16
479.198	2065.44
479.569	2075.61
479.94	2134.36
480.311	2119.45
480.682	2181.37
481.053	2197.87
481.424	2224.98
481.795	2255.94
482.166	2259.56
482.537	2325.32
482.908	2330.97
483.279	2355.15
483.65	2375.04
484.021	2420.23
484.391	2419.33
484.762	2468.14
485.133	2464.98
485.503	2511.98
485.874	2540.23
486.244	2537.29
486.615	2591.53
486.985	2594.24
487.356	2678.53
487.726	2678.98
488.097	2717.85
488.467	2735.03
488.837	2734.8
489.207	2792.88
489.578	2831.3
489.948	2863.16
490.318	2893.21
490.688	2885.76
491.058	2914.68
491.428	2934.34
491.798	2975.25
492.168	3030.16
492.538	3028.58
492.908	3056.6
493.278	3093.66
493.648	3110.84
494.017	3122.36
494.387	3165.07
494.757	3188.12
495.126	3162.59
495.496	3212.75
495.866	3243.94
496.235	3244.39
496.605	3280.32
496.974	3286.42
497.344	3321.9
497.713	3350.83
498.082	3333.2
498.452	3402.81
498.821	3426.99
499.19	3391.96
499.559	3398.29
499.928	3438.51
500.298	3471.28
500.667	3516.93
501.036	3482.35
501.405	3495.68
501.774	3503.59
502.143	3502.46
502.512	3560.54
502.88	3561.9
503.249	3576.81
503.618	3548.56
503.987	3601.9
504.356	3635.12
504.724	3620.43
505.093	3636.02
505.462	3621.78
505.83	3656.36
506.199	3690.03
506.567	3716.02
506.936	3708.56
507.304	3749.01
507.672	3769.35
508.041	3761.44
508.409	3762.34
508.777	3812.51
509.145	3811.38
509.514	3796.47
509.882	3783.59
510.25	3830.14
510.618	3867.65
510.986	3862.45
511.354	3833.3
511.722	3911.49
512.09	3917.37
512.458	3885.96
512.826	3938.39
513.193	3912.85
513.561	3939.52
513.929	3967.99
514.297	3962.57
514.664	3986.07
515.032	3955.33
515.4	4010.93
515.767	4029.68
516.135	4053.18
516.502	4008.67
516.869	4049.79
517.237	4062.45
517.604	4053.41
517.972	4064.94
518.339	4094.54
518.706	4084.6
519.073	4130.7
519.44	4092.05
519.808	4173.86
520.175	4113.07
520.542	4217.47
520.909	4186.29
521.276	4177.02
521.643	4217.02
522.009	4216.57
522.376	4218.15
522.743	4258.38
523.11	4297.25
523.477	4310.35
523.843	4318.26
524.21	4328.66
524.577	4365.94
524.943	4389.22
525.31	4341.76
525.676	4408.88
526.043	4446.62
526.409	4461.31
526.776	4490.24
527.142	4528.88
527.508	4560.52
527.874	4533.85
528.241	4584.24
528.607	4504.47
528.973	4578.14
529.339	4608.88
529.705	4631.25
530.071	4706.27
530.437	4645.26
530.803	4697.46
531.169	4765.26
531.535	4688.65
531.901	4784.24
532.267	4736.78
532.632	4771.36
532.998	4807.51
533.364	4799.38
533.73	4822.43
534.095	4831.47
534.461	4858.36
534.826	4930.9
535.192	4933.61
535.557	4973.61
535.923	4942.88
536.288	5002.09
536.653	5035.76
537.019	5001.86
537.384	4988.53
537.749	5087.51
538.114	5064.01
538.479	5088.86
538.845	5150.78
539.21	5096.09
539.575	5144.23
539.94	5148.75
540.305	5241.4
540.67	5160.05
541.034	5267.39
541.399	5265.58
541.764	5289.31
542.129	5267.16
542.494	5299.48
542.858	5345.35
543.223	5336.77
543.587	5331.34
543.952	5404.79
544.316	5431.45
544.681	5427.39
545.045	5405.24
545.41	5447.05
545.774	5497.89
546.138	5554.84
546.503	5549.19
546.867	5525.24
547.231	5606.59
547.595	5594.61
547.959	5605.01
548.324	5591.9
548.688	5648.17
549.052	5663.31
549.416	5673.25
549.779	5691.56
550.143	5720.26
550.507	5795.96
550.871	5763.42
551.235	5754.83
551.599	5819.24
551.962	5796.64
552.326	5829.63
552.689	5828.73
553.053	5796.87
553.417	5853.14
553.78	5873.25
554.143	5888.16
554.507	5933.36
554.87	5938.11
555.234	5947.6
555.597	5954.83
555.96	5945.79
556.323	5960.7
556.686	5978.33
557.05	6023.3
557.413	6084.32
557.776	6097.42
558.139	6134.49
558.502	6108.95
558.865	6115.5
559.228	6210.19
559.59	6265.33
559.953	6176.74
560.316	6288.38
560.679	6222.17
561.041	6293.8
561.404	6277.31
561.767	6325.89
562.129	6324.31
562.492	6347.14
562.854	6308.72
563.217	6340.36
563.579	6384.65
563.941	6414.25
564.304	6457.19
564.666	6543.97
565.028	6485.44
565.39	6508.94
565.753	6569.05
566.115	6581.03
566.477	6591.65
566.839	6586.45
567.201	6639.56
567.563	6625.32
567.925	6669.84
568.287	6666.9
568.648	6679.33
569.01	6754.13
569.372	6825.31
569.734	6803.62
570.095	6783.28
570.457	6805.88
570.819	6876.61
571.18	6873.68
571.542	6965.65
571.903	6969.04
572.265	7029.6
572.626	7102.82
572.987	7077.96
573.349	7082.03
573.71	7219.88
574.071	7183.27
574.432	7236.38
574.794	7327
575.155	7286.32
575.516	7404.28
575.877	7376.26
576.238	7529.03
576.599	7589.14
576.96	7633.88
577.32	7671.85
577.681	7776.93
578.042	7851.73
578.403	7866.87
578.763	8061.89
579.124	8088.78
579.485	8155.45
579.845	8220.08
580.206	8379.4
580.566	8432.96
580.927	8581.88
581.287	8717.47
581.648	8761.31
582.008	8934.41
582.368	9014.64
582.728	9233.16
583.089	9319.03
583.449	9398.81
583.809	9632.7
584.169	9861.85
584.529	9959.92
584.889	10167.83
585.249	10295.73
585.609	10482.62
585.969	10783.85
586.329	10885.77
586.688	11126.67
587.048	11244.63
587.408	11500.45
587.768	11616.83
588.127	11889.81
588.487	12125.29
588.846	12427.88
589.206	12649.12
589.565	12851.82
589.925	13111.93
590.284	13356.22
590.643	13634.85
591.003	13892.93
591.362	14194.39
591.721	14417.21
592.08	14653.13
592.44	14964.31
592.799	15278.65
593.158	15502.83
593.517	15799.54
593.876	16037.05
594.235	16335.57
594.593	16637.26
594.952	16939.85
595.311	17218.49
595.67	17555.43
596.029	17867.74
596.387	18200.83
596.746	18482.86
597.104	18672.46
597.463	18942.06
597.822	19333.91
598.18	19516.96
598.538	19888.02
598.897	20195.58
599.255	20297.05
599.613	20901.1
599.972	20985.17
600.33	21285.05
600.688	21562.33
601.046	21807.75
601.404	22055.87
601.762	22444.11
602.12	22795.52
602.478	23015.17
602.836	23286.35
603.194	23451.32
603.552	23734.25
603.91	23961.81
604.268	24332.2
604.625	24515.02
604.983	24774.67
605.341	24848.57
605.698	25320.42
606.056	25517.7
606.413	25695.1
606.771	26115.66
607.128	26239.72
607.485	26415.31
607.843	26598.13
608.2	27003.99
608.557	27298.67
608.914	27364.21
609.272	27740.92
609.629	27918.77
609.986	28205.54
610.343	28275.15
610.7	28724.85
611.057	28764.4
611.414	28937.5
611.771	29146.99
612.127	29444.61
612.484	29656.35
612.841	29819.06
613.198	29883.69
613.554	30050.24
613.911	30381.53
614.267	30400.06
614.624	30653.39
614.98	30933.61
615.337	31106.26
615.693	31242.75
616.05	31299.47
616.406	31666.24
616.762	31651.1
617.118	31800.93
617.475	31986.46
617.831	32331.08
618.187	32371.54
618.543	32436.84
618.899	32755.93
619.255	32770.4
619.611	32859.21
619.967	33054.46
620.323	33318.63
620.678	33278.18
621.034	33289.25
621.39	33351.17
621.746	33335.8
622.101	33969.91
622.457	33679.75
622.812	33815.79
623.168	34051.72
623.523	34147.76
623.879	34336.46
624.234	34085.84
624.589	34346.85
624.945	34462.1
625.3	34609.9
625.655	34601.76
626.01	34750.91
626.365	34746.39
626.72	34866.84
627.075	34965.14
627.43	34952.48
627.785	34943.45
628.14	35128.98
628.495	35125.81
628.85	35185.25
629.205	35062.54
629.559	35319.48
629.914	35243.32
630.269	35416.43
630.623	35416.43
630.978	35364
631.332	35569.87
631.687	35602.64
632.041	35363.32
632.396	35603.77
632.75	35401.51
633.104	35646.25
633.459	35346.82
633.813	35513.15
634.167	35494.17
634.521	35565.8
634.875	35528.06
635.229	35543.88
635.583	35651.22
635.937	35525.58
636.291	35477.67
636.645	35641.51
636.999	35614.39
637.352	35672.92
637.706	35659.81
638.06	35664.56
638.413	35708.62
638.767	35618
639.121	35570.77
639.474	35541.62
639.828	35494.84
640.181	35622.07
640.534	35696.19
640.888	35469.76
641.241	35414.39
641.594	35566.93
641.947	35563.54
642.301	35504.79
642.654	35571.9
643.007	35586.37
643.36	35534.39
643.713	35484.45
644.066	35591.56
644.419	35476.31
644.771	35197
645.124	35041.75
645.477	34872.94
645.83	34788.65
646.182	34612.83
646.535	34629.33
646.888	34482.44
647.24	34328.32
647.593	34631.14
647.945	34473.4
648.298	34448.77
648.65	34395.21
649.002	34324.7
649.355	34460.97
649.707	34371.26
650.059	34656.67
650.411	34835.65
650.763	35016.21
651.115	35251.69
651.467	35167.62
651.819	35117.45
652.171	35068.64
652.523	35203.1
652.875	35223.66
653.227	34937.8
653.578	35185.25
653.93	35089.66
654.282	34984.8
654.633	34927.63
654.985	34964.69
655.337	35042.65
655.688	35010.56
656.039	35079.04
656.391	34875.42
656.742	34828.87
657.094	34927.4
657.445	35054.4
657.796	34981.41
658.147	34967.17
658.498	34921.98
658.849	35111.58
659.2	34901.86
659.551	34763.79
659.902	34945.48
660.253	34908.64
660.604	34940.06
660.955	34757.69
661.306	34872.94
661.656	34750
662.007	34932.37
662.358	34764.24
662.708	34694.41
663.059	34620.06
663.409	34543.46
663.76	34806.73
664.11	34858.25
664.461	34780.51
664.811	34718.82
665.161	34735.32
665.511	34748.65
665.862	34893.96
666.212	34987.51
666.562	34863.67
666.912	34815.09
667.262	34747.52
667.612	34685.83
667.962	34790.46
668.312	34661.65
668.662	34854.41
669.011	34819.38
669.361	34739.61
669.711	34784.81
670.06	34500.52
670.41	34645.83
670.76	34572.16
671.109	34674.07
671.459	34665.49
671.808	34616.45
672.157	34647.41
672.507	34312.95
672.856	34469.11
673.205	34517.24
673.554	34612.15
673.904	34397.7
674.253	34671.81
674.602	34429.56
674.951	33964.26
675.3	33808.11
675.649	34313.41
675.998	34381.88
676.346	34395.44
676.695	34505.72
677.044	34035.45
677.393	34322.22
677.741	34355.44
678.09	34240.64
678.438	34145.73
678.787	34289.68
679.135	34283.58
679.484	34164.94
679.832	34245.84
680.181	34042.45
680.529	34079.51
680.877	33994.54
681.225	34010.81
681.573	34068.21
681.922	33852.17
682.27	33742.8
682.618	33810.59
682.966	33718.39
683.314	33857.6
683.661	33754.1
684.009	33564.5
684.357	33577.61
684.705	33475.46
685.053	33578.74
685.4	33383.71
685.748	33289.48
686.095	33343.94
686.443	33159.54
686.79	33108.69
687.138	33190.27
687.485	33265.07
687.832	33093.1
688.18	33068.92
688.527	32904.4
688.874	32858.75
689.221	32743.05
689.568	32800
689.915	32762.49
690.262	32779.66
690.609	32694.69
690.956	32517.07
691.303	32466.9
691.65	32328.83
691.997	32431.42
692.344	32217.19
692.69	32030.98
693.037	32069.62
693.383	31887.71
693.73	32120.47
694.077	31977.87
694.423	31865.79
694.769	31802.96
695.116	31682.51
695.462	31668.5
695.808	31546.92
696.155	31619.01
696.501	31277.1
696.847	31377.66
697.193	31106.03
697.539	31156.65
697.885	30882.76
698.231	30942.42
698.577	30957.79
698.923	30853.84
699.269	30730.22
699.614	30553.96
699.96	30486.16
700.306	30525.71
700.651	30375.88
700.997	30377.92
701.342	30203.46
701.688	30203.01
702.033	30178.37
702.379	30127.3
702.724	30126.85
703.069	30111.03
703.415	29778.84
703.76	29892.73
704.105	29704.49
704.45	29754.43
704.795	29469.92
705.14	29504.49
705.485	29494.32
705.83	29345.17
706.175	29292.29
706.52	29374.55
706.865	29256.36
707.209	29099.08
707.554	29093.2
707.899	29137.95
708.243	28973.66
708.588	28848.69
708.932	28698.41
709.277	28685.53
709.621	28697.73
709.966	28446.44
710.31	28598.3
710.654	28308.37
710.998	28373.9
711.342	28463.39
711.687	28332.55
712.031	28188.59
712.375	28086.22
712.719	28139.1
713.063	27957.41
713.407	28137.07
713.75	27958.77
714.094	28075.15
714.438	27878.77
714.782	27853.01
715.125	27730.08
715.469	27795.38
715.812	27544.77
716.156	27479.01
716.499	27547.48
716.843	27602.62
717.186	27391.78
717.53	27568.27
717.873	27425.23
718.216	27369.86
718.559	27324.66
718.902	27073.37
719.246	27150.2
719.589	27110.66
719.932	26976.2
720.275	27007.16
720.617	27088.74
720.96	26873.15
721.303	26934.39
721.646	26903.43
721.989	26695.98
722.331	26707.05
722.674	26655.3
723.016	26722.64
723.359	26668.18
723.701	26629.99
724.044	26540.5
724.386	26387.06
724.729	26460.28
725.071	26368.53
725.413	26354.74
725.755	26285.59
726.097	26283.56
726.439	26082.66
726.782	26156.56
727.124	26194.75
727.465	26163.34
727.807	26089.89
728.149	26029.78
728.491	25996.11
728.833	25967.18
729.175	25903.46
729.516	25965.83
729.858	25893.06
730.199	25752.5
730.541	25776.46
730.882	25760.64
731.224	25733.07
731.565	25580.75
731.906	25605.16
732.248	25681.32
732.589	25526.29
732.93	25436.35
733.271	25532.17
733.612	25431.61
733.953	25436.12
734.294	25442.23
734.635	25302.57
734.976	25293.98
735.317	25195.45
735.658	25220.99
735.999	25181.67
736.339	25123.59
736.68	25049.47
737.021	25139.18
737.361	24930.38
737.702	25107.55
738.042	25037.49
738.383	24893.77
738.723	24886.08
739.063	24882.47
739.404	24850.83
739.744	24823.94
740.084	24686.99
740.424	24703.26
740.764	24682.7
741.104	24688.35
741.444	24581.23
741.784	24606.32
742.124	24554.57
742.464	24516.15
742.804	24544.4
743.143	24309.6
743.483	24408.13
743.823	24383.5
744.162	24287
744.502	24255.59
744.841	24221.02
745.181	24215.14
745.52	24164.29
745.86	24185.99
746.199	24078.42
746.538	24198.64
746.877	24251.98
747.216	24144.18
747.556	24075.48
747.895	24042.04
748.234	24000.91
748.573	23998.87
748.911	23793.23
749.25	23866.9
749.589	23793.23
749.928	23771.54
750.267	23757.98
750.605	23739.45
750.944	23646.34
751.283	23579.45
751.621	23640.92
751.96	23601.82
752.298	23361.38
752.636	23485.44
752.975	23257.2
753.313	23216.3
753.651	23366.8
753.989	23154.15
754.327	23180.37
754.666	23058.56
755.004	23114.6
755.342	23011.56
755.679	23023.53
756.017	22931.56
756.355	22988.51
756.693	22779.7
757.031	22843.65
757.368	22696.76
757.706	22726.14
758.044	22601.4
758.381	22574.73
758.719	22496.99
759.056	22555.3
759.394	22452.93
759.731	22282.99
760.068	22283.21
760.405	22318.24
