Data from hue_290_FLMS001491_00096.txt Node
Date: Tue Feb 07 15:53:45 GMT 2017
User: dcchb
Spectrometer: FLMS00149
Trigger mode: 0
Integration Time (sec): 2.000000E-2
Scans to average: 10
Electric dark correction enabled: true
Nonlinearity correction enabled: false
Boxcar width: 0
XAxis mode: Wavelengths
Number of Pixels in Spectrum: 2048
>>>>>Begin Spectral Data<<<<<
341.393	-20.93
341.776	-20.93
342.16	-20.93
342.543	-35.62
342.927	-58.9
343.31	-62.06
343.693	-91.66
344.077	-80.59
344.46	-46.24
344.843	-72.68
345.226	-48.05
345.61	-20.93
345.993	-20.93
346.376	-25.68
346.759	8.22
347.142	50.25
347.525	39.63
347.908	58.39
348.291	78.05
348.674	116.47
349.057	117.82
349.44	127.31
349.823	142.23
350.206	171.15
350.588	198.05
350.971	192.4
351.354	221.1
351.737	226.75
352.119	250.93
352.502	270.81
352.884	261.32
353.267	278.04
353.65	300.19
354.032	296.12
354.414	290.92
354.797	290.92
355.179	312.17
355.562	329.34
355.944	332.51
356.326	313.3
356.709	325.73
357.091	311.49
357.473	313.52
357.855	325.05
358.238	319.62
358.62	354.88
359.002	328.89
359.384	342.67
359.766	323.01
360.148	348.78
360.53	312.17
360.912	344.93
361.294	324.82
361.676	323.69
362.057	312.39
362.439	328.66
362.821	325.27
363.203	321.66
363.584	333.86
363.966	320.08
364.348	333.18
364.729	303.58
365.111	321.88
365.493	317.14
365.874	314.88
366.256	299.51
366.637	322.34
367.019	311.26
367.4	332.51
367.781	304.26
368.163	297.25
368.544	297.48
368.925	321.66
369.306	319.85
369.688	306.52
370.069	309
370.45	319.17
370.831	309.46
371.212	332.96
371.593	319.85
371.974	309
372.355	311.71
372.736	322.56
373.117	315.56
373.498	305.16
373.879	311.71
374.26	306.97
374.641	309.91
375.021	304.03
375.402	317.36
375.783	327.76
376.163	342.22
376.544	324.14
376.925	335.22
377.305	321.66
377.686	336.8
378.066	349.91
378.447	327.31
378.827	318.49
379.208	337.03
379.588	341.77
379.968	345.16
380.349	311.94
380.729	333.18
381.109	332.73
381.489	345.61
381.87	348.78
382.25	325.05
382.63	344.03
383.01	343.8
383.39	348.55
383.77	344.03
384.15	361.43
384.53	365.05
384.91	355.78
385.29	349.23
385.67	338.38
386.049	351.71
386.429	349.68
386.809	363.69
387.189	363.69
387.568	359.17
387.948	372.05
388.328	350.81
388.707	392.16
389.087	360.75
389.466	370.47
389.846	370.47
390.225	371.37
390.605	384.71
390.984	374.54
391.363	375.22
391.743	370.7
392.122	375.22
392.501	396.46
392.881	379.06
393.26	379.28
393.639	372.96
394.018	370.24
394.397	386.06
394.776	401.88
395.155	395.1
395.534	373.63
395.913	387.42
396.292	390.36
396.671	394.88
397.05	414.54
397.429	399.62
397.808	406.18
398.186	412.28
398.565	403.01
398.944	396.68
399.323	419.96
399.701	416.12
400.08	396.01
400.458	398.49
400.837	413.18
401.215	435.55
401.594	434.88
401.972	425.38
402.351	409.34
402.729	444.37
403.107	447.08
403.486	451.15
403.864	416.12
404.242	437.14
404.62	446.85
404.999	454.31
405.377	448.43
405.755	455.44
406.133	462.45
406.511	465.16
406.889	479.85
407.267	469.68
407.645	480.98
408.023	474.65
408.401	495.66
408.779	482.56
409.156	526.4
409.534	525.95
409.912	537.7
410.29	503.57
410.667	531.14
411.045	513.97
411.422	554.19
411.8	537.7
412.178	563.46
412.555	560.07
412.933	568.88
413.31	575.21
413.687	589
414.065	608.43
414.442	611.14
414.819	599.39
415.197	606.62
415.574	624.25
415.951	645.94
416.328	656.11
416.705	662.44
417.082	654.3
417.46	652.05
417.837	663.12
418.214	692.5
418.591	686.39
418.967	675.1
419.344	689.11
419.721	706.51
420.098	699.5
420.475	727.52
420.852	781.08
421.228	746.73
421.605	723.23
421.982	739.5
422.358	736.11
422.735	779.5
423.111	798.26
423.488	810.01
423.864	795.54
424.241	804.13
424.617	806.17
424.994	847.29
425.37	842.77
425.746	847.07
426.123	871.25
426.499	876.67
426.875	886.39
427.251	901.08
427.627	902.89
428.003	905.15
428.379	905.37
428.756	913.51
429.132	959.61
429.507	965.26
429.883	971.58
430.259	983.56
430.635	995.54
431.011	1010.91
431.387	1018.36
431.763	1044.8
432.138	1029.89
432.514	1048.19
432.89	1072.37
433.265	1063.33
433.641	1086.38
434.016	1094.97
434.392	1104.24
434.767	1126.83
435.143	1135.87
435.518	1142.2
435.894	1162.99
436.269	1137
436.644	1197.12
437.02	1197.57
437.395	1214.74
437.77	1220.62
438.145	1255.42
438.52	1260.62
438.895	1274.18
439.271	1268.3
439.646	1276.89
440.021	1314.4
440.395	1339.71
440.77	1309.88
441.145	1306.72
441.52	1329.77
441.895	1350.78
442.27	1338.81
442.645	1360.73
443.019	1385.59
443.394	1403.21
443.769	1380.39
444.143	1382.65
444.518	1413.61
444.892	1408.64
445.267	1405.47
445.641	1421.97
446.016	1417.45
446.39	1431.91
446.764	1438.47
447.139	1436.66
447.513	1471.91
447.887	1470.33
448.262	1450.44
448.636	1492.02
449.01	1465.81
449.384	1497.9
449.758	1507.39
450.132	1516.2
450.506	1507.84
450.88	1518.46
451.254	1498.35
451.628	1526.15
452.002	1585.81
452.376	1565.92
452.75	1548.52
453.123	1574.96
453.497	1590.33
453.871	1613.38
454.244	1685.24
454.618	1640.04
454.992	1645.01
455.365	1679.81
455.739	1673.49
456.112	1704.67
456.486	1693.37
456.859	1702.86
457.232	1759.13
457.606	1744.22
457.979	1757.33
458.352	1787.38
458.725	1788.51
459.099	1815.4
459.472	1819.92
459.845	1858.34
460.218	1856.76
460.591	1869.64
460.964	1871
461.337	1878.45
461.71	1923.2
462.083	1977.21
462.456	1962.97
462.829	1960.71
463.201	1999.13
463.574	1959.36
463.947	1986.47
464.32	2036.64
464.692	2036.64
465.065	2068.73
465.438	2082.06
465.81	2106.47
466.183	2111.89
466.555	2125
466.928	2146.02
467.3	2167.49
467.672	2150.54
468.045	2206.35
468.417	2228.5
468.789	2229.63
469.161	2258.56
469.534	2261.27
469.906	2308.5
470.278	2334.94
470.65	2346.24
471.022	2362.06
471.394	2386.24
471.766	2398.67
472.138	2446.12
472.51	2452.9
472.882	2526.12
473.253	2527.02
473.625	2538.1
473.997	2579.23
474.369	2596.85
474.74	2603.86
475.112	2650.64
475.484	2670.75
475.855	2757.75
476.227	2746.45
476.598	2797.3
476.97	2793.68
477.341	2863.51
477.713	2884.75
478.084	2922.72
478.455	2983.96
478.827	3028.25
479.198	3078.65
479.569	3079.55
479.94	3085.65
480.311	3151.19
480.682	3175.37
481.053	3247.91
481.424	3255.14
481.795	3283.39
482.166	3301.47
482.537	3351.64
482.908	3392.31
483.279	3433.67
483.65	3471.41
484.021	3525.19
484.391	3532.65
484.762	3578.3
485.133	3555.92
485.503	3640.22
485.874	3699.2
486.244	3747.56
486.615	3776.93
486.985	3777.84
487.356	3848.57
487.726	3853.32
488.097	3893.77
488.467	3936.93
488.837	3995.01
489.207	4051.5
489.578	4042.01
489.948	4060.09
490.318	4143.48
490.688	4147.55
491.058	4253.53
491.428	4246.53
491.798	4303.7
492.168	4328.11
492.538	4357.03
492.908	4423.7
493.278	4391.38
493.648	4462.34
494.017	4510.02
494.387	4512.06
494.757	4546.18
495.126	4609.68
495.496	4586.86
495.866	4596.57
496.235	4673.18
496.605	4683.13
496.974	4662.34
497.344	4728.55
497.713	4766.29
498.082	4782.33
498.452	4811.03
498.821	4839.96
499.19	4881.76
499.559	4897.13
499.928	4916.34
500.298	4931.03
500.667	4929.45
501.036	4891.93
501.405	4964.02
501.774	4949.56
502.143	4996.56
502.512	5019.16
502.88	5057.8
503.249	5082.66
503.618	5082.66
503.987	5097.13
504.356	5135.99
504.724	5127.18
505.093	5190.23
505.462	5194.75
505.83	5180.97
506.199	5243.11
506.567	5281.53
506.936	5275.88
507.304	5312.94
507.672	5307.74
508.041	5340.96
508.409	5309.78
508.777	5412.15
509.145	5397
509.514	5420.51
509.882	5402.65
510.25	5493.5
510.618	5508.19
510.986	5456.89
511.354	5529.66
511.722	5532.37
512.09	5615.3
512.458	5597.68
512.826	5653.04
513.193	5615.3
513.561	5651.46
513.929	5684.46
514.297	5693.49
514.664	5715.19
515.032	5806.94
515.4	5793.15
515.767	5780.27
516.135	5784.79
516.502	5747.28
516.869	5852.13
517.237	5880.16
517.604	5821.4
517.972	5857.11
518.339	5937.33
518.706	5869.31
519.073	5909.08
519.44	5949.76
519.808	5950.44
520.175	5940.04
520.542	5956.76
520.909	6084.44
521.276	6067.27
521.643	6037.89
522.009	6061.62
522.376	6100.26
522.743	6126.03
523.11	6191.11
523.477	6176.42
523.843	6205.57
524.21	6306.36
524.577	6275.85
524.943	6320.37
525.31	6391.33
525.676	6390.88
526.043	6453.7
526.409	6404.21
526.776	6483.53
527.142	6498.9
527.508	6491.44
527.874	6556.52
528.241	6530.76
528.607	6533.92
528.973	6613.02
529.339	6658.67
529.705	6689.85
530.071	6764.88
530.437	6799.45
530.803	6822.96
531.169	6777.08
531.535	6828.61
531.901	6863.18
532.267	6869.51
532.632	6899.79
532.998	6924.2
533.364	6961.26
533.73	6951.99
534.095	7032.67
534.461	7017.98
534.826	7060.69
535.192	7025.89
535.557	7072.44
535.923	7104.76
536.288	7101.14
536.653	7173.23
537.019	7142.04
537.384	7171.87
537.749	7166
538.114	7259.1
538.479	7228.14
538.845	7284.19
539.21	7231.98
539.575	7285.99
539.94	7279.44
540.305	7360.57
540.67	7307.69
541.034	7370.74
541.399	7355.37
541.764	7358.31
542.129	7440.79
542.494	7416.61
542.858	7480.79
543.223	7519.44
543.587	7521.02
543.952	7540
544.316	7591.52
544.681	7643.27
545.045	7562.6
545.41	7700.45
545.774	7646.44
546.138	7659.54
546.503	7703.16
546.867	7750.62
547.231	7761.24
547.595	7732.76
547.959	7817.05
548.324	7739.32
548.688	7754.91
549.052	7823.61
549.416	7863.15
549.779	7840.33
550.143	7829.03
550.507	7909.71
550.871	7914
551.235	7932.98
551.599	7895.47
551.962	7973.66
552.326	7958.52
552.689	7970.72
553.053	7939.31
553.417	8005.3
553.78	7991.74
554.143	8053.43
554.507	8065.41
554.87	8128.91
555.234	8228.57
555.597	8178.63
555.96	8131.85
556.323	8170.04
556.686	8248.46
557.05	8250.49
557.413	8240.77
557.776	8272.41
558.139	8247.55
558.502	8274.22
558.865	8280.09
559.228	8278.29
559.59	8377.04
559.953	8409.81
560.316	8452.97
560.679	8420.88
561.041	8475.34
561.404	8515.34
561.767	8555.57
562.129	8587.66
562.492	8609.58
562.854	8596.69
563.217	8589.92
563.579	8613.87
563.941	8650.48
564.304	8725.51
564.666	8755.33
565.028	8748.1
565.39	8758.05
565.753	8849.12
566.115	8827.2
566.477	8932.73
566.839	8930.92
567.201	8906.97
567.563	8908.55
567.925	9033.07
568.287	8998.94
568.648	9038.04
569.01	9071.94
569.372	9157.36
569.734	9040.3
570.095	9145.38
570.457	9195.55
570.819	9220.18
571.18	9272.61
571.542	9385.37
571.903	9290.24
572.265	9383.79
572.626	9440.74
572.987	9462.43
573.349	9454.3
573.71	9486.61
574.071	9516.22
574.432	9624.46
574.794	9706.04
575.155	9703.11
575.516	9670.11
575.877	9822.2
576.238	9834.18
576.599	9860.84
576.96	9916.21
577.32	9985.13
577.681	10003.44
578.042	10083.66
578.403	10080.5
578.763	10195.52
579.124	10229.19
579.485	10372.24
579.845	10436.42
580.206	10468.06
580.566	10549.19
580.927	10493.82
581.287	10722.06
581.648	10714.15
582.008	10922.74
582.368	10947.82
582.728	11009.29
583.089	11120.02
583.449	11198.43
583.809	11339.9
584.169	11373.8
584.529	11416.28
584.889	11619.67
585.249	11703.28
585.609	11827.34
585.969	11958.87
586.329	11960.9
586.688	12127.68
587.048	12270.95
587.408	12330.83
587.768	12429.59
588.127	12581.22
588.487	12626.87
588.846	12867.09
589.206	12904.15
589.565	13026.18
589.925	13196.12
590.284	13286.29
590.643	13448.77
591.003	13615.77
591.362	13912.26
591.721	13839.95
592.08	14030.68
592.44	14230.67
592.799	14341.85
593.158	14445.81
593.517	14551.34
593.876	14693.71
594.235	14848.51
594.593	14990.65
594.952	15158.78
595.311	15259.12
595.67	15424.31
596.029	15580.47
596.387	15698.66
596.746	15859.55
597.104	15994.47
597.463	15997.18
597.822	16256.38
598.18	16290.05
598.538	16417.73
598.897	16578.86
599.255	16618.4
599.613	16992.41
599.972	16952.86
600.33	17057.94
600.688	17198.05
601.046	17293.42
601.404	17565.5
601.762	17438.04
602.12	17717.58
602.478	17859.5
602.836	17981.53
603.194	17985.37
603.552	18148.08
603.91	18177.69
604.268	18339.72
604.625	18358.92
604.983	18560.5
605.341	18578.35
605.698	18695.19
606.056	18859.25
606.413	18845.46
606.771	19002.3
607.128	19116.19
607.485	19022.64
607.843	19160.48
608.2	19321.84
608.557	19526.8
608.914	19462.85
609.272	19494.26
609.629	19735.61
609.986	19847.47
610.343	19819.9
610.7	19938.77
611.057	19933.35
611.414	20044.98
611.771	20148.71
612.127	20195.71
612.484	20162.49
612.841	20382.83
613.198	20232.77
613.554	20435.71
613.911	20509.83
614.267	20630.95
614.624	20646.1
614.98	20758.63
615.337	20904.39
615.693	20908.91
616.05	20833.44
616.406	21046.54
616.762	21036.37
617.118	21164.5
617.475	21147.55
617.831	21231.16
618.187	21236.36
618.543	21352.52
618.899	21439.52
619.255	21293.99
619.611	21542.8
619.967	21630.48
620.323	21675
620.678	21558.39
621.034	21546.64
621.39	21667.09
621.746	21604.04
622.101	21954.76
622.457	21694.66
622.812	21705.05
623.168	21896.01
623.523	21871.83
623.879	21895.33
624.234	21803.58
624.589	21934.42
624.945	21986.17
625.3	22010.58
625.655	22083.57
626.01	22170.8
626.365	22053.52
626.72	22062.33
627.075	22082.44
627.43	22020.75
627.785	22091.48
628.14	22117.47
628.495	22205.38
628.85	22174.19
629.205	22091.03
629.559	22174.87
629.914	22118.83
630.269	22192.95
630.623	22118.15
630.978	22034.76
631.332	22200.18
631.687	22173.51
632.041	22050.8
632.396	22167.41
632.75	22114.31
633.104	22094.87
633.459	22121.54
633.813	21992.5
634.167	22028.43
634.521	21983.69
634.875	22165.6
635.229	22011.94
635.583	21972.16
635.937	22019.62
636.291	21963.12
636.645	22028.43
636.999	21884.03
637.352	22034.08
637.706	21889.9
638.06	22056.68
638.413	21940.98
638.767	21835.89
639.121	21982.78
639.474	21866.85
639.828	21783.69
640.181	21798.61
640.534	21874.31
640.888	21773.75
641.241	21827.08
641.594	21804.03
641.947	21881.54
642.301	21795.22
642.654	21864.37
643.007	21827.53
643.36	21753.86
643.713	21805.16
644.066	21772.62
644.419	21704.6
644.771	21643.36
645.124	21340.99
645.477	21328.56
645.83	21225.29
646.182	21129.47
646.535	21065.52
646.888	21227.32
647.24	21026.42
647.593	21126.99
647.945	21060.1
648.298	21025.29
648.65	20967.22
649.002	21003.83
649.355	21149.13
649.707	21056.03
650.059	21136.93
650.411	21425.74
650.763	21448.79
651.115	21686.07
651.467	21741.43
651.819	21548.67
652.171	21529.01
652.523	21646.52
652.875	21659.63
653.227	21415.11
653.578	21698.5
653.93	21651.94
654.282	21562
654.633	21495.79
654.985	21579.18
655.337	21602.23
655.688	21496.47
656.039	21781.43
656.391	21502.57
656.742	21550.03
657.094	21514.55
657.445	21571.72
657.796	21511.61
658.147	21542.12
658.498	21604.04
658.849	21530.82
659.2	21606.97
659.551	21618.95
659.902	21596.58
660.253	21566.98
660.604	21655.79
660.955	21572.4
661.306	21726.07
661.656	21634.32
662.007	21632.51
662.358	21658.5
662.708	21696.69
663.059	21684.03
663.409	21535.56
663.76	21712.73
664.11	21667.54
664.461	21774.2
664.811	21752.06
665.161	21604.04
665.511	21623.47
665.862	21658.27
666.212	21699.18
666.562	21672.06
666.912	21831.15
667.262	21698.5
667.612	21645.84
667.962	21668.44
668.312	21674.32
668.662	21809.91
669.011	21689.01
669.361	21565.85
669.711	21669.12
670.06	21559.97
670.41	21530.82
670.76	21612.62
671.109	21610.36
671.459	21517.03
671.808	21516.58
672.157	21587.77
672.507	21458.05
672.856	21529.24
673.205	21397.71
673.554	21528.33
673.904	21355.68
674.253	21584.83
674.602	21444.27
674.951	21125.63
675.3	21093.77
675.649	21462.12
675.998	21366.98
676.346	21284.5
676.695	21456.47
677.044	21268.23
677.393	21453.31
677.741	21352.97
678.09	21337.15
678.438	21239.3
678.787	21247.66
679.135	21240.43
679.484	21200.21
679.832	21104.61
680.181	21021.23
680.529	21144.39
680.877	21075.46
681.225	20974.67
681.573	21115.01
681.922	21002.92
682.27	21043.15
682.618	20886.32
682.966	20851.74
683.314	20899.65
683.661	20828.01
684.009	20755.25
684.357	20661.91
684.705	20669.6
685.053	20679.99
685.4	20660.78
685.748	20530.39
686.095	20564.74
686.443	20488.13
686.79	20466.89
687.138	20431.41
687.485	20362.71
687.832	20357.97
688.18	20344.63
688.527	20254.69
688.874	20211.08
689.221	20108.93
689.568	20110.52
689.915	20030.52
690.262	20047.47
690.609	19846.12
690.956	19862.84
691.303	19877.08
691.65	19725.44
691.997	19736.06
692.344	19660.36
692.69	19655.39
693.037	19612.9
693.383	19441.83
693.73	19497.88
694.077	19276.41
694.423	19309.63
694.769	19229.86
695.116	19230.54
695.462	19141.73
695.808	19147.6
696.155	19201.84
696.501	18958.23
696.847	18979.7
697.193	18786.48
697.539	18939.47
697.885	18684.34
698.231	18744.9
698.577	18681.63
698.923	18639.59
699.269	18553.27
699.614	18406.15
699.96	18326.16
700.306	18304.24
700.651	18325.7
700.997	18160.29
701.342	18191.02
701.688	18173.39
702.033	18015.2
702.379	18066.05
702.724	17967.3
703.069	18037.35
703.415	17787.64
703.76	17861.99
704.105	17742.44
704.45	17706.06
704.795	17642.56
705.14	17505.39
705.485	17517.14
705.83	17505.61
706.175	17502.22
706.52	17458.61
706.865	17235.79
707.209	17274.88
707.554	17231.5
707.899	17294.55
708.243	17174.77
708.588	17105.17
708.932	16982.92
709.277	16979.98
709.621	16940.66
709.966	16833.77
710.31	16870.6
710.654	16739.98
710.998	16766.65
711.342	16769.36
711.687	16705.86
712.031	16587.45
712.375	16569.82
712.719	16713.09
713.063	16548.35
713.407	16564.17
713.75	16403.27
714.094	16428.81
714.438	16352.65
714.782	16466.54
715.125	16257.51
715.469	16312.42
715.812	16207.34
716.156	16140.45
716.499	16223.16
716.843	16255.02
717.186	16070.17
717.53	16156.5
717.873	16110.85
718.216	16139.32
718.559	16097.97
718.902	15986.11
719.246	15890.06
719.589	15998.53
719.932	15868.37
720.275	15889.84
720.617	15919.89
720.96	15876.05
721.303	15919.44
721.646	15929.38
721.989	15746.11
722.331	15794.92
722.674	15798.99
723.016	15794.92
723.359	15729.61
723.701	15710.41
724.044	15707.02
724.386	15660.01
724.729	15707.47
725.071	15545.66
725.413	15530.07
725.755	15663.4
726.097	15496.85
726.439	15464.08
726.782	15425.44
727.124	15563.52
727.465	15516.29
727.807	15467.02
728.149	15514.71
728.491	15430.64
728.833	15467.02
729.175	15399.45
729.516	15358.55
729.858	15341.38
730.199	15346.8
730.541	15360.58
730.882	15347.25
731.224	15445.55
731.565	15281.72
731.906	15258.89
732.248	15278.1
732.589	15237.65
732.93	15215.28
733.271	15251.89
733.612	15317.2
733.953	15269.74
734.294	15182.28
734.635	15207.59
734.976	15305.22
735.317	15232.23
735.658	15236.75
735.999	15298.44
736.339	15261.6
736.68	15236.29
737.021	15286.69
737.361	15194.26
737.702	15237.42
738.042	15234.26
738.383	15240.36
738.723	15248.27
739.063	15231.1
739.404	15225.22
739.744	15236.52
740.084	15334.6
740.424	15324.65
740.764	15259.34
741.104	15286.01
741.444	15260.47
741.784	15320.81
742.124	15381.6
742.464	15314.26
742.804	15317.87
743.143	15410.98
743.483	15419.34
743.823	15351.55
744.162	15321.26
744.502	15505.21
744.841	15393.58
745.181	15471.54
745.52	15414.82
745.86	15549.05
746.199	15579.79
746.538	15574.36
746.877	15637.41
747.216	15734.81
747.556	15693.23
747.895	15752.89
748.234	15776.62
748.573	15893.23
748.911	15904.75
749.25	16063.39
749.589	16074.01
749.928	16096.38
750.267	16124.63
750.605	16227
750.944	16276.49
751.283	16354.68
751.621	16549.03
751.96	16410.95
752.298	16586.32
752.636	16601.91
752.975	16681.23
753.313	16697.5
753.651	16898.85
753.989	16946.98
754.327	17114.89
754.666	17041.9
755.004	17215.45
755.342	17309.23
755.679	17438.95
756.017	17489.12
756.355	17600.53
756.693	17657.25
757.031	17871.25
757.368	17819.28
757.706	18028.31
758.044	18050.46
758.381	18224.46
758.719	18221.53
759.056	18415.19
