Data from hue_160_FLMS001491_00059.txt Node
Date: Tue Feb 07 16:51:23 GMT 2017
User: dcchb
Spectrometer: FLMS00149
Trigger mode: 0
Integration Time (sec): 2.000000E-2
Scans to average: 10
Electric dark correction enabled: true
Nonlinearity correction enabled: false
Boxcar width: 0
XAxis mode: Wavelengths
Number of Pixels in Spectrum: 2048
>>>>>Begin Spectral Data<<<<<
341.393	-2.01
341.776	-2.01
342.16	-2.01
342.543	-60.76
342.927	-88.33
343.31	-84.72
343.693	-53.53
344.077	-74.55
344.46	-52.4
344.843	-51.72
345.226	-56.92
345.61	-37.26
345.993	-26.86
346.376	-3.81
346.759	12.23
347.142	39.12
347.525	30.76
347.908	63.08
348.291	65.34
348.674	114.38
349.057	116.86
349.44	145.56
349.823	159.8
350.206	178.78
350.588	212.68
350.971	220.59
351.354	233.92
351.737	234.15
352.119	266.24
352.502	269.63
352.884	259.68
353.267	295.61
353.65	282.51
354.032	305.33
354.414	296.97
354.797	306.23
355.179	332
355.562	328.61
355.944	315.73
356.326	323.41
356.709	353.01
357.091	326.35
357.473	340.36
357.855	355.05
358.238	346.01
358.62	351.66
359.002	344.2
359.384	344.65
359.766	332.22
360.148	338.32
360.53	347.59
360.912	336.29
361.294	352.79
361.676	329.06
362.057	325.67
362.439	314.6
362.821	320.02
363.203	326.57
363.584	306.91
363.966	319.12
364.348	343.07
364.729	326.35
365.111	304.2
365.493	331.54
365.874	326.12
366.256	307.14
366.637	305.78
367.019	322.28
367.4	305.56
367.781	311.88
368.163	328.16
368.544	318.21
368.925	323.41
369.306	317.31
369.688	315.95
370.069	310.98
370.45	322.05
370.831	314.82
371.212	315.5
371.593	315.95
371.974	318.21
372.355	335.39
372.736	320.25
373.117	334.03
373.498	325.9
373.879	324.31
374.26	319.79
374.641	314.37
375.021	304.65
375.402	293.58
375.783	318.89
376.163	320.7
376.544	337.19
376.925	330.87
377.305	332.9
377.686	351.66
378.066	315.5
378.447	344.65
378.827	323.41
379.208	327.93
379.588	325.9
379.968	342.84
380.349	346.46
380.729	317.31
381.109	355.05
381.489	348.04
381.87	355.27
382.25	342.62
382.63	346.01
383.01	359.11
383.39	355.95
383.77	352.56
384.15	335.84
384.53	335.16
384.91	347.36
385.29	365.44
385.67	349.85
386.049	348.95
386.429	344.43
386.809	337.65
387.189	350.08
387.568	362.73
387.948	346.46
388.328	369.74
388.707	344.88
389.087	345.33
389.466	364.76
389.846	363.18
390.225	350.75
390.605	357.31
390.984	348.27
391.363	340.58
391.743	360.92
392.122	371.77
392.501	360.92
392.881	376.52
393.26	362.28
393.639	358.66
394.018	406.57
394.397	368.61
394.776	391.2
395.155	381.49
395.534	377.65
395.913	365.89
396.292	391.2
396.671	397.08
397.05	394.37
397.429	387.59
397.808	387.81
398.186	396.63
398.565	407.7
398.944	374.48
399.323	390.53
399.701	394.37
400.08	390.98
400.458	376.97
400.837	392.79
401.215	405.22
401.594	400.92
401.972	402.28
402.351	407.93
402.729	409.51
403.107	408.15
403.486	403.86
403.864	414.03
404.242	418.1
404.62	423.75
404.999	423.07
405.377	430.75
405.755	418.55
406.133	420.13
406.511	417.19
406.889	428.72
407.267	433.24
407.645	405.67
408.023	420.58
408.401	445.44
408.779	449.28
409.156	416.97
409.534	448.15
409.912	451.09
410.29	461.94
410.667	461.49
411.045	467.81
411.422	447.02
411.8	477.76
412.178	456.97
412.555	479.56
412.933	471.43
413.31	475.95
413.687	465.55
414.065	471.2
414.442	488.38
414.819	479.56
415.197	501.48
415.574	495.83
415.951	512.33
416.328	503.07
416.705	474.14
417.082	524.99
417.46	489.96
417.837	502.61
418.214	506.68
418.591	526.34
418.967	484.31
419.344	523.86
419.721	507.59
420.098	503.07
420.475	548.71
420.852	553.23
421.228	540.58
421.605	561.37
421.982	557.75
422.358	537.64
422.735	561.6
423.111	534.7
423.488	564.53
423.864	575.15
424.241	528.15
424.617	576.06
424.994	577.64
425.37	578.09
425.746	589.39
426.123	577.64
426.499	595.04
426.875	594.14
427.251	609.96
427.627	599.79
428.003	616.74
428.379	627.13
428.756	621.93
429.132	626.45
429.507	635.04
429.883	640.01
430.259	604.31
430.635	642.05
431.011	658.32
431.387	660.35
431.763	666.45
432.138	676.62
432.514	675.04
432.89	677.75
433.265	675.04
433.641	685.89
434.016	700.35
434.392	696.51
434.767	718.43
435.143	725.21
435.518	736.05
435.894	703.96
436.269	757.52
436.644	758.88
437.02	754.81
437.395	771.31
437.77	785.32
438.145	776.05
438.52	771.53
438.895	777.63
439.271	795.71
439.646	789.61
440.021	812.21
440.395	830.06
440.77	821.48
441.145	812.21
441.52	819.67
441.895	841.59
442.27	849.27
442.645	820.57
443.019	858.76
443.394	861.93
443.769	854.92
444.143	845.2
444.518	865.77
444.892	868.48
445.267	863.51
445.641	892.43
446.016	885.2
446.39	896.28
446.764	898.31
447.139	896.28
447.513	902.83
447.887	921.13
448.262	915.48
448.636	932.43
449.01	921.36
449.384	931.98
449.758	951.42
450.132	961.13
450.506	974.01
450.88	973.56
451.254	977.18
451.628	999.78
452.002	980.34
452.376	971.3
452.75	990.06
453.123	1013.33
453.497	1028.93
453.871	1039.55
454.244	1030.06
454.618	1041.13
454.992	1049.04
455.365	1064.63
455.739	1109.38
456.112	1117.51
456.486	1099.43
456.859	1119.32
457.232	1150.51
457.606	1154.12
457.979	1158.87
458.352	1162.94
458.725	1202.71
459.099	1187.79
459.472	1229.15
459.845	1251.52
460.218	1253.78
460.591	1270.5
460.964	1270.73
461.337	1308.47
461.71	1302.37
462.083	1336.72
462.456	1345.08
462.829	1371.74
463.201	1370.84
463.574	1343.5
463.947	1379.43
464.32	1421.23
464.692	1424.17
465.065	1491.51
465.438	1488.8
465.81	1513.21
466.183	1526.54
466.555	1556.37
466.928	1572.19
467.3	1596.37
467.672	1607.9
468.045	1660.1
468.417	1645.18
468.789	1653.09
469.161	1733.54
469.534	1772.19
469.906	1803.14
470.278	1810.6
470.65	1836.82
471.022	1895.8
471.394	1946.87
471.766	1969.92
472.138	1985.96
472.51	1994.33
472.882	2058.05
473.253	2085.85
473.625	2135.34
473.997	2212.4
474.369	2231.61
474.74	2274.09
475.112	2306.18
475.484	2394.32
475.855	2480.87
476.227	2479.29
476.598	2552.28
476.97	2621.88
477.341	2678.15
477.713	2738.04
478.084	2795.43
478.455	2885.6
478.827	2934.64
479.198	3014.64
479.569	3078.14
479.94	3193.39
480.311	3218.25
480.682	3349.54
481.053	3481.97
481.424	3577.79
481.795	3599.93
482.166	3707.73
482.537	3792.7
482.908	3921.73
483.279	3942.3
483.65	4102.07
484.021	4216.64
484.391	4325.79
484.762	4395.62
485.133	4491.66
485.503	4573.02
485.874	4689.17
486.244	4831.09
486.615	4968.03
486.985	5024.98
487.356	5178.2
487.726	5329.15
488.097	5444.18
488.467	5537.74
488.837	5680.1
489.207	5752.42
489.578	5939.53
489.948	6058.63
490.318	6220.66
490.688	6296.13
491.058	6444.6
491.428	6569.35
491.798	6632.85
492.168	6833.97
492.538	6938.38
492.908	7111.48
493.278	7265.15
493.648	7290.23
494.017	7445.93
494.387	7550.56
494.757	7729.54
495.126	7895.41
495.496	7910.33
495.866	8025.58
496.235	8182.64
496.605	8267.61
496.974	8358.45
497.344	8434.16
497.713	8611.33
498.082	8681.16
498.452	8782.62
498.821	8858.55
499.19	8915.95
499.559	9102.39
499.928	9148.71
500.298	9265.55
500.667	9388.48
501.036	9408.59
501.405	9517.07
501.774	9550.74
502.143	9707.34
502.512	9739.66
502.88	9879.54
503.249	9841.35
503.618	10027.79
503.987	10045.41
504.356	10136.03
504.724	10197.95
505.093	10248.12
505.462	10266.65
505.83	10419.87
506.199	10529.02
506.567	10653.76
506.936	10599.98
507.304	10727.2
507.672	10751.16
508.041	10873.87
508.409	10908.44
508.777	11037.93
509.145	11100.75
509.514	11071.15
509.882	11188.43
510.25	11196.12
510.618	11187.3
510.986	11233.86
511.354	11347.3
511.722	11432.72
512.09	11456.45
512.458	11383.68
512.826	11528.09
513.193	11608.99
513.561	11643.11
513.929	11592.04
514.297	11750
514.664	11822.77
515.032	11807.85
515.4	11866.61
515.767	11926.72
516.135	11864.12
516.502	11898.92
516.869	12142.31
517.237	12048.98
517.604	11978.92
517.972	12074.29
518.339	12113.61
518.706	12147.96
519.073	12118.35
519.44	12248.97
519.808	12304.79
520.175	12261.63
520.542	12356.54
520.909	12386.14
521.276	12366.93
521.643	12375.3
522.009	12392.7
522.376	12526.25
522.743	12496.65
523.11	12597.89
523.477	12595.86
523.843	12674.95
524.21	12714.95
524.577	12768.28
524.943	12780.26
525.31	12741.39
525.676	12769.86
526.043	12798.56
526.409	12858
526.776	12890.99
527.142	12846.92
527.508	12936.86
527.874	12900.03
528.241	13054.15
528.607	12998.56
528.973	12995.84
529.339	12999.01
529.705	13083.3
530.071	13123.52
530.437	13034.49
530.803	13023.64
531.169	13048.27
531.535	12948.84
531.901	13020.93
532.267	12963.3
532.632	12983.87
532.998	12995.39
533.364	12965.79
533.73	12888.95
534.095	12974.83
534.461	12928.05
534.826	12972.34
535.192	12867.49
535.557	12978.9
535.923	12962.4
536.288	12872.23
536.653	12860.93
537.019	12774.83
537.384	12872.46
537.749	12850.09
538.114	12780.03
538.479	12677.44
538.845	12815.51
539.21	12600.6
539.575	12699.13
539.94	12684.89
540.305	12704.33
540.67	12516.99
541.034	12573.93
541.399	12579.81
541.764	12440.38
542.129	12495.74
542.494	12446.93
542.858	12472.24
543.223	12355.18
543.587	12440.61
543.952	12344.11
544.316	12253.94
544.681	12270.44
545.045	12209.42
545.41	12258.01
545.774	12203.1
546.138	12226.37
546.503	12078.13
546.867	12058.24
547.231	12124.91
547.595	12086.94
547.959	12073.84
548.324	11987.74
548.688	11919.26
549.052	11985.48
549.416	11897.34
549.779	11832.26
550.143	11785.93
550.507	11884.01
550.871	11787.51
551.235	11743
551.599	11770.57
551.962	11712.94
552.326	11740.74
552.689	11748.65
553.053	11673.85
553.417	11623.68
553.78	11718.59
554.143	11595.88
554.507	11593.85
554.87	11596.33
555.234	11595.88
555.597	11496.9
555.96	11439.05
556.323	11509.1
556.686	11474.53
557.05	11463.46
557.413	11493.96
557.776	11444.47
558.139	11501.87
558.502	11328.77
558.865	11374.19
559.228	11500.74
559.59	11457.35
559.953	11408.99
560.316	11446.51
560.679	11400.18
561.041	11471.14
561.404	11460.07
561.767	11472.95
562.129	11442.21
562.492	11573.96
562.854	11438.15
563.217	11418.03
563.579	11432.72
563.941	11446.51
564.304	11540.52
564.666	11453.96
565.028	11476.79
565.39	11485.15
565.753	11473.4
566.115	11563.11
566.477	11503.68
566.839	11491.03
567.201	11575.09
567.563	11562.89
567.925	11549.56
568.287	11619.61
568.648	11546.17
569.01	11661.87
569.372	11668.42
569.734	11644.92
570.095	11650.34
570.457	11665.71
570.819	11667.97
571.18	11642.89
571.542	11702.09
571.903	11724.24
572.265	11725.37
572.626	11716.33
572.987	11725.37
573.349	11704.81
573.71	11716.33
574.071	11766.95
574.432	11698.7
574.794	11779.15
575.155	11790.68
575.516	11705.03
575.877	11724.24
576.238	11780.74
576.599	11792.26
576.96	11781.64
577.32	11799.04
577.681	11846.72
578.042	11807.85
578.403	11813.95
578.763	11826.16
579.124	11828.19
579.485	11797.46
579.845	11873.84
580.206	11760.85
580.566	11839.94
580.927	11762.66
581.287	11862.09
581.648	11792.71
582.008	11739.83
582.368	11771.7
582.728	11771.47
583.089	11804.24
583.449	11733.96
583.809	11795.2
584.169	11807.63
584.529	11747.06
584.889	11758.82
585.249	11680.4
585.609	11681.75
585.969	11690.12
586.329	11740.74
586.688	11710.68
587.048	11692.38
587.408	11677.69
587.768	11678.14
588.127	11646.28
588.487	11635.88
588.846	11698.7
589.206	11595.2
589.565	11575.09
589.925	11670.91
590.284	11538.26
590.643	11626.84
591.003	11655.09
591.362	11599.05
591.721	11589.55
592.08	11604.92
592.44	11581.64
592.799	11601.76
593.158	11621.64
593.517	11659.16
593.876	11556.33
594.235	11479.73
594.593	11584.36
594.952	11603.79
595.311	11534.87
595.67	11571.7
596.029	11598.82
596.387	11590.01
596.746	11573.28
597.104	11531.48
597.463	11576.9
597.822	11514.98
598.18	11538.71
598.538	11527.63
598.897	11580.74
599.255	11443.12
599.613	11600.4
599.972	11507.07
600.33	11551.14
600.688	11504.36
601.046	11563.57
601.404	11520.4
601.762	11544.36
602.12	11553.17
602.478	11524.02
602.836	11581.64
603.194	11474.08
603.552	11509.33
603.91	11513.4
604.268	11475.88
604.625	11478.37
604.983	11511.59
605.341	11438.82
605.698	11498.48
606.056	11422.1
606.413	11504.81
606.771	11489.67
607.128	11541.19
607.485	11505.26
607.843	11555.43
608.2	11635.43
608.557	11612.15
608.914	11553.62
609.272	11581.19
609.629	11638.37
609.986	11670.68
610.343	11664.35
610.7	11667.29
611.057	11625.94
611.414	11665.03
611.771	11623.23
612.127	11678.37
612.484	11635.65
612.841	11699.61
613.198	11646.73
613.554	11640.17
613.911	11720.85
614.267	11665.71
614.624	11671.81
614.98	11696.22
615.337	11678.82
615.693	11729.21
616.05	11694.86
616.406	11769.44
616.762	11794.97
617.118	11697.8
617.475	11716.78
617.831	11779.15
618.187	11750.68
618.543	11768.31
618.899	11895.31
619.255	11857.12
619.611	11830
619.967	11820.28
620.323	11799.49
620.678	11854.18
621.034	11817.12
621.39	11811.24
621.746	11789.55
622.101	12005.59
622.457	11851.47
622.812	11911.35
623.168	11879.49
623.523	11848.76
623.879	11974.85
624.234	11828.19
624.589	11885.14
624.945	11841.3
625.3	11910.45
625.655	11825.71
626.01	11855.08
626.365	11899.83
626.72	11883.11
627.075	11862.09
627.43	11851.24
627.785	11814.86
628.14	11822.77
628.495	11839.94
628.85	11786.39
629.205	11817.12
629.559	11811.7
629.914	11749.32
630.269	11870.9
630.623	11739.61
630.978	11753.84
631.332	11728.99
631.687	11801.98
632.041	11654.64
632.396	11803.33
632.75	11699.38
633.104	11736.67
633.459	11658.25
633.813	11668.65
634.167	11721.53
634.521	11708.19
634.875	11681.3
635.229	11668.2
635.583	11505.26
635.937	11556.79
636.291	11568.54
636.645	11604.24
636.999	11539.39
637.352	11584.58
637.706	11509.78
638.06	11524.7
638.413	11505.04
638.767	11437.47
639.121	11521.53
639.474	11407.64
639.828	11409.22
640.181	11411.93
640.534	11354.31
640.888	11391.14
641.241	11451.03
641.594	11397.69
641.947	11419.61
642.301	11370.35
642.654	11383.68
643.007	11328.54
643.36	11346.17
643.713	11336.91
644.066	11392.5
644.419	11215.55
644.771	11219.85
645.124	11184.14
645.477	11157.25
645.83	11079.74
646.182	10993.64
646.535	10968.78
646.888	11014.43
647.24	10942.34
647.593	10978.5
647.945	11034.09
648.298	10957.03
648.65	10957.48
649.002	10880.87
649.355	10968.33
649.707	10948.89
650.059	11053.52
650.411	11162.22
650.763	11132.16
651.115	11257.81
651.467	11197.25
651.819	11194.08
652.171	11215.1
652.523	11123.8
652.875	11259.85
653.227	11149.57
653.578	11249
653.93	11186.4
654.282	11147.76
654.633	11173.75
654.985	11135.33
655.337	11164.71
655.688	11214.42
656.039	11251.94
656.391	11108.21
656.742	11205.61
657.094	11127.87
657.445	11260.3
657.796	11149.11
658.147	11161.77
658.498	11234.76
658.849	11230.47
659.2	11215.33
659.551	11224.59
659.902	11199.51
660.253	11177.81
660.604	11191.37
660.955	11194.31
661.306	11274.76
661.656	11232.95
662.007	11208.77
662.358	11223.46
662.708	11175.78
663.059	11255.1
663.409	11126.97
663.76	11244.48
664.11	11277.92
664.461	11275.89
664.811	11218.94
665.161	11190.92
665.511	11175.78
665.862	11228.21
666.212	11221.65
666.562	11216
666.912	11173.75
667.262	11175.55
667.612	11168.32
667.962	11207.42
668.312	11304.82
668.662	11257.81
669.011	11272.27
669.361	11173.07
669.711	11198.38
670.06	11215.78
670.41	11273.18
670.76	11256.46
671.109	11233.41
671.459	11224.14
671.808	11185.04
672.157	11196.34
672.507	11214.87
672.856	11140.3
673.205	11244.7
673.554	11174.65
673.904	11157.7
674.253	11247.19
674.602	11147.08
674.951	10978.27
675.3	10918.84
675.649	11165.61
675.998	11074.99
676.346	11094.43
676.695	11165.16
677.044	11033.18
677.393	11137.59
677.741	11123.35
678.09	11039.96
678.438	11011.49
678.787	11024.82
679.135	10946.41
679.484	10932.62
679.832	10985.05
680.181	10939.63
680.529	10919.52
680.877	10950.7
681.225	10887.88
681.573	11001.55
681.922	10860.53
682.27	10834.55
682.618	10900.08
682.966	10737.15
683.314	10765.39
683.661	10773.53
684.009	10812.63
684.357	10646.98
684.705	10684.27
685.053	10608.34
685.4	10566.76
685.748	10589.13
686.095	10558.39
686.443	10604.5
686.79	10539.86
687.138	10536.47
687.485	10572.41
687.832	10495.57
688.18	10506.42
688.527	10482.01
688.874	10484.05
689.221	10379.19
689.568	10362.47
689.915	10338.29
690.262	10385.07
690.609	10281.79
690.956	10234.34
691.303	10227.1
691.65	10115.47
691.997	10227.56
692.344	10070.95
692.69	10038.18
693.037	10098.97
693.383	9989.14
693.73	10046.09
694.077	9943.95
694.423	9931.97
694.769	9932.65
695.116	9898.98
695.462	9897.62
695.808	9844.06
696.155	9861.01
696.501	9720.68
696.847	9731.98
697.193	9682.26
697.539	9650.62
697.885	9669.83
698.231	9557.52
698.577	9603.84
698.923	9579.66
699.269	9475.03
699.614	9481.36
699.96	9433.68
700.306	9388.71
700.651	9335.15
700.997	9314.59
701.342	9312.55
701.688	9277.07
702.033	9221.71
702.379	9237.75
702.724	9170.63
703.069	9178.54
703.415	9061.03
703.76	9081.82
704.105	9068.94
704.45	9080.02
704.795	8945.56
705.14	8972
705.485	8970.87
705.83	8896.97
706.175	8925.22
706.52	8855.16
706.865	8834.37
707.209	8800.7
707.554	8770.87
707.899	8844.09
708.243	8771.55
708.588	8729.52
708.932	8661.72
709.277	8627.82
709.621	8695.62
709.966	8604.77
710.31	8601.16
710.654	8552.8
710.998	8551.67
711.342	8518.45
711.687	8492.69
712.031	8460.82
712.375	8386.93
712.719	8433.03
713.063	8457.43
713.407	8426.7
713.75	8413.14
714.094	8357.77
714.438	8352.13
714.782	8337.66
715.125	8330.88
715.469	8295.63
715.812	8268.06
716.156	8229.19
716.499	8238.23
716.843	8162.07
717.186	8218.12
717.53	8268.74
717.873	8201.39
718.216	8172.47
718.559	8223.77
718.902	8134.05
719.246	8189.64
719.589	8124.11
719.932	8101.96
720.275	8156.2
720.617	8111.23
720.96	8106.93
721.303	8099.25
721.646	8127.5
721.989	8047.73
722.331	8078.46
722.674	8070.1
723.016	8072.58
723.359	8059.93
723.701	8023.32
724.044	7973.6
724.386	7962.98
724.729	7988.29
725.071	7999.59
725.413	8049.53
725.755	7969.54
726.097	7964.79
726.439	7963.21
726.782	7898.13
727.124	7951.68
727.465	7945.58
727.807	7910.78
728.149	7953.49
728.491	7913.94
728.833	7875.53
729.175	7878.24
729.516	7935.64
729.858	7850.22
730.199	7847.51
730.541	7863.78
730.882	7920.72
731.224	7907.84
731.565	7847.51
731.906	7842.76
732.248	7884.34
732.589	7857.67
732.93	7856.32
733.271	7866.71
733.612	7882.76
733.953	7892.7
734.294	7886.37
734.635	7801.41
734.976	7850.67
735.317	7838.01
735.658	7934.73
735.999	7871.46
736.339	7884.11
736.68	7858.58
737.021	7926.6
737.361	7880.5
737.702	7909.42
738.042	7875.53
738.383	7923.44
738.723	7934.06
739.063	7928.41
739.404	7960.27
739.744	7924.34
740.084	7940.84
740.424	7951.46
740.764	7960.04
741.104	8032.13
741.444	7952.59
741.784	7966.15
742.124	8003.43
742.464	7987.16
742.804	7981.29
743.143	8031.91
743.483	8078.91
743.823	8046.37
744.162	8053.83
744.502	8141.74
744.841	8083.88
745.181	8143.32
745.52	8227.16
745.86	8223.99
746.199	8267.61
746.538	8318.91
746.877	8305.57
747.216	8388.28
747.556	8432.57
747.895	8532.01
748.234	8489.3
748.573	8480.26
748.911	8642.29
749.25	8606.13
749.589	8671.66
749.928	8840.7
750.267	8826.24
750.605	8917.31
750.944	9035.72
751.283	9014.03
751.621	9176.06
751.96	9149.17
752.298	9327.24
752.636	9356.17
752.975	9480
753.313	9565.88
753.651	9647.23
753.989	9700.11
754.327	9863.05
754.666	9923.38
755.004	10036.15
755.342	10222.13
755.679	10280.66
756.017	10407.66
756.355	10546.64
756.693	10607.88
757.031	10832.06
757.368	10890.14
757.706	11027.99
758.044	11193.63
758.381	11277.7
758.719	11500.52
759.056	11599.05
759.394	11711.81
