Data from hue_24_FLMS001491_00005.txt Node
Date: Tue Feb 07 17:11:40 GMT 2017
User: dcchb
Spectrometer: FLMS00149
Trigger mode: 0
Integration Time (sec): 2.000000E-2
Scans to average: 10
Electric dark correction enabled: true
Nonlinearity correction enabled: false
Boxcar width: 0
XAxis mode: Wavelengths
Number of Pixels in Spectrum: 2048
>>>>>Begin Spectral Data<<<<<
341.393	-24.25
341.776	-24.25
342.16	-24.25
342.543	-54.98
342.927	-60.63
343.31	-78.26
343.693	-58.15
344.077	-64.25
344.46	-71.93
344.843	-66.51
345.226	-38.26
345.61	-36.45
345.993	-18.15
346.376	2.42
346.759	6.03
347.142	26.82
347.525	41.51
347.908	48.74
348.291	86.93
348.674	108.63
349.057	110.89
349.44	137.55
349.823	147.95
350.206	166.93
350.588	182.75
350.971	199.7
351.354	216.42
351.737	240.15
352.119	273.82
352.502	246.25
352.884	263.88
353.267	272.24
353.65	283.54
354.032	280.83
354.414	319.92
354.797	315.4
355.179	316.31
355.562	328.28
355.944	314.72
356.326	336.87
356.709	342.52
357.091	335.51
357.473	368.06
357.855	354.27
358.238	343.88
358.62	334.38
359.002	338
359.384	351.78
359.766	337.77
360.148	320.37
360.53	352.01
360.912	337.55
361.294	326.93
361.676	337.32
362.057	344.55
362.439	335.97
362.821	330.54
363.203	313.37
363.584	321.5
363.966	339.13
364.348	328.28
364.729	317.44
365.111	312.92
365.493	311.79
365.874	323.99
366.256	334.38
366.637	306.59
367.019	338.23
367.4	311.79
367.781	332.8
368.163	333.71
368.544	312.24
368.925	311.11
369.306	317.89
369.688	310.2
370.069	319.69
370.45	304.78
370.831	338.45
371.212	291.9
371.593	319.47
371.974	306.81
372.355	311.33
372.736	309.07
373.117	325.34
373.498	323.99
373.879	329.64
374.26	313.82
374.641	312.92
375.021	330.09
375.402	304.78
375.783	314.95
376.163	331.22
376.544	328.51
376.925	305.01
377.305	325.34
377.686	319.02
378.066	346.36
378.447	321.73
378.827	327.15
379.208	337.77
379.588	330.09
379.968	348.17
380.349	325.34
380.729	350.65
381.109	350.2
381.489	334.38
381.87	338
382.25	318.79
382.63	348.17
383.01	324.67
383.39	357.43
383.77	341.62
384.15	325.12
384.53	350.43
384.91	344.55
385.29	341.62
385.67	353.82
386.049	351.11
386.429	362.63
386.809	370.54
387.189	362.41
387.568	368.73
387.948	338.68
388.328	366.25
388.707	354.04
389.087	341.39
389.466	359.47
389.846	348.85
390.225	369.64
390.605	377.55
390.984	373.03
391.363	388.85
391.743	373.03
392.122	373.03
392.501	362.86
392.881	382.52
393.26	372.57
393.639	392.01
394.018	358.56
394.397	373.93
394.776	380.26
395.155	384.55
395.534	402.63
395.913	396.98
396.292	391.11
396.671	400.6
397.05	388.85
397.429	392.24
397.808	393.59
398.186	409.64
398.565	392.91
398.944	385.46
399.323	386.13
399.701	394.72
400.08	403.99
400.458	379.58
400.837	403.76
401.215	398.11
401.594	418.9
401.972	386.59
402.351	378.22
402.729	407.15
403.107	390.88
403.486	420.94
403.864	415.96
404.242	432.46
404.62	428.17
404.999	448.96
405.377	408.51
405.755	438.11
406.133	427.71
406.511	424.33
406.889	444.44
407.267	441.05
407.645	427.49
408.023	428.84
408.401	440.14
408.779	436.75
409.156	454.61
409.534	440.14
409.912	445.12
410.29	441.5
410.667	470.43
411.045	455.96
411.422	463.42
411.8	457.54
412.178	476.53
412.555	488.96
412.933	486.24
413.31	473.14
413.687	503.42
414.065	489.86
414.442	483.08
414.819	495.28
415.197	492.57
415.574	495.51
415.951	493.48
416.328	503.19
416.705	516.53
417.082	499.13
417.46	508.39
417.837	519.24
418.214	519.92
418.591	531.44
418.967	521.5
419.344	537.32
419.721	534.38
420.098	509.97
420.475	520.37
420.852	523.53
421.228	565.56
421.605	541.16
421.982	551.33
422.358	551.33
422.735	564.43
423.111	549.07
423.488	532.34
423.864	559.69
424.241	564.89
424.617	572.8
424.994	567.37
425.37	579.58
425.746	572.8
426.123	573.02
426.499	597.88
426.875	600.59
427.251	620.48
427.627	601.72
428.003	609.86
428.379	618.9
428.756	628.84
429.132	629.07
429.507	629.07
429.883	628.16
430.259	623.42
430.635	640.14
431.011	651.44
431.387	641.27
431.763	644.43
432.138	668.16
432.514	666.58
432.89	662.28
433.265	692.34
433.641	678.56
434.016	690.53
434.392	705.22
434.767	713.36
435.143	722.4
435.518	708.61
435.894	710.65
436.269	722.4
436.644	727.37
437.02	729.4
437.395	747.25
437.77	748.16
438.145	747.25
438.52	743.19
438.895	764.43
439.271	779.34
439.646	781.15
440.021	774.37
440.395	785.9
440.77	794.94
441.145	794.71
441.52	801.49
441.895	809.63
442.27	810.08
442.645	818.66
443.019	830.64
443.394	809.63
443.769	796.97
444.143	809.4
444.518	840.59
444.892	829.96
445.267	824.99
445.641	862.28
446.016	838.78
446.39	833.58
446.764	839.68
447.139	853.24
447.513	855.05
447.887	855.95
448.262	862.28
448.636	862.05
449.01	865.67
449.384	872.67
449.758	925.78
450.132	891.88
450.506	915.16
450.88	890.75
451.254	901.37
451.628	916.06
452.002	963.97
452.376	949.96
452.75	981.82
453.123	959.9
453.497	973.69
453.871	986.57
454.244	977.3
454.618	985.21
454.992	1017.76
455.365	1010.98
455.739	999.45
456.112	1022.73
456.486	1036.29
456.859	1047.81
457.232	1072.22
457.606	1054.36
457.979	1062.05
458.352	1091.88
458.725	1101.82
459.099	1088.49
459.472	1109.96
459.845	1135.72
460.218	1128.04
460.591	1148.6
460.964	1166.23
461.337	1184.98
461.71	1192.44
462.083	1201.48
462.456	1215.94
462.829	1205.55
463.201	1232.89
463.574	1220.46
463.947	1267.47
464.32	1293
464.692	1284.42
465.065	1279.9
465.438	1335.26
465.81	1340.01
466.183	1348.82
466.555	1366
466.928	1401.02
467.3	1383.17
467.672	1402.83
468.045	1447.57
468.417	1440.12
468.789	1460
469.161	1450.96
469.534	1481.92
469.906	1495.94
470.278	1535.71
470.65	1545.88
471.022	1565.54
471.394	1615.48
471.766	1631.07
472.138	1623.39
472.51	1664.52
472.882	1713.56
473.253	1717.62
473.625	1758.3
473.997	1802.82
474.369	1799.43
474.74	1799.2
475.112	1854.34
475.484	1880.11
475.855	1912.87
476.227	1930.27
476.598	1968.69
476.97	2014.57
477.341	2054.79
477.713	2114.45
478.084	2094.56
478.455	2183.6
478.827	2194.45
479.198	2221.79
479.569	2250.94
479.94	2302.92
480.311	2361
480.682	2410.94
481.053	2449.36
481.424	2531.16
481.795	2504.95
482.166	2566.87
482.537	2602.8
482.908	2659.52
483.279	2718.95
483.65	2768.44
484.021	2838.95
484.391	2849.57
484.762	2893.86
485.133	2925.95
485.503	2953.75
485.874	3025.16
486.244	3071.04
486.615	3146.06
486.985	3182.22
487.356	3243.46
487.726	3275.32
488.097	3353.97
488.467	3367.07
488.837	3435.32
489.207	3530.23
489.578	3534.53
489.948	3592.6
490.318	3635.54
490.688	3680.06
491.058	3748.08
491.428	3772.26
491.798	3830.56
492.168	3883.67
492.538	3954.63
492.908	3985.14
493.278	4015.87
493.648	4036.21
494.017	4147.39
494.387	4167.96
494.757	4193.49
495.126	4243.66
495.496	4311
495.866	4306.26
496.235	4365.92
496.605	4400.94
496.974	4449.08
497.344	4529.53
497.713	4536.99
498.082	4515.06
498.452	4585.12
498.821	4607.72
499.19	4633.93
499.559	4724.55
499.928	4727.04
500.298	4798.45
500.667	4848.84
501.036	4833.7
501.405	4886.81
501.774	4869.63
502.143	4949.86
502.512	4938.33
502.88	5002.28
503.249	5001.83
503.618	5075.28
503.987	5069.4
504.356	5096.52
504.724	5158.66
505.093	5144.65
505.462	5128.83
505.83	5230.53
506.199	5225.1
506.567	5284.76
506.936	5278.21
507.304	5352.56
507.672	5346.46
508.041	5360.69
508.409	5451.09
508.777	5487.24
509.145	5499.9
509.514	5475.72
509.882	5499.9
510.25	5562.27
510.618	5608.37
510.986	5598.2
511.354	5655.83
511.722	5670.74
512.09	5699.44
512.458	5756.39
512.826	5775.37
513.193	5788.93
513.561	5794.81
513.929	5875.48
514.297	5893.56
514.664	5928.36
515.032	5942.6
515.4	5988.92
515.767	5981.47
516.135	6029.83
516.502	6018.75
516.869	6073.22
517.237	6090.16
517.604	6102.14
517.972	6171.97
518.339	6194.12
518.706	6205.19
519.073	6213.78
519.44	6208.58
519.808	6311.18
520.175	6277.28
520.542	6339.42
520.909	6395.92
521.276	6381.68
521.643	6459.42
522.009	6462.36
522.376	6484.96
522.743	6523.83
523.11	6607.89
523.477	6600.89
523.843	6657.61
524.21	6737.38
524.577	6792.07
524.943	6763.14
525.31	6748.9
525.676	6835.68
526.043	6892.63
526.409	6960.65
526.776	7002.68
527.142	6953.64
527.508	7034.77
527.874	7062.12
528.241	7059.86
528.607	7164.71
528.973	7174.66
529.339	7197.48
529.705	7290.36
530.071	7353.41
530.437	7266.4
530.803	7407.42
531.169	7344.37
531.535	7403.8
531.901	7465.5
532.267	7495.55
532.632	7469.56
532.998	7525.83
533.364	7538.94
533.73	7623.01
534.095	7619.84
534.461	7657.36
534.826	7711.59
535.192	7762.44
535.557	7808.54
535.923	7835.88
536.288	7834.75
536.653	7904.58
537.019	7954.52
537.384	7833.62
537.749	7989.32
538.114	8009.89
538.479	8005.37
538.845	8030
539.21	8065.25
539.575	8083.78
539.94	8122.88
540.305	8169.88
540.67	8197.91
541.034	8191.58
541.399	8313.84
541.764	8300.95
542.129	8309.77
542.494	8284.91
542.858	8395.64
543.223	8408.07
543.587	8450.1
543.952	8488.75
544.316	8523.1
544.681	8506.6
545.045	8565.35
545.41	8607.39
545.774	8621.4
546.138	8659.81
546.503	8658.68
546.867	8739.59
547.231	8836.99
547.595	8775.52
547.959	8901.16
548.324	8888.96
548.688	8834.27
549.052	8881.5
549.416	8858.23
549.779	8956.08
550.143	8978
550.507	9003.08
550.871	9115.4
551.235	9080.14
551.599	9152.46
551.962	9144.1
552.326	9123.08
552.689	9219.12
553.053	9200.82
553.417	9231.1
553.78	9296.41
554.143	9311.77
554.507	9429.51
554.87	9425.44
555.234	9446.01
555.597	9368.5
555.96	9452.56
556.323	9456.86
556.686	9535.05
557.05	9566.46
557.413	9568.04
557.776	9603.07
558.139	9659.56
558.502	9648.72
558.865	9683.52
559.228	9795.38
559.59	9730.07
559.953	9782.5
560.316	9927.8
560.679	9864.75
561.041	10013.9
561.404	9954.02
561.767	10009.61
562.129	10009.84
562.492	10109.49
562.854	10123.73
563.217	10185.42
563.579	10160.57
563.941	10214.35
564.304	10228.36
564.666	10320.34
565.028	10389.71
565.39	10364.85
565.753	10459.09
566.115	10514
566.477	10469.94
566.839	10492.76
567.201	10592.42
567.563	10580.44
567.925	10683.04
568.287	10662.25
568.648	10637.84
569.01	10733.66
569.372	10796.48
569.734	10760.1
570.095	10817.27
570.457	10932.98
570.819	10847.78
571.18	10970.71
571.542	10975.01
571.903	10996.93
572.265	11189.24
572.626	11187.66
572.987	11243.48
573.349	11238.5
573.71	11295.45
574.071	11442.79
574.432	11402.34
574.794	11546.52
575.155	11519.85
575.516	11626.97
575.877	11726.63
576.238	11762.56
576.599	11862.67
576.96	11921.88
577.32	11979.28
577.681	12132.27
578.042	12228.76
578.403	12283
578.763	12372.03
579.124	12463.1
579.485	12575.87
579.845	12740.84
580.206	12768.63
580.566	12907.84
580.927	13098.12
581.287	13097.89
581.648	13282.07
582.008	13488.39
582.368	13492.23
582.728	13762.05
583.089	13883.18
583.449	14030.29
583.809	14148.03
584.169	14396.39
584.529	14504.63
584.889	14807.68
585.249	14832.31
585.609	15044.73
585.969	15340.99
586.329	15415.57
586.688	15757.48
587.048	15951.37
587.408	16111.6
587.768	16371.48
588.127	16617.8
588.487	16816.44
588.846	17255.29
589.206	17340.72
589.565	17563.31
589.925	18046.69
590.284	18165.1
590.643	18399.9
591.003	18756.72
591.362	19195.13
591.721	19269.48
592.08	19570.26
592.44	19982.91
592.799	20246.4
593.158	20535.66
593.517	20796.22
593.876	21067.85
594.235	21199.6
594.593	21611.56
594.952	21932.23
595.311	22202.28
595.67	22611.99
596.029	22996.61
596.387	23238.41
596.746	23633.88
597.104	23828.68
597.463	24146.87
597.822	24474.77
598.18	24727.87
598.538	25046.05
598.897	25460.95
599.255	25572.14
599.613	26236.53
599.972	26359.91
600.33	26717.42
600.688	26958.54
601.046	27214.58
601.404	27697.05
601.762	27811.4
602.12	28343.59
602.478	28673.07
602.836	28780.87
603.194	28971.6
603.552	29370.68
603.91	29478.48
604.268	29952.36
604.625	30081.85
604.983	30460.15
605.341	30575.4
605.698	30906.91
606.056	31264.87
606.413	31428.93
606.771	31832.31
607.128	32243.6
607.485	32362.47
607.843	32500.77
608.2	32897.6
608.557	33125.16
608.914	33234.76
609.272	33459.16
609.629	33925.82
609.986	34126.04
610.343	34185.92
610.7	34740.26
611.057	34827.71
611.414	35019.35
611.771	35234.03
612.127	35568.26
612.484	35701.82
612.841	35939.78
613.198	36054.8
613.554	36268.58
613.911	36534.79
614.267	36829.92
614.624	36956.92
614.98	37127.77
615.337	37336.12
615.693	37457.48
616.05	37701.99
616.406	38078.7
616.762	38038.7
617.118	38108.98
617.475	38168.19
617.831	38542.64
618.187	38778.12
618.543	38761.85
618.899	39142.63
619.255	39125.68
619.611	39217.2
619.967	39557.99
620.323	39681.15
620.678	39699
621.034	39652.9
621.39	39798.2
621.746	39882.5
622.101	40458.07
622.457	40191.87
622.812	40421.01
623.168	40541.24
623.523	40591.18
623.879	40973.09
624.234	40687.67
624.589	40927.21
624.945	41102.8
625.3	41166.76
625.655	41032.07
626.01	41193.65
626.365	41226.64
626.72	41380.31
627.075	41365.62
627.43	41466.18
627.785	41482.23
628.14	41644.48
628.495	41683.35
628.85	41736.23
629.205	41678.83
629.559	42000.63
629.914	41766.74
630.269	41827.98
630.623	41839.06
630.978	41880.86
631.332	42153.17
631.687	42098.94
632.041	42033.17
632.396	42175.77
632.75	42056.22
633.104	42068.43
633.459	42151.14
633.813	42145.26
634.167	42082.21
634.521	42041.08
634.875	42276.11
635.229	42265.03
635.583	42068.2
635.937	42150.23
636.291	42136
636.645	42233.4
636.999	42071.59
637.352	42265.94
637.706	42091.7
638.06	42232.04
638.413	42082.21
638.767	42208.76
639.121	42138.71
639.474	41902.1
639.828	42036.79
640.181	42017.81
640.534	42038.82
640.888	41996.57
641.241	41783.01
641.594	42116.79
641.947	42051.48
642.301	41985.49
642.654	42182.1
643.007	42111.59
643.36	42178.26
643.713	42111.59
644.066	42169.44
644.419	41877.47
644.771	41616.01
645.124	41397.48
645.477	41275.45
645.83	41236.36
646.182	41016.48
646.535	40770.83
646.888	40937.84
647.24	40620.1
647.593	40972.19
647.945	40933.32
648.298	40671.63
648.65	40631.18
649.002	40589.37
649.355	40795.47
649.707	40657.17
650.059	40830.95
650.411	41308.45
650.763	41335.34
651.115	41912.73
651.467	41597.03
651.819	41658.5
652.171	41541.21
652.523	41449.91
652.875	41412.17
653.227	41400.42
653.578	41714.99
653.93	41641.32
654.282	41484.71
654.633	41322.91
654.985	41290.6
655.337	41352.29
655.688	41442.91
656.039	41616.01
656.391	41253.31
656.742	41338.5
657.094	41404.49
657.445	41519.52
657.796	41341.89
658.147	41440.65
658.498	41258.73
658.849	41469.8
659.2	41502.79
659.551	41325.85
659.902	41361.1
660.253	41240.65
660.604	41343.48
660.955	41261.9
661.306	41305.28
661.656	41255.79
662.007	41253.76
662.358	41226.19
662.708	41277.94
663.059	41219.18
663.409	40875.46
663.76	41192.97
664.11	41227.77
664.461	41273.87
664.811	41348.45
665.161	41258.96
665.511	41140.77
665.862	41021.22
666.212	41211.05
666.562	41289.24
666.912	41273.65
667.262	41082.46
667.612	41120.88
667.962	41186.19
668.312	41089.47
668.662	41247.43
669.011	41087.66
669.361	41023.94
669.711	40998.63
670.06	40970.6
670.41	41091.73
670.76	40902.13
671.109	41030.71
671.459	41071.39
671.808	40965.18
672.157	41106.42
672.507	40796.6
672.856	40981.45
673.205	40967.67
673.554	41055.57
673.904	40910.49
674.253	41126.31
674.602	40964.05
674.951	40412.65
675.3	40297.4
675.649	40872.3
675.998	40883.15
676.346	40821.45
676.695	40809.25
677.044	40594.57
677.393	40740.33
677.741	40938.06
678.09	40673.66
678.438	40572.2
678.787	40611.74
679.135	40407.45
679.484	40458.3
679.832	40370.62
680.181	40233.45
680.529	40321.13
680.877	40284.07
681.225	40236.16
681.573	40498.3
681.922	40162.04
682.27	40014.47
682.618	40066.45
682.966	39950.52
683.314	40081.14
683.661	39997.07
684.009	39807.92
684.357	39703.52
684.705	39670.07
685.053	39635.72
685.4	39661.26
685.748	39523.41
686.095	39517.08
686.443	39396.86
686.79	39349.86
687.138	39395.05
687.485	39342.4
687.832	39357.09
688.18	39196.86
688.527	39138.56
688.874	39089.52
689.221	38986.47
689.568	38863.09
689.915	38880.04
690.262	38760.72
690.609	38628.97
690.956	38530.22
691.303	38576.32
691.65	38286.15
691.997	38461.52
692.344	38202.09
692.69	38174.74
693.037	38165.93
693.383	37883.91
693.73	38089.1
694.077	37770.24
694.423	37751.25
694.769	37690.69
695.116	37738.82
695.462	37585.83
695.808	37453.63
696.155	37530.69
696.501	37187.65
696.847	37163.02
697.193	36920.77
697.539	37089.35
697.885	36833.54
698.231	36764.61
698.577	36830.6
698.923	36587.44
699.269	36510.83
699.614	36402.59
699.96	36359.2
700.306	36294.79
700.651	36198.3
700.997	36041.92
701.342	36090.96
701.688	35965.76
702.033	35795.82
702.379	35808.93
702.724	35679.22
703.069	35885.99
703.415	35269.28
703.76	35327.14
704.105	35353.58
704.45	35314.71
704.795	35239.45
705.14	34999.46
705.485	34944.1
705.83	34860.71
706.175	34952
706.52	34846.7
706.865	34789.75
707.209	34717.66
707.554	34602.86
707.899	34689.19
708.243	34341.17
708.588	34455.52
708.932	34208.3
709.277	34284.45
709.621	34194.06
709.966	33970.56
710.31	33969.21
710.654	33751.58
710.998	33835.42
711.342	33905.03
711.687	33721.08
712.031	33643.11
712.375	33523.12
712.719	33612.38
713.063	33419.16
713.407	33528.54
713.75	33259.17
714.094	33333.06
714.438	33291.26
714.782	33211.49
715.125	33096.69
715.469	33075.44
715.812	32916.13
716.156	32770.14
716.499	32865.05
716.843	32792.06
717.186	32649.69
717.53	32866.41
717.873	32730.59
718.216	32675.68
718.559	32517.04
718.902	32337.61
719.246	32341.45
719.589	32318.4
719.932	32218.29
720.275	32114.57
720.617	32228.91
720.96	32044.74
721.303	32110.05
721.646	32120.89
721.989	31773.56
722.331	31943.72
722.674	31732.43
723.016	31832.54
723.359	31760.68
723.701	31832.09
724.044	31584.86
724.386	31423.06
724.729	31551.42
725.071	31460.8
725.413	31526.33
725.755	31479.55
726.097	31259.22
726.439	31147.81
726.782	31278.88
727.124	31364.75
727.465	31146.68
727.807	31064.42
728.149	30967.7
728.491	30996.63
728.833	31067.59
729.175	30846.12
729.516	30860.13
729.858	30830.31
730.199	30730.19
730.541	30739.69
730.882	30736.75
731.224	30662.85
731.565	30527.49
731.906	30508.96
732.248	30601.16
732.589	30341.96
732.93	30269.64
733.271	30275.29
733.612	30326.36
733.953	30373.59
734.294	30367.49
734.635	30077.56
734.976	30271.45
735.317	30094.28
735.658	30108.29
735.999	30003.66
736.339	29986.03
736.68	30007.28
737.021	29951.23
737.361	29830.11
737.702	29908.07
738.042	29866.94
738.383	29745.14
738.723	29769.54
739.063	29675.31
739.404	29669.21
739.744	29551.47
740.084	29599.83
740.424	29578.59
740.764	29589.66
741.104	29482.32
741.444	29374.07
741.784	29335.2
742.124	29407.74
742.464	29265.15
742.804	29279.39
743.143	29145.83
743.483	29291.59
743.823	29150.58
744.162	29053.85
744.502	29034.65
744.841	28989
745.181	29094.53
745.52	28959.39
745.86	29003.46
746.199	28955.78
746.538	28838.49
746.877	28868.32
747.216	28967.08
747.556	28929.79
747.895	28911.94
748.234	28661.55
748.573	28783.35
748.911	28550.82
749.25	28648.67
749.589	28548.33
749.928	28569.12
750.267	28539.52
750.605	28473.98
750.944	28381.78
751.283	28298.85
751.621	28333.42
751.96	28108.79
752.298	28238.06
752.636	28218.4
752.975	28158.51
753.313	28045.75
753.651	28118.06
753.989	27824.06
754.327	27885.3
754.666	27849.14
755.004	27822.93
755.342	27797.39
755.679	27779.99
756.017	27639.43
756.355	27579.32
756.693	27391.98
757.031	27452.31
757.368	27358.98
757.706	27303.84
758.044	27240.57
758.381	27269.04
758.719	27136.62
759.056	27134.58
759.394	27196.05
759.731	26962.61
