Data from hue_90_FLMS001491_18.txt Node
Date: Mon Feb 06 15:24:46 GMT 2017
User: dcchb
Spectrometer: FLMS00149
Trigger mode: 0
Integration Time (sec): 2.000000E-2
Scans to average: 10
Electric dark correction enabled: true
Nonlinearity correction enabled: false
Boxcar width: 0
XAxis mode: Wavelengths
Number of Pixels in Spectrum: 2048
>>>>>Begin Spectral Data<<<<<
341.393	-29.24
341.776	-29.24
342.16	-29.24
342.543	-61.1
342.927	-66.3
343.31	-66.52
343.693	-70.14
344.077	-75.56
344.46	-55.22
344.843	-68.11
345.226	-62.91
345.61	-22.68
345.993	-11.38
346.376	-19.07
346.759	34.04
347.142	30.2
347.525	50.54
347.908	57.99
348.291	75.17
348.674	93.25
349.057	110.42
349.44	130.76
349.823	166.24
350.206	163.53
350.588	183.19
350.971	206.46
351.354	227.03
351.737	232.68
352.119	251.43
352.502	272.45
352.884	297.53
353.267	266.12
353.65	295.73
354.032	302.05
354.414	300.02
354.797	308.83
355.179	317.2
355.562	336.4
355.944	317.42
356.326	331.88
356.709	334.37
357.091	342.51
357.473	355.84
357.855	327.36
358.238	322.62
358.62	336.63
359.002	332.79
359.384	332.34
359.766	330.3
360.148	328.49
360.53	331.66
360.912	317.2
361.294	341.6
361.676	329.4
362.057	343.86
362.439	312
362.821	340.02
363.203	330.98
363.584	330.3
363.966	321.71
364.348	318.78
364.729	319
365.111	328.49
365.493	317.65
365.874	334.6
366.256	333.47
366.637	313.35
367.019	318.55
367.4	309.74
367.781	319
368.163	309.74
368.544	309.06
368.925	324.43
369.306	319.23
369.688	302.96
370.069	311.09
370.45	305.67
370.831	296.86
371.212	288.27
371.593	310.42
371.974	300.47
372.355	320.36
372.736	288.95
373.117	327.82
373.498	314.26
373.879	315.84
374.26	298.21
374.641	313.35
375.021	305.44
375.402	319.91
375.783	331.66
376.163	342.51
376.544	313.13
376.925	322.62
377.305	345.44
377.686	318.78
378.066	333.01
378.447	341.6
378.827	328.27
379.208	337.08
379.588	323.97
379.968	325.78
380.349	321.04
380.729	330.08
381.109	335.27
381.489	351.54
381.87	322.17
382.25	323.07
382.63	350.64
383.01	345.89
383.39	344.54
383.77	335.5
384.15	342.51
384.53	337.76
384.91	362.17
385.29	322.84
385.67	364.65
386.049	343.41
386.429	349.51
386.809	363.3
387.189	355.39
387.568	374.82
387.948	356.29
388.328	354.71
388.707	373.69
389.087	352.45
389.466	375.27
389.846	355.16
390.225	360.13
390.605	350.41
390.984	365.33
391.363	369.62
391.743	385.44
392.122	368.72
392.501	370.53
392.881	377.08
393.26	358.1
393.639	383.18
394.018	376.85
394.397	388.15
394.776	365.33
395.155	385.67
395.534	372.33
395.913	348.61
396.292	388.61
396.671	368.27
397.05	379.57
397.429	398.1
397.808	390.87
398.186	391.09
398.565	395.61
398.944	381.15
399.323	374.14
399.701	386.57
400.08	388.61
400.458	386.35
400.837	405.1
401.215	395.84
401.594	415.27
401.972	392.9
402.351	404.42
402.729	404.88
403.107	414.82
403.486	408.94
403.864	400.13
404.242	413.69
404.62	391.32
404.999	409.62
405.377	414.82
405.755	413.24
406.133	412.79
406.511	414.82
406.889	415.72
407.267	437.42
407.645	436.97
408.023	444.88
408.401	441.49
408.779	426.34
409.156	445.33
409.534	429.06
409.912	448.49
410.29	457.53
410.667	452.56
411.045	463.86
411.422	465.89
411.8	456.63
412.178	422.05
412.555	479.45
412.933	473.35
413.31	469.73
413.687	474.03
414.065	469.96
414.442	478.77
414.819	491.88
415.197	457.76
415.574	484.42
415.951	471.54
416.328	492.11
416.705	500.02
417.082	497.98
417.46	484.65
417.837	508.83
418.214	493.24
418.591	505.44
418.967	511.31
419.344	507.7
419.721	510.18
420.098	516.74
420.475	528.71
420.852	526.23
421.228	533.91
421.605	540.92
421.982	509.51
422.358	526
422.735	521.26
423.111	542.73
423.488	537.98
423.864	547.7
424.241	552.44
424.617	551.99
424.994	559
425.37	563.52
425.746	582.95
426.123	576.17
426.499	567.13
426.875	584.53
427.251	580.24
427.627	604.87
428.003	608.26
428.379	572.33
428.756	581.14
429.132	597.87
429.507	626.57
429.883	607.58
430.259	619.79
430.635	627.7
431.011	627.24
431.387	636.73
431.763	630.41
432.138	643.06
432.514	666.11
432.89	660.01
433.265	655.49
433.641	660.69
434.016	649.84
434.392	649.16
434.767	669.05
435.143	693.68
435.518	694.36
435.894	689.61
436.269	699.56
436.644	686.9
437.02	701.82
437.395	697.98
437.77	707.47
438.145	710.41
438.52	724.42
438.895	725.77
439.271	728.03
439.646	750.63
440.021	739.1
440.395	750.4
440.77	735.94
441.145	791.31
441.52	767.35
441.895	776.62
442.27	799.89
442.645	786.11
443.019	789.95
443.394	770.74
443.769	795.15
444.143	783.62
444.518	818.2
444.892	792.66
445.267	807.8
445.641	811.19
446.016	801.7
446.39	842.6
446.764	841.48
447.139	821.59
447.513	839.44
447.887	862.49
448.262	863.17
448.636	845.54
449.01	846.9
449.384	848.25
449.758	858.2
450.132	867.01
450.506	870.63
450.88	879.44
451.254	878.99
451.628	893
452.002	916.28
452.376	874.24
452.75	918.54
453.123	925.99
453.497	947.23
453.871	928.7
454.244	959.21
454.618	989.49
454.992	961.92
455.365	954.24
455.739	994.92
456.112	1001.92
456.486	1017.97
456.859	1024.52
457.232	1035.82
457.606	1027.91
457.979	1038.76
458.352	1076.5
458.725	1104.07
459.099	1076.27
459.472	1095.48
459.845	1087.8
460.218	1136.16
460.591	1123.5
460.964	1129.38
461.337	1141.58
461.71	1164.18
462.083	1177.74
462.456	1186.32
462.829	1202.6
463.201	1238.75
463.574	1236.72
463.947	1252.09
464.32	1262.71
464.692	1290.5
465.065	1293.44
465.438	1326.66
465.81	1350.16
466.183	1335.93
466.555	1425.19
466.928	1386.09
467.3	1388.13
467.672	1382.7
468.045	1440.56
468.417	1470.61
468.789	1485.75
469.161	1496.15
469.534	1534.56
469.906	1579.76
470.278	1620.89
470.65	1610.49
471.022	1648.46
471.394	1692.75
471.766	1709.25
472.138	1756.71
472.51	1763.26
472.882	1808.91
473.253	1830.83
473.625	1856.59
473.997	1919.64
474.369	1914.22
474.74	1966.64
475.112	2014.33
475.484	2068.11
475.855	2133.87
476.227	2162.12
476.598	2226.3
476.97	2248.67
477.341	2334.09
477.713	2362.34
478.084	2424.94
478.455	2511.71
478.827	2561.43
479.198	2642.78
479.569	2681.2
479.94	2746.51
480.311	2795.77
480.682	2906.73
481.053	3028.54
481.424	3029.21
481.795	3127.06
482.166	3230.34
482.537	3276.21
482.908	3397.79
483.279	3463.33
483.65	3570.44
484.021	3654.73
484.391	3732.47
484.762	3810.66
485.133	3911.9
485.503	4019.24
485.874	4134.72
486.244	4195.29
486.615	4365.68
486.985	4492.45
487.356	4601.6
487.726	4650.87
488.097	4802.05
488.467	4823.29
488.837	5026.9
489.207	5145.32
489.578	5243.62
489.948	5357.97
490.318	5486.32
490.688	5563.61
491.058	5694.45
491.428	5816.26
491.798	5962.02
492.168	6136.25
492.538	6188.68
492.908	6270.48
493.278	6411.27
493.648	6518.16
494.017	6657.59
494.387	6812.62
494.757	6827.31
495.126	7019.84
495.496	7044.93
495.866	7159.73
496.235	7307.52
496.605	7439.72
496.974	7484.69
497.344	7636.32
497.713	7705.7
498.082	7825.7
498.452	7940.5
498.821	8069.08
499.19	8091.45
499.559	8241.73
499.928	8365.8
500.298	8473.36
500.667	8568.5
501.036	8563.31
501.405	8645.56
501.774	8745.22
502.143	8872
502.512	8929.62
502.88	9050.75
503.249	9159.9
503.618	9189.96
503.987	9245.77
504.356	9309.95
504.724	9369.16
505.093	9396.96
505.462	9539.55
505.83	9625.88
506.199	9709.49
506.567	9795.14
506.936	9780.22
507.304	9979.09
507.672	10030.84
508.041	10009.6
508.409	10136.82
508.777	10193.32
509.145	10250.72
509.514	10302.24
509.882	10409.36
510.25	10360.55
510.618	10513.54
510.986	10484.39
511.354	10582.91
511.722	10655.68
512.09	10805.51
512.458	10707.66
512.826	10866.52
513.193	10911.27
513.561	10960.76
513.929	10967.54
514.297	10999.4
514.664	11045.95
515.032	11063.58
515.4	11227.19
515.767	11220.86
516.135	11186.97
516.502	11116.69
516.869	11301.31
517.237	11421.99
517.604	11285.72
517.972	11388.77
518.339	11500.86
518.706	11497.01
519.073	11494.08
519.44	11528.88
519.808	11620.4
520.175	11506.96
520.542	11634.64
520.909	11734.3
521.276	11694.75
521.643	11809.55
522.009	11775.42
522.376	11839.83
522.743	11884.8
523.11	11981.97
523.477	12027.4
523.843	11944.23
524.21	12058.13
524.577	12094.06
524.943	12053.61
525.31	12153.49
525.676	12237.56
526.043	12238.24
526.409	12240.95
526.776	12361.17
527.142	12292.25
527.508	12343.77
527.874	12446.37
528.241	12400.04
528.607	12433.71
528.973	12512.35
529.339	12428.52
529.705	12444.11
530.071	12593.71
530.437	12551.68
530.803	12500.83
531.169	12579.7
531.535	12532.69
531.901	12494.95
532.267	12466.48
532.632	12560.04
532.998	12542.64
533.364	12545.8
533.73	12541.05
534.095	12494.5
534.461	12559.13
534.826	12476.42
535.192	12519.81
535.557	12620.15
535.923	12460.6
536.288	12510.77
536.653	12504.22
537.019	12487.95
537.384	12388.06
537.749	12519.13
538.114	12416.99
538.479	12385.13
538.845	12435.29
539.21	12261.51
539.575	12350.1
539.94	12282.3
540.305	12321.4
540.67	12254.06
541.034	12292.02
541.399	12200.27
541.764	12229.88
542.129	12287.05
542.494	12240.05
542.858	12165.25
543.223	12167.5
543.587	12229.88
543.952	12048.64
544.316	12088.86
544.681	12082.31
545.045	12015.87
545.41	12062.42
545.774	12030.11
546.138	11980.39
546.503	11989.66
546.867	11878.92
547.231	11988.53
547.595	11944.91
547.959	11841.41
548.324	11873.05
548.688	11838.7
549.052	11823.79
549.416	11729.55
549.779	11726.61
550.143	11697.91
550.507	11751.7
550.871	11750.79
551.235	11701.75
551.599	11700.4
551.962	11639.61
552.326	11655.43
552.689	11729.32
553.053	11590.12
553.417	11532.72
553.78	11661.53
554.143	11571.59
554.507	11525.26
554.87	11564.81
555.234	11602.55
555.597	11478.26
555.96	11433.06
556.323	11497.92
556.686	11412.72
557.05	11577.69
557.413	11534.53
557.776	11528.88
558.139	11476.22
558.502	11504.47
558.865	11436.45
559.228	11537.24
559.59	11447.75
559.953	11472.83
560.316	11614.98
560.679	11456.11
561.041	11607.29
561.404	11534.08
561.767	11601.19
562.129	11465.15
562.492	11555.77
562.854	11547.86
563.217	11538.59
563.579	11536.56
563.941	11589.22
564.304	11576.56
564.666	11585.37
565.028	11605.71
565.39	11588.99
565.753	11635.99
566.115	11612.27
566.477	11619.04
566.839	11685.94
567.201	11668.53
567.563	11706.73
567.925	11843.67
568.287	11642.77
568.648	11775.88
569.01	11730.23
569.372	11786.5
569.734	11761.19
570.095	11849.1
570.457	11824.01
570.819	11829.43
571.18	11795.76
571.542	11866.27
571.903	11829.21
572.265	11853.84
572.626	11971.8
572.987	11830.11
573.349	11904.24
573.71	11970
574.071	12022.65
574.432	11982.88
574.794	12055.64
575.155	11974.74
575.516	11902.65
575.877	11986.72
576.238	12029.66
576.599	12041.86
576.96	12017
577.32	12033.72
577.681	11980.62
578.042	12058.13
578.403	12057.23
578.763	12034.63
579.124	12052.71
579.485	12113.95
579.845	12088.64
580.206	12076.89
580.566	12118.92
580.927	12082.54
581.287	12123.44
581.648	12050.9
582.008	12071.69
582.368	12076.21
582.728	12015.87
583.089	12060.39
583.449	12006.83
583.809	11998.7
584.169	11989.66
584.529	11952.37
584.889	12070.78
585.249	11972.71
585.609	12019.03
585.969	11984.46
586.329	11905.82
586.688	12014.97
587.048	12007.96
587.408	11950.34
587.768	11897.91
588.127	11897.46
588.487	11937.91
588.846	12008.19
589.206	11884.57
589.565	11878.92
589.925	11946.04
590.284	11954.86
590.643	11940.84
591.003	11888.19
591.362	11905.59
591.721	11915.76
592.08	11919.15
592.44	11905.59
592.799	11972.48
593.158	11854.52
593.517	11783.11
593.876	11960.5
594.235	11886.83
594.593	11846.61
594.952	11861.07
595.311	11823.79
595.67	11880.51
596.029	11886.61
596.387	11846.38
596.746	11886.38
597.104	11783.56
597.463	11813.84
597.822	11881.18
598.18	11803.9
598.538	11813.16
598.897	11851.13
599.255	11816.33
599.613	11943.56
599.972	11846.84
600.33	11865.14
600.688	11753.28
601.046	11800.51
601.404	11865.59
601.762	11830.11
602.12	11895.65
602.478	11839.15
602.836	11869.66
603.194	11806.61
603.552	11799.15
603.91	11804.35
604.268	11912.6
604.625	11795.09
604.983	11816.33
605.341	11806.38
605.698	11866.27
606.056	11842.09
606.413	11860.39
606.771	11808.42
607.128	11816.1
607.485	11769.1
607.843	11839.15
608.2	11888.19
608.557	11830.34
608.914	11844.12
609.272	11946.95
609.629	11960.05
609.986	11960.73
610.343	11843.22
610.7	11926.38
611.057	11958.7
611.414	12000.05
611.771	11956.21
612.127	11993.27
612.484	12035.98
612.841	11974.74
613.198	11970.45
613.554	12082.31
613.911	12043.21
614.267	12081.41
614.624	12026.49
614.98	12010.45
615.337	12082.54
615.693	12107.85
616.05	12093.61
616.406	12155.98
616.762	12097
617.118	12064.46
617.475	12078.47
617.831	12126.83
618.187	12187.17
618.543	12088.18
618.899	12186.26
619.255	12097
619.611	12133.61
619.967	12134.74
620.323	12113.5
620.678	12062.65
621.034	12131.12
621.39	12058.36
621.746	12092.7
622.101	12257.22
622.457	12089.99
622.812	12139.26
623.168	12175.41
623.523	12130.44
623.879	12235.3
624.234	12158.24
624.589	12189.65
624.945	12193.49
625.3	12177.22
625.655	12208.63
626.01	12254.96
626.365	12219.25
626.72	12178.13
627.075	12220.16
627.43	12225.58
627.785	12162.53
628.14	12171.8
628.495	12181.06
628.85	12132.25
629.205	12107.39
629.559	12123.44
629.914	12064
630.269	12169.76
630.623	12159.82
630.978	12105.13
631.332	12057.9
631.687	12085.93
632.041	12161.63
632.396	12085.7
632.75	12055.64
633.104	12013.38
633.459	12013.38
633.813	12021.97
634.167	11986.72
634.521	11913.73
634.875	11969.54
635.229	11961.86
635.583	11930.45
635.937	11781.53
636.291	11912.37
636.645	11888.64
636.999	11899.26
637.352	11866.72
637.706	11763.9
638.06	11920.28
638.413	11815.2
638.767	11827.63
639.121	11809.32
639.474	11737.46
639.828	11690.23
640.181	11750.11
640.534	11778.81
640.888	11717.8
641.241	11706.5
641.594	11772.71
641.947	11674.41
642.301	11666.5
642.654	11747.18
643.007	11737.23
643.36	11704.24
643.713	11646.84
644.066	11694.07
644.419	11592.83
644.771	11539.05
645.124	11456.11
645.477	11428.99
645.83	11400.29
646.182	11367.07
646.535	11321.88
646.888	11330.69
647.24	11229.68
647.593	11339.05
647.945	11253.18
648.298	11168.44
648.65	11190.81
649.002	11160.3
649.355	11171.15
649.707	11209.34
650.059	11347.41
650.411	11421.54
650.763	11387.86
651.115	11605.94
651.467	11471.03
651.819	11602.77
652.171	11487.07
652.523	11492.49
652.875	11480.74
653.227	11439.16
653.578	11497.69
653.93	11509.44
654.282	11447.52
654.633	11443
654.985	11413.17
655.337	11512.61
655.688	11429.67
656.039	11494.3
656.391	11492.27
656.742	11416.56
657.094	11435.77
657.445	11490.46
657.796	11390.58
658.147	11495.43
658.498	11488.65
658.849	11424.02
659.2	11427.86
659.551	11383.12
659.902	11488.65
660.253	11428.77
660.604	11531.59
660.955	11487.3
661.306	11457.24
661.656	11517.8
662.007	11442.33
662.358	11453.4
662.708	11512.15
663.059	11429.45
663.409	11462.21
663.76	11484.36
664.11	11546.05
664.461	11491.36
664.811	11600.51
665.161	11503.57
665.511	11492.04
665.862	11505.38
666.212	11532.49
666.562	11529.78
666.912	11436.45
667.262	11454.08
667.612	11495.88
667.962	11495.88
668.312	11487.52
668.662	11515.77
669.011	11512.15
669.361	11505.15
669.711	11453.63
670.06	11487.97
670.41	11324.82
670.76	11395.32
671.109	11453.17
671.459	11469.44
671.808	11454.3
672.157	11423.8
672.507	11414.53
672.856	11363.91
673.205	11423.34
673.554	11404.36
673.904	11413.63
674.253	11477.13
674.602	11389.45
674.951	11229.9
675.3	11155.55
675.649	11332.5
675.998	11320.52
676.346	11395.1
676.695	11292.95
677.044	11275.32
677.393	11305.83
677.741	11313.97
678.09	11280.3
678.438	11213.41
678.787	11341.76
679.135	11359.84
679.484	11266.51
679.832	11245.95
680.181	11151.71
680.529	11217.02
680.877	11165.5
681.225	11116.46
681.573	11237.81
681.922	11073.3
682.27	11106.29
682.618	11132.73
682.966	11087.08
683.314	11090.47
683.661	10964.15
684.009	10949.91
684.357	10970.47
684.705	10907.88
685.053	10885.96
685.4	10905.84
685.748	10810.7
686.095	10796.02
686.443	10784.26
686.79	10808.9
687.138	10817.26
687.485	10764.6
687.832	10734.55
688.18	10726.86
688.527	10651.16
688.874	10671.5
689.221	10598.73
689.568	10584.27
689.915	10521.67
690.262	10547.43
690.609	10571.39
690.956	10433.31
691.303	10474.44
691.65	10504.5
691.997	10361.22
692.344	10346.31
692.69	10270.38
693.037	10393.99
693.383	10281
693.73	10247.1
694.077	10163.04
694.423	10168.46
694.769	10148.57
695.116	10134.34
695.462	10056.15
695.808	10016.6
696.155	10092.08
696.501	9993.32
696.847	9956.26
697.193	9854.35
697.539	9879.43
697.885	9829.26
698.231	9830.17
698.577	9737.06
698.923	9742.03
699.269	9740.9
699.614	9682.37
699.96	9657.06
700.306	9636.5
700.651	9587.46
700.997	9564.41
701.342	9539.1
701.688	9478.76
702.033	9417.75
702.379	9458.88
702.724	9371.42
703.069	9407.58
703.415	9304.76
703.76	9295.94
704.105	9346.34
704.45	9258.43
704.795	9181.37
705.14	9137.98
705.485	9217.07
705.83	9163.52
706.175	9148.38
706.52	9073.8
706.865	9077.64
707.209	9000.58
707.554	9003.29
707.899	8971.2
708.243	8954.93
708.588	8913.81
708.932	8849.85
709.277	8895.5
709.621	8867.03
709.966	8811.43
710.31	8815.95
710.654	8700.7
710.998	8749.29
711.342	8753.36
711.687	8763.07
712.031	8645.56
712.375	8616.64
712.719	8651.21
713.063	8665
713.407	8676.3
713.75	8589.29
714.094	8568.5
714.438	8610.08
714.782	8595.17
715.125	8568.5
715.469	8506.81
715.812	8504.32
716.156	8464.55
716.499	8437.21
716.843	8433.59
717.186	8448.96
717.53	8447.83
717.873	8486.25
718.216	8385.46
718.559	8367.6
718.902	8331
719.246	8359.24
719.589	8353.59
719.932	8345.46
720.275	8326.02
720.617	8335.74
720.96	8332.58
721.303	8261.62
721.646	8291.22
721.989	8219.36
722.331	8281.05
722.674	8291
723.016	8253.71
723.359	8230.43
723.701	8190.21
724.044	8230.89
724.386	8156.08
724.729	8171.45
725.071	8123.54
725.413	8159.7
725.755	8158.8
726.097	8067.95
726.439	8069.31
726.782	8088.52
727.124	8080.83
727.465	8096.65
727.807	8072.47
728.149	8087.84
728.491	7982.98
728.833	8112.24
729.175	8112.24
729.516	8062.08
729.858	8030.21
730.199	8064.79
730.541	8047.39
730.882	8042.42
731.224	8069.53
731.565	8038.12
731.906	8096.43
732.248	8105.01
732.589	8015.98
732.93	8054.62
733.271	7996.32
733.612	7986.82
733.953	8044.22
734.294	8028.63
734.635	7999.7
734.976	8071.57
735.317	7989.31
735.658	8030.44
735.999	8010.1
736.339	8024.79
736.68	8034.28
737.021	8014.85
737.361	8034.05
737.702	8101.62
738.042	8062.08
738.383	8074.05
738.723	8085.58
739.063	8099.14
739.404	8057.56
739.744	8065.69
740.084	8033.83
740.424	8076.99
740.764	8086.48
741.104	8128.52
741.444	8107.5
741.784	8062.98
742.124	8120.38
742.464	8107.27
742.804	8127.84
743.143	8134.62
743.483	8202.86
743.823	8178.68
744.162	8197.21
744.502	8266.82
744.841	8277.66
745.181	8340.71
745.52	8338.68
745.86	8396.98
746.199	8391.11
746.538	8361.5
746.877	8462.07
747.216	8389.53
747.556	8455.74
747.895	8573.02
748.234	8547.71
748.573	8626.13
748.911	8695.28
749.25	8695.05
749.589	8742.06
749.928	8826.35
750.267	8862.96
750.605	8978.66
750.944	8976.4
751.283	8972.33
751.621	9124.2
751.96	9147.25
752.298	9259.11
752.636	9318.99
752.975	9405.09
753.313	9456.62
753.651	9572.09
753.989	9642.15
754.327	9753.56
754.666	9859.54
755.004	9996.94
755.342	9996.94
755.679	10102.02
756.017	10209.59
756.355	10361.68
756.693	10417.95
757.031	10602.57
757.368	10647.54
757.706	10816.35
758.044	10885.96
758.381	11138.83
758.719	11211.15
759.056	11272.16
759.394	11319.17
759.731	11592.83
760.068	11700.62
760.405	11803.9
760.743	11916.21
