Data from hue_180_FLMS001491_00009.txt Node
Date: Tue Feb 07 16:46:29 GMT 2017
User: dcchb
Spectrometer: FLMS00149
Trigger mode: 0
Integration Time (sec): 2.000000E-2
Scans to average: 10
Electric dark correction enabled: true
Nonlinearity correction enabled: false
Boxcar width: 0
XAxis mode: Wavelengths
Number of Pixels in Spectrum: 2048
>>>>>Begin Spectral Data<<<<<
341.393	-40.11
341.776	-40.11
342.16	-40.11
342.543	-50.51
342.927	-49.15
343.31	-65.42
343.693	-85.08
344.077	-57.96
344.46	-51.86
344.843	-52.99
345.226	-41.02
345.61	-31.3
345.993	-8.02
346.376	6.21
346.759	-0.34
347.142	25.2
347.525	38.3
347.908	67.46
348.291	64.97
348.674	93.44
349.057	98.42
349.44	135.25
349.823	128.92
350.206	150.84
350.588	192.88
350.971	197.4
351.354	225.87
351.737	210.5
352.119	244.17
352.502	280.78
352.884	267.45
353.267	273.78
353.65	295.25
354.032	303.83
354.414	305.19
354.797	317.84
355.179	307.45
355.562	312.42
355.944	317.17
356.326	324.85
356.709	316.26
357.091	335.25
357.473	350.39
357.855	345.87
358.238	339.09
358.62	332.53
359.002	329.14
359.384	339.09
359.766	345.19
360.148	334.79
360.53	336.83
360.912	317.84
361.294	313.1
361.676	316.94
362.057	332.99
362.439	323.27
362.821	345.41
363.203	327.56
363.584	330.27
363.966	326.21
364.348	315.58
364.729	318.3
365.111	337.28
365.493	321.69
365.874	324.17
366.256	322.36
366.637	315.58
367.019	320.1
367.4	309.48
367.781	303.61
368.163	314
368.544	330.05
368.925	318.07
369.306	323.27
369.688	316.26
370.069	321.69
370.45	317.39
370.831	331.86
371.212	307.22
371.593	301.8
371.974	312.42
372.355	294.79
372.736	326.43
373.117	312.87
373.498	334.57
373.879	326.43
374.26	304.06
374.641	324.4
375.021	315.58
375.402	299.09
375.783	321.91
376.163	318.3
376.544	306.55
376.925	307.45
377.305	323.49
377.686	346.77
378.066	322.36
378.447	323.95
378.827	337.96
379.208	335.02
379.588	329.37
379.968	339.99
380.349	328.47
380.729	329.14
381.109	328.24
381.489	331.63
381.87	317.17
382.25	360.1
382.63	344.51
383.01	339.09
383.39	320.78
383.77	313.55
384.15	354.91
384.53	336.6
384.91	333.66
385.29	351.97
385.67	354
386.049	368.24
386.429	343.83
386.809	357.39
387.189	348.58
387.568	342.93
387.948	343.38
388.328	344.96
388.707	354.91
389.087	349.48
389.466	371.85
389.846	373.21
390.225	364.4
390.605	366.66
390.984	363.04
391.363	381.57
391.743	372.76
392.122	368.46
392.501	382.7
392.881	377.28
393.26	380.67
393.639	371.63
394.018	391.97
394.397	375.7
394.776	365.98
395.155	371.18
395.534	373.44
395.913	385.41
396.292	396.26
396.671	408.01
397.05	387
397.429	394.68
397.808	414.11
398.186	405.07
398.565	420.21
398.944	405.53
399.323	423.15
399.701	412.53
400.08	411.85
400.458	419.31
400.837	411.4
401.215	404.4
401.594	422.47
401.972	445.75
402.351	430.84
402.729	423.38
403.107	451.17
403.486	439.2
403.864	414.79
404.242	429.25
404.62	445.75
404.999	447.56
405.377	443.94
405.755	432.64
406.133	453.43
406.511	478.97
406.889	481.46
407.267	488.91
407.645	468.12
408.023	498.86
408.401	479.87
408.779	494.56
409.156	505.41
409.534	520.78
409.912	512.42
410.29	525.97
410.667	511.29
411.045	513.32
411.422	525.52
411.8	540.66
412.178	558.52
412.555	581.79
412.933	565.97
413.31	594
413.687	573.21
414.065	581.57
414.442	594.22
414.819	622.02
415.197	615.46
415.574	626.09
415.951	658.85
416.328	648.23
416.705	653.43
417.082	650.94
417.46	678.97
417.837	684.39
418.214	686.65
418.591	733.2
418.967	723.48
419.344	704.5
419.721	709.47
420.098	707.67
420.475	721.22
420.852	735.91
421.228	752.41
421.605	784.73
421.982	789.92
422.358	810.49
422.735	814.1
423.111	814.33
423.488	844.16
423.864	857.49
424.241	851.16
424.617	862.01
424.994	866.98
425.37	860.66
425.746	922.35
426.123	898.62
426.499	933.2
426.875	938.17
427.251	977.71
427.627	973.19
428.003	971.39
428.379	976.13
428.756	972.06
429.132	1022.91
429.507	1015
429.883	1024.72
430.259	1044.15
430.635	1053.19
431.011	1059.75
431.387	1094.1
431.763	1088.45
432.138	1098.16
432.514	1139.52
432.89	1120.99
433.265	1159.63
433.641	1183.13
434.016	1181.1
434.392	1237.82
434.767	1247.99
435.143	1252.28
435.518	1304.71
435.894	1306.29
436.269	1337.48
436.644	1327.54
437.02	1359.17
437.395	1372.05
437.77	1366.18
438.145	1407.53
438.52	1436.69
438.895	1426.97
439.271	1471.71
439.646	1531.82
440.021	1504.03
440.395	1534.76
440.77	1526.4
441.145	1558.72
441.52	1579.05
441.895	1598.26
442.27	1621.54
442.645	1611.6
443.019	1658.37
443.394	1661.09
443.769	1693.4
444.143	1684.36
444.518	1718.03
444.892	1747.41
445.267	1710.12
445.641	1767.3
446.016	1777.24
446.39	1771.14
446.764	1796.9
447.139	1822.44
447.513	1842.1
447.887	1845.49
448.262	1813.85
448.636	1837.35
449.01	1887.75
449.384	1941.98
449.758	1900.4
450.132	1915.77
450.506	1955.09
450.88	1965.94
451.254	1959.16
451.628	2001.42
452.002	2044.13
452.376	2029.44
452.75	2050.45
453.123	2066.5
453.497	2093.84
453.871	2101.53
454.244	2141.75
454.618	2180.62
454.992	2203.44
455.365	2210
455.739	2268.3
456.112	2304.69
456.486	2296.78
456.859	2351.69
457.232	2386.49
457.606	2371.58
457.979	2426.26
458.352	2496.54
458.725	2477.56
459.099	2530.44
459.472	2545.36
459.845	2584.45
460.218	2563.44
460.591	2642.3
460.964	2629.2
461.337	2733.6
461.71	2795.07
462.083	2805.69
462.456	2827.16
462.829	2833.71
463.201	2922.97
463.574	2873.03
463.947	2957.55
464.32	3013.59
464.692	3079.58
465.065	3065.34
465.438	3146.02
465.81	3197.77
466.183	3197.54
466.555	3246.58
466.928	3275.06
467.3	3288.16
467.672	3343.08
468.045	3443.64
468.417	3461.49
468.789	3505.11
469.161	3563.18
469.534	3627.59
469.906	3683.86
470.278	3741.94
470.65	3799.11
471.022	3877.53
471.394	3935.83
471.766	3952.55
472.138	3983.06
472.51	4124.3
472.882	4166.56
473.253	4233.67
473.625	4325.65
473.997	4369.72
474.369	4482.26
474.74	4507.57
475.112	4664.17
475.484	4676.15
475.855	4799.99
476.227	4871.62
476.598	5035.46
476.97	5038.17
477.341	5156.14
477.713	5256.02
478.084	5309.8
478.455	5440.87
478.827	5509.57
479.198	5671.38
479.569	5698.27
479.94	5902.33
480.311	5943.46
480.682	6069.78
481.053	6228.2
481.424	6369.21
481.795	6408.08
482.166	6518.36
482.537	6623.44
482.908	6806.26
483.279	6865.02
483.65	7002.64
484.021	7150.89
484.391	7315.4
484.762	7381.84
485.133	7412.12
485.503	7548.39
485.874	7787.7
486.244	7840.58
486.615	7997.42
486.985	8079.22
487.356	8266.34
487.726	8323.06
488.097	8523.5
488.467	8612.54
488.837	8777.06
489.207	8801.92
489.578	9053.21
489.948	9175.01
490.318	9246.2
490.688	9352.18
491.058	9488.45
491.428	9555.34
491.798	9672.4
492.168	9899.97
492.538	9971.83
492.908	10055.67
493.278	10193.52
493.648	10251.14
494.017	10375.66
494.387	10530.23
494.757	10545.82
495.126	10708.76
495.496	10705.14
495.866	10804.35
496.235	10899.04
496.605	10965.47
496.974	11052.48
497.344	11186.49
497.713	11207.73
498.082	11351.23
498.452	11421.51
498.821	11484.1
499.19	11541.05
499.559	11559.81
499.928	11691.11
500.298	11681.61
500.667	11781.05
501.036	11722.52
501.405	11920.7
501.774	11905.11
502.143	12072.79
502.512	12001.38
502.88	12172.67
503.249	12163.18
503.618	12224.65
503.987	12236.4
504.356	12342.16
504.724	12398.66
505.093	12423.97
505.462	12428.03
505.83	12419.45
506.199	12586.22
506.567	12677.52
506.936	12660.12
507.304	12799.55
507.672	12782.83
508.041	12812.66
508.409	12871.86
508.777	12901.47
509.145	12938.53
509.514	12978.53
509.882	13073.67
510.25	13028.25
510.618	13055.59
510.986	13059.43
511.354	13106.44
511.722	13197.73
512.09	13250.16
512.458	13270.5
512.826	13283.61
513.193	13339.2
513.561	13246.54
513.929	13388.46
514.297	13412.42
514.664	13402.92
515.032	13478.63
515.4	13547.55
515.767	13467.56
516.135	13599.76
516.502	13512.3
516.869	13652.18
517.237	13595.69
517.604	13479.31
517.972	13642.92
518.339	13704.61
518.706	13638.62
519.073	13682.47
519.44	13662.35
519.808	13760.2
520.175	13667.78
520.542	13782.58
520.909	13769.92
521.276	13754.1
521.643	13827.77
522.009	13832.29
522.376	13904.15
522.743	13786.64
523.11	13908.9
523.477	13966.07
523.843	13983.7
524.21	14004.04
524.577	13975.11
524.943	14096.47
525.31	14005.39
525.676	14084.04
526.043	14059.4
526.409	14038.39
526.776	14078.39
527.142	14147.54
527.508	14066.18
527.874	14169.91
528.241	14081.1
528.607	14075.45
528.973	14116.35
529.339	14079.97
529.705	14031.61
530.071	14121.1
530.437	14091.72
530.803	14140.53
531.169	14020.99
531.535	13919.07
531.901	13995
532.267	13894.89
532.632	13912.74
532.998	13923.81
533.364	13850.37
533.73	13878.84
534.095	13938.96
534.461	13837.26
534.826	13804.04
535.192	13866.19
535.557	13797.26
535.923	13709.13
536.288	13616.25
536.653	13728.11
537.019	13640.88
537.384	13543.71
537.749	13566.99
538.114	13385.52
538.479	13398.86
538.845	13364.06
539.21	13310.05
539.575	13284.96
539.94	13229.82
540.305	13172.87
540.67	13086.1
541.034	13114.8
541.399	13042.93
541.764	12931.52
542.129	12915.48
542.494	12949.6
542.858	12882.94
543.223	12858.76
543.587	12814.24
543.952	12692.89
544.316	12627.35
544.681	12639.55
545.045	12551.42
545.41	12544.42
545.774	12494.25
546.138	12408.6
546.503	12348.71
546.867	12261.71
547.231	12306.46
547.595	12302.84
547.959	12105.33
548.324	12077.54
548.688	12056.07
549.052	12046.8
549.416	11974.94
549.779	11915.05
550.143	11873.93
550.507	11870.99
550.871	11807.26
551.235	11740.37
551.599	11761.16
551.962	11659.02
552.326	11651.56
552.689	11658.56
553.053	11533.14
553.417	11460.6
553.78	11580.37
554.143	11448.17
554.507	11442.3
554.87	11384.22
555.234	11364.11
555.597	11283.43
555.96	11329.76
556.323	11307.39
556.686	11176.99
557.05	11248.18
557.413	11249.31
557.776	11125.02
558.139	11179.93
558.502	11088.86
558.865	11071.91
559.228	11099.48
559.59	11005.25
559.953	10994.4
560.316	11113.49
560.679	11073.04
561.041	11019.48
561.404	11019.03
561.767	11055.42
562.129	10939.71
562.492	10999.15
562.854	10868.3
563.217	10892.26
563.579	10873.95
563.941	10894.74
564.304	10890.22
564.666	10955.76
565.028	10874.86
565.39	10882.54
565.753	10938.81
566.115	10956.89
566.477	10917.57
566.839	10923.22
567.201	10950.11
567.563	10913.95
567.925	10915.53
568.287	10913.95
568.648	10957.79
569.01	10959.37
569.372	11064
569.734	10940.16
570.095	10914.63
570.457	10921.18
570.819	11003.44
571.18	10953.27
571.542	10994.85
571.903	10908.3
572.265	10977.45
572.626	10901.3
572.987	10960.95
573.349	10980.84
573.71	10883.89
574.071	10985.13
574.432	10903.33
574.794	11037.11
575.155	10967.73
575.516	10930.22
575.877	10918.02
576.238	10891.8
576.599	10919.37
576.96	10931.13
577.32	10922.99
577.681	10989.88
578.042	10977.68
578.403	10949.2
578.763	10988.98
579.124	10978.81
579.485	10974.06
579.845	10984.68
580.206	10920.05
580.566	10948.75
580.927	10901.97
581.287	10954.85
581.648	10907.85
582.008	10995.53
582.368	10900.62
582.728	10885.93
583.089	10873.05
583.449	10886.61
583.809	10865.36
584.169	10859.26
584.529	10822.2
584.889	10832.14
585.249	10851.58
585.609	10641.87
585.969	10749.89
586.329	10760.28
586.688	10808.64
587.048	10751.92
587.408	10712.83
587.768	10753.28
588.127	10693.84
588.487	10696.55
588.846	10701.98
589.206	10671.7
589.565	10584.69
589.925	10730.9
590.284	10655.43
590.643	10719.83
591.003	10639.61
591.362	10682.09
591.721	10694.07
592.08	10654.75
592.44	10674.63
592.799	10724.8
593.158	10606.61
593.517	10590.79
593.876	10617.91
594.235	10621.98
594.593	10558.71
594.952	10558.48
595.311	10534.75
595.67	10558.48
596.029	10595.54
596.387	10586.73
596.746	10536.33
597.104	10501.76
597.463	10510.12
597.822	10564.58
598.18	10503.57
598.538	10445.71
598.897	10466.05
599.255	10463.79
599.613	10553.28
599.972	10526.84
600.33	10461.76
600.688	10438.03
601.046	10449.56
601.404	10499.27
601.762	10505.6
602.12	10555.09
602.478	10486.84
602.836	10477.58
603.194	10416.79
603.552	10473.96
603.91	10367.52
604.268	10454.75
604.625	10442.55
604.983	10459.5
605.341	10434.64
605.698	10436.9
606.056	10471.02
606.413	10437.8
606.771	10476.9
607.128	10448.43
607.485	10358.03
607.843	10454.98
608.2	10490.23
608.557	10490.46
608.914	10468.76
609.272	10571.36
609.629	10513.73
609.986	10568.42
610.343	10588.76
610.7	10532.94
611.057	10578.59
611.414	10546.73
611.771	10525.03
612.127	10557.8
612.484	10584.69
612.841	10553.06
613.198	10507.41
613.554	10444.13
613.911	10608.2
614.267	10498.59
614.624	10587.86
614.98	10558.25
615.337	10614.52
615.693	10570.23
616.05	10616.78
616.406	10634.18
616.762	10547.63
617.118	10532.27
617.475	10479.84
617.831	10598.7
618.187	10663.34
618.543	10629.89
618.899	10687.29
619.255	10693.84
619.611	10687.74
619.967	10727.29
620.323	10667.63
620.678	10614.3
621.034	10661.53
621.39	10689.32
621.746	10577.24
622.101	10718.93
622.457	10617.46
622.812	10633.51
623.168	10717.12
623.523	10705.14
623.879	10751.47
624.234	10588.76
624.589	10699.72
624.945	10654.97
625.3	10692.71
625.655	10678.93
626.01	10703.33
626.365	10669.89
626.72	10679.83
627.075	10646.16
627.43	10620.17
627.785	10628.08
628.14	10649.55
628.495	10627.18
628.85	10653.84
629.205	10574.98
629.559	10621.98
629.914	10590.34
630.269	10542.43
630.623	10509.67
630.978	10540.17
631.332	10533.4
631.687	10628.31
632.041	10494.07
632.396	10539.27
632.75	10473.51
633.104	10549.67
633.459	10442.55
633.813	10492.27
634.167	10497.01
634.521	10436.22
634.875	10539.95
635.229	10442.1
635.583	10397.13
635.937	10407.52
636.291	10425.6
636.645	10420.86
636.999	10358.48
637.352	10369.11
637.706	10259.28
638.06	10386.51
638.413	10295.44
638.767	10257.7
639.121	10323.68
639.474	10243.46
639.828	10237.36
640.181	10259.5
640.534	10283.68
640.888	10190.35
641.241	10199.84
641.594	10210.47
641.947	10243.91
642.301	10107.64
642.654	10181.09
643.007	10260.63
643.36	10219.51
643.713	10199.84
644.066	10243.91
644.419	10107.42
644.771	10135.44
645.124	10061.54
645.477	9929.8
645.83	9878.05
646.182	9962.11
646.535	9813.64
646.888	9881.66
647.24	9827.43
647.593	9910.13
647.945	9862.23
648.298	9814.32
648.65	9834.66
649.002	9784.94
649.355	9817.03
649.707	9784.71
650.059	9897.03
650.411	9902
650.763	10071.94
651.115	10078.49
651.467	10105.16
651.819	10094.99
652.171	10076.91
652.523	10012.05
652.875	9992.62
653.227	9945.84
653.578	10054.99
653.93	10044.82
654.282	10030.36
654.633	10038.95
654.985	10036.69
655.337	10006.18
655.688	10045.27
656.039	10035.33
656.391	10038.95
656.742	10042.11
657.094	10071.49
657.445	10045.5
657.796	10090.92
658.147	10127.98
658.498	10076.68
658.849	10106.06
659.2	10117.36
659.551	10056.12
659.902	10125.04
660.253	10054.76
660.604	10115.55
660.955	10073.29
661.306	10169.56
661.656	10151.26
662.007	10120.75
662.358	10111.49
662.708	10133.41
663.059	10114.65
663.409	10077.81
663.76	10110.36
664.11	10145.83
664.461	10169.11
664.811	10131.15
665.161	10090.7
665.511	10205.72
665.862	10175.89
666.212	10186.29
666.562	10155.78
666.912	10154.42
667.262	10125.04
667.612	10168.66
667.962	10195.55
668.312	10151.71
668.662	10150.81
669.011	10152.39
669.361	10154.65
669.711	10182.67
670.06	10139.96
670.41	10134.54
670.76	10105.61
671.109	10125.04
671.459	10101.32
671.808	10091.37
672.157	10146.06
672.507	10056.12
672.856	10076.91
673.205	10164.14
673.554	10088.66
673.904	10065.84
674.253	10116.01
674.602	10096.57
674.951	10035.1
675.3	9932.96
675.649	10098.15
675.998	10069.68
676.346	10047.31
676.695	10111.94
677.044	9975.44
677.393	9989.91
677.741	10098.83
678.09	9989.91
678.438	9977.25
678.787	9986.07
679.135	9923.92
679.484	9892.73
679.832	9866.52
680.181	9793.08
680.529	9831.94
680.877	9861.32
681.225	9798.05
681.573	9771.61
681.922	9830.81
682.27	9730.48
682.618	9793.53
682.966	9765.51
683.314	9721.89
683.661	9693.42
684.009	9672.85
684.357	9700.2
684.705	9553.31
685.053	9656.58
685.4	9569.8
685.748	9514.21
686.095	9455.46
686.443	9488.68
686.79	9477.15
687.138	9471.73
687.485	9455.23
687.832	9451.62
688.18	9392.41
688.527	9357.61
688.874	9350.6
689.221	9301.11
689.568	9307.89
689.915	9276.25
690.262	9274.9
690.609	9286.65
690.956	9167.1
691.303	9179.08
691.65	9082.13
691.997	9119.65
692.344	9145.41
692.69	9054.11
693.037	9065.19
693.383	9031.74
693.73	8919.88
694.077	8906.55
694.423	8961.46
694.769	8886.88
695.116	8824.51
695.462	8827
695.808	8789.03
696.155	8834.46
696.501	8706.32
696.847	8740.45
697.193	8657.29
697.539	8700
697.885	8571.87
698.231	8565.09
698.577	8552.2
698.923	8534.35
699.269	8448.7
699.614	8418.2
699.96	8334.81
700.306	8429.04
700.651	8305.43
700.997	8355.6
701.342	8334.13
701.688	8316.05
702.033	8265.66
702.379	8228.37
702.724	8124.65
703.069	8205.09
703.415	8125.55
703.76	8153.34
704.105	8107.24
704.45	8069.05
704.795	7994.25
705.14	8028.15
705.485	7953.12
705.83	7957.19
706.175	7958.55
706.52	7888.95
706.865	7881.49
707.209	7869.28
707.554	7762.17
707.899	7872.9
708.243	7767.14
708.588	7785.9
708.932	7652.12
709.277	7672.23
709.621	7672
709.966	7626.35
710.31	7658.22
710.654	7596.07
710.998	7563.76
711.342	7557.43
711.687	7567.82
712.031	7558.56
712.375	7477.2
712.719	7536.41
713.063	7504.55
713.407	7453.7
713.75	7474.04
714.094	7448.73
714.438	7439.47
714.782	7411.44
715.125	7353.59
715.469	7365.12
715.812	7373.7
716.156	7325.12
716.499	7278.57
716.843	7305.91
717.186	7300.03
717.53	7336.64
717.873	7281.96
718.216	7290.54
718.559	7288.06
718.902	7220.94
719.246	7181.85
719.589	7254.61
719.932	7149.3
720.275	7194.05
720.617	7118.57
720.96	7190.66
721.303	7121.06
721.646	7217.55
721.989	7152.47
722.331	7177.78
722.674	7165.57
723.016	7141.17
723.359	7166.93
723.701	7129.64
724.044	7114.95
724.386	7115.18
724.729	7162.86
725.071	7132.58
725.413	7102.53
725.755	7110.66
726.097	7058.91
726.439	7010.32
726.782	7052.13
727.124	7115.18
727.465	7097.33
727.807	7018.01
728.149	7042.41
728.491	7040.38
728.833	7087.84
729.175	7063.2
729.516	7055.75
729.858	7108.63
730.199	7087.61
730.541	7112.47
730.882	7025.24
731.224	7119.93
731.565	7045.58
731.906	7119.93
732.248	7033.15
732.589	7027.95
732.93	7025.24
733.271	7029.98
733.612	7062.75
733.953	7075.86
734.294	7113.6
734.635	7048.52
734.976	7044
735.317	7047.61
735.658	7094.39
735.999	7081.28
736.339	7096.42
736.68	7060.94
737.021	7121.96
737.361	7110.21
737.702	7124.22
738.042	7072.47
738.383	7147.95
738.723	7169.64
739.063	7063.66
739.404	7210.32
739.744	7190.66
740.084	7198.34
740.424	7201.28
740.764	7132.81
741.104	7227.27
741.444	7205.12
741.784	7223.65
742.124	7251.45
742.464	7292.58
742.804	7239.47
743.143	7264.1
743.483	7359.47
743.823	7318.56
744.162	7349.3
744.502	7433.36
744.841	7433.59
745.181	7542.74
745.52	7523.53
745.86	7545.23
746.199	7563.76
746.538	7644.66
746.877	7656.18
747.216	7743.64
747.556	7787.25
747.895	7802.62
748.234	7977.53
748.573	7869.51
748.911	8031.99
749.25	8069.28
749.589	8098.88
749.928	8139.56
750.267	8252.33
750.605	8313.34
750.944	8399.21
751.283	8465.2
751.621	8578.87
751.96	8591.07
752.298	8718.98
752.636	8882.82
752.975	8910.61
753.313	9090.72
753.651	9201.68
753.989	9303.15
754.327	9385.18
754.666	9492.52
755.004	9715.11
755.342	9879.85
755.679	9938.38
756.017	10078.27
756.355	10242.1
756.693	10374.3
757.031	10621.75
757.368	10716.44
757.706	10905.81
758.044	11088.18
758.381	11306.03
758.719	11407.95
759.056	11634.61
759.394	11755.28
759.731	11898.11
