Data from hue_90_FLMS001491_69.txt Node
Date: Mon Feb 06 15:25:29 GMT 2017
User: dcchb
Spectrometer: FLMS00149
Trigger mode: 0
Integration Time (sec): 2.000000E-2
Scans to average: 10
Electric dark correction enabled: true
Nonlinearity correction enabled: false
Boxcar width: 0
XAxis mode: Wavelengths
Number of Pixels in Spectrum: 2048
>>>>>Begin Spectral Data<<<<<
341.393	-20
341.776	-20
342.16	-20
342.543	-70.62
342.927	-94.57
343.31	-51.19
343.693	-78.75
344.077	-74.01
344.46	-66.33
344.843	-59.77
345.226	-33.78
345.61	-17.97
345.993	-22.71
346.376	20.9
346.759	-3.05
347.142	27.91
347.525	45.31
347.908	62.26
348.291	70.39
348.674	66.78
349.057	114.01
349.44	132.76
349.823	143.16
350.206	153.1
350.588	182.48
350.971	195.81
351.354	212.31
351.737	232.2
352.119	252.31
352.502	257.51
352.884	265.19
353.267	262.7
353.65	297.05
354.032	278.98
354.414	288.47
354.797	299.77
355.179	323.27
355.562	314.23
355.944	329.14
356.326	336.15
356.709	318.75
357.091	314.91
357.473	337.51
357.855	330.5
358.238	341.35
358.62	325.75
359.002	326.43
359.384	313.55
359.766	351.29
360.148	311.07
360.53	335.47
360.912	339.99
361.294	339.09
361.676	366.66
362.057	319.43
362.439	335.7
362.821	336.38
363.203	307.9
363.584	286.66
363.966	315.58
364.348	323.72
364.729	330.73
365.111	327.79
365.493	339.31
365.874	319.65
366.256	289.82
366.637	318.07
367.019	313.33
367.4	317.84
367.781	292.31
368.163	315.81
368.544	319.2
368.925	305.87
369.306	309.71
369.688	322.82
370.069	331.86
370.45	318.07
370.831	318.07
371.212	319.65
371.593	323.04
371.974	315.36
372.355	299.77
372.736	306.55
373.117	301.8
373.498	321.91
373.879	314
374.26	326.21
374.641	327.79
375.021	329.14
375.402	311.97
375.783	312.42
376.163	331.4
376.544	330.73
376.925	328.69
377.305	316.04
377.686	334.79
378.066	338.18
378.447	330.27
378.827	323.95
379.208	324.85
379.588	344.06
379.968	323.27
380.349	325.98
380.729	332.31
381.109	340.67
381.489	323.72
381.87	337.28
382.25	355.58
382.63	332.76
383.01	375.24
383.39	340.67
383.77	337.51
384.15	350.39
384.53	361.23
384.91	333.89
385.29	376.15
385.67	366.66
386.049	357.17
386.429	358.07
386.809	368.69
387.189	347.22
387.568	328.47
387.948	351.52
388.328	377.28
388.707	363.72
389.087	371.18
389.466	386.77
389.846	366.66
390.225	381.12
390.605	372.53
390.984	370.72
391.363	362.59
391.743	361.69
392.122	378.18
392.501	356.71
392.881	396.26
393.26	384.74
393.639	383.83
394.018	376.6
394.397	374.11
394.776	383.83
395.155	398.07
395.534	388.35
395.913	382.7
396.292	389.71
396.671	391.29
397.05	403.72
397.429	416.6
397.808	388.35
398.186	394.45
398.565	395.13
398.944	398.52
399.323	395.13
399.701	399.2
400.08	417.73
400.458	419.31
400.837	424.51
401.215	421.12
401.594	418.86
401.972	421.8
402.351	408.46
402.729	437.39
403.107	417.73
403.486	427.45
403.864	432.42
404.242	420.67
404.62	428.8
404.999	434.23
405.377	439.2
405.755	431.51
406.133	425.19
406.511	424.28
406.889	433.77
407.267	441.46
407.645	445.53
408.023	453.43
408.401	460.44
408.779	453.66
409.156	460.21
409.534	448.69
409.912	474.68
410.29	454.34
410.667	470.61
411.045	481
411.422	473.77
411.8	471.06
412.178	458.86
412.555	486.2
412.933	480.1
413.31	476.03
413.687	490.04
414.065	490.95
414.442	493.66
414.819	504.05
415.197	507.22
415.574	522.59
415.951	521.68
416.328	504.28
416.705	537.05
417.082	523.94
417.46	529.36
417.837	527.1
418.214	531.4
418.591	528.46
418.967	541.34
419.344	551.96
419.721	530.27
420.098	547.9
420.475	541.57
420.852	551.28
421.228	555.13
421.605	567.78
421.982	545.41
422.358	551.51
422.735	580.89
423.111	565.97
423.488	579.98
423.864	567.78
424.241	577.72
424.617	584.73
424.994	610.72
425.37	597.16
425.746	604.62
426.123	607.55
426.499	621.79
426.875	606.2
427.251	637.61
427.627	625.86
428.003	618.4
428.379	621.34
428.756	635.58
429.132	647.55
429.507	634.67
429.883	651.85
430.259	632.41
430.635	670.38
431.011	666.76
431.387	687.33
431.763	685.29
432.138	661.79
432.514	699.76
432.89	702.24
433.265	700.21
433.641	708.34
434.016	709.25
434.392	722.81
434.767	736.14
435.143	729.36
435.518	723.03
435.894	727.78
436.269	727.78
436.644	759.42
437.02	769.58
437.395	780.43
437.77	782.24
438.145	791.96
438.52	796.7
438.895	776.59
439.271	769.81
439.646	787.21
440.021	803.71
440.395	811.39
440.77	808
441.145	809.36
441.52	824.05
441.895	839.41
442.27	825.18
442.645	841.67
443.019	847.32
443.394	850.94
443.769	850.94
444.143	867.66
444.518	852.75
444.892	862.24
445.267	887.1
445.641	886.64
446.016	892.52
446.39	907.43
446.764	880.09
447.139	898.39
447.513	913.99
447.887	931.16
448.262	921.22
448.636	914.89
449.01	932.07
449.384	918.28
449.758	939.75
450.132	965.29
450.506	984.04
450.88	960.09
451.254	970.71
451.628	963.25
452.002	998.73
452.376	1008
452.75	1012.06
453.123	1020.65
453.497	1059.07
453.871	1036.02
454.244	1059.97
454.618	1048.22
454.992	1076.92
455.365	1078.5
455.739	1081.89
456.112	1090.25
456.486	1102.23
456.859	1130.03
457.232	1145.85
457.606	1157.37
457.979	1142.68
458.352	1187.65
458.725	1208.89
459.099	1199.63
459.472	1231.27
459.845	1238.05
460.218	1226.07
460.591	1246.86
460.964	1256.58
461.337	1307.88
461.71	1297.71
462.083	1336.58
462.456	1346.07
462.829	1321.66
463.201	1352.17
463.574	1369.12
463.947	1390.13
464.32	1419.96
464.692	1455.67
465.065	1450.24
465.438	1482.11
465.81	1498.83
466.183	1470.81
466.555	1541.09
466.928	1561.2
467.3	1599.17
467.672	1625.16
468.045	1622.9
468.417	1656.79
468.789	1682.1
469.161	1688.66
469.534	1723.01
469.906	1781.54
470.278	1810.69
470.65	1825.83
471.022	1887.07
471.394	1901.31
471.766	1964.81
472.138	1944.69
472.51	1992.38
472.882	2060.85
473.253	2085.03
473.625	2139.04
473.997	2204.57
474.369	2224.46
474.74	2261.97
475.112	2293.39
475.484	2382.88
475.855	2424
476.227	2485.7
476.598	2546.71
476.97	2643.21
477.341	2671
477.713	2731.57
478.084	2767.05
478.455	2903.99
478.827	2973.82
479.198	3058.34
479.569	3083.65
479.94	3239.12
480.311	3238.67
480.682	3378.78
481.053	3515.27
481.424	3572.22
481.795	3638.66
482.166	3741.03
482.537	3800.01
482.908	3949.84
483.279	4032.78
483.65	4124.98
484.021	4312.99
484.391	4366.33
484.762	4461.24
485.133	4574
485.503	4691.97
485.874	4860.55
486.244	4994.78
486.615	5122.01
486.985	5250.6
487.356	5393.19
487.726	5532.85
488.097	5632.06
488.467	5693.52
488.837	5910.92
489.207	6037.92
489.578	6233.17
489.948	6319.04
490.318	6448.08
490.688	6534.18
491.058	6771.69
491.428	6927.16
491.798	7056.2
492.168	7237.21
492.538	7345
492.908	7464.32
493.278	7648.5
493.648	7783.64
494.017	7938.21
494.387	8051.88
494.757	8165.55
495.126	8357.86
495.496	8450.29
495.866	8610.06
496.235	8737.96
496.605	8914.91
496.974	9015.24
497.344	9177.27
497.713	9257.27
498.082	9413.65
498.452	9555.34
498.821	9624.27
499.19	9752.4
499.559	9885.05
499.928	9968.66
500.298	10160.3
500.667	10331.37
501.036	10303.57
501.405	10465.37
501.774	10524.36
502.143	10649.55
502.512	10748.53
502.88	10854.97
503.249	10945.14
503.618	11028.75
503.987	11178.8
504.356	11188.97
504.724	11338.12
505.093	11422.41
505.462	11494.95
505.83	11661.95
506.199	11694.49
506.567	11954.37
506.936	11785.11
507.304	11939.01
507.672	12132.45
508.041	12129.51
508.409	12197.53
508.777	12328.15
509.145	12393.01
509.514	12468.03
509.882	12476.62
510.25	12478.2
510.618	12629.61
510.986	12748.93
511.354	12775.37
511.722	12905.99
512.09	12990.73
512.458	13032.76
512.826	13140.78
513.193	13241.35
513.561	13202.48
513.929	13264.62
514.297	13348.91
514.664	13390.72
515.032	13497.39
515.4	13474.11
515.767	13512.07
516.135	13620.55
516.502	13470.95
516.869	13748.45
517.237	13749.81
517.604	13781.67
517.972	13865.29
518.339	13920.88
518.706	13817.83
519.073	13971.5
519.44	14003.13
519.808	14177.14
520.175	14018.28
520.542	14155.9
520.909	14191.15
521.276	14183.92
521.643	14216.01
522.009	14342.79
522.376	14344.59
522.743	14390.47
523.11	14471.6
523.477	14589.56
523.843	14545.95
524.21	14734.87
524.577	14769.44
524.943	14806.05
525.31	14721.08
525.676	14856.9
526.043	14846.05
526.409	14846.95
526.776	14990.91
527.142	14966.5
527.508	14912.26
527.874	15126.49
528.241	15029.55
528.607	15055.99
528.973	15121.07
529.339	15047.17
529.705	15027.97
530.071	15166.95
530.437	15198.58
530.803	15158.13
531.169	15187.96
531.535	15124.69
531.901	15042.88
532.267	15112.26
532.632	15145.03
532.998	15183.22
533.364	15193.61
533.73	15162.88
534.095	15210.33
534.461	15166.95
534.826	15241.52
535.192	15200.84
535.557	15194.52
535.923	15152.71
536.288	15204.91
536.653	15164.91
537.019	14990.91
537.384	15111.13
537.749	15075.42
538.114	14973.5
538.479	14994.07
538.845	14944.35
539.21	14958.14
539.575	14905.26
539.94	14890.57
540.305	14926.95
540.67	14785.71
541.034	14851.02
541.399	14812.38
541.764	14800.85
542.129	14688.99
542.494	14646.51
542.858	14789.78
543.223	14634.76
543.587	14647.41
543.952	14575.32
544.316	14606.28
544.681	14540.52
545.045	14563.8
545.41	14522.44
545.774	14475.21
546.138	14449.22
546.503	14433.18
546.867	14337.36
547.231	14358.61
547.595	14314.09
547.959	14270.02
548.324	14264.14
548.688	14131.49
549.052	14268.44
549.416	14207.88
549.779	14130.59
550.143	14135.11
550.507	14141.66
550.871	14073.19
551.235	13994.77
551.599	14037.26
551.962	13987.32
552.326	14027.77
552.689	14065.51
553.053	13991.84
553.417	13938.05
553.78	14022.57
554.143	13864.83
554.507	13861.67
554.87	13841.56
555.234	14005.39
555.597	13760.88
555.96	13767.89
556.323	13812.63
556.686	13716.36
557.05	13750.03
557.413	13800.65
557.776	13655.35
558.139	13804.5
558.502	13761.33
558.865	13689.24
559.228	13767.66
559.59	13725.4
559.953	13700.54
560.316	13772.41
560.679	13743.71
561.041	13777.38
561.404	13770.37
561.767	13808.11
562.129	13663.48
562.492	13827.55
562.854	13815.57
563.217	13640.43
563.579	13769.24
563.941	13867.77
564.304	13833.65
564.666	13847.66
565.028	13855.34
565.39	13858.96
565.753	13884.95
566.115	13828.68
566.477	13961.78
566.839	13850.6
567.201	13876.13
567.563	13915.45
567.925	13948.67
568.287	13886.08
568.648	13904.15
569.01	13907.54
569.372	14033.42
569.734	13985.06
570.095	14043.13
570.457	14093.98
570.819	14044.26
571.18	14067.09
571.542	14134.88
571.903	13985.51
572.265	14112.51
572.626	14117.03
572.987	14074.55
573.349	14099.18
573.71	14103.02
574.071	14139.85
574.432	14166.75
574.794	14213.07
575.155	14171.94
575.516	14109.35
575.877	14218.95
576.238	14187.76
576.599	14115.9
576.96	14221.66
577.32	14254.65
577.681	14254.65
578.042	14187.76
578.403	14218.04
578.763	14152.06
579.124	14160.64
579.485	14208.33
579.845	14305.73
580.206	14242.22
580.566	14233.19
580.927	14165.16
581.287	14226.41
581.648	14209.91
582.008	14282
582.368	14204.71
582.728	14242.22
583.089	14199.97
583.449	14277.25
583.809	14199.97
584.169	14223.02
584.529	14089.91
584.889	14265.5
585.249	14141.66
585.609	14112.74
585.969	14164.71
586.329	14158.38
586.688	14141.21
587.048	14123.13
587.408	14053.3
587.768	14159.29
588.127	14014.43
588.487	14010.59
588.846	14118.16
589.206	14001.1
589.565	14003.13
589.925	14072.29
590.284	14100.99
590.643	13980.08
591.003	14080.87
591.362	14015.34
591.721	14058.27
592.08	14000.65
592.44	13974.21
592.799	13988.45
593.158	13943.7
593.517	13962.91
593.876	13952.74
594.235	13934.21
594.593	13933.76
594.952	13961.78
595.311	13835
595.67	13834.78
596.029	14072.74
596.387	13964.27
596.746	14003.36
597.104	13813.76
597.463	13869.35
597.822	13887.43
598.18	13885.4
598.538	13865.96
598.897	13954.1
599.255	13880.2
599.613	14008.33
599.972	13858.96
600.33	13899.41
600.688	13839.98
601.046	13913.42
601.404	13879.07
601.762	13839.75
602.12	13972.63
602.478	13945.74
602.836	13870.03
603.194	13829.13
603.552	13806.76
603.91	13806.08
604.268	13943.7
604.625	13803.59
604.983	13924.27
605.341	13841.56
605.698	13875.23
606.056	13849.92
606.413	13854.89
606.771	13956.58
607.128	13889.69
607.485	13847.88
607.843	13775.34
608.2	13873.42
608.557	13905.06
608.914	13852.18
609.272	13944.61
609.629	13916.81
609.986	13940.09
610.343	13935.34
610.7	13986.64
611.057	14032.06
611.414	14033.42
611.771	13945.74
612.127	13939.41
612.484	14071.61
612.841	14025.28
613.198	14064.38
613.554	13997.26
613.911	14093.53
614.267	14069.57
614.624	14015.56
614.98	14153.41
615.337	14120.65
615.693	14053.08
616.05	14086.52
616.406	14138.27
616.762	14059.4
617.118	14149.12
617.475	14099.63
617.831	14227.31
618.187	14102.57
618.543	14121.1
618.899	14264.37
619.255	14174.66
619.611	14268.89
619.967	14221.66
620.323	14232.28
620.678	14174.66
621.034	14131.49
621.39	14236.8
621.746	14274.54
622.101	14319.06
622.457	14179.4
622.812	14244.94
623.168	14314.76
623.523	14234.31
623.879	14260.53
624.234	14183.69
624.589	14292.62
624.945	14254.43
625.3	14206.07
625.655	14324.03
626.01	14212.17
626.365	14287.87
626.72	14313.41
627.075	14197.03
627.43	14274.09
627.785	14194.32
628.14	14228.21
628.495	14176.24
628.85	14216.91
629.205	14139.85
629.559	14223.92
629.914	14163.36
630.269	14201.77
630.623	14078.16
630.978	14082.68
631.332	14144.6
631.687	14144.6
632.041	14133.07
632.396	14073.42
632.75	13966.07
633.104	14080.42
633.459	14017.6
633.813	14025.28
634.167	14030.48
634.521	14060.08
634.875	14043.81
635.229	13984.15
635.583	13884.27
635.937	13941.89
636.291	13906.87
636.645	13864.61
636.999	13815.12
637.352	13828.68
637.706	13811.5
638.06	13896.24
638.413	13883.36
638.767	13787.55
639.121	13882.91
639.474	13775.57
639.828	13762.69
640.181	13752.29
640.534	13764.27
640.888	13734.22
641.241	13655.12
641.594	13674.33
641.947	13736.02
642.301	13638.62
642.654	13591.17
643.007	13740.54
643.36	13664.39
643.713	13678.17
644.066	13687.44
644.419	13522.24
644.771	13436.82
645.124	13451.51
645.477	13294.9
645.83	13211.74
646.182	13198.86
646.535	13191.18
646.888	13260.56
647.24	13145.76
647.593	13197.05
647.945	13165.42
648.298	13155.47
648.65	13137.39
649.002	13165.42
649.355	13143.72
649.707	13110.73
650.059	13223.49
650.411	13312.31
650.763	13315.47
651.115	13408.57
651.467	13378.52
651.819	13403.38
652.171	13406.54
652.523	13425.3
652.875	13439.76
653.227	13350.27
653.578	13393.21
653.93	13443.83
654.282	13453.09
654.633	13307.79
654.985	13447.22
655.337	13410.83
655.688	13501.9
656.039	13453.54
656.391	13399.99
656.742	13426.65
657.094	13411.74
657.445	13476.37
657.796	13453.54
658.147	13422.58
658.498	13395.47
658.849	13456.26
659.2	13393.43
659.551	13452.64
659.902	13524.05
660.253	13378.52
660.604	13478.85
660.955	13399.76
661.306	13441.57
661.656	13461.45
662.007	13440.89
662.358	13530.15
662.708	13518.18
663.059	13516.37
663.409	13390.27
663.76	13528.34
664.11	13484.5
664.461	13494.22
664.811	13510.94
665.161	13559.08
665.511	13501
665.862	13548.68
666.212	13547.78
666.562	13529.25
666.912	13519.98
667.262	13473.43
667.612	13525.18
667.962	13551.85
668.312	13473.21
668.662	13508.91
669.011	13517.72
669.361	13485.18
669.711	13436.14
670.06	13505.75
670.41	13514.56
670.76	13446.54
671.109	13507.78
671.459	13445.41
671.808	13499.65
672.157	13498.52
672.507	13414.22
672.856	13391.85
673.205	13359.76
673.554	13361.8
673.904	13390.04
674.253	13499.65
674.602	13388.46
674.951	13225.3
675.3	13094.91
675.649	13312.98
675.998	13336.03
676.346	13298.29
676.695	13347.78
677.044	13203.16
677.393	13304.62
677.741	13258.3
678.09	13256.26
678.438	13191.63
678.787	13179.2
679.135	13203.83
679.484	13156.15
679.832	13189.6
680.181	13075.93
680.529	13123.61
680.877	13032.09
681.225	13080
681.573	13146.89
681.922	13104.18
682.27	13029.83
682.618	12995.7
682.966	12994.8
683.314	12989.6
683.661	12908.7
684.009	12856.72
684.357	12836.84
684.705	12735.15
685.053	12783.05
685.4	12832.32
685.748	12663.96
686.095	12682.72
686.443	12692.66
686.79	12583.74
687.138	12666.67
687.485	12648.82
687.832	12520.01
688.18	12642.04
688.527	12453.34
688.874	12524.98
689.221	12399.11
689.568	12404.53
689.915	12369.96
690.262	12425.77
690.609	12359.11
690.956	12224.42
691.303	12191.66
691.65	12187.14
691.997	12209.51
692.344	12115.5
692.69	12142.62
693.037	12087.93
693.383	11952.57
693.73	11992.57
694.077	11961.83
694.423	11938.1
694.769	11888.84
695.116	11851.1
695.462	11836.19
695.808	11767.71
696.155	11770.88
696.501	11628.73
696.847	11695.85
697.193	11485.01
697.539	11630.99
697.885	11514.84
698.231	11393.94
698.577	11385.58
698.923	11416.31
699.269	11337.89
699.614	11256.31
699.96	11232.13
700.306	11273.26
700.651	11173.15
700.997	11121.85
701.342	11092.7
701.688	11017.68
702.033	11108.52
702.379	11023.33
702.724	10953.95
703.069	10917.57
703.415	10805.25
703.76	10801.86
704.105	10821.52
704.45	10787.17
704.795	10700.62
705.14	10711.24
705.485	10704.24
705.83	10581.3
706.175	10632.15
706.52	10539.5
706.865	10520.97
707.209	10516.45
707.554	10523.9
707.899	10539.5
708.243	10354.19
708.588	10470.8
708.932	10332.27
709.277	10306.73
709.621	10288.43
709.966	10311.03
710.31	10277.81
710.654	10206.62
710.998	10247.75
711.342	10240.07
711.687	10150.58
712.031	10142.22
712.375	10014.31
712.719	10129.56
713.063	10010.92
713.407	10102.9
713.75	10043.24
714.094	10051.6
714.438	9991.94
714.782	9960.98
715.125	9920.08
715.469	9900.42
715.812	9860.19
716.156	9776.35
716.499	9824.26
716.843	9889.57
717.186	9778.16
717.53	9798.27
717.873	9814.54
718.216	9780.19
718.559	9750.82
718.902	9671.95
719.246	9697.03
719.589	9686.41
719.932	9676.02
720.275	9638.05
720.617	9690.03
720.96	9649.58
721.303	9560.09
721.646	9692.51
721.989	9589.69
722.331	9612.06
722.674	9598.96
723.016	9556.25
723.359	9547.88
723.701	9570.03
724.044	9503.82
724.386	9465.63
724.729	9526.19
725.071	9482.12
725.413	9535.23
725.755	9502.01
726.097	9460.66
726.439	9366.42
726.782	9443.03
727.124	9451.84
727.465	9484.61
727.807	9434.22
728.149	9448.9
728.491	9356.48
728.833	9432.86
729.175	9401.67
729.516	9377.72
729.858	9404.16
730.199	9377.95
730.541	9295.24
730.882	9373.88
731.224	9419.98
731.565	9398.74
731.906	9335.91
732.248	9387.44
732.589	9300.66
732.93	9320.55
733.271	9334.33
733.612	9396.7
733.953	9328
734.294	9337.95
734.635	9310.83
734.976	9312.18
735.317	9296.82
735.658	9327.1
735.999	9313.99
736.339	9325.07
736.68	9384.95
737.021	9407.78
737.361	9384.95
737.702	9393.09
738.042	9378.62
738.383	9395.12
738.723	9465.17
739.063	9390.15
739.404	9443.93
739.744	9407.78
740.084	9408.23
740.424	9477.83
740.764	9460.88
741.104	9518.28
741.444	9497.94
741.784	9452.52
742.124	9561.9
742.464	9517.6
742.804	9514.44
743.143	9545.62
743.483	9634.66
743.823	9606.41
744.162	9605.74
744.502	9667.88
744.841	9662.91
745.181	9728.22
745.52	9742
745.86	9793.98
746.199	9875.33
746.538	9862.68
746.877	9995.33
747.216	9958.27
747.556	10028.78
747.895	10095.67
748.234	10024.48
748.573	10110.81
748.911	10177.25
749.25	10285.27
749.589	10296.57
749.928	10432.16
750.267	10518.71
750.605	10495.66
750.944	10526.39
751.283	10636.44
751.621	10737.91
751.96	10832.6
752.298	10923.22
752.636	11032.14
752.975	11149.2
753.313	11221.51
753.651	11391.68
753.989	11576.76
754.327	11598.23
754.666	11660.6
755.004	11894.26
755.342	11960.93
755.679	12096.29
756.017	12235.95
756.355	12406.34
756.693	12509.16
757.031	12688.59
757.368	12811.98
757.706	12894.92
758.044	13106.89
758.381	13326.54
