Data from hue_240_FLMS001491_00006.txt Node
Date: Tue Feb 07 16:34:59 GMT 2017
User: dcchb
Spectrometer: FLMS00149
Trigger mode: 0
Integration Time (sec): 2.000000E-2
Scans to average: 10
Electric dark correction enabled: true
Nonlinearity correction enabled: false
Boxcar width: 0
XAxis mode: Wavelengths
Number of Pixels in Spectrum: 2048
>>>>>Begin Spectral Data<<<<<
341.393	-31.76
341.776	-31.76
342.16	-31.76
342.543	-51.65
342.927	-51.43
343.31	-86.45
343.693	-63.18
344.077	-65.89
344.46	-60.69
344.843	-47.36
345.226	-23.63
345.61	-37.87
345.993	-24.76
346.376	-4.19
346.759	4.39
347.142	9.36
347.525	45.07
347.908	57.27
348.291	85.97
348.674	82.58
349.057	129.36
349.44	126.2
349.823	124.62
350.206	142.02
350.588	182.92
350.971	202.81
351.354	197.38
351.737	234.67
352.119	240.54
352.502	251.17
352.884	254.78
353.267	275.12
353.65	269.47
354.032	297.04
354.414	304.5
354.797	293.2
355.179	317.83
355.562	308.79
355.944	321.67
356.326	325.29
356.709	319.64
357.091	323.48
357.473	344.95
357.855	329.81
358.238	337.49
358.62	339.3
359.002	313.76
359.384	326.19
359.766	330.94
360.148	350.82
360.53	323.25
360.912	314.44
361.294	321.45
361.676	311.5
362.057	330.49
362.439	320.99
362.821	326.19
363.203	318.73
363.584	314.44
363.966	318.28
364.348	286.42
364.729	305.63
365.111	309.47
365.493	309.02
365.874	297.04
366.256	306.08
366.637	304.05
367.019	295.23
367.4	307.89
367.781	296.81
368.163	300.66
368.544	285.97
368.925	303.37
369.306	320.99
369.688	297.72
370.069	295.01
370.45	302.46
370.831	306.76
371.212	309.7
371.593	298.62
371.974	289.81
372.355	306.08
372.736	288.9
373.117	308.34
373.498	300.66
373.879	315.8
374.26	301.79
374.641	316.02
375.021	296.81
375.402	300.88
375.783	318.51
376.163	315.34
376.544	309.47
376.925	315.12
377.305	319.19
377.686	323.93
378.066	311.73
378.447	304.72
378.827	313.08
379.208	322.58
379.588	320.54
379.968	322.8
380.349	324.16
380.729	301.79
381.109	316.47
381.489	322.58
381.87	335.68
382.25	324.61
382.63	318.28
383.01	328.9
383.39	336.14
383.77	332.52
384.15	318.73
384.53	322.58
384.91	351.5
385.29	324.61
385.67	333.65
386.049	353.31
386.429	332.75
386.809	356.02
387.189	349.69
387.568	331.16
387.948	363.71
388.328	358.06
388.707	351.73
389.087	346.3
389.466	339.75
389.846	372.07
390.225	369.58
390.605	353.76
390.984	360.77
391.363	357.38
391.743	340.88
392.122	374.78
392.501	343.59
392.881	368.68
393.26	359.19
393.639	366.42
394.018	356.7
394.397	353.76
394.776	375.46
395.155	375.23
395.534	372.74
395.913	372.07
396.292	402.57
396.671	371.61
397.05	391.95
397.429	382.01
397.808	379.75
398.186	389.92
398.565	391.05
398.944	400.77
399.323	385.4
399.701	401.67
400.08	392.86
400.458	393.99
400.837	412.74
401.215	385.63
401.594	414.1
401.972	413.2
402.351	419.07
402.729	411.61
403.107	424.27
403.486	427.88
403.864	419.3
404.242	422.69
404.62	436.7
404.999	419.07
405.377	445.51
405.755	424.95
406.133	445.06
406.511	432.63
406.889	438.28
407.267	452.97
407.645	457.71
408.023	454.32
408.401	472.4
408.779	462.69
409.156	457.94
409.534	484.83
409.912	481.89
410.29	487.09
410.667	506.53
411.045	501.78
411.422	485.51
411.8	506.75
412.178	516.92
412.555	499.52
412.933	518.5
413.31	519.86
413.687	535.23
414.065	552.17
414.442	552.4
414.819	552.85
415.197	555.11
415.574	551.95
415.951	562.8
416.328	574.55
416.705	601.44
417.082	612.29
417.46	615.9
417.837	604.83
418.214	593.98
418.591	613.42
418.967	619.97
419.344	649.8
419.721	661.78
420.098	649.57
420.475	645.05
420.852	668.78
421.228	656.13
421.605	668.56
421.982	688.67
422.358	683.02
422.735	695
423.111	702.23
423.488	721.44
423.864	723.47
424.241	735.22
424.617	749.23
424.994	738.61
425.37	769.8
425.746	761.66
426.123	788.78
426.499	788.78
426.875	784.71
427.251	815.44
427.627	819.96
428.003	828.33
428.379	838.04
428.756	829.46
429.132	856.12
429.507	867.42
429.883	885.27
430.259	886.18
430.635	883.24
431.011	894.99
431.387	907.42
431.763	915.56
432.138	933.18
432.514	943.12
432.89	949.68
433.265	992.16
433.641	1020.19
434.016	1013.41
434.392	1014.54
434.767	1045.27
435.143	1054.31
435.518	1033.52
435.894	1064.7
436.269	1079.39
436.644	1099.05
437.02	1115.32
437.395	1115.55
437.77	1164.14
438.145	1160.75
438.52	1184.25
438.895	1193.51
439.271	1188.32
439.646	1205.26
440.021	1243
440.395	1232.16
440.77	1221.99
441.145	1252.04
441.52	1276
441.895	1294.98
442.27	1309.67
442.645	1295.43
443.019	1309.44
443.394	1344.24
443.769	1354.87
444.143	1328.2
444.518	1373.62
444.892	1393.28
445.267	1387.41
445.641	1377.92
446.016	1380.18
446.39	1412.94
446.764	1406.84
447.139	1427.63
447.513	1469.66
447.887	1436.9
448.262	1459.04
448.636	1481.42
449.01	1470.57
449.384	1504.47
449.758	1510.79
450.132	1539.49
450.506	1520.51
450.88	1555.09
451.254	1538.82
451.628	1559.38
452.002	1598.25
452.376	1593.28
452.75	1619.72
453.123	1588.08
453.497	1636.89
453.871	1642.54
454.244	1682.54
454.618	1685.93
454.992	1695.2
455.365	1706.04
455.739	1704.91
456.112	1784.91
456.486	1735.65
456.859	1766.61
457.232	1792.14
457.606	1785.81
457.979	1839.37
458.352	1884.34
458.725	1897.9
459.099	1901.29
459.472	1943.55
459.845	1931.12
460.218	1957.11
460.591	1943.55
460.964	1996.43
461.337	2008.18
461.71	2024
462.083	2061.97
462.456	2063.55
462.829	2075.07
463.201	2105.35
463.574	2130.44
463.947	2157.1
464.32	2181.74
464.692	2198.01
465.065	2201.17
465.438	2274.62
465.81	2275.52
466.183	2298.57
466.555	2345.57
466.928	2386.7
467.3	2338.79
467.672	2377.21
468.045	2422.18
468.417	2453.82
468.789	2450.88
469.161	2472.8
469.534	2535.85
469.906	2590.99
470.278	2589.18
470.65	2653.14
471.022	2670.54
471.394	2679.12
471.766	2713.47
472.138	2743.08
472.51	2802.06
472.882	2839.8
473.253	2846.13
473.625	2877.31
473.997	2933.81
474.369	2985.78
474.74	3004.54
475.112	3074.14
475.484	3088.15
475.855	3113.46
476.227	3185.1
476.598	3214.03
476.97	3258.54
477.341	3261.26
477.713	3337.86
478.084	3401.37
478.455	3441.36
478.827	3473.45
479.198	3566.78
479.569	3570.85
479.94	3615.37
480.311	3670.96
480.682	3741.24
481.053	3760.45
481.424	3870.96
481.795	3898.3
482.166	3922.03
482.537	3966.77
482.908	4050.16
483.279	4050.16
483.65	4131.52
484.021	4217.62
484.391	4241.34
484.762	4295.58
485.133	4327.89
485.503	4331.28
485.874	4461.68
486.244	4493.77
486.615	4560.43
486.985	4574.67
487.356	4701.22
487.726	4700.09
488.097	4746.87
488.467	4833.42
488.837	4888.78
489.207	4923.13
489.578	5036.35
489.948	5000.19
490.318	5056.69
490.688	5109.34
491.058	5131.49
491.428	5229.34
491.798	5244.71
492.168	5396.12
492.538	5367.87
492.908	5399.05
493.278	5476.34
493.648	5461.42
494.017	5533.06
494.387	5562.66
494.757	5625.04
495.126	5662.55
495.496	5685.6
495.866	5688.76
496.235	5775.09
496.605	5748.65
496.974	5792.04
497.344	5894.41
497.713	5875.88
498.082	5909.55
498.452	6006.72
498.821	6027.51
499.19	5997.68
499.559	6002.88
499.928	5994.07
500.298	6059.6
500.667	6175.3
501.036	6104.35
501.405	6190.22
501.774	6195.42
502.143	6180.73
502.512	6224.79
502.88	6233.83
503.249	6307.73
503.618	6316.09
503.987	6375.3
504.356	6335.98
504.724	6398.12
505.093	6364.23
505.462	6366.71
505.83	6431.57
506.199	6468.4
506.567	6488.06
506.936	6534.16
507.304	6539.81
507.672	6585.69
508.041	6645.57
508.409	6601.28
508.777	6664.78
509.145	6732.35
509.514	6721.5
509.882	6775.97
510.25	6788.85
510.618	6741.62
510.986	6787.49
511.354	6877.88
511.722	6866.58
512.09	6862.07
512.458	6872.69
512.826	6914.72
513.193	6923.76
513.561	6928.5
513.929	6927.15
514.297	6994.27
514.664	6987.03
515.032	7055.05
515.4	7065
515.767	7012.12
516.135	7013.7
516.502	7040.59
516.869	7121.04
517.237	7117.43
517.604	7086.24
517.972	7130.98
518.339	7172.57
518.706	7171.44
519.073	7169.18
519.44	7191.1
519.808	7248.72
520.175	7165.79
520.542	7274.03
520.909	7214.37
521.276	7263.18
521.643	7302.05
522.009	7369.4
522.376	7356.52
522.743	7344.09
523.11	7418.43
523.477	7406.91
523.843	7420.02
524.21	7496.4
524.577	7530.07
524.943	7513.35
525.31	7513.57
525.676	7594.7
526.043	7583.85
526.409	7575.72
526.776	7669.95
527.142	7619.33
527.508	7684.19
527.874	7664.76
528.241	7735.04
528.607	7649.16
528.973	7673.34
529.339	7684.87
529.705	7710.4
530.071	7755.15
530.437	7766.67
530.803	7769.61
531.169	7774.36
531.535	7779.78
531.901	7795.37
532.267	7801.02
532.632	7811.42
532.998	7832.21
533.364	7827.92
533.73	7850.51
534.095	7807.13
534.461	7836.73
534.826	7839.44
535.192	7821.36
535.557	7902.94
535.923	7866.11
536.288	7826.56
536.653	7846.67
537.019	7866.33
537.384	7786.33
537.749	7882.38
538.114	7796.28
538.479	7783.17
538.845	7779.56
539.21	7773
539.575	7774.58
539.94	7816.62
540.305	7823.4
540.67	7812.1
541.034	7808.26
541.399	7803.74
541.764	7799.22
542.129	7745.43
542.494	7779.33
542.858	7762.61
543.223	7782.95
543.587	7734.58
543.952	7747.01
544.316	7705.21
544.681	7666.34
545.045	7772.1
545.41	7701.37
545.774	7723.51
546.138	7708.6
546.503	7691.42
546.867	7663.17
547.231	7736.39
547.595	7667.92
547.959	7636.28
548.324	7645.1
548.688	7668.82
549.052	7626.57
549.416	7684.42
549.779	7671.31
550.143	7648.49
550.507	7638.54
550.871	7647.13
551.235	7577.07
551.599	7699.56
551.962	7650.52
552.326	7599.22
552.689	7705.88
553.053	7570.07
553.417	7582.72
553.78	7737.3
554.143	7603.97
554.507	7699.56
554.87	7645.55
555.234	7689.84
555.597	7661.14
555.96	7650.97
556.323	7703.63
556.686	7626.34
557.05	7659.11
557.413	7681.93
557.776	7702.95
558.139	7638.77
558.502	7657.75
558.865	7726
559.228	7697.75
559.59	7707.24
559.953	7694.81
560.316	7798.54
560.679	7820.23
561.041	7757.41
561.404	7779.33
561.767	7782.49
562.129	7769.16
562.492	7892.32
562.854	7781.36
563.217	7830.18
563.579	7803.96
563.941	7928.7
564.304	7934.35
564.666	7929.16
565.028	7914.69
565.39	7966.22
565.753	7992.21
566.115	7994.24
566.477	7999.44
566.839	8023.16
567.201	8013.9
567.563	8015.71
567.925	8062.49
568.287	8090.06
568.648	8091.41
569.01	8120.11
569.372	8154.46
569.734	8068.14
570.095	8167.34
570.457	8168.25
570.819	8184.74
571.18	8190.39
571.542	8215.48
571.903	8302.93
572.265	8322.59
572.626	8292.99
572.987	8286.21
573.349	8367.34
573.71	8337.51
574.071	8343.16
574.432	8329.37
574.794	8442.81
575.155	8447.33
575.516	8447.11
575.877	8404.62
576.238	8476.71
576.599	8476.71
576.96	8532.3
577.32	8554
577.681	8538.18
578.042	8604.17
578.403	8578.4
578.763	8636.48
579.124	8538.41
579.485	8584.73
579.845	8630.38
580.206	8615.92
580.566	8689.14
580.927	8680.77
581.287	8714.67
581.648	8663.83
582.008	8715.58
582.368	8767.55
582.728	8745.86
583.089	8722.13
583.449	8774.11
583.809	8787.21
584.169	8826.31
584.529	8784.05
584.889	8874.44
585.249	8787.89
585.609	8831.28
585.969	8884.16
586.329	8892.29
586.688	8890.71
587.048	8853.65
587.408	8835.8
587.768	8879.41
588.127	8908.79
588.487	8875.57
588.846	8898.85
589.206	8834.67
589.565	8890.94
589.925	8965.06
590.284	8933.42
590.643	8945.85
591.003	8977.49
591.362	8999.18
591.721	9002.35
592.08	8982.46
592.44	9003.93
592.799	9046.41
593.158	9088
593.517	8998.28
593.876	9034.89
594.235	9030.14
594.593	9073.31
594.952	9103.14
595.311	9061.33
595.67	9049.13
596.029	9113.31
596.387	9120.54
596.746	9117.83
597.104	9098.39
597.463	9098.39
597.822	9158.28
598.18	9092.74
598.538	9148.78
598.897	9235.11
599.255	9091.84
599.613	9162.12
599.972	9180.65
600.33	9214.77
600.688	9190.82
601.046	9202.12
601.404	9156.92
601.762	9199.41
602.12	9218.61
602.478	9235.34
602.836	9245.28
603.194	9256.58
603.552	9254.09
603.91	9219.29
604.268	9233.53
604.625	9174.77
604.983	9223.13
605.341	9230.82
605.698	9267.2
606.056	9252.74
606.413	9322.34
606.771	9215.45
607.128	9299.52
607.485	9255.9
607.843	9322.34
608.2	9343.81
608.557	9358.04
608.914	9292.96
609.272	9335.22
609.629	9361.43
609.986	9439.4
610.343	9328.22
610.7	9411.83
611.057	9349.68
611.414	9431.26
611.771	9384.71
612.127	9425.61
612.484	9429.46
612.841	9462.45
613.198	9450.02
613.554	9435.78
613.911	9529.79
614.267	9443.47
614.624	9423.13
614.98	9457.93
615.337	9522.79
615.693	9533.41
616.05	9483.01
616.406	9476.69
616.762	9447.31
617.118	9538.15
617.475	9503.58
617.831	9539.51
618.187	9571.37
618.543	9609.34
618.899	9642.78
619.255	9555.33
619.611	9557.59
619.967	9579.28
620.323	9594.2
620.678	9649.34
621.034	9542.22
621.39	9559.85
621.746	9554.88
622.101	9675.78
622.457	9618.6
622.812	9607.76
623.168	9594.42
623.523	9626.29
623.879	9710.13
624.234	9550.81
624.589	9623.8
624.945	9598.26
625.3	9602.11
625.655	9632.61
626.01	9639.62
626.365	9633.07
626.72	9623.8
627.075	9618.38
627.43	9566.85
627.785	9578.6
628.14	9599.17
628.495	9585.16
628.85	9582.9
629.205	9487.08
629.559	9547.64
629.914	9558.72
630.269	9520.98
630.623	9531.37
630.978	9513.75
631.332	9516.91
631.687	9589.45
632.041	9483.69
632.396	9490.47
632.75	9418.16
633.104	9471.49
633.459	9408.21
633.813	9428.1
634.167	9451.6
634.521	9434.43
634.875	9482.11
635.229	9456.12
635.583	9392.17
635.937	9378.84
636.291	9355.33
636.645	9374.77
636.999	9370.47
637.352	9349.23
637.706	9378.84
638.06	9306.75
638.413	9307.65
638.767	9277.14
639.121	9292.28
639.474	9260.42
639.828	9235.56
640.181	9252.74
640.534	9268.33
640.888	9257.93
641.241	9196.47
641.594	9288.22
641.947	9254.32
642.301	9228.56
642.654	9278.5
643.007	9222.68
643.36	9160.08
643.713	9240.53
644.066	9233.08
644.419	9160.54
644.771	9036.25
645.124	8975.23
645.477	8923.03
645.83	8945.17
646.182	8909.92
646.535	8843.93
646.888	8873.76
647.24	8850.49
647.593	8968.68
647.945	8825.18
648.298	8877.61
648.65	8865.85
649.002	8791.73
649.355	8845.74
649.707	8818.62
650.059	8832.63
650.411	8945.85
650.763	8972.74
651.115	9052.06
651.467	9029.24
651.819	8981.78
652.171	9057.26
652.523	9003.48
652.875	9077.83
653.227	8942.69
653.578	8980.2
653.93	9099.97
654.282	9018.84
654.633	8962.35
654.985	8980.65
655.337	9010.26
655.688	8992.4
656.039	8994.89
656.391	8926.87
656.742	8996.7
657.094	8957.15
657.445	9013.65
657.796	9055.68
658.147	8941.78
658.498	8990.37
658.849	9084.15
659.2	8955.8
659.551	9017.49
659.902	8976.13
660.253	8943.82
660.604	9038.51
660.955	8901.11
661.306	8978.85
661.656	9017.49
662.007	8946.76
662.358	8968
662.708	8980.43
663.059	8947.89
663.409	8963.03
663.76	9032.63
664.11	8965.29
664.461	8957.15
664.811	8999.64
665.161	8982.24
665.511	9000.99
665.862	8977.26
666.212	9027.66
666.562	9039.18
666.912	8989.47
667.262	9001.67
667.612	8945.63
667.962	9000.09
668.312	9000.09
668.662	9031.05
669.011	8993.31
669.361	8920.99
669.711	8965.96
670.06	8912.18
670.41	8979.52
670.76	8862.24
671.109	8918.51
671.459	8977.94
671.808	8911.05
672.157	8914.89
672.507	8902.24
672.856	8855.91
673.205	8846.19
673.554	8947.66
673.904	8920.09
674.253	8898.4
674.602	8953.76
674.951	8776.82
675.3	8749.47
675.649	8918.28
675.998	8842.8
676.346	8844.84
676.695	8849.36
677.044	8849.36
677.393	8838.96
677.741	8796.25
678.09	8853.2
678.438	8817.49
678.787	8726.42
679.135	8785.4
679.484	8745.41
679.832	8801.45
680.181	8741.56
680.529	8744.05
680.877	8668.57
681.225	8657.5
681.573	8685.75
681.922	8659.76
682.27	8595.58
682.618	8587.22
682.966	8543.6
683.314	8624.05
683.661	8557.39
684.009	8472.42
684.357	8532.3
684.705	8487.56
685.053	8497.28
685.4	8506.54
685.748	8467.22
686.095	8424.74
686.443	8483.49
686.79	8429.93
687.138	8433.78
687.485	8423.61
687.832	8455.7
688.18	8357.17
688.527	8322.37
688.874	8297.06
689.221	8255.02
689.568	8280.56
689.915	8163.27
690.262	8191.3
690.609	8176.83
690.956	8131.18
691.303	8195.82
691.65	8114.24
691.997	8098.19
692.344	8063.62
692.69	8062.49
693.037	8043.96
693.383	7967.12
693.73	7976.84
694.077	7932.77
694.423	7907.24
694.769	7941.81
695.116	7911.3
695.462	7846.45
695.808	7809.16
696.155	7850.06
696.501	7721.25
696.847	7774.58
697.193	7715.6
697.539	7782.72
697.885	7657.07
698.231	7656.85
698.577	7598.77
698.923	7645.32
699.269	7561.48
699.614	7571.65
699.96	7486.91
700.306	7499.11
700.651	7513.8
700.997	7435.84
701.342	7401.03
701.688	7434.25
702.033	7348.15
702.379	7365.33
702.724	7316.52
703.069	7343.63
703.415	7320.58
703.76	7265.9
704.105	7257.99
704.45	7262.73
704.795	7186.8
705.14	7132.34
705.485	7137.76
705.83	7175.28
706.175	7131.44
706.52	7102.06
706.865	7064.09
707.209	7059.12
707.554	7038.56
707.899	7058.67
708.243	7001.72
708.588	7026.13
708.932	6984.55
709.277	6936.19
709.621	6943.42
709.966	6908.17
710.31	6875.4
710.654	6874.72
710.998	6853.03
711.342	6853.93
711.687	6861.84
712.031	6792.01
712.375	6817.77
712.719	6827.26
713.063	6818.9
713.407	6816.19
713.75	6742.75
714.094	6763.54
714.438	6746.36
714.782	6724.67
715.125	6639.47
715.469	6716.08
715.812	6656.42
716.156	6685.57
716.499	6650.55
716.843	6636.53
717.186	6593.15
717.53	6633.37
717.873	6659.81
718.216	6615.74
718.559	6599.02
718.902	6533.71
719.246	6559.02
719.589	6627.5
719.932	6553.37
720.275	6495.75
720.617	6537.33
720.96	6537.78
721.303	6541.17
721.646	6553.6
721.989	6516.99
722.331	6499.59
722.674	6482.19
723.016	6446.71
723.359	6489.65
723.701	6453.49
724.044	6404.22
724.386	6413.72
724.729	6467.73
725.071	6450.32
725.413	6390.44
725.755	6425.92
726.097	6396.09
726.439	6378.01
726.782	6306.37
727.124	6437.67
727.465	6362.42
727.807	6406.94
728.149	6330.33
728.491	6343.89
728.833	6328.97
729.175	6365.36
729.516	6332.81
729.858	6338.24
730.199	6371.68
730.541	6310.44
730.882	6335.53
731.224	6364.68
731.565	6349.99
731.906	6311.57
732.248	6381.4
732.589	6321.51
732.93	6276.09
733.271	6263.44
733.612	6340.5
733.953	6331.68
734.294	6281.52
734.635	6338.24
734.976	6318.12
735.317	6328.07
735.658	6341.63
735.999	6318.8
736.339	6332.59
736.68	6325.81
737.021	6307.73
737.361	6311.35
737.702	6313.38
738.042	6295.98
738.383	6350.89
738.723	6366.03
739.063	6299.14
739.404	6322.42
739.744	6341.4
740.084	6305.24
740.424	6347.95
740.764	6302.98
741.104	6371.23
741.444	6363.55
741.784	6359.93
742.124	6358.12
742.464	6392.02
742.804	6360.84
743.143	6303.21
743.483	6425.24
743.823	6399.25
744.162	6480.61
744.502	6458.23
744.841	6409.2
745.181	6513.37
745.52	6459.82
745.86	6520.61
746.199	6505.69
746.538	6490.55
746.877	6553.37
747.216	6629.08
747.556	6611.9
747.895	6664.78
748.234	6747.72
748.573	6667.27
748.911	6742.52
749.25	6790.2
749.589	6745.91
749.928	6850.77
750.267	6912.69
750.605	6938.22
750.944	6961.72
751.283	6991.78
751.621	7058.44
751.96	7095.28
752.298	7117.43
752.636	7210.3
752.975	7240.59
753.313	7286.23
753.651	7392.67
753.989	7496.17
754.327	7486.46
754.666	7564.42
755.004	7744.53
755.342	7759.89
755.679	7810.51
756.017	7878.31
756.355	7972.54
756.693	8065.65
757.031	8151.07
757.368	8165.31
757.706	8251.41
758.044	8312.65
758.381	8442.36
758.719	8477.39
759.056	8664.5
759.394	8705.41
759.731	8808.23
760.068	8925.29
760.405	8995.12
760.743	9028.56
761.08	9250.03
761.417	9335.9
761.754	9400.3
762.091	9517.36
762.428	9578.15
762.765	9663.35
763.102	9860.63
763.438	9920.06
763.775	9950.12
764.112	10042.32
764.449	10191.92
764.785	10242.99
765.122	10350.34
765.458	10379.04
765.795	10484.57
766.131	10550.56
766.467	10690.44
766.804	10692.02
767.14	10764.34
767.476	10835.29
767.812	10918.46
768.148	11011.79
768.485	11078.23
768.821	11061.28
769.157	11193.02
