Data from hue_28_FLMS001491_00072.txt Node
Date: Tue Feb 07 17:17:46 GMT 2017
User: dcchb
Spectrometer: FLMS00149
Trigger mode: 0
Integration Time (sec): 2.000000E-2
Scans to average: 10
Electric dark correction enabled: true
Nonlinearity correction enabled: false
Boxcar width: 0
XAxis mode: Wavelengths
Number of Pixels in Spectrum: 2048
>>>>>Begin Spectral Data<<<<<
341.393	-1.1
341.776	-1.1
342.16	-1.1
342.543	-47.65
342.927	-87.2
343.31	-60.31
343.693	-73.64
344.077	-70.48
344.46	-55.79
344.843	-44.72
345.226	-32.74
345.61	-26.86
345.993	-35
346.376	-19.86
346.759	13.81
347.142	33.02
347.525	39.12
347.908	58.56
348.291	79.12
348.674	99.46
349.057	96.3
349.44	130.87
349.823	129.97
350.206	165.45
350.588	178.78
350.971	201.6
351.354	220.14
351.737	235.05
352.119	259.68
352.502	262.17
352.884	285.67
353.267	281.15
353.65	298.1
354.032	288.83
354.414	300.36
354.797	323.41
355.179	308.72
355.562	325.22
355.944	322.96
356.326	329.06
356.709	326.8
357.091	344.65
357.473	345.56
357.855	328.83
358.238	333.8
358.62	315.5
359.002	346.69
359.384	333.35
359.766	330.42
360.148	355.05
360.53	334.71
360.912	343.97
361.294	338.55
361.676	353.24
362.057	317.08
362.439	355.27
362.821	332.45
363.203	339.45
363.584	313.24
363.966	347.59
364.348	323.18
364.729	332.67
365.111	333.35
365.493	330.42
365.874	314.82
366.256	308.04
366.637	311.88
367.019	314.37
367.4	322.51
367.781	321.38
368.163	329.51
368.544	329.74
368.925	320.02
369.306	315.95
369.688	331.09
370.069	337.19
370.45	311.66
370.831	315.05
371.212	305.1
371.593	312.11
371.974	314.6
372.355	337.87
372.736	325.44
373.117	326.35
373.498	315.73
373.879	307.36
374.26	331.54
374.641	306.01
375.021	325.9
375.402	333.58
375.783	322.28
376.163	334.93
376.544	324.31
376.925	319.57
377.305	325.44
377.686	310.98
378.066	320.02
378.447	338.55
378.827	364.09
379.208	326.12
379.588	336.29
379.968	335.39
380.349	344.88
380.729	324.77
381.109	358.21
381.489	343.97
381.87	337.65
382.25	340.81
382.63	355.95
383.01	327.93
383.39	346.69
383.77	338.78
384.15	337.65
384.53	342.17
384.91	353.69
385.29	370.64
385.67	352.11
386.049	356.86
386.429	339.91
386.809	372.45
387.189	360.92
387.568	379.45
387.948	370.19
388.328	364.54
388.707	350.98
389.087	355.5
389.466	360.02
389.846	377.42
390.225	387.14
390.605	367.7
390.984	382.17
391.363	372.67
391.743	371.09
392.122	368.83
392.501	366.35
392.881	368.38
393.26	400.92
393.639	376.52
394.018	366.12
394.397	388.27
394.776	388.72
395.155	398.21
395.534	367.48
395.913	387.14
396.292	378.78
396.671	391.43
397.05	396.4
397.429	389.4
397.808	404.09
398.186	386.68
398.565	407.25
398.944	391.43
399.323	379
399.701	400.02
400.08	399.79
400.458	396.18
400.837	400.47
401.215	403.63
401.594	377.87
401.972	396.63
402.351	414.48
402.729	413.58
403.107	399.11
403.486	416.74
403.864	427.14
404.242	422.84
404.62	423.07
404.999	435.27
405.377	423.75
405.755	436.4
406.133	425.78
406.511	438.21
406.889	416.97
407.267	443.86
407.645	448.83
408.023	434.82
408.401	430.07
408.779	457.87
409.156	460.58
409.534	447.7
409.912	444.08
410.29	424.2
410.667	459.68
411.045	453.8
411.422	467.59
411.8	465.55
412.178	442.5
412.555	486.12
412.933	458.32
413.31	478.21
413.687	480.92
414.065	469.39
414.442	471.43
414.819	499
415.197	489.05
415.574	475.04
415.951	505.1
416.328	506.46
416.705	498.32
417.082	495.83
417.46	520.69
417.837	527.47
418.214	517.75
418.591	510.07
418.967	529.05
419.344	510.98
419.721	541.93
420.098	527.02
420.475	533.35
420.852	548.26
421.228	538.32
421.605	517.98
421.982	529.05
422.358	533.57
422.735	541.48
423.111	522.05
423.488	541.71
423.864	566.79
424.241	558.43
424.617	581.48
424.994	566.57
425.37	574.25
425.746	575.61
426.123	582.84
426.499	580.13
426.875	591.43
427.251	582.84
427.627	588.04
428.003	604.98
428.379	620.35
428.756	615.38
429.132	610.63
429.507	597.98
429.883	598.43
430.259	612.22
430.635	635.72
431.011	621.93
431.387	653.34
431.763	640.92
432.138	645.89
432.514	652.44
432.89	674.36
433.265	672.78
433.641	666.23
434.016	660.8
434.392	673
434.767	692.44
435.143	667.58
435.518	684.76
435.894	700.8
436.269	705.55
436.644	720.91
437.02	721.59
437.395	734.7
437.77	723.85
438.145	740.12
438.52	753.23
438.895	755.49
439.271	745.77
439.646	775.6
440.021	749.61
440.395	752.55
440.77	747.13
441.145	772.89
441.52	769.95
441.895	771.31
442.27	762.49
442.645	773.12
443.019	783.74
443.394	792.78
443.769	782.38
444.143	769.05
444.518	805.43
444.892	811.31
445.267	786.45
445.641	815.6
446.016	825.09
446.39	836.62
446.764	834.81
447.139	837.52
447.513	842.72
447.887	835.49
448.262	856.05
448.636	842.49
449.01	861.02
449.384	867.12
449.758	854.02
450.132	866.67
450.506	899.89
450.88	907.12
451.254	884.75
451.628	880.46
452.002	909.61
452.376	920.91
452.75	922.94
453.123	915.71
453.497	919.1
453.871	938.53
454.244	934.92
454.618	953.68
454.992	963.84
455.365	982.38
455.739	973.34
456.112	989.15
456.486	991.64
456.859	1006.33
457.232	1004.97
457.606	1015.82
457.979	1018.98
458.352	1058.76
458.725	1047.01
459.099	1072.32
459.472	1063.96
459.845	1099.21
460.218	1131.07
460.591	1126.33
460.964	1118.64
461.337	1122.94
461.71	1139.43
462.083	1181.24
462.456	1177.62
462.829	1153.67
463.201	1196.83
463.574	1195.48
463.947	1197.96
464.32	1200.9
464.692	1241.8
465.065	1234.35
465.438	1294.91
465.81	1284.29
466.183	1298.07
466.555	1296.72
466.928	1310.73
467.3	1317.96
467.672	1330.39
468.045	1368.35
468.417	1420.56
468.789	1402.03
469.161	1420.1
469.534	1462.14
469.906	1455.36
470.278	1485.41
470.65	1515.02
471.022	1511.63
471.394	1547.33
471.766	1579.87
472.138	1595.01
472.51	1623.04
472.882	1639.99
473.253	1682.02
473.625	1712.98
473.997	1708.91
474.369	1745.07
474.74	1776.25
475.112	1790.94
475.484	1829.13
475.855	1865.97
476.227	1881.33
476.598	1929.92
476.97	1992.97
477.341	2022.8
477.713	2054.66
478.084	2075
478.455	2123.59
478.827	2176.69
479.198	2190.93
479.569	2195.68
479.94	2261.44
480.311	2310.7
480.682	2404.71
481.053	2430.25
481.424	2471.15
481.795	2523.8
482.166	2558.83
482.537	2594.54
482.908	2643.12
483.279	2683.12
483.65	2780.97
484.021	2841.31
484.391	2879.05
484.762	2919.27
485.133	2944.13
485.503	3003.34
485.874	3065.26
486.244	3128.31
486.615	3237.91
486.985	3245.59
487.356	3311.81
487.726	3357.45
488.097	3439.26
488.467	3418.7
488.837	3544.57
489.207	3594.28
489.578	3664.56
489.948	3707.28
490.318	3740.27
490.688	3833.6
491.058	3858.46
491.428	3962.41
491.798	3953.14
492.168	4081.95
492.538	4119.92
492.908	4154.95
493.278	4242.85
493.648	4235.4
494.017	4282.85
494.387	4364.89
494.757	4429.29
495.126	4466.35
495.496	4494.83
495.866	4523.07
496.235	4636.06
496.605	4650.53
496.974	4659.79
497.344	4757.42
497.713	4785.44
498.082	4877.19
498.452	4886.23
498.821	4958.54
499.19	4940.69
499.559	4998.09
499.928	5031.99
500.298	5075.83
500.667	5105.66
501.036	5117.41
501.405	5210.74
501.774	5215.94
502.143	5268.14
502.512	5300.23
502.88	5361.24
503.249	5358.08
503.618	5360.57
503.987	5410.73
504.356	5448.25
504.724	5466.33
505.093	5482.14
505.462	5572.54
505.83	5615.93
506.199	5656.38
506.567	5726.88
506.936	5697.05
507.304	5779.09
507.672	5832.87
508.041	5778.18
508.409	5927.56
508.777	5884.62
509.145	5931.62
509.514	6000.55
509.882	6019.31
510.25	5998.29
510.618	6038.29
510.986	6045.29
511.354	6113.31
511.722	6195.8
512.09	6206.19
512.458	6250.03
512.826	6249.81
513.193	6256.59
513.561	6266.98
513.929	6344.27
514.297	6405.51
514.664	6429.46
515.032	6460.65
515.4	6520.76
515.767	6481.44
516.135	6505.39
516.502	6484.6
516.869	6592.62
517.237	6620.65
517.604	6561.44
517.972	6686.41
518.339	6612.06
518.706	6706.07
519.073	6697.48
519.44	6762.11
519.808	6868.77
520.175	6819.28
520.542	6871.94
520.909	6936.12
521.276	6937.47
521.643	6964.59
522.009	7022.22
522.376	7040.52
522.743	7068.54
523.11	7096.11
523.477	7176.34
523.843	7170.01
524.21	7263.57
524.577	7348.99
524.943	7269.44
525.31	7355.32
525.676	7433.96
526.043	7445.93
526.409	7511.7
526.776	7507.63
527.142	7566.61
527.508	7610.68
527.874	7624.69
528.241	7682.76
528.607	7665.82
528.973	7748.98
529.339	7819.26
529.705	7932.93
530.071	7898.35
530.437	7988.52
530.803	7989.87
531.169	8035.3
531.535	8060.16
531.901	8018.57
532.267	8099.93
532.632	8170.21
532.998	8215.41
533.364	8262.41
533.73	8255.18
534.095	8386.93
534.461	8326.14
534.826	8380.37
535.192	8447.26
535.557	8480.26
535.923	8463.99
536.288	8533.14
536.653	8538.11
537.019	8547.6
537.384	8625.34
537.749	8666.92
538.114	8682.96
538.479	8690.2
538.845	8763.19
539.21	8712.57
539.575	8795.05
539.94	8804.09
540.305	8881.15
540.67	8876.86
541.034	8880.47
541.399	8941.04
541.764	8948.49
542.129	9035.5
542.494	9037.98
542.858	9158.21
543.223	9054.48
543.587	9188.49
543.952	9259.9
544.316	9291.08
544.681	9194.36
545.045	9232.33
545.41	9414.92
545.774	9478.2
546.138	9413.79
546.503	9448.14
546.867	9458.76
547.231	9619.44
547.595	9612.43
547.959	9589.61
548.324	9598.42
548.688	9603.84
549.052	9678.42
549.416	9687.68
549.779	9692.2
550.143	9762.03
550.507	9852.2
550.871	9865.98
551.235	9879.09
551.599	9971.29
551.962	10003.38
552.326	9960.22
552.689	9980.78
553.053	9978.97
553.417	10022.82
553.78	10204.51
554.143	10103.49
554.507	10164.96
554.87	10185.52
555.234	10347.33
555.597	10330.38
555.96	10259.42
556.323	10323.6
556.686	10340.1
557.05	10437.49
557.413	10458.74
557.776	10500.77
558.139	10510.49
558.502	10549.36
558.865	10549.58
559.228	10614.89
559.59	10680.2
559.953	10686.75
560.316	10805.85
560.679	10689.01
561.041	10795.22
561.404	10859.63
561.767	10918.16
562.129	10929.23
562.492	10950.02
562.854	10974.65
563.217	11014.2
563.579	11075.9
563.941	11089.68
564.304	11149.34
564.666	11224.37
565.028	11220.52
565.39	11240.86
565.753	11253.29
566.115	11317.92
566.477	11350.46
566.839	11401.76
567.201	11470.46
567.563	11463
567.925	11571.48
568.287	11569.67
568.648	11599.05
569.01	11710
569.372	11712.71
569.734	11679.27
570.095	11848.98
570.457	11863.22
570.819	11988.41
571.18	11971.69
571.542	12033.84
571.903	12047.4
572.265	12123.55
572.626	12180.72
572.987	12166.26
573.349	12244.45
573.71	12283.1
574.071	12456.88
574.432	12554.95
574.794	12543.65
575.155	12644.89
575.516	12685.8
575.877	12752.46
576.238	12853.7
576.599	12920.37
576.96	12982.96
577.32	13036.3
577.681	13173.69
578.042	13275.84
578.403	13405.33
578.763	13533.68
579.124	13588.15
579.485	13691.19
579.845	13878.76
580.206	13920.57
580.566	14040.34
580.927	14231.52
581.287	14395.36
581.648	14558.97
582.008	14681.68
582.368	14801.9
582.728	14909.69
583.089	15075.34
583.449	15217.93
583.809	15519.62
584.169	15671.03
584.529	15790.8
584.889	16140.62
585.249	16253.61
585.609	16367.28
585.969	16760.27
586.329	16835.97
586.688	17143.31
587.048	17374.03
587.408	17599.79
587.768	17838.88
588.127	17970.4
588.487	18248.81
588.846	18614.91
589.206	18708.01
589.565	19012.18
589.925	19419.63
590.284	19585.73
590.643	19816
591.003	20179.38
591.362	20415.54
591.721	20650.56
592.08	21082.86
592.44	21342.52
592.799	21608.5
593.158	21830.41
593.517	22183.17
593.876	22557.63
594.235	22640.11
594.593	22996.03
594.952	23412.75
595.311	23667.2
595.67	23843.47
596.029	24183.12
596.387	24634.41
596.746	24838.25
597.104	25014.06
597.463	25287.05
597.822	25761.84
598.18	25913.92
598.538	26125.22
598.897	26628.03
599.255	26667.8
599.613	27300.33
599.972	27523.82
600.33	27760.2
600.688	27986.41
601.046	28367.19
601.404	28652.38
601.762	28947.97
602.12	29279.48
602.478	29475.19
602.836	29793.14
603.194	30023.42
603.552	30163.75
603.91	30304.99
604.268	30868.37
604.625	30882.83
604.983	31289.83
605.341	31442.37
605.698	31806.42
606.056	32071.95
606.413	32255.23
606.771	32496.12
607.128	32749.45
607.485	32904.02
607.843	33107.86
608.2	33591.91
608.557	33765.47
608.914	33801.63
609.272	34228.28
609.629	34459.46
609.986	34709.85
610.343	34737.87
610.7	35196.39
611.057	35236.62
611.414	35282.94
611.771	35454.69
612.127	35897.62
612.484	36042.47
612.841	36231.84
613.198	36364.72
613.554	36621.21
613.911	36857.59
614.267	36977.81
614.624	37084.25
614.98	37359.05
615.337	37696.89
615.693	37629.55
616.05	37766.27
616.406	38111.57
616.762	38073.15
617.118	38261.62
617.475	38351.79
617.831	38632.46
618.187	38544.78
618.543	38810.99
618.899	39206
619.255	39022.73
619.611	39209.17
619.967	39390.86
620.323	39489.84
620.678	39536.39
621.034	39606.9
621.39	39740.68
621.746	39814.35
622.101	40348.57
622.457	40004.17
622.812	40114.45
623.168	40357.39
623.523	40502.24
623.879	40718.05
624.234	40473.77
624.589	40763.02
624.945	40709.92
625.3	40796.02
625.655	40786.98
626.01	40935.22
626.365	41098.16
626.72	41192.62
627.075	41155.78
627.43	41206.18
627.785	41141.09
628.14	41238.94
628.495	41233.75
628.85	41377.47
629.205	41205.27
629.559	41613.85
629.914	41478.26
630.269	41488.2
630.623	41502.21
630.978	41393.97
631.332	41609.33
631.687	41836.89
632.041	41734.75
632.396	41708.31
632.75	41767.52
633.104	41755.31
633.459	41659.95
633.813	41700.85
634.167	41679.16
634.521	41685.94
634.875	41715.99
635.229	41865.59
635.583	41681.19
635.937	41738.14
636.291	41760.74
636.645	41778.36
636.999	41651.59
637.352	41846.16
637.706	41602.55
638.06	41806.39
638.413	41730
638.767	41715.32
639.121	41776.56
639.474	41473.06
639.828	41588.54
640.181	41619.27
640.534	41587.41
640.888	41545.83
641.241	41432.16
641.594	41382.67
641.947	41520.07
642.301	41577.01
642.654	41491.59
643.007	41721.64
643.36	41588.77
643.713	41494.98
644.066	41577.69
644.419	41259.51
644.771	41166.18
645.124	40829.24
645.477	40857.26
645.83	40570.94
646.182	40480.32
646.535	40243.26
646.888	40424.73
647.24	40228.35
647.593	40522.58
647.945	40281.91
648.298	40231.29
648.65	40325.07
649.002	40180.21
649.355	40331.17
649.707	40295.01
650.059	40400.1
650.411	40834.66
650.763	40831.05
651.115	41209.79
651.467	41131.38
651.819	41004.83
652.171	41042.79
652.523	40918.5
652.875	40965.28
653.227	40704.95
653.578	41151.04
653.93	40928.22
654.282	40860.65
654.633	40675.34
654.985	40974.09
655.337	40849.12
655.688	40902
656.039	40905.39
656.391	40695.46
656.742	40864.94
657.094	40695.46
657.445	41077.59
657.796	40867.43
658.147	40771.39
658.498	40742.01
658.849	40880.54
659.2	40655.46
659.551	40670.37
659.902	41003.92
660.253	40847.77
660.604	40810.93
660.955	40716.02
661.306	40842.12
661.656	40736.13
662.007	40747.21
662.358	40672.63
662.708	40711.05
663.059	40558.28
663.409	40408.68
663.76	40838.73
664.11	40708.56
664.461	40748.34
664.811	40824.49
665.161	40712.4
665.511	40627.89
665.862	40825.17
666.212	40790.59
666.562	40850.48
666.912	40606.64
667.262	40643.71
667.612	40609.58
667.962	40649.58
668.312	40648
668.662	40666.98
669.011	40579.53
669.361	40654.55
669.711	40579.3
670.06	40532.75
670.41	40477.38
670.76	40460.89
671.109	40540.88
671.459	40449.36
671.808	40338.18
672.157	40523.03
672.507	40189.03
672.856	40404.16
673.205	40437.16
673.554	40478.74
673.904	40316.71
674.253	40689.81
674.602	40311.51
674.951	39824.97
675.3	39488.26
675.649	40284.17
675.998	40139.31
676.346	40170.27
676.695	40488.46
677.044	40112.19
677.393	40128.24
677.741	40272.64
678.09	39987.23
678.438	40017.96
678.787	40004.4
679.135	40023.83
679.484	39904.74
679.832	39984.74
680.181	39664.07
680.529	39843.05
680.877	39695.71
681.225	39860.22
681.573	39911.52
681.922	39608.03
682.27	39575.48
682.618	39494.13
682.966	39528.25
683.314	39563.51
683.661	39388.15
684.009	39323.29
684.357	39180.92
684.705	39159.22
685.053	39344.98
685.4	39214.14
685.748	39070.41
686.095	38945.44
686.443	38997.65
686.79	38736.64
687.138	39014.37
687.485	38975.5
687.832	38774.15
688.18	38863.87
688.527	38523.08
688.874	38526.92
689.221	38469.3
689.568	38318.12
689.915	38200.15
690.262	38307.04
690.609	38183.21
690.956	38155.18
691.303	38057.56
691.65	37816.66
691.997	37899.37
692.344	37658.93
692.69	37702.54
693.037	37592.94
693.383	37279.27
693.73	37513.62
694.077	37267.75
694.423	37297.8
694.769	37200.63
695.116	37053.97
695.462	36950.47
695.808	36940.53
696.155	36983.91
696.501	36745.28
696.847	36798.61
697.193	36385.74
697.539	36630.03
697.885	36315.46
698.231	36289.92
698.577	36145.74
698.923	36196.59
699.269	36008.57
699.614	35913.66
699.96	35779.88
700.306	35805.41
700.651	35530.85
700.997	35563.84
701.342	35585.08
701.688	35495.82
702.033	35349.61
702.379	35423.05
702.724	35141.25
703.069	35269.38
703.415	34954.36
703.76	34937.41
704.105	34973.12
704.45	34853.8
704.795	34689.06
705.14	34590.31
705.485	34515.73
705.83	34349.86
706.175	34447.26
706.52	34350.76
706.865	34190.54
707.209	34157.1
707.554	34094.5
707.899	34060.83
708.243	33893.37
708.588	33874.39
708.932	33743.1
709.277	33686.6
709.621	33738.35
709.966	33501.29
710.31	33626.94
710.654	33225.6
710.998	33309.43
711.342	33411.13
711.687	33250.91
712.031	33099.5
712.375	32992.38
712.719	33045.49
713.063	32956.45
713.407	33056.11
713.75	32980.18
714.094	32890.01
714.438	32736.57
714.782	32672.62
715.125	32636.01
715.469	32570.47
715.812	32521.43
716.156	32255
716.499	32340.87
716.843	32329.35
717.186	32150.6
717.53	32335.45
717.873	32280.31
718.216	32126.87
718.559	31970.04
718.902	31840.32
719.246	31872.64
719.589	31657.27
719.932	31761.23
720.275	31782.02
720.617	31669.93
720.96	31562.59
721.303	31513.1
721.646	31538.63
721.989	31434.68
722.331	31480.56
722.674	31411.18
723.016	31368.92
723.359	31278.98
723.701	31292.76
724.044	31043.73
724.386	30954.24
724.729	31136.38
725.071	31104.3
725.413	30978.42
725.755	31019.1
726.097	30940.46
726.439	30679.22
726.782	30744.76
727.124	30963.73
727.465	30673.12
727.807	30700.46
728.149	30506.8
728.491	30578.89
728.833	30501.37
729.175	30442.84
729.516	30377.08
729.858	30348.16
730.199	30433.58
730.541	30240.36
730.882	30190.87
731.224	30358.55
731.565	30109.29
731.906	30160.82
732.248	30128.95
732.589	29902.07
732.93	29955.62
733.271	30020.71
733.612	30033.81
733.953	29902.97
734.294	29866.81
734.635	29768.51
734.976	29853.48
735.317	29652.58
735.658	29680.6
735.999	29743.65
736.339	29584.56
736.68	29606.26
737.021	29490.1
737.361	29389.09
737.702	29543.88
738.042	29312.93
738.383	29338.01
738.723	29276.09
739.063	29261.18
739.404	29364.91
739.744	29143.22
740.084	29178.24
740.424	29149.54
740.764	29011.02
741.104	29071.58
741.444	28885.82
741.784	28973.05
742.124	28903.68
742.464	28936.44
742.804	28881.98
743.143	28731.25
743.483	28759.05
743.823	28660.29
744.162	28555.44
744.502	28703.45
744.841	28550.01
745.181	28697.58
745.52	28420.98
745.86	28609.9
746.199	28508.43
746.538	28389.11
746.877	28435.66
747.216	28422.33
747.556	28309.57
747.895	28313.63
748.234	28181.66
748.573	28262.79
748.911	28258.04
749.25	28190.02
749.589	28006.75
749.928	28033.64
750.267	28094.88
750.605	28055.56
750.944	27895.11
751.283	27750.94
751.621	27945.96
751.96	27717.72
752.298	27686.53
752.636	27654.67
752.975	27622.35
753.313	27559.3
753.651	27579.64
753.989	27433.66
754.327	27418.74
754.666	27286.32
755.004	27266.66
755.342	27221.46
755.679	27227.56
756.017	27146.66
756.355	27178.97
756.693	27049.94
757.031	27017.4
757.368	26922.03
757.706	26971.75
758.044	26719.33
758.381	26813.11
758.719	26705.31
759.056	26677.07
