Data from hue_20_FLMS001491_86.txt Node
Date: Mon Feb 06 15:34:47 GMT 2017
User: dcchb
Spectrometer: FLMS00149
Trigger mode: 0
Integration Time (sec): 2.000000E-2
Scans to average: 10
Electric dark correction enabled: true
Nonlinearity correction enabled: false
Boxcar width: 0
XAxis mode: Wavelengths
Number of Pixels in Spectrum: 2048
>>>>>Begin Spectral Data<<<<<
341.393	2.18
341.776	2.18
342.16	2.18
342.543	-45.96
342.927	-69.69
343.31	-72.63
343.693	-69.69
344.077	-54.55
344.46	-51.61
344.843	-41.21
345.226	-35.79
345.61	-39.63
345.993	-17.71
346.376	-7.32
346.759	17.77
347.142	22.74
347.525	45.79
347.908	55.73
348.291	62.51
348.674	76.98
349.057	108.61
349.44	109.74
349.823	133.47
350.206	155.62
350.588	206.01
350.971	197.65
351.354	231.1
351.737	245.11
352.119	250.98
352.502	264.54
352.884	283.07
353.267	278.33
353.65	308.83
354.032	312.9
354.414	305.9
354.797	309.06
355.179	319.91
355.562	332.34
355.944	365.33
356.326	349.28
356.709	342.05
357.091	350.64
357.473	355.61
357.855	332.79
358.238	328.04
358.62	321.71
359.002	329.85
359.384	361.94
359.766	339.34
360.148	354.93
360.53	328.49
360.912	358.78
361.294	335.73
361.676	340.92
362.057	338.89
362.439	328.49
362.821	331.66
363.203	333.69
363.584	331.88
363.966	321.49
364.348	326.46
364.729	346.57
365.111	318.78
365.493	325.56
365.874	310.42
366.256	314.71
366.637	306.8
367.019	301.38
367.4	326.91
367.781	322.62
368.163	319
368.544	317.42
368.925	314.03
369.306	315.84
369.688	318.78
370.069	307.93
370.45	324.88
370.831	306.8
371.212	314.26
371.593	307.03
371.974	326.01
372.355	320.13
372.736	328.95
373.117	313.35
373.498	288.72
373.879	322.17
374.26	309.51
374.641	333.47
375.021	341.38
375.402	315.39
375.783	340.7
376.163	335.27
376.544	334.37
376.925	328.49
377.305	328.95
377.686	319
378.066	330.75
378.447	336.4
378.827	304.54
379.208	335.05
379.588	324.43
379.968	349.96
380.349	338.21
380.729	339.79
381.109	321.49
381.489	325.33
381.87	331.88
382.25	351.54
382.63	344.99
383.01	344.76
383.39	340.92
383.77	333.47
384.15	331.21
384.53	347.25
384.91	346.57
385.29	362.39
385.67	356.06
386.049	363.3
386.429	349.28
386.809	360.36
387.189	375.05
387.568	359.91
387.948	371.2
388.328	368.95
388.707	362.39
389.087	368.72
389.466	369.17
389.846	366.69
390.225	350.41
390.605	386.57
390.984	375.27
391.363	387.02
391.743	381.15
392.122	368.49
392.501	378.21
392.881	386.8
393.26	362.39
393.639	385.44
394.018	394.26
394.397	380.92
394.776	377.31
395.155	374.82
395.534	373.69
395.913	387.02
396.292	390.41
396.671	379.34
397.05	372.11
397.429	392.9
397.808	375.27
398.186	391.54
398.565	398.77
398.944	388.83
399.323	401.71
399.701	364.2
400.08	399
400.458	396.29
400.837	407.36
401.215	426.34
401.594	404.2
401.972	396.29
402.351	398.32
402.729	396.74
403.107	412.11
403.486	405.33
403.864	421.15
404.242	413.69
404.62	420.02
404.999	414.59
405.377	452.33
405.755	442.16
406.133	429.73
406.511	437.87
406.889	403.52
407.267	448.72
407.645	445.78
408.023	439.9
408.401	458.89
408.779	439.68
409.156	436.29
409.534	451.2
409.912	446.68
410.29	453.91
410.667	438.77
411.045	452.56
411.422	450.52
411.8	464.76
412.178	457.76
412.555	454.82
412.933	495.04
413.31	476.51
413.687	478.77
414.065	469.51
414.442	482.84
414.819	483.07
415.197	490.07
415.574	506.57
415.951	506.79
416.328	502.27
416.705	490.07
417.082	507.25
417.46	499.34
417.837	519.68
418.214	512.22
418.591	518.32
418.967	518.55
419.344	521.03
419.721	499.11
420.098	539.79
420.475	490.52
420.852	530.3
421.228	521.48
421.605	537.53
421.982	535.95
422.358	532.1
422.735	538.66
423.111	535.27
423.488	542.95
423.864	549.73
424.241	555.61
424.617	555.38
424.994	542.5
425.37	576.62
425.746	533.91
426.123	544.76
426.499	564.42
426.875	569.39
427.251	590.41
427.627	571.88
428.003	578.66
428.379	601.03
428.756	584.53
429.132	589.73
429.507	610.29
429.883	615.04
430.259	620.24
430.635	599
431.011	619.79
431.387	617.98
431.763	600.58
432.138	643.29
432.514	628.6
432.89	633.34
433.265	653.46
433.641	668.6
434.016	663.17
434.392	659.78
434.767	642.61
435.143	672.67
435.518	685.09
435.894	682.16
436.269	701.14
436.644	701.14
437.02	700.91
437.395	695.72
437.77	742.27
438.145	695.72
438.52	721.93
438.895	739.78
439.271	730.52
439.646	739.33
440.021	728.71
440.395	733
440.77	745.88
441.145	748.14
441.52	772.1
441.895	756.28
442.27	771.87
442.645	774.13
443.019	763.51
443.394	789.05
443.769	784.08
444.143	776.17
444.518	789.05
444.892	763.51
445.267	805.54
445.641	799.44
446.016	775.49
446.39	797.41
446.764	803.51
447.139	811.42
447.513	803.06
447.887	790.18
448.262	823.62
448.636	821.36
449.01	838.54
449.384	854.13
449.758	846.67
450.132	864.98
450.506	853.45
450.88	863.85
451.254	854.13
451.628	843.28
452.002	855.94
452.376	893
452.75	893.9
453.123	895.48
453.497	901.59
453.871	913.79
454.244	930.29
454.618	918.76
454.992	937.29
455.365	920.34
455.739	978.19
456.112	961.92
456.486	960.34
456.859	986.78
457.232	968.48
457.606	977.74
457.979	1023.62
458.352	1015.71
458.725	1032.88
459.099	1020.45
459.472	1043.05
459.845	1053.22
460.218	1074.92
460.591	1081.47
460.964	1078.3
461.337	1104.29
461.71	1089.15
462.083	1089.6
462.456	1130.28
462.829	1135.7
463.201	1118.53
463.574	1141.13
463.947	1184.29
464.32	1166.66
464.692	1178.87
465.065	1200.34
465.438	1229.04
465.81	1236.27
466.183	1250.28
466.555	1245.31
466.928	1300.22
467.3	1287.57
467.672	1309.49
468.045	1323.72
468.417	1338.86
468.789	1347.22
469.161	1361.91
469.534	1389.71
469.906	1407.34
470.278	1417.28
470.65	1398.07
471.022	1448.92
471.394	1464.74
471.766	1471.51
472.138	1519.65
472.51	1521.01
472.882	1570.72
473.253	1565.3
473.625	1626.99
473.997	1610.72
474.369	1660.21
474.74	1676.26
475.112	1674.22
475.484	1718.51
475.855	1752.19
476.227	1766.2
476.598	1808.46
476.97	1809.36
477.341	1853.2
477.713	1881.22
478.084	1956.93
478.455	1996.02
478.827	1993.31
479.198	2040.09
479.569	2061.33
479.94	2134.32
480.311	2159.18
480.682	2208.9
481.053	2221.1
481.424	2271.95
481.795	2325.96
482.166	2357.14
482.537	2358.27
482.908	2482.11
483.279	2480.98
483.65	2514.65
484.021	2567.98
484.391	2603.91
484.762	2628.09
485.133	2654.53
485.503	2673.07
485.874	2739.28
486.244	2801.42
486.615	2849.11
486.985	2887.07
487.356	3000.06
487.726	2992.15
488.097	3038.93
488.467	3105.6
488.837	3144.01
489.207	3171.81
489.578	3238.93
489.948	3302.43
490.318	3315.08
490.688	3367.96
491.058	3409.77
491.428	3452.48
491.798	3511.69
492.168	3570.44
492.538	3599.82
492.908	3662.64
493.278	3679.59
493.648	3683.43
494.017	3748.52
494.387	3782.41
494.757	3805.69
495.126	3867.84
495.496	3936.31
495.866	3979.7
496.235	3979.02
496.605	4006.36
496.974	4043.65
497.344	4084.33
497.713	4104.67
498.082	4199.35
498.452	4187.38
498.821	4206.58
499.19	4209.75
499.559	4307.6
499.928	4285
500.298	4382.4
500.667	4374.94
501.036	4397.09
501.405	4415.39
501.774	4395.28
502.143	4470.76
502.512	4476.86
502.88	4515.28
503.249	4562.51
503.618	4571.32
503.987	4562.51
504.356	4596.4
504.724	4661.04
505.093	4644.99
505.462	4728.38
505.83	4692
506.199	4731.77
506.567	4838.21
506.936	4791.43
507.304	4838.66
507.672	4847.7
508.041	4867.36
508.409	4902.84
508.777	4986.9
509.145	4976.51
509.514	5011.76
509.882	5029.39
510.25	5033
510.618	5051.53
510.986	5101.93
511.354	5136.05
511.722	5162.72
512.09	5160.68
512.458	5199.33
512.826	5228.93
513.193	5256.5
513.561	5244.98
513.929	5257.86
514.297	5338.98
514.664	5334.92
515.032	5308.7
515.4	5408.81
515.767	5348.48
516.135	5410.85
516.502	5430.28
516.869	5460.56
517.237	5472.09
517.604	5441.13
517.972	5508.47
518.339	5544.63
518.706	5558.64
519.073	5585.08
519.44	5560.45
519.808	5579.43
520.175	5627.79
520.542	5695.13
520.909	5711.18
521.276	5705.53
521.643	5785.07
522.009	5786.43
522.376	5816.03
522.743	5815.36
523.11	5870.27
523.477	5903.26
523.843	5934.22
524.21	5963.6
524.577	6057.84
524.943	6010.6
525.31	6065.97
525.676	6114.1
526.043	6132.18
526.409	6149.58
526.776	6174.67
527.142	6192.97
527.508	6304.38
527.874	6315.68
528.241	6311.84
528.607	6298.51
528.973	6413.53
529.339	6364.04
529.705	6435.9
530.071	6522
530.437	6506.18
530.803	6562.91
531.169	6643.58
531.535	6637.03
531.901	6566.97
532.267	6675.22
532.632	6699.85
532.998	6669.12
533.364	6716.8
533.73	6754.77
534.095	6849.45
534.461	6790.7
534.826	6880.64
535.192	6901.2
535.557	6880.41
535.923	6961.99
536.288	6980.07
536.653	7025.27
537.019	6964.03
537.384	7056.68
537.749	6999.96
538.114	7092.16
538.479	7119.5
538.845	7147.75
539.21	7149.56
539.575	7154.76
539.94	7216.45
540.305	7226.39
540.67	7287.41
541.034	7297.35
541.399	7313.17
541.764	7377.12
542.129	7357.46
542.494	7456.67
542.858	7519.94
543.223	7459.83
543.587	7530.34
543.952	7536.44
544.316	7561.52
544.681	7596.33
545.045	7670.45
545.41	7619.83
545.774	7651.24
546.138	7706.15
546.503	7701.86
546.867	7747.06
547.231	7821.18
547.595	7794.51
547.959	7822.99
548.324	7922.87
548.688	7916.77
549.052	7940.05
549.416	7999.25
549.779	7955.64
550.143	8016.43
550.507	8093.04
550.871	8084.22
551.235	8017.56
551.599	8185.91
551.962	8147.27
552.326	8216.2
552.689	8265.01
553.053	8210.09
553.417	8221.62
553.78	8354.72
554.143	8308.4
554.507	8341.16
554.87	8355.4
555.234	8459.58
555.597	8419.13
555.96	8458.45
556.323	8484.21
556.686	8486.25
557.05	8575.51
557.413	8492.35
557.776	8561.05
558.139	8621.61
558.502	8669.74
558.865	8610.54
559.228	8662.51
559.59	8780.02
559.953	8741.15
560.316	8806.24
560.679	8832.68
561.041	8859.34
561.404	8898.66
561.767	8976.63
562.129	8881.26
562.492	8982.96
562.854	9025.44
563.217	8996.97
563.579	8998.77
563.941	9130.97
564.304	9109.51
564.666	9165.1
565.028	9172.1
565.39	9214.14
565.753	9286.68
566.115	9300.46
566.477	9333.23
566.839	9362.15
567.201	9366.22
567.563	9425.2
567.925	9452.77
568.287	9536.84
568.648	9584.52
569.01	9633.33
569.372	9702.94
569.734	9618.42
570.095	9703.84
570.457	9734.57
570.819	9772.31
571.18	9814.8
571.542	9920.56
571.903	9848.47
572.265	9953.1
572.626	10006.88
572.987	10072.87
573.349	10131.4
573.71	10208.91
574.071	10186.31
574.432	10281.9
574.794	10335.46
575.155	10335.69
575.516	10320.77
575.877	10484.84
576.238	10511.96
576.599	10614.55
576.96	10653.42
577.32	10796.69
577.681	10833.08
578.042	10883.7
578.403	10896.35
578.763	11057.03
579.124	11142.45
579.485	11242.33
579.845	11402.33
580.206	11450.91
580.566	11585.15
580.927	11718.7
581.287	11850.23
581.648	11988.3
582.008	12155.53
582.368	12253.15
582.728	12375.64
583.089	12546.7
583.449	12757.09
583.809	12903.76
584.169	13090.64
584.529	13298.55
584.889	13528.6
585.249	13689.05
585.609	13725.88
585.969	14143.95
586.329	14232.08
586.688	14517.27
587.048	14730.15
587.408	14895.12
587.768	15194.09
588.127	15395.44
588.487	15646.28
588.846	16013.51
589.206	16142.99
589.565	16401.74
589.925	16789.3
590.284	16981.39
590.643	17340.93
591.003	17589.74
591.362	17933.91
591.721	18306.1
592.08	18608.47
592.44	18835.13
592.799	19207.77
593.158	19497.26
593.517	19751.03
593.876	20179.5
594.235	20417.68
594.593	20831.46
594.952	21063.77
595.311	21541.04
595.67	21793.47
596.029	22331.98
596.387	22616.27
596.746	22970.16
597.104	23101.23
597.463	23450.82
597.822	23843.58
598.18	24086.51
598.538	24417.35
598.897	24961.07
599.255	25086.49
599.613	25732.8
599.972	25914.71
600.33	26248.72
600.688	26523.51
601.046	26940
601.404	27319.65
601.762	27541.34
602.12	28012.51
602.478	28312.62
602.836	28615.89
603.194	28762.77
603.552	29152.37
603.91	29441.4
604.268	29765.46
604.625	30030.09
604.983	30505.78
605.341	30630.3
605.698	31078.19
606.056	31422.82
606.413	31620.1
606.771	31948.68
607.128	32351.38
607.485	32377.14
607.843	32679.28
608.2	33213.28
608.557	33524.68
608.914	33566.26
609.272	34028.17
609.629	34235.4
609.986	34521.04
610.343	34697.31
610.7	35111.99
611.057	35283.51
611.414	35596.27
611.771	35787.67
612.127	36071.96
612.484	36154.9
612.841	36538.62
613.198	36492.29
613.554	36685.96
613.911	37123.46
614.267	37356.67
614.624	37483.68
614.98	37793.5
615.337	38080.72
615.693	38097.67
616.05	38222.64
616.406	38681.84
616.762	38786.92
617.118	38816.07
617.475	38959.57
617.831	39279.11
618.187	39577.86
618.543	39604.98
618.899	39997.06
619.255	40057.62
619.611	40002.48
619.967	40464.61
620.323	40517.72
620.678	40396.37
621.034	40594.1
621.39	40699.41
621.746	40850.37
622.101	41425.04
622.457	41195.67
622.812	41306.17
623.168	41602.44
623.523	41598.14
623.879	41868.87
624.234	41658.48
624.589	41915.2
624.945	42004.69
625.3	42288.29
625.655	42181.41
626.01	42165.36
626.365	42498.23
626.72	42226.83
627.075	42485.35
627.43	42408.97
627.785	42441.06
628.14	42628.85
628.495	42798.56
628.85	42898
629.205	42770.77
629.559	42982.51
629.914	42966.7
630.269	42920.37
630.623	42993.81
630.978	42926.92
631.332	43164.66
631.687	43241.72
632.041	43057.31
632.396	43193.58
632.75	43137.99
633.104	43235.16
633.459	43122.85
633.813	43187.25
634.167	43180.47
634.521	43228.84
634.875	43383.63
635.229	43306.57
635.583	43320.81
635.937	43325.56
636.291	43277.87
636.645	43272.9
636.999	43243.52
637.352	43394.48
637.706	43080.36
638.06	43386.8
638.413	43276.97
638.767	43229.06
639.121	43414.59
639.474	43068.39
639.828	43135.73
640.181	43157.65
640.534	43254.15
640.888	43246.91
641.241	43014.6
641.594	43211.43
641.947	43308.16
642.301	43043.98
642.654	43096.86
643.007	43140.02
643.36	43086.92
643.713	43053.47
644.066	43316.97
644.419	43074.94
644.771	42786.36
645.124	42423.66
645.477	42353.15
645.83	42058.02
646.182	41947.74
646.535	41882.66
646.888	42031.13
647.24	41714.75
647.593	42080.39
647.945	41978.25
648.298	41777.35
648.65	41763.34
649.002	41709.78
649.355	41797.46
649.707	41740.96
650.059	41926.95
650.411	42471.34
650.763	42342.3
651.115	42697.1
651.467	42581.39
651.819	42758.34
652.171	42597.44
652.523	42421.4
652.875	42697.32
653.227	42307.05
653.578	42612.81
653.93	42598.12
654.282	42486.48
654.633	42433.38
654.985	42521.51
655.337	42455.52
655.688	42532.13
656.039	42622.3
656.391	42258.01
656.742	42387.95
657.094	42408.07
657.445	42426.6
657.796	42437.9
658.147	42396.09
658.498	42270.67
658.849	42377.56
659.2	42323.1
659.551	42281.52
659.902	42406.26
660.253	42415.07
660.604	42340.95
660.955	42101.63
661.306	42343.43
661.656	42299.59
662.007	42365.81
662.358	42160.16
662.708	42142.31
663.059	42182.08
663.409	42007.17
663.76	42291.23
664.11	42248.3
664.461	42324.23
664.811	42306.15
665.161	42243.32
665.511	42104.8
665.862	42097.57
666.212	42284.91
666.562	42198.35
666.912	42053.72
667.262	42152.03
667.612	42127.85
667.962	42193.38
668.312	42046.95
668.662	42161.52
669.011	42209.2
669.361	42079.03
669.711	42076.32
670.06	41958.36
670.41	41937.34
670.76	41839.04
671.109	41936.21
671.459	42067.28
671.808	41923.11
672.157	41980.05
672.507	41681.08
672.856	41678.37
673.205	41919.49
673.554	42112.03
673.904	41913.39
674.253	42085.59
674.602	41878.14
674.951	41237.25
675.3	41135.1
675.649	41800.4
675.998	41752.72
676.346	41690.34
676.695	41898.47
677.044	41446.96
677.393	41689.89
677.741	41536.9
678.09	41577.35
678.438	41534.64
678.787	41565.83
679.135	41514.08
679.484	41288.32
679.832	41404.93
680.181	41166.97
680.529	41208.1
680.877	41269.79
681.225	41124.48
681.573	41492.16
681.922	41025.05
682.27	41137.59
682.618	41189.79
682.966	40914.09
683.314	40987.31
683.661	40919.74
684.009	40728.56
684.357	40651.95
684.705	40528.34
685.053	40679.52
685.4	40650.6
685.748	40353.88
686.095	40526.99
686.443	40196.37
686.79	40272.75
687.138	40167.9
687.485	40190.95
687.832	40011.07
688.18	40117.05
688.527	40024.17
688.874	39882.26
689.221	39886.1
689.568	39787.12
689.915	39673.45
690.262	39642.71
690.609	39614.92
690.956	39326.56
691.303	39385.32
691.65	39223.06
691.997	39250.86
692.344	39084.54
692.69	39101.03
693.037	39075.05
693.383	38678.67
693.73	38931.09
694.077	38581.95
694.423	38702.4
694.769	38503.54
695.116	38435.06
695.462	38361.84
695.808	38298.34
696.155	38372.69
696.501	38167.95
696.847	38096.09
697.193	37671.92
697.539	37896.77
697.885	37639.83
698.231	37549.66
698.577	37515.99
698.923	37425.6
699.269	37137.02
699.614	37014.31
699.96	37095.21
700.306	37203
700.651	36945.84
700.997	36817.48
701.342	36709.01
701.688	36789.46
702.033	36621.55
702.379	36597.82
702.724	36462.23
703.069	36486.87
703.415	36047.78
703.76	36152.64
704.105	36157.61
704.45	36152.41
704.795	35780.9
705.14	35757.17
705.485	35716.72
705.83	35629.49
706.175	35578.41
706.52	35499.55
706.865	35401.92
707.209	35245.54
707.554	35241.93
707.899	35349.49
708.243	35062.72
708.588	34971.88
708.932	34869.96
709.277	34935.95
709.621	34824.08
709.966	34627.71
710.31	34765.55
710.654	34506.58
710.998	34445.11
711.342	34459.12
711.687	34416.86
712.031	34225.23
712.375	34149.3
712.719	34165.8
713.063	34065.46
713.407	34234.95
713.75	33924.22
714.094	33936.88
714.438	33765.58
714.782	33830.21
715.125	33680.39
715.469	33682.65
715.812	33563.55
716.156	33300.51
716.499	33340.96
716.843	33412.6
717.186	33217.12
717.53	33260.51
717.873	33337.8
718.216	33211.92
718.559	33117.69
718.902	32902.55
719.246	33056.9
719.589	32825.49
719.932	32764.48
720.275	32760.86
720.617	32637.02
720.96	32646.06
721.303	32627.08
721.646	32579.17
721.989	32330.14
722.331	32488.1
722.674	32406.07
723.016	32440.87
723.359	32357.03
723.701	32379.4
724.044	32161.33
724.386	32127.43
724.729	32213.08
725.071	32014.89
725.413	32046.3
725.755	31949.13
726.097	31902.35
726.439	31759.08
726.782	31719.76
727.124	31882.24
727.465	31746.2
727.807	31746.43
728.149	31625.3
728.491	31575.13
728.833	31639.31
729.175	31528.13
729.516	31425.53
729.858	31296.04
730.199	31352.76
730.541	31253.33
730.882	31156.16
731.224	31325.19
731.565	31091.75
731.906	31091.08
732.248	31016.5
732.589	30866.9
732.93	30862.15
733.271	30958.65
733.612	30898.99
733.953	30973.34
734.294	30760.46
734.635	30579.68
734.976	30778.09
735.317	30579
735.658	30587.81
735.999	30581.94
736.339	30489.96
736.68	30475.05
737.021	30379.23
737.361	30216.75
737.702	30442.96
738.042	30259.01
738.383	30252.91
738.723	30436.63
739.063	30196.86
739.404	30164.55
739.744	30104.89
740.084	30140.37
740.424	30136.3
740.764	30037.54
741.104	30081.84
741.444	29977.88
741.784	29788.74
742.124	29937.89
742.464	29828.28
742.804	29736.31
743.143	29684.56
743.483	29652.02
743.823	29628.97
744.162	29635.07
744.502	29599.36
744.841	29393.72
745.181	29572.02
745.52	29353.27
745.86	29327.05
746.199	29263.33
746.538	29329.54
746.877	29306.94
747.216	29313.04
747.556	29186.04
747.895	29197.11
748.234	28989.44
748.573	29076.89
748.911	28989.21
749.25	28987.85
749.589	28904.69
749.928	28996.21
750.267	28812.72
750.605	28746.96
750.944	28791.47
751.283	28668.31
751.621	28751.48
751.96	28619.5
752.298	28528.66
752.636	28586.06
752.975	28434.2
753.313	28341.99
753.651	28488.21
753.989	28238.04
754.327	28217.7
754.666	28105.39
755.004	28163.47
755.342	28137.03
755.679	28125.73
756.017	27901.78
756.355	28042.57
756.693	27845.28
757.031	27884.83
757.368	27830.37
757.706	27721.45
758.044	27612.75
758.381	27691.39
758.719	27443.04
759.056	27592.86
759.394	27456.14
759.731	27234.91
760.068	27231.29
760.405	27207.34
760.743	27135.02
