Data from hue_100_FLMS001491_00087.txt Node
Date: Tue Feb 07 17:03:46 GMT 2017
User: dcchb
Spectrometer: FLMS00149
Trigger mode: 0
Integration Time (sec): 2.000000E-2
Scans to average: 10
Electric dark correction enabled: true
Nonlinearity correction enabled: false
Boxcar width: 0
XAxis mode: Wavelengths
Number of Pixels in Spectrum: 2048
>>>>>Begin Spectral Data<<<<<
341.393	-13.09
341.776	-13.09
342.16	-13.09
342.543	-61.45
342.927	-61.91
343.31	-84.96
343.693	-71.4
344.077	-53.77
344.46	-41.57
344.843	-58.97
345.226	-30.95
345.61	-23.49
345.993	-29.82
346.376	-16.93
346.759	10.86
347.142	17.64
347.525	44.98
347.908	68.94
348.291	86.57
348.674	87.7
349.057	95.15
349.44	118.2
349.823	160.91
350.206	144.64
350.588	205.88
350.971	203.17
351.354	244.53
351.737	231.65
352.119	252.89
352.502	268.26
352.884	296.28
353.267	299.22
353.65	282.04
354.032	289.95
354.414	286.56
354.797	311.19
355.179	346.9
355.562	348.25
355.944	336.5
356.326	332.66
356.709	332.66
357.091	348.93
357.473	346.9
357.855	349.16
358.238	325.2
358.62	335.82
359.002	340.57
359.384	337.63
359.766	334.24
360.148	360
360.53	340.12
360.912	348.48
361.294	345.54
361.676	303.28
362.057	318.65
362.439	308.03
362.821	343.73
363.203	324.53
363.584	320.68
363.966	320.01
364.348	321.59
364.729	322.72
365.111	325.43
365.493	323.62
365.874	332.21
366.256	313.68
366.637	313.68
367.019	325.43
367.4	335.15
367.781	305.99
368.163	315.03
368.544	300.35
368.925	315.03
369.306	347.12
369.688	328.82
370.069	303.28
370.45	317.97
370.831	308.03
371.212	309.61
371.593	336.05
371.974	305.32
372.355	306.9
372.736	334.92
373.117	337.18
373.498	318.88
373.879	329.95
374.26	331.53
374.641	312.55
375.021	311.64
375.402	314.81
375.783	340.34
376.163	330.63
376.544	319.78
376.925	336.5
377.305	363.17
377.686	335.6
378.066	334.69
378.447	328.82
378.827	322.27
379.208	337.41
379.588	332.89
379.968	348.71
380.349	337.41
380.729	345.54
381.109	339.89
381.489	341.25
381.87	340.34
382.25	356.84
382.63	364.75
383.01	339.67
383.39	356.16
383.77	345.09
384.15	363.85
384.53	353.23
384.91	377.63
385.29	354.36
385.67	364.52
386.049	374.92
386.429	363.62
386.809	382.15
387.189	355.71
387.568	358.2
387.948	362.72
388.328	369.72
388.707	377.18
389.087	393.45
389.466	400.46
389.846	379.67
390.225	374.24
390.605	372.89
390.984	385.31
391.363	370.17
391.743	391.87
392.122	370.63
392.501	388.25
392.881	394.13
393.26	372.21
393.639	380.34
394.018	399.78
394.397	391.64
394.776	392.32
395.155	398.42
395.534	403.17
395.913	383.51
396.292	399.33
396.671	388.93
397.05	413.79
397.429	407.01
397.808	417.86
398.186	402.26
398.565	396.84
398.944	412.43
399.323	418.08
399.701	440.45
400.08	413.79
400.458	424.41
400.837	431.87
401.215	423.28
401.594	442.49
401.972	414.01
402.351	438.42
402.729	458.08
403.107	450.62
403.486	431.42
403.864	431.64
404.242	443.39
404.62	458.99
404.999	440.68
405.377	468.48
405.755	451.3
406.133	476.16
406.511	450.17
406.889	463.28
407.267	473.9
407.645	469.83
408.023	481.36
408.401	458.08
408.779	488.81
409.156	472.09
409.534	477.97
409.912	488.36
410.29	499.89
410.667	471.87
411.045	494.92
411.422	491.07
411.8	519.32
412.178	518.87
412.555	505.54
412.933	506.89
413.31	512.32
413.687	538.76
414.065	534.46
414.442	550.96
414.819	543.73
415.197	535.59
415.574	520.45
415.951	546.44
416.328	536.72
416.705	547.57
417.082	551.64
417.46	558.64
417.837	567
418.214	560.68
418.591	577.17
418.967	565.42
419.344	582.15
419.721	574.91
420.098	590.06
420.475	571.52
420.852	599.55
421.228	601.58
421.605	603.84
421.982	604.74
422.358	592.77
422.735	593.44
423.111	606.33
423.488	616.04
423.864	626.89
424.241	632.54
424.617	639.09
424.994	624.4
425.37	633.22
425.746	624.18
426.123	635.25
426.499	661.01
426.875	684.97
427.251	639.55
427.627	692.43
428.003	665.99
428.379	703.27
428.756	705.08
429.132	709.15
429.507	722.71
429.883	721.8
430.259	738.07
430.635	683.39
431.011	714.35
431.387	728.13
431.763	756.6
432.138	747.34
432.514	752.31
432.89	766.77
433.265	767
433.641	775.59
434.016	789.82
434.392	815.59
434.767	808.58
435.143	799.99
435.518	815.36
435.894	803.16
436.269	839.09
436.644	838.18
437.02	828.69
437.395	855.13
437.77	845.42
438.145	844.06
438.52	839.99
438.895	892.87
439.271	884.51
439.646	876.6
440.021	904.17
440.395	887.45
440.77	897.62
441.145	894.45
441.52	937.84
441.895	912.08
442.27	914.57
442.645	937.84
443.019	976.49
443.394	961.34
443.769	950.05
444.143	963.83
444.518	964.51
444.892	971.29
445.267	991.63
445.641	995.24
446.016	1011.29
446.39	1008.12
446.764	1031.85
447.139	1034.34
447.513	1021.46
447.887	1026.65
448.262	1020.78
448.636	1035.47
449.01	1061.23
449.384	1031.4
449.758	1043.15
450.132	1067.78
450.506	1058.07
450.88	1084.96
451.254	1089.7
451.628	1116.37
452.002	1104.84
452.376	1109.82
452.75	1122.02
453.123	1133.32
453.497	1176.48
453.871	1145.07
454.244	1165.18
454.618	1190.94
454.992	1207.44
455.365	1199.3
455.739	1231.62
456.112	1270.94
456.486	1270.72
456.859	1291.05
457.232	1327.44
457.606	1299.41
457.979	1349.36
458.352	1345.97
458.725	1325.4
459.099	1348.68
459.472	1387.55
459.845	1423.03
460.218	1397.27
460.591	1428.68
460.964	1433.2
461.337	1463.25
461.71	1487.43
462.083	1487.21
462.456	1526.3
462.829	1517.94
463.201	1564.04
463.574	1576.02
463.947	1588.9
464.32	1618.5
464.692	1654.89
465.065	1672.29
465.438	1690.14
465.81	1692.17
466.183	1737.14
466.555	1779.18
466.928	1765.84
467.3	1806.07
467.672	1833.41
468.045	1875.45
468.417	1877.03
468.789	1860.98
469.161	1931.71
469.534	2002.45
469.906	2017.36
470.278	2044.25
470.65	2080.86
471.022	2122.44
471.394	2164.25
471.766	2224.36
472.138	2213.52
472.51	2307.3
472.882	2337.58
473.253	2386.39
473.625	2401.76
473.997	2468.2
474.369	2500.29
474.74	2570.12
475.112	2650.11
475.484	2669.32
475.855	2762.2
476.227	2794.06
476.598	2903.67
476.97	2919.49
477.341	3028.18
477.713	3101.4
478.084	3159.48
478.455	3252.58
478.827	3311.11
479.198	3419.13
479.569	3460.71
479.94	3592.24
480.311	3666.36
480.682	3758.11
481.053	3910.42
481.424	4025.22
481.795	4066.57
482.166	4213.91
482.537	4305.66
482.908	4442.84
483.279	4525.09
483.65	4662.26
484.021	4797.85
484.391	4902.94
484.762	4988.81
485.133	5099.32
485.503	5197.39
485.874	5393.32
486.244	5446.42
486.615	5675.35
486.985	5730.71
487.356	5941.1
487.726	5989.91
488.097	6228.78
488.467	6315.55
488.837	6515.32
489.207	6694.75
489.578	6857.91
489.948	6952.6
490.318	7070.11
490.688	7200.73
491.058	7380.61
491.428	7520.27
491.798	7732.01
492.168	7992.57
492.538	8002.74
492.908	8190.08
493.278	8420.81
493.648	8425.56
494.017	8669.39
494.387	8767.02
494.757	8892.89
495.126	9074.13
495.496	9199.32
495.866	9289.04
496.235	9436.83
496.605	9614.68
496.974	9691.51
497.344	9860.32
497.713	10059.18
498.082	10116.36
498.452	10273.64
498.821	10393.87
499.19	10411.27
499.559	10665.72
499.928	10736
500.298	10815.77
500.667	10996.79
501.036	11004.92
501.405	11258.48
501.774	11238.59
502.143	11375.53
502.512	11455.76
502.88	11655.07
503.249	11706.82
503.618	11816.65
503.987	11888.06
504.356	12043.54
504.724	12154.95
505.093	12145.23
505.462	12266.13
505.83	12350.88
506.199	12522.4
506.567	12622.51
506.936	12567.82
507.304	12858.89
507.672	12897.3
508.041	12881.71
508.409	13023.63
508.777	13088.03
509.145	13222.04
509.514	13242.15
509.882	13345.43
510.25	13391.98
510.618	13555.36
510.986	13484.86
511.354	13643.27
511.722	13735.7
512.09	13723.95
512.458	13778.41
512.826	13915.58
513.193	14001.68
513.561	13996.93
513.929	14141.56
514.297	14212.52
514.664	14308.34
515.032	14323.48
515.4	14420.43
515.767	14411.16
516.135	14505.85
516.502	14409.58
516.869	14622.68
517.237	14671.49
517.604	14579.52
517.972	14744.94
518.339	14790.81
518.706	14807.99
519.073	14786.07
519.44	14900.19
519.808	15064.25
520.175	15009.11
520.542	15095.44
520.909	15252.72
521.276	15180.63
521.643	15250.69
522.009	15356.67
522.376	15382.21
522.743	15430.34
523.11	15510.57
523.477	15584.01
523.843	15560.28
524.21	15788.98
524.577	15800.5
524.943	15855.19
525.31	15864.91
525.676	15926.6
526.043	16037.56
526.409	15940.16
526.776	16129.31
527.142	16051.34
527.508	16094.73
527.874	16154.39
528.241	16162.75
528.607	16166.59
528.973	16236.65
529.339	16176.76
529.705	16377.44
530.071	16382.18
530.437	16439.13
530.803	16383.31
531.169	16419.92
531.535	16340.83
531.901	16419.92
532.267	16398.45
532.632	16345.12
532.998	16332.24
533.364	16386.25
533.73	16434.61
534.095	16508.05
534.461	16517.09
534.826	16472.8
535.192	16460.6
535.557	16524.55
535.923	16413.59
536.288	16470.54
536.653	16500.6
537.019	16424.22
537.384	16468.06
537.749	16388.28
538.114	16331.11
538.479	16323.65
538.845	16379.47
539.21	16253.6
539.575	16273.94
539.94	16290.89
540.305	16310.09
540.67	16269.42
541.034	16183.32
541.399	16245.24
541.764	16141.28
542.129	16132.25
542.494	16151.91
542.858	16142.87
543.223	16155.3
543.587	16050.21
543.952	16024.68
544.316	16029.65
544.681	15960.95
545.045	15972.93
545.41	16046.6
545.774	15996.43
546.138	15909.88
546.503	15887.96
546.867	15861.74
547.231	15899.26
547.595	15906.71
547.959	15861.52
548.324	15665.36
548.688	15751.24
549.052	15700.17
549.416	15775.42
549.779	15695.42
550.143	15628.76
550.507	15617.23
550.871	15613.16
551.235	15640.96
551.599	15679.38
551.962	15644.8
552.326	15533.39
552.689	15603.67
553.053	15431.02
553.417	15471.7
553.78	15620.85
554.143	15541.75
554.507	15508.08
554.87	15424.02
555.234	15581.53
555.597	15438.7
555.96	15371.81
556.323	15433.28
556.686	15409.1
557.05	15441.64
557.413	15421.98
557.776	15421.53
558.139	15446.61
558.502	15448.87
558.865	15347.18
559.228	15437.57
559.59	15513.28
559.953	15457.91
560.316	15558.25
560.679	15515.99
561.041	15569.1
561.404	15516.44
561.767	15650.9
562.129	15420.85
562.492	15682.77
562.854	15598.7
563.217	15582.2
563.579	15647.96
563.941	15562.99
564.304	15689.32
564.666	15657
565.028	15630.79
565.39	15688.87
565.753	15674.18
566.115	15711.47
566.477	15768.19
566.839	15755.98
567.201	15800.05
567.563	15868.07
567.925	15974.96
568.287	15922.08
568.648	15862.42
569.01	15901.74
569.372	16082.3
569.734	15913.27
570.095	15866.04
570.457	16032.81
570.819	16074.17
571.18	16040.5
571.542	16007.5
571.903	16033.26
572.265	16053.6
572.626	16125.92
572.987	16094.73
573.349	16209.08
573.71	16157.1
574.071	16136.54
574.432	16207.5
574.794	16286.82
575.155	16191.45
575.516	16133.15
575.877	16174.96
576.238	16226.25
576.599	16317.78
576.96	16178.35
577.32	16290.21
577.681	16255.86
578.042	16362.3
578.403	16279.36
578.763	16315.29
579.124	16295.86
579.485	16357.78
579.845	16459.69
580.206	16324.78
580.566	16367.27
580.927	16368.62
581.287	16451.33
581.648	16350.54
582.008	16454.72
582.368	16295.18
582.728	16318
583.089	16343.99
583.449	16343.09
583.809	16302.41
584.169	16349.64
584.529	16257.21
584.889	16405.01
585.249	16268.51
585.609	16202.3
585.969	16386.25
586.329	16222.19
586.688	16273.94
587.048	16223.09
587.408	16212.92
587.768	16229.64
588.127	16211.34
588.487	16124.11
588.846	16284.33
589.206	16138.12
589.565	16185.13
589.925	16144.67
590.284	16151.45
590.643	16222.19
591.003	16197.78
591.362	16127.27
591.721	16163.2
592.08	16110.78
592.44	16245.69
592.799	16163.43
593.158	16197.55
593.517	16118.01
593.876	16149.19
594.235	16077.33
594.593	16132.92
594.952	16180.61
595.311	16053.38
595.67	16150.78
596.029	16170.21
596.387	16122.53
596.746	16203.66
597.104	15982.64
597.463	16085.24
597.822	16080.72
598.18	15948.07
598.538	15992.59
598.897	16139.7
599.255	16035.3
599.613	16237.33
599.972	16060.16
600.33	16133.15
600.688	16009.99
601.046	16111.91
601.404	16146.93
601.762	16042.08
602.12	16094.73
602.478	16176.54
602.836	16136.09
603.194	16098.8
603.552	16118.91
603.91	16000.72
604.268	16153.04
604.625	15964.11
604.983	16153.94
605.341	16089.08
605.698	16017.9
606.056	16105.81
606.413	16020.16
606.771	16144.22
607.128	16144
607.485	16027.16
607.843	16026.03
608.2	16170.89
608.557	16202.3
608.914	16130.21
609.272	16193.94
609.629	16200.04
609.986	16256.08
610.343	16152.36
610.7	16306.7
611.057	16234.84
611.414	16280.72
611.771	16268.06
612.127	16338.34
612.484	16281.17
612.841	16324.78
613.198	16425.34
613.554	16332.92
613.911	16372.46
614.267	16381.96
614.624	16274.39
614.98	16400.94
615.337	16572.23
615.693	16390.54
616.05	16480.48
616.406	16517.09
616.762	16428.06
617.118	16477.1
617.475	16455.85
617.831	16538.79
618.187	16564.32
618.543	16526.81
618.899	16599.58
619.255	16585.11
619.611	16558.67
619.967	16650.65
620.323	16607.71
620.678	16633.25
621.034	16534.72
621.39	16561.84
621.746	16508.05
622.101	16710.31
622.457	16640.93
622.812	16577.88
623.168	16666.02
623.523	16653.36
623.879	16625.34
624.234	16514.61
624.589	16579.24
624.945	16561.84
625.3	16606.58
625.655	16644.77
626.01	16542.18
626.365	16582.4
626.72	16574.49
627.075	16534.95
627.43	16602.52
627.785	16543.99
628.14	16605.91
628.495	16531.33
628.85	16588.05
629.205	16495.85
629.559	16661.04
629.914	16519.81
630.269	16567.49
630.623	16552.8
630.978	16470.32
631.332	16533.82
631.687	16428.28
632.041	16489.3
632.396	16512.8
632.75	16428.96
633.104	16492.24
633.459	16301.73
633.813	16345.8
634.167	16348.06
634.521	16326.36
634.875	16293.15
635.229	16323.2
635.583	16255.86
635.937	16294.5
636.291	16218.8
636.645	16216.99
636.999	16203.88
637.352	16240.72
637.706	16029.65
638.06	16261.28
638.413	16113.04
638.767	16112.13
639.121	16104.9
639.474	16055.19
639.828	16046.82
640.181	16094.05
640.534	16106.71
640.888	16023.55
641.241	15918.01
641.594	15966.37
641.947	15965.47
642.301	15901.52
642.654	15935.41
643.007	15999.82
643.36	15949.2
643.713	15915.75
644.066	15950.56
644.419	15800.95
644.771	15739.26
645.124	15607.29
645.477	15594.18
645.83	15535.2
646.182	15383.11
646.535	15439.16
646.888	15437.12
647.24	15395.54
647.593	15423.34
647.945	15435.77
648.298	15282.55
648.65	15285.49
649.002	15273.74
649.355	15369.55
649.707	15364.58
650.059	15419.27
650.411	15608.64
650.763	15631.02
651.115	15725.7
651.467	15760.5
651.819	15721.41
652.171	15719.15
652.523	15777.23
652.875	15616.78
653.227	15677.34
653.578	15715.76
653.93	15633.28
654.282	15687.96
654.633	15632.82
654.985	15649.32
655.337	15614.74
655.688	15659.04
656.039	15740.39
656.391	15629.66
656.742	15759.15
657.094	15629.89
657.445	15702.43
657.796	15639.15
658.147	15771.58
658.498	15579.27
658.849	15747.62
659.2	15685.25
659.551	15688.42
659.902	15717.57
660.253	15642.31
660.604	15717.57
660.955	15603.67
661.306	15728.19
661.656	15600.51
662.007	15754.63
662.358	15701.75
662.708	15683.67
663.059	15696.55
663.409	15619.26
663.76	15773.61
664.11	15724.12
664.461	15768.19
664.811	15763.22
665.161	15687.51
665.511	15692.26
665.862	15700.39
666.212	15779.49
666.562	15711.01
666.912	15728.64
667.262	15733.84
667.612	15737
667.962	15753.95
668.312	15718.47
668.662	15837.56
669.011	15706.04
669.361	15688.87
669.711	15635.08
670.06	15618.13
670.41	15706.95
670.76	15700.84
671.109	15610
671.459	15680.73
671.808	15642.31
672.157	15644.8
672.507	15506.73
672.856	15615.65
673.205	15622.88
673.554	15673.05
673.904	15609.1
674.253	15667.4
674.602	15584.24
674.951	15380.63
675.3	15284.58
675.649	15565.93
675.998	15433.96
676.346	15481.19
676.695	15591.24
677.044	15460.4
677.393	15498.59
677.741	15527.29
678.09	15468.76
678.438	15403.45
678.787	15407.29
679.135	15438.48
679.484	15261.99
679.832	15411.81
680.181	15313.28
680.529	15309.22
680.877	15217.24
681.225	15283.45
681.573	15278.71
681.922	15110.13
682.27	15077.13
682.618	15161.65
682.966	15078.26
683.314	15103.8
683.661	15088.66
684.009	14869.45
684.357	14913.75
684.705	14980.86
685.053	14985.38
685.4	14948.77
685.748	14852.96
686.095	14811.38
686.443	14746.29
686.79	14739.29
687.138	14732.96
687.485	14739.74
687.832	14593.75
688.18	14651.38
688.527	14575.9
688.874	14542.68
689.221	14435.34
689.568	14410.71
689.915	14465.17
690.262	14440.09
690.609	14341.33
690.956	14280.54
691.303	14264.5
691.65	14220.88
691.997	14163.26
692.344	14124.39
692.69	14133.43
693.037	14156.93
693.383	13888.24
693.73	13996.71
694.077	13932.98
694.423	13881.23
694.769	13887.56
695.116	13749.26
695.462	13785.64
695.808	13704.06
696.155	13730.27
696.501	13682.59
696.847	13639.2
697.193	13449.6
697.539	13568.02
697.885	13473.56
698.231	13423.84
698.577	13439.21
698.923	13361.47
699.269	13266.56
699.614	13216.84
699.96	13183.17
700.306	13192.44
700.651	13031.31
700.997	13018.43
701.342	13035.15
701.688	12967.81
702.033	12824.08
702.379	12900.47
702.724	12834.48
703.069	12835.38
703.415	12738.44
703.76	12682.84
704.105	12667.03
704.45	12609.85
704.795	12557.2
705.14	12541.61
705.485	12524.88
705.83	12554.94
706.175	12469.52
706.52	12479.91
706.865	12376.86
707.209	12417.09
707.554	12306.13
707.899	12312.68
708.243	12276.75
708.588	12209.86
708.932	12099.81
709.277	12117.21
709.621	12101.16
709.966	11970.09
710.31	12014.84
710.654	11924.9
710.998	11928.74
711.342	11923.32
711.687	11887.16
712.031	11794.51
712.375	11766.71
712.719	11797.22
713.063	11800.16
713.407	11754.96
713.75	11752.47
714.094	11681.06
714.438	11775.3
714.782	11709.76
715.125	11603.78
715.469	11608.07
715.812	11597
716.156	11505.47
716.499	11589.99
716.843	11579.6
717.186	11445.14
717.53	11520.39
717.873	11539.6
718.216	11451.24
718.559	11448.75
718.902	11349.32
719.246	11343.44
719.589	11403.78
719.932	11352.03
720.275	11346.38
720.617	11294.63
720.96	11292.15
721.303	11352.71
721.646	11320.85
721.989	11171.47
722.331	11242.66
722.674	11259.15
723.016	11249.66
723.359	11257.57
723.701	11191.13
724.044	11155.65
724.386	11101.19
724.729	11121.53
725.071	11108.2
725.413	11140.96
725.755	11131.92
726.097	11018.48
726.439	11024.13
726.782	11011.7
727.124	11136.9
727.465	10973.96
727.807	10994.53
728.149	10922.21
728.491	10983.23
728.833	11093.28
729.175	10964.92
729.516	10940.07
729.858	10966.96
730.199	10972.38
730.541	10945.49
730.882	10890.35
731.224	11024.81
731.565	10926.51
731.906	10839.73
732.248	11025.49
732.589	10893.51
732.93	10943.68
733.271	10923.34
733.612	10905.49
733.953	10924.47
734.294	10916.56
734.635	10892.16
734.976	10870.91
735.317	10922.44
735.658	10893.51
735.999	10898.26
736.339	10945.26
736.68	10926.73
737.021	10918.15
737.361	10855.32
737.702	10967.41
738.042	10869.11
738.383	10913.17
738.723	10993.4
739.063	10936.9
739.404	10976.67
739.744	10950.69
740.084	10956.79
740.424	11004.24
740.764	10931.03
741.104	10973.74
741.444	10953.85
741.784	10928.31
742.124	11068.65
742.464	11045.15
742.804	11001.08
743.143	11039.5
743.483	11100.29
743.823	10992.72
744.162	11163.56
744.502	11165.14
744.841	11109.55
745.181	11191.81
745.52	11186.61
745.86	11312.03
746.199	11308.64
746.538	11327.4
746.877	11386.83
747.216	11491.24
747.556	11536.21
747.895	11478.36
748.234	11553.61
748.573	11614.17
748.911	11725.81
749.25	11784.34
749.589	11862.98
749.928	11921.28
750.267	11920.83
750.605	12058
750.944	12137.32
751.283	12165.12
751.621	12300.71
751.96	12373.93
752.298	12499.57
752.636	12597.65
752.975	12574.15
753.313	12728.94
753.651	12828.15
753.989	12899.11
754.327	13025.66
754.666	13060.69
755.004	13279.89
755.342	13469.04
755.679	13608.92
