Data from hue_130_FLMS001491_00070.txt Node
Date: Tue Feb 07 16:57:57 GMT 2017
User: dcchb
Spectrometer: FLMS00149
Trigger mode: 0
Integration Time (sec): 2.000000E-2
Scans to average: 10
Electric dark correction enabled: true
Nonlinearity correction enabled: false
Boxcar width: 0
XAxis mode: Wavelengths
Number of Pixels in Spectrum: 2048
>>>>>Begin Spectral Data<<<<<
341.393	-6.03
341.776	-6.03
342.16	-6.03
342.543	-54.39
342.927	-68.18
343.31	-82.41
343.693	-90.55
344.077	-64.11
344.46	-50.32
344.843	-52.81
345.226	-34.73
345.61	-29.99
345.993	-8.52
346.376	13.63
346.759	24.93
347.142	15.21
347.525	38.94
347.908	58.6
348.291	82.78
348.674	78.03
349.057	101.31
349.44	112.61
349.823	131.37
350.206	168.65
350.588	200.29
350.971	203.46
351.354	205.71
351.737	219.73
352.119	244.13
352.502	258.14
352.884	287.07
353.267	286.39
353.65	287.97
354.032	306.05
354.414	307.41
354.797	303.34
355.179	328.88
355.562	327.52
355.944	330.01
356.326	331.14
356.709	314.41
357.091	339.72
357.473	331.14
357.855	342.21
358.238	357.12
358.62	338.59
359.002	336.78
359.384	334.75
359.766	339.5
360.148	346.73
360.53	342.21
360.912	309.67
361.294	337.69
361.676	352.83
362.057	343.56
362.439	337.69
362.821	326.62
363.203	330.46
363.584	318.93
363.966	328.88
364.348	316.45
364.729	311.47
365.111	331.81
365.493	317.12
365.874	319.61
366.256	306.73
366.637	306.73
367.019	313.06
367.4	325.94
367.781	306.73
368.163	319.16
368.544	313.28
368.925	317.58
369.306	310.57
369.688	327.75
370.069	313.51
370.45	322.32
370.831	304.7
371.212	323.68
371.593	329.1
371.974	298.59
372.355	316.45
372.736	305.6
373.117	317.58
373.498	332.49
373.879	327.97
374.26	319.16
374.641	334.75
375.021	308.31
375.402	322.1
375.783	338.37
376.163	339.04
376.544	331.14
376.925	351.7
377.305	346.73
377.686	321.87
378.066	326.39
378.447	348.08
378.827	326.39
379.208	335.88
379.588	325.71
379.968	349.89
380.349	344.24
380.729	306.96
381.109	322.32
381.489	348.54
381.87	337.46
382.25	345.6
382.63	330.68
383.01	353.06
383.39	371.81
383.77	332.94
384.15	344.02
384.53	346.28
384.91	375.65
385.29	351.93
385.67	344.02
386.049	356.45
386.429	357.58
386.809	358.48
387.189	374.3
387.568	358.48
387.948	368.65
388.328	369.78
388.707	364.13
389.087	350.57
389.466	364.35
389.846	369.1
390.225	387.63
390.605	373.17
390.984	374.07
391.363	382.66
391.743	362.09
392.122	389.66
392.501	398.25
392.881	388.53
393.26	386.73
393.639	399.38
394.018	390.12
394.397	399.38
394.776	416.56
395.155	389.21
395.534	408.42
395.913	403.68
396.292	398.48
396.671	391.92
397.05	392.15
397.429	410.91
397.808	406.84
398.186	403.68
398.565	415.43
398.944	410.68
399.323	399.61
399.701	408.2
400.08	416.56
400.458	429.21
400.837	419.27
401.215	419.72
401.594	411.59
401.972	426.95
402.351	421.08
402.729	419.49
403.107	418.59
403.486	411.36
403.864	425.82
404.242	419.27
404.62	441.41
404.999	432.38
405.377	448.19
405.755	439.16
406.133	443.9
406.511	451.36
406.889	444.35
407.267	442.32
407.645	440.74
408.023	463.34
408.401	464.24
408.779	464.47
409.156	470.79
409.534	476.89
409.912	463.34
410.29	482.77
410.667	476.89
411.045	473.5
411.422	496.55
411.8	477.12
412.178	502.66
412.555	478.02
412.933	497.91
413.31	488.87
413.687	525.71
414.065	544.24
414.442	511.92
414.819	520.28
415.197	506.05
415.574	540.4
415.951	510.11
416.328	539.27
416.705	524.12
417.082	543.11
417.46	523.22
417.837	546.95
418.214	545.37
418.591	548.53
418.967	547.85
419.344	548.53
419.721	540.85
420.098	549.43
420.475	555.31
420.852	561.41
421.228	554.63
421.605	566.61
421.982	581.07
422.358	576.55
422.735	597.57
423.111	588.98
423.488	593.28
423.864	594.41
424.241	606.83
424.617	619.49
424.994	605.25
425.37	610.68
425.746	618.13
426.123	622.65
426.499	649.09
426.875	633.27
427.251	615.2
427.627	653.16
428.003	641.86
428.379	629.43
428.756	658.58
429.132	675.99
429.507	685.93
429.883	652.71
430.259	667.85
430.635	638.02
431.011	689.09
431.387	696.32
431.763	701.97
432.138	719.6
432.514	715.76
432.89	703.78
433.265	755.3
433.641	744.23
434.016	766.6
434.392	765.02
434.767	751.69
435.143	750.11
435.518	750.11
435.894	770.67
436.269	780.62
436.644	821.07
437.02	798.69
437.395	783.55
437.77	819.94
438.145	798.24
438.52	809.54
438.895	837.11
439.271	825.59
439.646	867.84
440.021	847.28
440.395	838.69
440.77	852.48
441.145	832.14
441.52	854.29
441.895	852.48
442.27	880.95
442.645	905.13
443.019	877.11
443.394	870.78
443.769	913.04
444.143	898.58
444.518	909.65
444.892	907.62
445.267	930.22
445.641	911.91
446.016	922.31
446.39	919.82
446.764	968.41
447.139	937
447.513	944
447.887	970.44
448.262	966.6
448.636	940.16
449.01	988.97
449.384	978.35
449.758	1001.85
450.132	1002.08
450.506	1026.48
450.88	1022.19
451.254	997.33
451.628	1029.87
452.002	1040.27
452.376	1064.22
452.75	1068.52
453.123	1064.9
453.497	1067.16
453.871	1078.46
454.244	1065.13
454.618	1116.43
454.992	1161.17
455.365	1116.65
455.739	1142.87
456.112	1143.77
456.486	1182.64
456.859	1160.49
457.232	1203.65
457.606	1200.49
457.979	1200.27
458.352	1223.99
458.725	1239.59
459.099	1261.51
459.472	1274.39
459.845	1285.69
460.218	1311.22
460.591	1311.67
460.964	1308.28
461.337	1319.58
461.71	1387.83
462.083	1391.67
462.456	1400.03
462.829	1401.62
463.201	1417.89
463.574	1440.94
463.947	1443.87
464.32	1510.31
464.692	1521.39
465.065	1489.3
465.438	1568.62
465.81	1561.84
466.183	1622.63
466.555	1636.19
466.928	1644.1
467.3	1643.19
467.672	1709.18
468.045	1718.44
468.417	1723.87
468.789	1775.17
469.161	1767.71
469.534	1807.25
469.906	1884.54
470.278	1873.24
470.65	1901.04
471.022	1932
471.394	2008.61
471.766	2013.35
472.138	2064.88
472.51	2105.55
472.882	2146.91
473.253	2153.01
473.625	2219.22
473.997	2289.5
474.369	2290.63
474.74	2347.35
475.112	2423.51
475.484	2449.5
475.855	2497.41
476.227	2569.72
476.598	2643.39
476.97	2666.67
477.341	2785.99
477.713	2859.88
478.084	2875.93
478.455	2940.33
478.827	3044.28
479.198	3124.96
479.569	3179.87
479.94	3286.09
480.311	3331.51
480.682	3475.46
481.053	3591.16
481.424	3684.49
481.795	3697.37
482.166	3818.95
482.537	3942.34
482.908	4054.43
483.279	4146.18
483.65	4272.27
484.021	4387.75
484.391	4493.29
484.762	4582.55
485.133	4654.64
485.503	4764.47
485.874	4935.99
486.244	5045.36
486.615	5199.71
486.985	5313.38
487.356	5442.19
487.726	5548.4
488.097	5750.43
488.467	5805.12
488.837	5995.85
489.207	6137.76
489.578	6248.49
489.948	6424.31
490.318	6540.46
490.688	6631.08
491.058	6761.93
491.428	6948.59
491.798	7078.75
492.168	7276.04
492.538	7452.53
492.908	7537.27
493.278	7669.7
493.648	7749.92
494.017	8017.03
494.387	8095.45
494.757	8239.4
495.126	8291.83
495.496	8460.87
495.866	8602.1
496.235	8775.43
496.605	8826.51
496.974	9017.69
497.344	9122.54
497.713	9227.4
498.082	9362.08
498.452	9506.71
498.821	9590.1
499.19	9695.63
499.559	9816.76
499.928	9917.32
500.298	10011.78
500.667	10148.5
501.036	10287.94
501.405	10355.05
501.774	10397.54
502.143	10573.58
502.512	10624.42
502.88	10796.62
503.249	10840.46
503.618	11013.79
503.987	11042.72
504.356	11126.11
504.724	11226.89
505.093	11322.03
505.462	11292.43
505.83	11332.65
506.199	11548.24
506.567	11686.54
506.936	11722.47
507.304	11778.29
507.672	11994.33
508.041	11925.18
508.409	12100.32
508.777	12193.2
509.145	12218.96
509.514	12277.04
509.882	12419.18
510.25	12428.22
510.618	12467.99
510.986	12570.14
511.354	12598.38
511.722	12763.35
512.09	12795.89
512.458	12784.82
512.826	12879.05
513.193	12892.39
513.561	12966.96
513.929	12977.36
514.297	13157.92
514.664	13232.72
515.032	13272.26
515.4	13306.84
515.767	13363.79
516.135	13378.93
516.502	13318.82
516.869	13482.65
517.237	13536.89
517.604	13520.62
517.972	13664.8
518.339	13645.81
518.706	13617.11
519.073	13637.68
519.44	13734.62
519.808	13853.94
520.175	13809.2
520.542	13951.12
520.909	13954.96
521.276	13930.78
521.643	14082.41
522.009	14155.86
522.376	14132.35
522.743	14157.44
523.11	14235.85
523.477	14340.71
523.843	14325.57
524.21	14432.69
524.577	14461.39
524.943	14448.96
525.31	14463.65
525.676	14590.2
526.043	14540.71
526.409	14644.66
526.776	14742.06
527.142	14728.27
527.508	14724.43
527.874	14727.82
528.241	14772.79
528.607	14825.44
528.973	14945.89
529.339	14846.23
529.705	14985.21
530.071	14882.17
530.437	14933.01
530.803	14914.93
531.169	14950.19
531.535	14890.98
531.901	14839.45
532.267	14884.88
532.632	14902.28
532.998	14934.37
533.364	15016.4
533.73	14954.71
534.095	14973.24
534.461	14990.64
534.826	15080.8
535.192	14939.79
535.557	15028.15
535.923	14851.88
536.288	14920.58
536.653	14966.23
537.019	14873.58
537.384	14907.02
537.749	14864.54
538.114	14807.82
538.479	14833.13
538.845	14775.95
539.21	14730.76
539.575	14680.36
539.94	14711.1
540.305	14760.13
540.67	14710.64
541.034	14647.82
541.399	14627.48
541.764	14672.23
542.129	14606.69
542.494	14622.96
542.858	14627.93
543.223	14458.45
543.587	14505.45
543.952	14458.22
544.316	14447.83
544.681	14425
545.045	14408.73
545.41	14336.87
545.774	14377.09
546.138	14273.82
546.503	14302.75
546.867	14233.37
547.231	14227.27
547.595	14205.8
547.959	14216.87
548.324	14152.01
548.688	14139.81
549.052	14156.53
549.416	14078.57
549.779	14064.33
550.143	13974.39
550.507	14003.32
550.871	13967.16
551.235	14011
551.599	14068.4
551.962	13931.23
552.326	13966.94
552.689	13914.28
553.053	13802.87
553.417	13847.16
553.78	14004.22
554.143	13842.64
554.507	13874.73
554.87	13775.53
555.234	13912.47
555.597	13760.39
555.96	13825.02
556.323	13774.4
556.686	13785.02
557.05	13768.97
557.413	13765.36
557.776	13677.9
558.139	13805.36
558.502	13698.92
558.865	13809.88
559.228	13800.84
559.59	13761.06
559.953	13745.47
560.316	13902.3
560.679	13766.94
561.041	13818.92
561.404	13812.14
561.767	13823.44
562.129	13705.47
562.492	13922.87
562.854	13848.29
563.217	13876.09
563.579	13803.55
563.941	13832.7
564.304	13911.34
564.666	13926.26
565.028	13937.33
565.39	13912.93
565.753	13985.24
566.115	13986.37
566.477	14011.45
566.839	14016.88
567.201	14084.67
567.563	14057.33
567.925	14136.87
568.287	14053.26
568.648	14095.52
569.01	14153.6
569.372	14224.56
569.734	14120.38
570.095	14152.47
570.457	14232.92
570.819	14141.17
571.18	14216.87
571.542	14248.28
571.903	14297.32
572.265	14281.73
572.626	14333.03
572.987	14292.8
573.349	14247.15
573.71	14358.79
574.071	14445.57
574.432	14367.6
574.794	14495.51
575.155	14435.62
575.516	14398.56
575.877	14446.92
576.238	14378.68
576.599	14427.49
576.96	14474.72
577.32	14494.15
577.681	14476.53
578.042	14479.01
578.403	14484.89
578.763	14417.77
579.124	14508.84
579.485	14537.99
579.845	14567.15
580.206	14472.68
580.566	14473.59
580.927	14505
581.287	14528.73
581.648	14432.23
582.008	14597.2
582.368	14497.09
582.728	14581.61
583.089	14441.72
583.449	14400.82
583.809	14509.29
584.169	14479.24
584.529	14406.92
584.889	14577.99
585.249	14432.91
585.609	14509.75
585.969	14501.16
586.329	14378.68
586.688	14480.14
587.048	14375.74
587.408	14394.95
587.768	14399.47
588.127	14347.72
588.487	14332.12
588.846	14346.13
589.206	14307.94
589.565	14356.53
589.925	14349.52
590.284	14251
590.643	14372.35
591.003	14235.63
591.362	14424.55
591.721	14320.15
592.08	14290.77
592.44	14339.35
592.799	14288.51
593.158	14334.83
593.517	14196.08
593.876	14216.19
594.235	14231.56
594.593	14316.3
594.952	14267.94
595.311	14241.05
595.67	14260.71
596.029	14310.65
596.387	14310.2
596.746	14323.31
597.104	14280.83
597.463	14233.37
597.822	14319.92
598.18	14098.68
598.538	14196.31
598.897	14235.63
599.255	14132.58
599.613	14397.21
599.972	14191.34
600.33	14270.2
600.688	14137.55
601.046	14311.33
601.404	14328.73
601.762	14246.48
602.12	14269.75
602.478	14355.85
602.836	14272.46
603.194	14288.51
603.552	14343.2
603.91	14220.94
604.268	14271.79
604.625	14332.58
604.983	14342.29
605.341	14242.41
605.698	14263.42
606.056	14292.12
606.413	14269.53
606.771	14352.91
607.128	14288.96
607.485	14285.12
607.843	14303.88
608.2	14312.24
608.557	14415.74
608.914	14281.5
609.272	14416.19
609.629	14458.9
609.986	14440.82
610.343	14301.62
610.7	14497.54
611.057	14432.01
611.414	14458.9
611.771	14482.85
612.127	14514.49
612.484	14388.17
612.841	14532.8
613.198	14483.76
613.554	14555.62
613.911	14533.47
614.267	14552.91
614.624	14543.87
614.98	14524.89
615.337	14658.89
615.693	14612.79
616.05	14580.25
616.406	14646.01
616.762	14636.3
617.118	14566.02
617.475	14627.71
617.831	14633.58
618.187	14669.29
618.543	14677.88
618.899	14786.8
619.255	14633.81
619.611	14672.91
619.967	14759.23
620.323	14739.34
620.678	14679.23
621.034	14683.07
621.39	14665.67
621.746	14638.56
622.101	14786.12
622.457	14710.19
622.812	14750.42
623.168	14738.89
623.523	14756.52
623.879	14774.15
624.234	14668.84
624.589	14768.5
624.945	14658.44
625.3	14709.97
625.655	14739.12
626.01	14693.7
626.365	14732.79
626.72	14739.12
627.075	14628.16
627.43	14738.67
627.785	14646.47
628.14	14668.39
628.495	14770.3
628.85	14730.76
629.205	14656.86
629.559	14725.11
629.914	14597.2
630.269	14613.25
630.623	14607.82
630.978	14512.91
631.332	14597.88
631.687	14587.94
632.041	14550.65
632.396	14548.61
632.75	14459.8
633.104	14547.94
633.459	14454.38
633.813	14480.14
634.167	14393.59
634.521	14406.02
634.875	14509.97
635.229	14506.36
635.583	14362.18
635.937	14323.31
636.291	14439.92
636.645	14414.83
636.999	14341.16
637.352	14402.86
637.706	14257.55
638.06	14366.47
638.413	14289.64
638.767	14320.82
639.121	14392.01
639.474	14191.34
639.828	14227.27
640.181	14205.35
640.534	14174.84
640.888	14218.45
641.241	14080.38
641.594	14271.33
641.947	14176.65
642.301	14173.71
642.654	14120.38
643.007	14134.16
643.36	14117.67
643.713	14026.37
644.066	14133.94
644.419	14001.74
644.771	14027.5
645.124	13760.16
645.477	13898.01
645.83	13742.99
646.182	13669.99
646.535	13713.61
646.888	13738.24
647.24	13582.31
647.593	13719.94
647.945	13641.29
648.298	13583.22
648.65	13637
649.002	13521.3
649.355	13695.76
649.707	13598.58
650.059	13615.31
650.411	13799.93
650.763	13806.71
651.115	13953.6
651.467	13915.64
651.819	13934.85
652.171	13930.78
652.523	13803.32
652.875	13865.47
653.227	13820.5
653.578	13891.91
653.93	13849.88
654.282	13790.89
654.633	13859.82
654.985	13862.76
655.337	13860.95
655.688	13921.29
656.039	13883.1
656.391	13861.63
656.742	13817.79
657.094	13933.26
657.445	13937.78
657.796	13889.87
658.147	13869.76
658.498	13897.78
658.849	13977.78
659.2	13863.21
659.551	13827.28
659.902	13845.81
660.253	13910.89
660.604	13876.99
660.955	13958.12
661.306	13950.44
661.656	13847.62
662.007	13915.41
662.358	13978.01
662.708	13921.74
663.059	13929.2
663.409	13822.98
663.76	13945.92
664.11	13966.03
664.461	13963.55
664.811	13894.85
665.161	13874.28
665.511	13928.07
665.862	13877.45
666.212	13894.17
666.562	13960.16
666.912	13910.89
667.262	13935.07
667.612	13905.69
667.962	13894.17
668.312	13920.61
668.662	13970.55
669.011	13905.92
669.361	13911.12
669.711	13952.92
670.06	13763.32
670.41	13884
670.76	13764.91
671.109	13984.79
671.459	13955.18
671.808	13797.45
672.157	13871.34
672.507	13737.11
672.856	13788.63
673.205	13850.78
673.554	13782.08
673.904	13790.44
674.253	13879.03
674.602	13745.7
674.951	13586.83
675.3	13502.77
675.649	13762.42
675.998	13738.01
676.346	13746.83
676.695	13784.57
677.044	13690.56
677.393	13701.41
677.741	13614.4
678.09	13722.2
678.438	13644.91
678.787	13662.99
679.135	13685.36
679.484	13524.69
679.832	13586.15
680.181	13439.94
680.529	13449.89
680.877	13475.2
681.225	13448.98
681.573	13489.89
681.922	13331.02
682.27	13429.55
682.618	13422.32
682.966	13302.09
683.314	13380.06
683.661	13321.08
684.009	13201.98
684.357	13220.97
684.705	13254.41
685.053	13164.24
685.4	13252.38
685.748	13041.08
686.095	13122.89
686.443	13162.44
686.79	12983.91
687.138	13098.48
687.485	13032.95
687.832	13000.41
688.18	13060.74
688.527	12930.13
688.874	12900.07
689.221	12925.61
689.568	12894.65
689.915	12792.95
690.262	12788.21
690.609	12797.02
690.956	12704.14
691.303	12711.15
691.65	12582.56
691.997	12589.12
692.344	12561.32
692.69	12535.56
693.037	12460.08
693.383	12419.63
693.73	12380.99
694.077	12350.03
694.423	12277.49
694.769	12291.27
695.116	12273.87
695.462	12208.34
695.808	12178.06
696.155	12159.07
696.501	12124.05
696.847	12123.14
697.193	11925.41
697.539	11998.4
697.885	11882.7
698.231	11943.26
698.577	11855.35
698.923	11805.64
699.269	11703.94
699.614	11699.88
699.96	11566.55
700.306	11675.7
700.651	11612.65
700.997	11536.26
701.342	11607.45
701.688	11523.16
702.033	11470.28
702.379	11455.81
702.724	11370.39
703.069	11404.06
703.415	11265.99
703.76	11205.2
704.105	11259.21
704.45	11265.09
704.795	11154.13
705.14	11092.21
705.485	11070.97
705.83	11106.45
706.175	11061.7
706.52	11076.62
706.865	10975.83
707.209	10995.49
707.554	10924.98
707.899	10904.87
708.243	10835.04
708.588	10851.31
708.932	10773.57
709.277	10753.23
709.621	10807.47
709.966	10681.15
710.31	10732.9
710.654	10647.25
710.998	10659.23
711.342	10643.63
711.687	10592.11
712.031	10543.97
712.375	10529.51
712.719	10541.94
713.063	10483.18
713.407	10547.82
713.75	10476.86
714.094	10382.85
714.438	10376.75
714.782	10379.68
715.125	10338.56
715.469	10345.56
715.812	10369.06
716.156	10300.82
716.499	10273.47
716.843	10351.44
717.186	10288.61
717.53	10287.94
717.873	10309.4
718.216	10184.44
718.559	10166.36
718.902	10064.21
719.246	10095.62
719.589	10082.97
719.932	10040.26
720.275	10077.55
720.617	10109.41
720.96	10054.27
721.303	10087.94
721.646	10092.01
721.989	10019.47
722.331	10040.94
722.674	9965.91
723.016	9952.8
723.359	9960.26
723.701	9987.38
724.044	9895.18
724.386	9895.4
724.729	10016.98
725.071	9909.41
725.413	9866.93
725.755	9849.53
726.097	9822.19
726.439	9800.26
726.782	9777.21
727.124	9878.91
727.465	9828.96
727.807	9829.42
728.149	9867.61
728.491	9748.06
728.833	9815.41
729.175	9817.44
729.516	9781.96
729.858	9807.27
730.199	9813.6
730.541	9793.94
730.882	9800.72
731.224	9761.85
731.565	9731.11
731.906	9785.35
732.248	9763.66
732.589	9712.58
732.93	9731.34
733.271	9741.06
733.612	9852.47
733.953	9718.91
734.294	9680.27
734.635	9676.88
734.976	9772.24
735.317	9673.71
735.658	9713.71
735.999	9670.78
736.339	9692.47
736.68	9812.69
737.021	9720.04
737.361	9710.1
737.702	9715.3
738.042	9741.96
738.383	9723.43
738.723	9718.91
739.063	9722.75
739.404	9811.79
739.744	9748.97
740.084	9698.35
740.424	9806.14
740.764	9776.08
741.104	9862.64
741.444	9799.81
741.784	9736.09
742.124	9848.17
742.464	9830.77
742.804	9808.4
743.143	9851.79
743.483	9863.99
743.823	9835.52
744.162	9922.52
744.502	10022.41
744.841	9940.15
745.181	10011.78
745.52	10047.94
745.86	10135.17
746.199	10096.08
746.538	10128.39
746.877	10194.38
747.216	10168.16
747.556	10200.48
747.895	10341.27
748.234	10347.37
748.573	10374.26
748.911	10416.52
749.25	10520.7
749.589	10571.09
749.928	10640.47
750.267	10739.68
750.605	10765.44
750.944	10818.09
751.283	10869.39
751.621	11026.45
751.96	11001.59
752.298	11162.94
752.636	11210.4
752.975	11363.61
753.313	11266.89
753.651	11510.95
753.989	11603.38
754.327	11709.14
754.666	11738.29
755.004	11920.44
755.342	12087.89
755.679	12217.38
756.017	12312.74
756.355	12409.46
756.693	12551.38
757.031	12721.32
