Data from hue_40_FLMS001491_79.txt Node
Date: Mon Feb 06 15:08:25 GMT 2017
User: dcchb
Spectrometer: FLMS00149
Trigger mode: 0
Integration Time (sec): 2.000000E-2
Scans to average: 10
Electric dark correction enabled: true
Nonlinearity correction enabled: false
Boxcar width: 0
XAxis mode: Wavelengths
Number of Pixels in Spectrum: 2048
>>>>>Begin Spectral Data<<<<<
341.393	-16.5
341.776	-16.5
342.16	-16.5
342.543	-75.25
342.927	-68.02
343.31	-58.98
343.693	-66.89
344.077	-57.63
344.46	-56.5
344.843	-56.72
345.226	-52.65
345.61	-47.23
345.993	-12.88
346.376	-2.26
346.759	9.27
347.142	32.77
347.525	53.33
347.908	51.98
348.291	83.61
348.674	76.16
349.057	104.63
349.44	111.18
349.823	120.67
350.206	174.01
350.588	202.03
350.971	189.15
351.354	223.72
351.737	229.82
352.119	257.62
352.502	276.38
352.884	277.96
353.267	278.86
353.65	292.65
354.032	297.85
354.414	312.08
354.797	308.24
355.179	322.93
355.562	328.8
355.944	334.68
356.326	337.62
356.709	331.29
357.091	342.14
357.473	334
357.855	350.95
358.238	347.11
358.62	352.08
359.002	341.91
359.384	341.69
359.766	327.9
360.148	349.82
360.53	333.1
360.912	324.06
361.294	327.22
361.676	335.58
362.057	329.71
362.439	337.84
362.821	308.24
363.203	311.4
363.584	319.09
363.966	330.16
364.348	333.55
364.729	324.06
365.111	337.62
365.493	310.95
365.874	315.25
366.256	312.31
366.637	321.57
367.019	314.79
367.4	303.49
367.781	312.08
368.163	352.08
368.544	325.42
368.925	328.35
369.306	318.64
369.688	299.88
370.069	327.67
370.45	310.5
370.831	318.64
371.212	315.47
371.593	324.06
371.974	329.48
372.355	310.05
372.736	319.31
373.117	336.94
373.498	315.47
373.879	304.85
374.26	316.83
374.641	317.05
375.021	317.28
375.402	337.84
375.783	321.35
376.163	320.67
376.544	326.77
376.925	328.58
377.305	322.48
377.686	335.13
378.066	303.27
378.447	337.62
378.827	323.38
379.208	307.79
379.588	315.7
379.968	343.27
380.349	342.36
380.729	339.65
381.109	326.77
381.489	352.08
381.87	329.71
382.25	328.35
382.63	335.36
383.01	343.95
383.39	324.06
383.77	332.19
384.15	347.56
384.53	343.95
384.91	332.19
385.29	326.09
385.67	345.08
386.049	355.24
386.429	378.97
386.809	342.14
387.189	365.87
387.568	339.2
387.948	352.53
388.328	354.11
388.707	357.05
389.087	347.79
389.466	340.78
389.846	375.58
390.225	366.77
390.605	350.73
390.984	388.01
391.363	353.89
391.743	361.57
392.122	359.09
392.501	371.29
392.881	382.14
393.26	358.18
393.639	377.84
394.018	364.74
394.397	364.96
394.776	369.48
395.155	364.74
395.534	357.5
395.913	380.33
396.292	372.19
396.671	378.07
397.05	400.89
397.429	400.44
397.808	374.23
398.186	385.3
398.565	392.53
398.944	364.51
399.323	381.46
399.701	403.15
400.08	393.44
400.458	392.53
400.837	406.77
401.215	394.57
401.594	394.79
401.972	404.96
402.351	397.28
402.729	394.34
403.107	385.07
403.486	392.98
403.864	405.87
404.242	407.9
404.62	409.93
404.999	401.35
405.377	418.97
405.755	416.71
406.133	427.11
406.511	412.19
406.889	418.07
407.267	410.84
407.645	435.69
408.023	427.56
408.401	443.6
408.779	418.52
409.156	405.19
409.534	432.98
409.912	432.31
410.29	454.9
410.667	419.65
411.045	437.28
411.422	454.45
411.8	442.93
412.178	453.32
412.555	423.94
412.933	456.03
413.31	434.11
413.687	448.8
414.065	436.82
414.442	472.08
414.819	480.67
415.197	483.83
415.574	454
415.951	495.13
416.328	479.76
416.705	487.67
417.082	476.6
417.46	494.45
417.837	503.49
418.214	488.57
418.591	516.37
418.967	513.43
419.344	507.33
419.721	525.41
420.098	497.61
420.475	498.52
420.852	470.95
421.228	513.66
421.605	530.61
421.982	509.14
422.358	545.07
422.735	521.79
423.111	522.47
423.488	501
423.864	510.04
424.241	545.3
424.617	525.41
424.994	531.96
425.37	561.57
425.746	543.26
426.123	531.29
426.499	541
426.875	539.65
427.251	566.54
427.627	567.67
428.003	568.8
428.379	570.15
428.756	572.19
429.132	561.34
429.507	606.99
429.883	596.82
430.259	588.46
430.635	607.44
431.011	576.71
431.387	588.01
431.763	591.62
432.138	596.82
432.514	613.32
432.89	605.41
433.265	628.68
433.641	642.92
434.016	630.04
434.392	633.66
434.767	653.54
435.143	636.14
435.518	651.06
435.894	657.84
436.269	645.41
436.644	646.99
437.02	670.94
437.395	679.76
437.77	680.21
438.145	679.3
438.52	667.78
438.895	684.5
439.271	707.33
439.646	693.54
440.021	718.4
440.395	715.01
440.77	734.22
441.145	710.49
441.52	738.96
441.895	729.47
442.27	718.63
442.645	720.66
443.019	742.13
443.394	761.56
443.769	735.35
444.143	738.96
444.518	752.97
444.892	757.27
445.267	738.29
445.641	769.92
446.016	768.79
446.39	748.91
446.764	783.71
447.139	785.97
447.513	769.02
447.887	782.58
448.262	789.81
448.636	792.52
449.01	800.2
449.384	808.57
449.758	782.13
450.132	824.39
450.506	822.35
450.88	797.27
451.254	844.5
451.628	843.14
452.002	831.62
452.376	850.37
452.75	842.69
453.123	847.89
453.497	874.1
453.871	858.73
454.244	865.06
454.618	888.56
454.992	906.19
455.365	882.91
455.739	891.28
456.112	911.61
456.486	924.27
456.859	937.15
457.232	946.19
457.606	957.26
457.979	976.92
458.352	964.04
458.725	990.26
459.099	987.09
459.472	1003.82
459.845	1011.72
460.218	1019.86
460.591	1023.02
460.964	1029.8
461.337	1041.55
461.71	1036.36
462.083	1072.51
462.456	1078.62
462.829	1077.71
463.201	1128.78
463.574	1130.37
463.947	1117.03
464.32	1146.41
464.692	1145.28
465.065	1166.52
465.438	1183.25
465.81	1230.93
466.183	1219.63
466.555	1223.02
466.928	1256.24
467.3	1251.04
467.672	1255.33
468.045	1303.02
468.417	1294.43
468.789	1291.72
469.161	1362.45
469.534	1364.71
469.906	1395.22
470.278	1400.19
470.65	1409.45
471.022	1464.37
471.394	1489.23
471.766	1499.62
472.138	1503.01
472.51	1536.46
472.882	1587.53
473.253	1588.21
473.625	1626.17
473.997	1676.34
474.369	1704.81
474.74	1713.63
475.112	1753.4
475.484	1833.62
475.855	1863
476.227	1872.04
476.598	1912.49
476.97	1950.68
477.341	1995.43
477.713	2060.06
478.084	2090.11
478.455	2160.85
478.827	2181.86
479.198	2241.97
479.569	2306.61
479.94	2349.32
480.311	2421.63
480.682	2487.62
481.053	2590.21
481.424	2642.64
481.795	2686.03
482.166	2747.5
482.537	2830.89
482.908	2919.7
483.279	2959.92
483.65	3048.73
484.021	3133.02
484.391	3178.67
484.762	3245.11
485.133	3312.23
485.503	3373.7
485.874	3475.16
486.244	3599.91
486.615	3686.91
486.985	3684.42
487.356	3822.5
487.726	3919.9
488.097	4049.61
488.467	4085.32
488.837	4215.48
489.207	4305.2
489.578	4422.71
489.948	4495.93
490.318	4638.75
490.688	4695.47
491.058	4787.9
491.428	4894.11
491.798	5007.1
492.168	5137.27
492.538	5195.12
492.908	5275.34
493.278	5411.38
493.648	5511.27
494.017	5577.93
494.387	5688.89
494.757	5791.71
495.126	5851.82
495.496	5929.34
495.866	6031.03
496.235	6124.81
496.605	6221.31
496.974	6306.05
497.344	6404.35
497.713	6485.71
498.082	6547.17
498.452	6715.08
498.821	6735.19
499.19	6812.25
499.559	6955.52
499.928	6972.02
500.298	7092.02
500.667	7152.13
501.036	7205.69
501.405	7304.67
501.774	7315.97
502.143	7492.23
502.512	7527.26
502.88	7644.54
503.249	7693.58
503.618	7773.58
503.987	7866.01
504.356	7914.59
504.724	7937.19
505.093	8045.89
505.462	8145.77
505.83	8240.46
506.199	8312.1
506.567	8397.07
506.936	8367.01
507.304	8579.21
507.672	8660.79
508.041	8640
508.409	8779.66
508.777	8812.2
509.145	8917.96
509.514	8940.78
509.882	9025.3
510.25	9063.04
510.618	9152.3
510.986	9269.13
511.354	9267.55
511.722	9349.13
512.09	9472.07
512.458	9500.54
512.826	9568.34
513.193	9642.01
513.561	9675.23
513.929	9768.56
514.297	9852.17
514.664	9924.94
515.032	9960.19
515.4	9977.82
515.767	10063.01
516.135	10188.43
516.502	10136.68
516.869	10324.47
517.237	10370.12
517.604	10346.39
517.972	10443.57
518.339	10570.34
518.706	10533.73
519.073	10638.82
519.44	10743.67
519.808	10817.34
520.175	10860.96
520.542	10964.23
520.909	11006.94
521.276	11028.64
521.643	11132.81
522.009	11138.46
522.376	11187.73
522.743	11336.2
523.11	11424.56
523.477	11549.3
523.843	11529.19
524.21	11758.56
524.577	11826.58
524.943	11834.72
525.31	11880.59
525.676	11968.72
526.043	12012.34
526.409	12150.87
526.776	12272.22
527.142	12291.43
527.508	12335.95
527.874	12392.89
528.241	12563.29
528.607	12596.5
528.973	12638.31
529.339	12664.3
529.705	12845.09
530.071	12869.94
530.437	12996.49
530.803	12967.57
531.169	13164.63
531.535	13072.42
531.901	13158.3
532.267	13268.13
532.632	13226.77
532.998	13366.65
533.364	13397.84
533.73	13477.16
534.095	13608
534.461	13642.35
534.826	13727.55
535.192	13716.25
535.557	13808.9
535.923	13873.76
536.288	13967.54
536.653	13988.78
537.019	13938.39
537.384	14117.14
537.749	14149.91
538.114	14209.34
538.479	14132.28
538.845	14237.14
539.21	14298.16
539.575	14296.35
539.94	14456.8
540.305	14448.66
540.67	14486.85
541.034	14597.81
541.399	14616.34
541.764	14649.78
542.129	14713.06
542.494	14779.05
542.858	14912.38
543.223	14812.27
543.587	15019.27
543.952	14994.41
544.316	15047.06
544.681	15061.98
545.045	15239.6
545.41	15233.72
545.774	15240.73
546.138	15345.59
546.503	15440.05
546.867	15418.58
547.231	15562.53
547.595	15490.89
547.959	15612.92
548.324	15727.72
548.688	15796.65
549.052	15751.68
549.416	15797.32
549.779	15775.86
550.143	15948.73
550.507	15922.07
550.871	16058.56
551.235	16050.65
551.599	16102.63
551.962	16270.31
552.326	16249.97
552.689	16275.28
553.053	16303.3
553.417	16228.95
553.78	16524.76
554.143	16457.42
554.507	16547.36
554.87	16636.85
555.234	16712.55
555.597	16730.41
555.96	16843.62
556.323	16819.9
556.686	16872.32
557.05	17085.43
557.413	17013.56
557.776	17097.63
558.139	17213.78
558.502	17252.2
558.865	17275.48
559.228	17368.13
559.59	17428.69
559.953	17417.85
560.316	17602.93
560.679	17667.11
561.041	17752.08
561.404	17790.72
561.767	17897.16
562.129	17892.64
562.492	17950.26
562.854	18006.98
563.217	18045.63
563.579	18197.71
563.941	18289.69
564.304	18380.08
564.666	18359.07
565.028	18385.73
565.39	18421.21
565.753	18512.51
566.115	18578.72
566.477	18706.17
566.839	18817.58
567.201	18856
567.563	18883.12
567.925	18985.04
568.287	19054.87
568.648	19016.45
569.01	19297.57
569.372	19287.63
569.734	19332.15
570.095	19453.27
570.457	19580.73
570.819	19595.64
571.18	19620.28
571.542	19696.66
571.903	19732.81
572.265	19936.42
572.626	19955.86
572.987	19921.74
573.349	20029.08
573.71	20239.47
574.071	20218
574.432	20317.66
574.794	20489.18
575.155	20657.08
575.516	20518.78
575.877	20845.55
576.238	20825.44
576.599	20868.38
576.96	20963.97
577.32	21042.38
577.681	21219.33
578.042	21296.62
578.403	21491.86
578.763	21484.86
579.124	21665.42
579.485	21768.47
579.845	21990.83
580.206	22013.88
580.566	22074
580.927	22339.98
581.287	22441.67
581.648	22478.5
582.008	22735.67
582.368	22825.61
582.728	23052.5
583.089	23059.73
583.449	23146.28
583.809	23414.53
584.169	23560.96
584.529	23575.88
584.889	23949.43
585.249	23981.52
585.609	24051.34
585.969	24358.46
586.329	24553.03
586.688	24715.73
587.048	24863.3
587.408	24973.58
587.768	25254.48
588.127	25347.36
588.487	25423.74
588.846	25878.19
589.206	25918.41
589.565	26003.16
589.925	26335.13
590.284	26418.74
590.643	26673.87
591.003	26842.91
591.362	27084.94
591.721	27112.28
592.08	27336.91
592.44	27701.42
592.799	27903
593.158	27936.89
593.517	28150.9
593.876	28347.05
594.235	28505.92
594.593	28524.22
594.952	28920.14
595.311	29051.89
595.67	29177.31
596.029	29558.77
596.387	29857.97
596.746	29897.74
597.104	29913.34
597.463	30092.54
597.822	30278.75
598.18	30402.59
598.538	30562.13
598.897	30871.5
599.255	30835.12
599.613	31373.41
599.972	31364.37
600.33	31521.66
600.688	31545.84
601.046	31792.61
601.404	32088.65
601.762	32041.19
602.12	32585.13
602.478	32550.33
602.836	32534.96
603.194	32704.9
603.552	32832.36
603.91	32863.99
604.268	33037.32
604.625	33104.44
604.983	33280.03
605.341	33356.64
605.698	33705.55
606.056	33830.07
606.413	33821.26
606.771	34084.08
607.128	34264.18
607.485	34210.4
607.843	34229.61
608.2	34492.88
608.557	34694.23
608.914	34709.6
609.272	34894
609.629	35132.41
609.986	35168.79
610.343	35169.24
610.7	35463.93
611.057	35675.22
611.414	35518.39
611.771	35597.03
612.127	35848.55
612.484	35869.11
612.841	36133.74
613.198	35944.37
613.554	36176.45
613.911	36424.58
614.267	36543.9
614.624	36620.51
614.98	36642.2
615.337	36851.23
615.693	36899.59
616.05	36786.15
616.406	37094.62
616.762	36910.44
617.118	37086.03
617.475	37336.87
617.831	37439.24
618.187	37489.86
618.543	37429.98
618.899	37671.78
619.255	37608.5
619.611	37818.21
619.967	37923.52
620.323	38072.45
620.678	37704.77
621.034	37879.91
621.39	37874.48
621.746	37922.62
622.101	38465.43
622.457	38118.32
622.812	38172.1
623.168	38333.68
623.523	38351.99
623.879	38504.3
624.234	38182.5
624.589	38426.79
624.945	38426.56
625.3	38679.89
625.655	38581.36
626.01	38710.85
626.365	38813.22
626.72	38782.71
627.075	38713.11
627.43	38771.18
627.785	38653.22
628.14	38825.65
628.495	38919.43
628.85	38960.78
629.205	38768.02
629.559	38999.43
629.914	38804.4
630.269	38841.92
630.623	38861.58
630.978	38687.8
631.332	38972.76
631.687	38875.14
632.041	38921.01
632.396	38977.96
632.75	38725.54
633.104	38934.12
633.459	38560.57
633.813	38822.26
634.167	38794.23
634.521	38691.86
634.875	38822.26
635.229	38870.62
635.583	38542.72
635.937	38773.44
636.291	38715.14
636.645	38875.36
636.999	38597.4
637.352	38806.44
637.706	38315.15
638.06	38650.74
638.413	38669.94
638.767	38575.03
639.121	38617.29
639.474	38429.95
639.828	38344.08
640.181	38460.01
640.534	38545.2
640.888	38399.22
641.241	38265.66
641.594	38250.52
641.947	38383.62
642.301	38386.34
642.654	38309.73
643.007	38351.31
643.36	38347.24
643.713	38291.2
644.066	38317.41
644.419	38126.23
644.771	37858.44
645.124	37537.77
645.477	37589.52
645.83	37358.34
646.182	37223.65
646.535	37101.17
646.888	37164.45
647.24	36945.7
647.593	37151.34
647.945	37022.08
648.298	36888.3
648.65	37018.91
649.002	36764.91
649.355	36921.29
649.707	36904.34
650.059	37042.42
650.411	37431.56
650.763	37489.64
651.115	37736.41
651.467	37674.72
651.819	37767.37
652.171	37627.26
652.523	37508.62
652.875	37626.81
653.227	37485.12
653.578	37766.69
653.93	37677.88
654.282	37408.73
654.633	37365.12
654.985	37633.13
655.337	37578.45
655.688	37386.36
656.039	37559.46
656.391	37156.76
656.742	37307.27
657.094	37405.34
657.445	37586.81
657.796	37376.87
658.147	37243.99
658.498	37288.74
658.849	37426.81
659.2	37281.96
659.551	37178.23
659.902	37369.86
660.253	37219.81
660.604	37380.03
660.955	37108.63
661.306	37275.63
661.656	37173.94
662.007	37215.07
662.358	37178.23
662.708	37165.8
663.059	37099.14
663.409	36950.67
663.76	37158.12
664.11	37093.94
664.461	37235.41
664.811	37214.16
665.161	37060.27
665.511	37032.47
665.862	37112.47
666.212	37226.59
666.562	37157.44
666.912	37131.91
667.262	37067.05
667.612	37097.56
667.962	37041.29
668.312	36998.35
668.662	37223.65
669.011	37168.29
669.361	37042.87
669.711	37075.64
670.06	36960.38
670.41	36922.19
670.76	36932.81
671.109	36912.02
671.459	36917.67
671.808	36866.38
672.157	37011.68
672.507	36787.96
672.856	36787.73
673.205	36749.54
673.554	36906.37
673.904	36782.99
674.253	36917.45
674.602	36784.34
674.951	36246.96
675.3	36076.79
675.649	36616.89
675.998	36778.47
676.346	36723.33
676.695	36879.26
677.044	36451.47
677.393	36559.04
677.741	36543.45
678.09	36499.15
678.438	36491.47
678.787	36478.81
679.135	36509.1
679.484	36364.92
679.832	36530.11
680.181	36280.4
680.529	36223.45
680.877	36290.8
681.225	36198.6
681.573	36416.67
681.922	36257.13
682.27	36002.9
682.618	36135.77
682.966	35906.63
683.314	36009
683.661	35837.02
684.009	35795.67
684.357	35664.15
684.705	35771.26
685.053	35704.82
685.4	35574.43
685.748	35444.04
686.095	35406.53
686.443	35358.84
686.79	35260.32
687.138	35288.34
687.485	35340.09
687.832	35074.56
688.18	35261.22
688.527	35025.52
688.874	34945.75
689.221	34916.6
689.568	34816.71
689.915	34699.88
690.262	34783.27
690.609	34666.66
690.956	34538.3
691.303	34499.66
691.65	34295.14
691.997	34319.32
692.344	34133.79
692.69	34112.32
693.037	34026.22
693.383	33849.73
693.73	33938.32
694.077	33823.52
694.423	33877.53
694.769	33642.05
695.116	33701.71
695.462	33586.24
695.808	33409.97
696.155	33487.71
696.501	33190.31
696.847	33327.03
697.193	33089.98
697.539	33150.54
697.885	32832.36
698.231	32842.75
698.577	32894.5
698.923	32813.6
699.269	32652.47
699.614	32379.71
699.96	32596.21
700.306	32501.29
700.651	32343.1
700.997	32248.64
701.342	32266.5
701.688	32117.57
702.033	31989.22
702.379	32024.47
702.724	31800.29
703.069	32012.27
703.415	31530.92
703.76	31690.92
704.105	31688.88
704.45	31472.62
704.795	31303.36
705.14	31307.43
705.485	31309.91
705.83	31144.27
706.175	31271.04
706.52	31035.57
706.865	31017.26
707.209	30788.12
707.554	30826.53
707.899	30897.27
708.243	30751.96
708.588	30654.79
708.932	30391.97
709.277	30304.97
709.621	30440.56
709.966	30369.82
710.31	30411.18
710.654	30079.44
710.998	30202.82
711.342	30085.76
711.687	30055.25
712.031	29803.74
712.375	29861.36
712.719	29914.92
713.063	29748.14
713.407	29899.55
713.75	29638.09
714.094	29746.79
714.438	29480.58
714.782	29505.66
715.125	29357.87
715.469	29439.68
715.812	29239.23
716.156	29236.07
716.499	29149.29
716.843	29225.22
717.186	29098.22
717.53	29185
717.873	29130.76
718.216	28972.12
718.559	29010.31
718.902	28765.57
719.246	28867.49
719.589	28770.54
719.932	28584.56
720.275	28545.24
720.617	28504.34
720.96	28575.97
721.303	28545.24
721.646	28345.24
721.989	28306.37
722.331	28330.78
722.674	28394.28
723.016	28242.87
723.359	28167.39
723.701	28215.76
724.044	28058.47
724.386	27940.73
724.729	28068.19
725.071	27932.6
725.413	27928.53
725.755	27893.28
726.097	27748.87
726.439	27664.58
726.782	27679.72
727.124	27795.88
727.465	27483.57
727.807	27571.93
728.149	27504.14
728.491	27494.19
728.833	27534.42
729.175	27401.54
729.516	27477.7
729.858	27319.96
730.199	27339.39
730.541	27277.47
730.882	27263.46
731.224	27233.86
731.565	27096.46
731.906	27175.33
732.248	27065.96
732.589	26894.21
732.93	26909.8
733.271	27011.49
733.612	26949.35
733.953	27029.57
734.294	26970.14
734.635	26918.84
734.976	26785.28
735.317	26688.11
735.658	26591.39
735.999	26750.94
736.339	26591.62
736.68	26664.38
737.021	26642.01
737.361	26413.77
737.702	26592.75
738.042	26580.77
738.383	26413.09
738.723	26354.56
739.063	26363.6
739.404	26329.48
739.744	26313.88
740.084	26350.49
740.424	26203.6
740.764	26176.03
741.104	26216.03
741.444	26061.46
741.784	25968.13
742.124	26026.43
742.464	25935.14
742.804	25967
743.143	25836.61
743.483	25888.81
743.823	25752.54
744.162	25744.86
744.502	25736.5
744.841	25655.37
745.181	25687.01
745.52	25580.34
745.86	25653.11
746.199	25649.72
746.538	25607.01
746.877	25591.42
747.216	25553
747.556	25476.17
747.895	25531.53
748.234	25296.74
748.573	25343.06
748.911	25239.56
749.25	25281.37
749.589	25227.36
749.928	25186.68
750.267	25138.32
750.605	25151.66
750.944	25099.9
751.283	24840.02
751.621	25092
751.96	24795.51
752.298	24891.77
752.636	24814.04
752.975	24626.25
753.313	24684.77
753.651	24736.07
753.989	24527.94
754.327	24536.76
754.666	24471.9
755.004	24461.28
755.342	24452.69
755.679	24411.34
756.017	24295.41
756.355	24300.6
756.693	24085.02
757.031	24240.49
757.368	24055.64
757.706	24128.18
