Data from hue_70_FLMS001491_26.txt Node
Date: Mon Feb 06 15:20:20 GMT 2017
User: dcchb
Spectrometer: FLMS00149
Trigger mode: 0
Integration Time (sec): 2.000000E-2
Scans to average: 10
Electric dark correction enabled: true
Nonlinearity correction enabled: false
Boxcar width: 0
XAxis mode: Wavelengths
Number of Pixels in Spectrum: 2048
>>>>>Begin Spectral Data<<<<<
341.393	4.28
341.776	4.28
342.16	4.28
342.543	-62.84
342.927	-68.49
343.31	-86.11
343.693	-80.69
344.077	-72.55
344.46	-58.32
344.843	-49.96
345.226	-27.36
345.61	-20.35
345.993	-27.58
346.376	-6.34
346.759	10.61
347.142	24.62
347.525	50.61
347.908	54.9
348.291	78.18
348.674	89.25
349.057	121.11
349.44	105.75
349.823	148.91
350.206	161.11
350.588	212.86
350.971	217.38
351.354	217.61
351.737	229.58
352.119	231.39
352.502	263.26
352.884	267.55
353.267	290.83
353.65	284.05
354.032	305.74
354.414	296.02
354.797	308.68
355.179	322.24
355.562	328.56
355.944	328.79
356.326	344.16
356.709	339.41
357.091	320.88
357.473	343.93
357.855	365.85
358.238	331.05
358.62	356.13
359.002	361.33
359.384	345.29
359.766	345.06
360.148	341.45
360.53	337.83
360.912	338.73
361.294	329.69
361.676	316.36
362.057	348.68
362.439	341.22
362.821	342.58
363.203	337.6
363.584	309.13
363.966	312.52
364.348	312.75
364.729	299.19
365.111	318.85
365.493	321.79
365.874	314.55
366.256	318.62
366.637	327.21
367.019	314.33
367.4	323.82
367.781	324.05
368.163	328.11
368.544	308
368.925	321.79
369.306	317.94
369.688	308.45
370.069	317.27
370.45	307.55
370.831	304.61
371.212	306.19
371.593	297.38
371.974	313.88
372.355	316.36
372.736	306.19
373.117	326.98
373.498	315.68
373.879	313.88
374.26	322.92
374.641	315.91
375.021	309.36
375.402	335.34
375.783	319.98
376.163	322.92
376.544	351.62
376.925	345.51
377.305	320.66
377.686	328.11
378.066	335.57
378.447	312.52
378.827	300.77
379.208	325.4
379.588	323.14
379.968	328.56
380.349	330.82
380.729	332.63
381.109	333.99
381.489	342.35
381.87	344.38
382.25	333.76
382.63	338.28
383.01	334.44
383.39	322.92
383.77	359.75
384.15	336.93
384.53	336.93
384.91	345.97
385.29	343.48
385.67	341.9
386.049	339.19
386.429	341.9
386.809	355.46
387.189	336.25
387.568	376.93
387.948	363.37
388.328	350.71
388.707	357.72
389.087	349.58
389.466	357.26
389.846	360.65
390.225	350.94
390.605	354.33
390.984	362.69
391.363	364.95
391.743	359.07
392.122	364.27
392.501	360.2
392.881	355.46
393.26	360.2
393.639	363.37
394.018	375.8
394.397	369.47
394.776	380.09
395.155	378.06
395.534	388.22
395.913	361.56
396.292	394.55
396.671	378.06
397.05	381.44
397.429	385.51
397.808	388.22
398.186	376.93
398.565	396.59
398.944	375.57
399.323	369.24
399.701	378.51
400.08	362.01
400.458	368.34
400.837	399.07
401.215	390.71
401.594	375.34
401.972	381.22
402.351	386.64
402.729	389.58
403.107	388.45
403.486	388.45
403.864	409.01
404.242	379.86
404.62	390.48
404.999	405.4
405.377	391.16
405.755	385.29
406.133	397.72
406.511	416.02
406.889	419.86
407.267	427.32
407.645	416.47
408.023	428.68
408.401	414.66
408.779	422.8
409.156	410.82
409.534	424.38
409.912	431.61
410.29	439.75
410.667	425.51
411.045	441.1
411.422	424.61
411.8	434.1
412.178	430.48
412.555	458.96
412.933	447.88
413.31	447.66
413.687	465.74
414.065	438.84
414.442	462.57
414.819	451.27
415.197	466.87
415.574	472.74
415.951	466.19
416.328	464.15
416.705	471.16
417.082	488.33
417.46	478.62
417.837	472.74
418.214	489.01
418.591	494.21
418.967	470.03
419.344	489.69
419.721	491.72
420.098	492.85
420.475	490.37
420.852	492.4
421.228	482.23
421.605	493.76
421.982	498.28
422.358	510.48
422.735	529.01
423.111	504.15
423.488	525.4
423.864	532.4
424.241	533.53
424.617	535.34
424.994	521.55
425.37	524.94
425.746	513.64
426.123	536.02
426.499	536.02
426.875	543.25
427.251	548.45
427.627	544.6
428.003	541.89
428.379	552.29
428.756	589.8
429.132	558.62
429.507	587.99
429.883	567.2
430.259	569.24
430.635	584.83
431.011	609.91
431.387	592.29
431.763	607.2
432.138	622.79
432.514	609.01
432.89	592.74
433.265	622.57
433.641	627.09
434.016	621.66
434.392	620.31
434.767	648.56
435.143	637.26
435.518	647.2
435.894	659.18
436.269	656.47
436.644	649.46
437.02	648.33
437.395	682.68
437.77	687.2
438.145	656.47
438.52	670.25
438.895	699.4
439.271	682.91
439.646	707.99
440.021	687.43
440.395	668.89
440.77	683.58
441.145	712.06
441.52	731.27
441.895	713.87
442.27	724.71
442.645	723.81
443.019	741.66
443.394	724.03
443.769	739.85
444.143	732.62
444.518	753.86
444.892	743.7
445.267	745.05
445.641	739.63
446.016	746.18
446.39	761.77
446.764	755.67
447.139	790.25
447.513	769.23
447.887	773.75
448.262	798.61
448.636	780.3
449.01	785.73
449.384	794.54
449.758	795.67
450.132	793.86
450.506	831.83
450.88	833.86
451.254	828.44
451.628	841.55
452.002	843.81
452.376	845.84
452.75	846.29
453.123	835.67
453.497	862.34
453.871	872.28
454.244	912.5
454.618	876.57
454.992	890.81
455.365	887.19
455.739	922
456.112	908.21
456.486	920.19
456.859	929.68
457.232	946.85
457.606	958.38
457.979	967.42
458.352	1001.77
458.725	981.2
459.099	1007.87
459.472	1018.72
459.845	1038.6
460.218	1006.29
460.591	1041.77
460.964	1011.03
461.337	1045.16
461.71	1067.98
462.083	1090.58
462.456	1091.26
462.829	1100.97
463.201	1118.37
463.574	1126.96
463.947	1141.2
464.32	1138.04
464.692	1173.06
465.065	1189.33
465.438	1209.9
465.81	1211.25
466.183	1234.76
466.555	1253.74
466.928	1276.34
467.3	1308.43
467.672	1284.47
468.045	1354.3
468.417	1345.04
468.789	1348.88
469.161	1385.94
469.534	1433.39
469.906	1455.54
470.278	1451.47
470.65	1477.24
471.022	1507.52
471.394	1567.85
471.766	1550.91
472.138	1591.58
472.51	1632.49
472.882	1649.89
473.253	1706.61
473.625	1719.04
473.997	1725.14
474.369	1754.06
474.74	1819.83
475.112	1863.21
475.484	1900.27
475.855	1962.19
476.227	1992.25
476.598	2041.29
476.97	2051.01
477.341	2129.42
477.713	2253.94
478.084	2234.73
478.455	2322.41
478.827	2356.31
479.198	2449.41
479.569	2511.11
479.94	2553.37
480.311	2625.23
480.682	2736.41
481.053	2832.23
481.424	2906.58
481.795	2947.7
482.166	3027.25
482.537	3066.35
482.908	3203.29
483.279	3305.66
483.65	3358.54
484.021	3481.7
484.391	3562.38
484.762	3634.47
485.133	3767.57
485.503	3890.96
485.874	3973.21
486.244	4097.51
486.615	4196.71
486.985	4319.87
487.356	4426.31
487.726	4572.07
488.097	4710.6
488.467	4769.35
488.837	4921.44
489.207	5078.5
489.578	5224.71
489.948	5353.97
490.318	5454.76
490.688	5598.48
491.058	5679.38
491.428	5899.72
491.798	5997.12
492.168	6144.68
492.538	6213.83
492.908	6404.34
493.278	6561.62
493.648	6692.01
494.017	6794.38
494.387	6987.15
494.757	7105.79
495.126	7243.41
495.496	7306.46
495.866	7446.12
496.235	7621.93
496.605	7846.79
496.974	7924.07
497.344	8060.56
497.713	8178.75
498.082	8305.53
498.452	8458.07
498.821	8544.62
499.19	8686.54
499.559	8800.21
499.928	8912.52
500.298	9024.38
500.667	9239.74
501.036	9336.92
501.405	9532.84
501.774	9526.74
502.143	9688.09
502.512	9795.89
502.88	9943.23
503.249	9995.66
503.618	10137.12
503.987	10248.98
504.356	10376.21
504.724	10479.26
505.093	10608.07
505.462	10670.44
505.83	10844.9
506.199	10935.07
506.567	11076.76
506.936	11166.7
507.304	11305.68
507.672	11396.97
508.041	11503.19
508.409	11631.77
508.777	11774.14
509.145	11897.75
509.514	11956.51
509.882	12087.13
510.25	12201.92
510.618	12290.51
510.986	12410.96
511.354	12434.91
511.722	12624.51
512.09	12697.96
512.458	12740.67
512.826	12949.48
513.193	13023.82
513.561	13040.32
513.929	13174.55
514.297	13330.71
514.664	13495.9
515.032	13486.41
515.4	13511.27
515.767	13670.13
516.135	13799.4
516.502	13716.69
516.869	14030.8
517.237	14139.95
517.604	14160.52
517.972	14261.31
518.339	14311.25
518.706	14386.73
519.073	14369.33
519.44	14572.71
519.808	14723.89
520.175	14669.66
520.542	14845.25
520.909	14944
521.276	14897.45
521.643	15170.89
522.009	15172.69
522.376	15239.13
522.743	15393.71
523.11	15452.01
523.477	15634.38
523.843	15722.51
524.21	15897.42
524.577	15983.75
524.943	15981.71
525.31	16035.27
525.676	16189.16
526.043	16257.86
526.409	16369.5
526.776	16543.28
527.142	16528.59
527.508	16567.69
527.874	16722.03
528.241	16832.99
528.607	16814.68
528.973	16924.96
529.339	16955.25
529.705	17150.27
530.071	17196.6
530.437	17343.48
530.803	17145.98
531.169	17328.12
531.535	17351.39
531.901	17438.17
532.267	17474.33
532.632	17570.37
532.998	17584.16
533.364	17688.33
533.73	17741.89
534.095	17788.22
534.461	17873.41
534.826	17910.02
535.192	17895.79
535.557	18095.78
535.923	17945.73
536.288	18076.8
536.653	18041.09
537.019	17991.6
537.384	18073.18
537.749	18159.06
538.114	18099.62
538.479	18238.83
538.845	18286.96
539.21	18142.11
539.575	18293.29
539.94	18292.39
540.305	18355.66
540.67	18371.48
541.034	18339.62
541.399	18401.76
541.764	18445.15
542.129	18517.01
542.494	18462.33
542.858	18500.06
543.223	18486.05
543.587	18595.43
543.952	18530.8
544.316	18599.72
544.681	18635.65
545.045	18622.77
545.41	18636.11
545.774	18676.78
546.138	18699.83
546.503	18643.56
546.867	18710.68
547.231	18858.93
547.595	18905.7
547.959	18806.95
548.324	18806.72
548.688	18820.51
549.052	18909.77
549.416	18883.33
549.779	18911.35
550.143	18848.3
550.507	18939.37
550.871	18989.77
551.235	19001.07
551.599	19052.59
551.962	19047.85
552.326	19028.19
552.689	19159.03
553.053	19079.26
553.417	19047.62
553.78	19370.1
554.143	19171.46
554.507	19171.46
554.87	19286.03
555.234	19390.89
555.597	19311.34
555.96	19324.45
556.323	19453.49
556.686	19382.53
557.05	19438.57
557.413	19512.24
557.776	19543.2
558.139	19631.79
558.502	19682.86
558.865	19570.54
559.228	19712.24
559.59	19794.27
559.953	19764.44
560.316	19959.91
560.679	20003.08
561.041	20028.84
561.404	20050.31
561.767	20192.68
562.129	20127.59
562.492	20313.8
562.854	20246.46
563.217	20257.08
563.579	20324.88
563.941	20418.21
564.304	20390.86
564.666	20535.94
565.028	20619.56
565.39	20584.53
565.753	20718.54
566.115	20668.37
566.477	20841.02
566.839	20825.65
567.201	20974.12
567.563	20949.04
567.925	20943.84
568.287	21129.6
568.648	21069.04
569.01	21198.75
569.372	21200.11
569.734	21249.14
570.095	21391.51
570.457	21377.73
570.819	21408.91
571.18	21355.81
571.542	21494.56
571.903	21609.59
572.265	21603.71
572.626	21609.59
572.987	21712.41
573.349	21736.82
573.71	21749.24
574.071	21823.37
574.432	21807.32
574.794	21949.01
575.155	21935.68
575.516	21969.8
575.877	21979.97
576.238	22013.19
576.599	22064.04
576.96	22141.55
577.32	22116.24
577.681	22194.66
578.042	22214.09
578.403	22212.51
578.763	22085.28
579.124	22246.41
579.485	22265.16
579.845	22326.4
580.206	22344.71
580.566	22311.72
580.927	22325.73
581.287	22449.57
581.648	22345.84
582.008	22328.89
582.368	22456.12
582.728	22436.68
583.089	22363.69
583.449	22475.33
583.809	22508.77
584.169	22483.01
584.529	22422.9
584.889	22534.08
585.249	22401.88
585.609	22402.79
585.969	22540.41
586.329	22396.91
586.688	22484.14
587.048	22502.45
587.408	22335.22
587.768	22375.89
588.127	22372.73
588.487	22323.69
588.846	22442.33
589.206	22252.28
589.565	22350.13
589.925	22520.75
590.284	22465.84
590.643	22564.14
591.003	22408.21
591.362	22579.73
591.721	22470.36
592.08	22437.59
592.44	22466.97
592.799	22571.37
593.158	22518.26
593.517	22405.27
593.876	22372.96
594.235	22489.56
594.593	22439.85
594.952	22428.55
595.311	22474.42
595.67	22459.06
596.029	22539.28
596.387	22533.63
596.746	22603.91
597.104	22454.08
597.463	22532.27
597.822	22680.97
598.18	22523.69
598.538	22508.77
598.897	22507.64
599.255	22348.55
599.613	22723.91
599.972	22625.15
600.33	22664.7
600.688	22494.31
601.046	22725.26
601.404	22732.5
601.762	22664.02
602.12	22767.3
602.478	22832.83
602.836	22729.56
603.194	22610.92
603.552	22693.63
603.91	22663.12
604.268	22829.44
604.625	22619.05
604.983	22820.63
605.341	22773.4
605.698	22807.97
606.056	22918.93
606.413	22727.75
606.771	22879.38
607.128	22814.75
607.485	22785.15
607.843	22841.19
608.2	22942.66
608.557	22903.56
608.914	22927.29
609.272	23130.9
609.629	23092.71
609.986	23195.53
610.343	23063.11
610.7	23307.62
611.057	23224.46
611.414	23255.65
611.771	23272.82
612.127	23287.51
612.484	23228.98
612.841	23336.32
613.198	23389.43
613.554	23347.85
613.911	23394.62
614.267	23508.75
614.624	23512.36
614.98	23523.89
615.337	23530.44
615.693	23664
616.05	23533.15
616.406	23721.17
616.762	23565.47
617.118	23669.87
617.475	23560.04
617.831	23661.74
618.187	23713.03
618.543	23743.09
618.899	23883.43
619.255	23829.19
619.611	23751.45
619.967	23885.01
620.323	23860.38
620.678	23749.42
621.034	23714.62
621.39	23744.67
621.746	23721.62
622.101	24126.58
622.457	23792.58
622.812	23970.2
623.168	23963.42
623.523	23922.07
623.879	23987.6
624.234	23838.68
624.589	23972.91
624.945	23979.47
625.3	23971.33
625.655	24007.72
626.01	24013.82
626.365	24001.39
626.72	24021.05
627.075	24009.07
627.43	24009.3
627.785	23973.59
628.14	23960.71
628.495	24118.67
628.85	23964.33
629.205	23933.59
629.559	24085.23
629.914	24046.36
630.269	24024.89
630.623	23943.99
630.978	24019.02
631.332	23925.68
631.687	23991.22
632.041	23936.31
632.396	24003.87
632.75	23873.03
633.104	23821.28
633.459	23882.97
633.813	23883.88
634.167	23866.48
634.521	23688.4
634.875	23805.01
635.229	23828.51
635.583	23721.62
635.937	23608.63
636.291	23697.67
636.645	23714.16
636.999	23625.81
637.352	23680.04
637.706	23555.07
638.06	23688.63
638.413	23664.45
638.767	23550.55
639.121	23561.85
639.474	23345.36
639.828	23449.09
640.181	23458.58
640.534	23483.66
640.888	23461.06
641.241	23364.34
641.594	23312.14
641.947	23478.01
642.301	23318.69
642.654	23483.21
643.007	23374.96
643.36	23368.41
643.713	23324.12
644.066	23341.75
644.419	23229.66
644.771	22987.63
645.124	22932.94
645.477	22858.37
645.83	22641.88
646.182	22643.91
646.535	22565.04
646.888	22602.78
647.24	22381.54
647.593	22633.06
647.945	22510.58
648.298	22580.41
648.65	22492.95
649.002	22450.47
649.355	22440.53
649.707	22420.64
650.059	22474.2
650.411	22784.47
650.763	22901.76
651.115	22982.66
651.467	22969.1
651.819	22929.1
652.171	22929.33
652.523	22817.01
652.875	22919.61
653.227	22765.94
653.578	22991.7
653.93	22919.16
654.282	22869.22
654.633	22874.86
654.985	22915.54
655.337	22888.88
655.688	22894.53
656.039	22960.51
656.391	22789.22
656.742	22895.88
657.094	22816.11
657.445	22838.03
657.796	22815.21
658.147	22867.41
658.498	22818.37
658.849	22949.21
659.2	22803
659.551	22817.47
659.902	22772.95
660.253	22812.49
660.604	22902.21
660.955	22752.83
661.306	22915.09
661.656	22886.39
662.007	22816.56
662.358	22799.39
662.708	22893.17
663.059	22790.35
663.409	22787.64
663.76	22948.08
664.11	22883
664.461	22912.6
664.811	22852.27
665.161	22927.07
665.511	22751.93
665.862	22798.03
666.212	22948.54
666.562	22906.05
666.912	22850.01
667.262	22800.97
667.612	22832.61
667.962	22841.65
668.312	22732.5
668.662	22868.09
669.011	22758.94
669.361	22724.13
669.711	22748.99
670.06	22766.62
670.41	22647.75
670.76	22534.76
671.109	22807.3
671.459	22696.34
671.808	22654.08
672.157	22730.24
672.507	22676.68
672.856	22494.31
673.205	22617.7
673.554	22722.78
673.904	22574.76
674.253	22717.35
674.602	22708.77
674.951	22401.2
675.3	22266.52
675.649	22544.93
675.998	22600.52
676.346	22489.79
676.695	22662.67
677.044	22437.36
677.393	22444.59
677.741	22490.92
678.09	22421.77
678.438	22403.69
678.787	22447.53
679.135	22454.54
679.484	22185.39
679.832	22314.43
680.181	22212.28
680.529	22256.58
680.877	22165.05
681.225	22109.01
681.573	22206.18
681.922	22082.12
682.27	22083.7
682.618	21924.16
682.966	21951.5
683.314	22094.77
683.661	21938.62
684.009	21877.15
684.357	21797.38
684.705	21699.08
685.053	21815.68
685.4	21624.05
685.748	21554.22
686.095	21599.87
686.443	21461.79
686.79	21575.92
687.138	21614.56
687.485	21513.09
687.832	21392.64
688.18	21422.7
688.527	21293.89
688.874	21331.4
689.221	21323.27
689.568	21211.18
689.915	21186.55
690.262	21207.34
690.609	21090.28
690.956	21010.05
691.303	21013.44
691.65	20977.51
691.997	20790.63
692.344	20685.32
692.69	20695.26
693.037	20803.51
693.383	20475.83
693.73	20634.92
694.077	20439.45
694.423	20462.5
694.769	20416.17
695.116	20239.45
695.462	20319.45
695.808	20306.34
696.155	20175.5
696.501	20016.18
696.847	20127.14
697.193	19874.94
697.539	19881.05
697.885	19770.31
698.231	19674.04
698.577	19694.84
698.923	19674.27
699.269	19648.28
699.614	19381.17
699.96	19459.14
700.306	19420.04
700.651	19396.54
700.997	19224.79
701.342	19230.67
701.688	19146.15
702.033	19079.71
702.379	19121.97
702.724	19006.49
703.069	19044.46
703.415	18798.36
703.76	18790.9
704.105	18828.19
704.45	18815.76
704.795	18701.64
705.14	18646.95
705.485	18640.4
705.83	18549.1
706.175	18566.96
706.52	18426.17
706.865	18386.62
707.209	18352.72
707.554	18229.79
707.899	18237.47
708.243	18146.63
708.588	18160.41
708.932	18096.91
709.277	18106.4
709.621	17993.41
709.966	17929.91
710.31	17975.33
710.654	17798.16
710.998	17836.58
711.342	17797.71
711.687	17759.07
712.031	17600.43
712.375	17608.11
712.719	17626.87
713.063	17586.64
713.407	17579.64
713.75	17548.68
714.094	17436.59
714.438	17422.8
714.782	17422.13
715.125	17389.81
715.469	17348.91
715.812	17218.74
716.156	17191.85
716.499	17195.69
716.843	17204.28
717.186	17092.42
717.53	17137.61
717.873	17178.07
718.216	17144.17
718.559	17055.36
718.902	17004.06
719.246	17054.45
719.589	16955.47
719.932	16847.45
720.275	16830.28
720.617	16900.78
720.96	16840
721.303	16750.51
721.646	16879.32
721.989	16684.97
722.331	16779.43
722.674	16757.96
723.016	16773.33
723.359	16874.8
723.701	16633.9
724.044	16635.25
724.386	16567.01
724.729	16646.1
725.071	16553.22
725.413	16566.1
725.755	16589.38
726.097	16537.63
726.439	16444.98
726.782	16422.15
727.124	16526.33
727.465	16408.14
727.807	16393
728.149	16350.52
728.491	16256.73
728.833	16352.1
729.175	16303.74
729.516	16265.09
729.858	16177.41
730.199	16306.9
730.541	16250.86
730.882	16179.22
731.224	16304.64
731.565	16161.82
731.906	16096.96
732.248	16172.89
732.589	16136.96
732.93	16140.35
733.271	16118.43
733.612	16149.17
733.953	16129.05
734.294	16116.85
734.635	16040.47
734.976	16141.48
735.317	16003.63
735.658	16028.26
735.999	16035.95
736.339	15979.23
736.68	16009.06
737.021	15867.14
737.361	15968.38
737.702	16080.69
738.042	15995.95
738.383	15983.97
738.723	16061.71
739.063	15955.5
739.404	16048.6
739.744	15963.41
740.084	15886.8
740.424	16030.98
740.764	15893.35
741.104	16109.17
741.444	15889.96
741.784	15897.87
742.124	15992.33
742.464	15919.57
742.804	15972.45
743.143	15981.71
743.483	15974.71
743.823	15916.63
744.162	16037.08
744.502	16061.03
744.841	15975.84
745.181	16058.77
745.52	16002.5
745.86	16022.16
746.199	16099.68
746.538	16112.1
746.877	16099.68
747.216	16226.45
747.556	16183.29
747.895	16293.12
748.234	16194.59
748.573	16214.47
748.911	16272.33
749.25	16273.68
749.589	16263.97
749.928	16466.9
750.267	16436.39
750.605	16451.53
750.944	16472.1
751.283	16459.67
751.621	16662.6
751.96	16736.95
752.298	16623.05
752.636	16843.61
752.975	16754.8
753.313	16714.57
753.651	16918.41
753.989	16936.94
754.327	17042.25
754.666	17039.09
755.004	17195.92
755.342	17196.6
755.679	17341.9
756.017	17265.29
756.355	17333.09
756.693	17417.16
