Data from hue_220_FLMS001491_00009.txt Node
Date: Tue Feb 07 16:38:28 GMT 2017
User: dcchb
Spectrometer: FLMS00149
Trigger mode: 0
Integration Time (sec): 2.000000E-2
Scans to average: 10
Electric dark correction enabled: true
Nonlinearity correction enabled: false
Boxcar width: 0
XAxis mode: Wavelengths
Number of Pixels in Spectrum: 2048
>>>>>Begin Spectral Data<<<<<
341.393	10.34
341.776	10.34
342.16	10.34
342.543	-40.73
342.927	-48.87
343.31	-59.04
343.693	-64.69
344.077	-71.24
344.46	-63.33
344.843	-50.68
345.226	-14.29
345.61	-28.98
345.993	-21.52
346.376	1.3
346.759	6.95
347.142	25.25
347.525	25.48
347.908	69.09
348.291	55.54
348.674	81.98
349.057	108.19
349.44	117.23
349.823	137.34
350.206	170.56
350.588	190.67
350.971	239.26
351.354	232.48
351.737	254.63
352.119	239.71
352.502	277.9
352.884	277.9
353.267	280.39
353.65	291.24
354.032	304.34
354.414	292.37
354.797	340.73
355.179	344.34
355.562	336.21
355.944	326.26
356.326	337.11
356.709	349.09
357.091	326.04
357.473	341.63
357.855	349.31
358.238	341.63
358.62	348.18
359.002	360.61
359.384	343.44
359.766	341.86
360.148	353.83
360.53	361.74
360.912	319.03
361.294	339.37
361.676	351.8
362.057	335.3
362.439	314.96
362.821	335.75
363.203	326.71
363.584	332.59
363.966	347.28
364.348	318.81
364.729	340.95
365.111	323.1
365.493	336.21
365.874	331.01
366.256	321.29
366.637	327.62
367.019	322.65
367.4	328.3
367.781	318.35
368.163	318.35
368.544	326.04
368.925	320.39
369.306	319.48
369.688	305.25
370.069	319.26
370.45	317.9
370.831	307.96
371.212	321.74
371.593	307.51
371.974	334.62
372.355	340.27
372.736	320.39
373.117	324.45
373.498	327.62
373.879	303.21
374.26	319.26
374.641	329.2
375.021	321.97
375.402	315.87
375.783	319.94
376.163	328.97
376.544	332.59
376.925	323.78
377.305	321.74
377.686	328.97
378.066	329.65
378.447	341.18
378.827	324.91
379.208	327.39
379.588	336.66
379.968	345.02
380.349	339.6
380.729	340.95
381.109	350.67
381.489	347.05
381.87	335.98
382.25	340.5
382.63	352.93
383.01	369.65
383.39	346.6
383.77	335.75
384.15	357.9
384.53	338.92
384.91	359.48
385.29	357.45
385.67	348.18
386.049	359.93
386.429	351.35
386.809	350.44
387.189	362.19
387.568	349.54
387.948	366.26
388.328	384.57
388.707	360.84
389.087	360.61
389.466	370.1
389.846	365.13
390.225	374.4
390.605	380.5
390.984	360.39
391.363	366.04
391.743	368.75
392.122	381.18
392.501	395.64
392.881	405.13
393.26	404
393.639	385.24
394.018	369.2
394.397	387.05
394.776	413.04
395.155	380.72
395.534	389.31
395.913	400.61
396.292	425.92
396.671	414.85
397.05	397.9
397.429	403.55
397.808	408.29
398.186	417.11
398.565	404
398.944	404.68
399.323	406.71
399.701	416.2
400.08	445.36
400.458	415.53
400.837	439.71
401.215	420.27
401.594	420.27
401.972	420.95
402.351	426.15
402.729	437.45
403.107	433.38
403.486	440.61
403.864	428.63
404.242	425.24
404.62	469.76
404.999	452.81
405.377	458.01
405.755	465.47
406.133	460.04
406.511	465.92
406.889	489.2
407.267	490.1
407.645	497.78
408.023	485.58
408.401	493.72
408.779	508.86
409.156	504.11
409.534	520.61
409.912	517.44
410.29	545.92
410.667	548.86
411.045	567.84
411.422	561.74
411.8	558.35
412.178	598.8
412.555	573.71
412.933	603.32
413.31	588.85
413.687	627.72
414.065	613.71
414.442	609.42
414.819	625.01
415.197	661.17
415.574	663.88
415.951	676.08
416.328	668.17
416.705	666.82
417.082	677.89
417.46	677.21
417.837	697.78
418.214	708.85
418.591	697.78
418.967	732.13
419.344	731.68
419.721	716.08
420.098	750.43
420.475	765.57
420.852	776.42
421.228	803.54
421.605	799.7
421.982	794.95
422.358	813.71
422.735	819.81
423.111	834.05
423.488	871.56
423.864	847.83
424.241	882.41
424.617	899.35
424.994	901.61
425.37	920.82
425.746	919.02
426.123	935.06
426.499	963.08
426.875	957.21
427.251	986.81
427.627	971.67
428.003	1021.84
428.379	1046.7
428.756	1027.49
429.132	1031.33
429.507	1053.48
429.883	1092.34
430.259	1084.89
430.635	1094.15
431.011	1096.41
431.387	1154.26
431.763	1136.86
432.138	1175.73
432.514	1172.57
432.89	1170.99
433.265	1221.38
433.641	1243.07
434.016	1258.22
434.392	1295.95
434.767	1288.5
435.143	1302.06
435.518	1365.33
435.894	1377.76
436.269	1353.35
436.644	1394.26
437.02	1408.27
437.395	1427.02
437.77	1481.71
438.145	1515.84
438.52	1528.04
438.895	1552.67
439.271	1556.29
439.646	1585.89
440.021	1609.84
440.395	1618.43
440.77	1644.19
441.145	1619.34
441.52	1659.33
441.895	1707.24
442.27	1728.03
442.645	1710.86
443.019	1753.12
443.394	1761.03
443.769	1763.51
444.143	1773.91
444.518	1817.75
444.892	1800.35
445.267	1816.39
445.641	1854.58
446.016	1807.35
446.39	1866.79
446.764	1891.87
447.139	1883.96
447.513	1928.93
447.887	1909.72
448.262	1930.74
448.636	1955.6
449.01	1971.64
449.384	1964.41
449.758	1984.98
450.132	1993.11
450.506	2009.38
450.88	2047.57
451.254	2049.16
451.628	2083.28
452.002	2105.65
452.376	2070.17
452.75	2108.36
453.123	2116.5
453.497	2154.24
453.871	2181.58
454.244	2213.67
454.618	2207.34
454.992	2237.17
455.365	2290.5
455.739	2313.1
456.112	2347.9
456.486	2374.12
456.859	2363.05
457.232	2443.5
457.606	2413.44
457.979	2463.83
458.352	2510.16
458.725	2499.76
459.099	2545.87
459.472	2568.24
459.845	2570.27
460.218	2629.93
460.591	2637.61
460.964	2642.59
461.337	2739.98
461.71	2731.4
462.083	2770.72
462.456	2744.96
462.829	2751.96
463.201	2810.04
463.574	2831.28
463.947	2872.41
464.32	2961.45
464.692	2949.7
465.065	2964.39
465.438	3011.84
465.81	3062.69
466.183	3058.62
466.555	3117.15
466.928	3107.43
467.3	3180.88
467.672	3185.85
468.045	3257.94
468.417	3264.72
468.789	3303.81
469.161	3308.11
469.534	3407.76
469.906	3445.73
470.278	3484.15
470.65	3503.35
471.022	3546.97
471.394	3614.09
471.766	3663.8
472.138	3682.56
472.51	3726.63
472.882	3802.1
473.253	3799.17
473.625	3857.02
473.997	3921.87
474.369	3933.85
474.74	3982.89
475.112	4071.02
475.484	4144.02
475.855	4163.68
476.227	4178.14
476.598	4274.63
476.97	4330
477.341	4389.21
477.713	4440.05
478.084	4496.77
478.455	4609.54
478.827	4650.22
479.198	4741.29
479.569	4743.77
479.94	4844.79
480.311	4864.67
480.682	5001.62
481.053	5068.06
481.424	5139.47
481.795	5178.56
482.166	5232.12
482.537	5328.84
482.908	5380.59
483.279	5432.34
483.65	5516.86
484.021	5599.12
484.391	5637.08
484.762	5714.82
485.133	5725.22
485.503	5726.12
485.874	5865.78
486.244	5937.64
486.615	6051.31
486.985	6080.91
487.356	6163.62
487.726	6185.77
488.097	6290.85
488.467	6337.63
488.837	6461.69
489.207	6474.12
489.578	6573.56
489.948	6637.96
490.318	6705.08
490.688	6702.37
491.058	6785.98
491.428	6865.53
491.798	6960.89
492.168	7071.4
492.538	7060.32
492.908	7076.59
493.278	7202.24
493.648	7226.19
494.017	7235.23
494.387	7281.79
494.757	7360.2
495.126	7426.41
495.496	7431.39
495.866	7548.67
496.235	7522.46
496.605	7581.44
496.974	7607.88
497.344	7621.89
497.713	7708.44
498.082	7689.46
498.452	7845.39
498.821	7885.61
499.19	7828.44
499.559	7901.43
499.928	7897.36
500.298	7955.44
500.667	8032.05
501.036	8004.93
501.405	8026.4
501.774	8028.43
502.143	8124.7
502.512	8207.41
502.88	8215.32
503.249	8175.77
503.618	8261.65
503.987	8277.01
504.356	8232.04
504.724	8336.67
505.093	8305.49
505.462	8384.58
505.83	8357.92
506.199	8409.67
506.567	8491.47
506.936	8469.55
507.304	8523.11
507.672	8523.34
508.041	8526.95
508.409	8564.92
508.777	8638.13
509.145	8653.95
509.514	8587.06
509.882	8669.32
510.25	8676.55
510.618	8692.14
510.986	8701.18
511.354	8844.68
511.722	8811.24
512.09	8818.24
512.458	8777.11
512.826	8765.14
513.193	8935.53
513.561	8864.34
513.929	8893.49
514.297	8922.65
514.664	8925.36
515.032	8933.27
515.4	9023.21
515.767	9000.84
516.135	8981.63
516.502	8973.72
516.869	9057.11
517.237	9061.63
517.604	9030.89
517.972	9095.07
518.339	9065.24
518.706	9030.21
519.073	9022.53
519.44	9129.87
519.808	9107.05
520.175	9046.26
520.542	9151.34
520.909	9199.93
521.276	9171.23
521.643	9180.95
522.009	9246.03
522.376	9148.18
522.743	9212.58
523.11	9314.73
523.477	9259.36
523.843	9289.87
524.21	9333.26
524.577	9367.83
524.943	9318.57
525.31	9324.22
525.676	9417.1
526.043	9396.08
526.409	9387.04
526.776	9464.1
527.142	9392.24
527.508	9420.94
527.874	9471.56
528.241	9479.47
528.607	9526.47
528.973	9572.57
529.339	9480.37
529.705	9521.05
530.071	9568.73
530.437	9464.33
530.803	9608.5
531.169	9544.33
531.535	9516.76
531.901	9516.76
532.267	9491.9
532.632	9481.95
532.998	9521.05
533.364	9495.97
533.73	9548.84
534.095	9520.6
534.461	9578.67
534.826	9552.46
535.192	9541.84
535.557	9534.83
535.923	9477.21
536.288	9505
536.653	9425.68
537.019	9414.84
537.384	9360.38
537.749	9416.87
538.114	9392.24
538.479	9441.05
538.845	9327.61
539.21	9344.56
539.575	9340.04
539.94	9341.84
540.305	9339.58
540.67	9288.06
541.034	9296.42
541.399	9276.31
541.764	9223.88
542.129	9265.46
542.494	9242.86
542.858	9233.83
543.223	9191.34
543.587	9154.28
543.952	9168.52
544.316	9145.47
544.681	9074.06
545.045	9118.12
545.41	9139.36
545.774	9138.23
546.138	9147.95
546.503	9088.97
546.867	9048.29
547.231	8988.18
547.595	9074.96
547.959	8990.89
548.324	9017.79
548.688	8936.88
549.052	8959.71
549.416	8945.47
549.779	8907.51
550.143	8914.51
550.507	8857.34
550.871	8912.93
551.235	8886.72
551.599	8944.12
551.962	8865.7
552.326	8781.18
552.689	8832.25
553.053	8755.87
553.417	8719.26
553.78	8795.42
554.143	8783.22
554.507	8746.83
554.87	8785.48
555.234	8801.52
555.597	8730.79
555.96	8755.19
556.323	8722.88
556.686	8677.68
557.05	8813.95
557.413	8743.44
557.776	8644.46
558.139	8695.99
558.502	8687.85
558.865	8689.21
559.228	8711.58
559.59	8748.87
559.953	8678.13
560.316	8765.36
560.679	8733.73
561.041	8742.09
561.404	8762.88
561.767	8842.2
562.129	8732.37
562.492	8778.24
562.854	8833.38
563.217	8751.8
563.579	8794.74
563.941	8835.64
564.304	8808.98
564.666	8882.87
565.028	8831.58
565.39	8887.39
565.753	8891.46
566.115	8874.06
566.477	8963.1
566.839	8889.88
567.201	8886.49
567.563	8944.57
567.925	9008.97
568.287	8958.13
568.648	8984.57
569.01	9002.64
569.372	9081.74
569.734	9034.96
570.095	9041.97
570.457	9058.46
570.819	9114.73
571.18	9125.81
571.542	9178.46
571.903	9188.63
572.265	9054.62
572.626	9138.91
572.987	9222.53
573.349	9241.73
573.71	9245.58
574.071	9251
574.432	9255.29
574.794	9300.94
575.155	9307.27
575.516	9265.01
575.877	9367.38
576.238	9342.07
576.599	9343.88
576.96	9366.25
577.32	9432.92
577.681	9485.8
578.042	9489.19
578.403	9450.99
578.763	9483.08
579.124	9458.68
579.485	9548.17
579.845	9549.07
580.206	9545.91
580.566	9570.31
580.927	9590.88
581.287	9706.13
581.648	9558.34
582.008	9676.75
582.368	9674.04
582.728	9723.08
583.089	9725.79
583.449	9729.86
583.809	9697.99
584.169	9766.24
584.529	9717.65
584.889	9813.92
585.249	9816.41
585.609	9788.39
585.969	9879.23
586.329	9815.05
586.688	9839.91
587.048	9844.2
587.408	9853.92
587.768	9931.21
588.127	9847.14
588.487	9875.16
588.846	9959.91
589.206	9884.88
589.565	9924.65
589.925	9902.28
590.284	10015.27
590.643	9918.33
591.003	10060.7
591.362	10043.52
591.721	10064.76
592.08	10019.57
592.44	10107.93
592.799	10086.46
593.158	10055.95
593.517	10052.56
593.876	10079.68
594.235	10044.2
594.593	10060.92
594.952	10111.32
595.311	10051.43
595.67	10093.92
596.029	10207.58
596.387	10191.09
596.746	10223.86
597.104	10219.79
597.463	10143.86
597.822	10236.96
598.18	10180.92
598.538	10192.9
598.897	10261.37
599.255	10131.65
599.613	10320.35
599.972	10201.48
600.33	10272.22
600.688	10210.07
601.046	10277.64
601.404	10325.55
601.762	10247.13
602.12	10332.55
602.478	10342.27
602.836	10302.72
603.194	10294.59
603.552	10316.73
603.91	10271.09
604.268	10300.01
604.625	10281.26
604.983	10360.58
605.341	10296.62
605.698	10328.03
606.056	10390.4
606.413	10266.34
606.771	10334.81
607.128	10362.38
607.485	10355.6
607.843	10355.83
608.2	10456.39
608.557	10407.58
608.914	10422.27
609.272	10466.33
609.629	10488.48
609.986	10547.91
610.343	10450.52
610.7	10529.16
611.057	10571.19
611.414	10533.45
611.771	10450.52
612.127	10544.07
612.484	10514.02
612.841	10548.59
613.198	10504.98
613.554	10573.68
613.911	10615.94
614.267	10564.41
614.624	10573.9
614.98	10589.72
615.337	10613.45
615.693	10644.64
616.05	10551.76
616.406	10663.84
616.762	10616.84
617.118	10652.09
617.475	10689.15
617.831	10629.95
618.187	10767.8
618.543	10657.06
618.899	10767.12
619.255	10718.76
619.611	10723.96
619.967	10733.45
620.323	10734.8
620.678	10694.13
621.034	10707.01
621.39	10656.16
621.746	10608.7
622.101	10876.95
622.457	10674.92
622.812	10734.35
623.168	10767.12
623.523	10697.97
623.879	10790.85
624.234	10806.44
624.589	10757.63
624.945	10769.6
625.3	10795.82
625.655	10702.26
626.01	10720.79
626.365	10796.72
626.72	10778.42
627.075	10772.54
627.43	10693.67
627.785	10744.52
628.14	10658.65
628.495	10725.76
628.85	10677.18
629.205	10667.91
629.559	10718.98
629.914	10705.88
630.269	10711.53
630.623	10643.51
630.978	10615.48
631.332	10667.01
631.687	10667.46
632.041	10620
632.396	10634.92
632.75	10623.17
633.104	10617.97
633.459	10570.06
633.813	10542.72
634.167	10488.03
634.521	10550.17
634.875	10587.24
635.229	10544.98
635.583	10529.16
635.937	10440.12
636.291	10540.46
636.645	10490.74
636.999	10501.36
637.352	10501.59
637.706	10431.31
638.06	10463.85
638.413	10406.22
638.767	10398.99
639.121	10452.1
639.474	10361.48
639.828	10388.6
640.181	10406.22
640.534	10408.48
640.888	10338.65
641.241	10297.98
641.594	10353.8
641.947	10319.22
642.301	10264.76
642.654	10302.05
643.007	10278.32
643.36	10280.8
643.713	10312.44
644.066	10300.46
644.419	10202.84
644.771	10121.71
645.124	10167.13
645.477	10059.34
645.83	10011.66
646.182	9948.38
646.535	9994.26
646.888	9933.92
647.24	9919.46
647.593	9931.66
647.945	9947.25
648.298	9911.32
648.65	9872.68
649.002	9908.38
649.355	9988.61
649.707	9847.14
650.059	9959.46
650.411	10073.8
650.763	10096.4
651.115	10224.31
651.467	10128.72
651.819	10182.95
652.171	10175.95
652.523	10123.75
652.875	10117.42
653.227	10104.08
653.578	10178.66
653.93	10105.21
654.282	10138.66
654.633	10059.11
654.985	10088.49
655.337	10149.28
655.688	10083.75
656.039	10169.39
656.391	10128.94
656.742	10089.4
657.094	10057.76
657.445	10131.2
657.796	10164.87
658.147	10140.24
658.498	10106.8
658.849	10140.92
659.2	10129.39
659.551	10101.82
659.902	10168.49
660.253	10111.99
660.604	10191.09
660.955	10115.16
661.306	10142.05
661.656	10077.19
662.007	10277.64
662.358	10188.6
662.708	10173.46
663.059	10160.13
663.409	10136.17
663.76	10171.2
664.11	10202.39
664.461	10236.06
664.811	10207.81
665.161	10154.93
665.511	10185.66
665.862	10227.92
666.212	10239.45
666.562	10246.68
666.912	10236.28
667.262	10157.19
667.612	10139.11
667.962	10224.31
668.312	10169.17
668.662	10263.85
669.011	10146.12
669.361	10144.54
669.711	10255.04
670.06	10191.09
670.41	10167.13
670.76	10169.85
671.109	10144.99
671.459	10159.9
671.808	10133.46
672.157	10161.26
672.507	10043.3
672.856	10032
673.205	10133.46
673.554	10113.12
673.904	10093.46
674.253	10102.5
674.602	10089.62
674.951	9936.63
675.3	9917.2
675.649	10074.25
675.998	10044.43
676.346	9971.88
676.695	10070.87
677.044	9984.31
677.393	10031.32
677.741	10018.66
678.09	9905.9
678.438	9967.59
678.787	10047.81
679.135	10035.16
679.484	9900.25
679.832	9960.13
680.181	9905.45
680.529	9852.79
680.877	9889.4
681.225	9867.25
681.573	9989.51
681.922	9869.97
682.27	9801.04
682.618	9890.53
682.966	9738.22
683.314	9759.46
683.661	9730.31
684.009	9725.11
684.357	9721.27
684.705	9607.6
685.053	9729.86
685.4	9685.56
685.748	9619.58
686.095	9516.76
686.443	9476.3
686.79	9545.68
687.138	9574.61
687.485	9568.73
687.832	9501.84
688.18	9473.82
688.527	9455.97
688.874	9434.27
689.221	9458.68
689.568	9358.12
689.915	9396.76
690.262	9365.35
690.609	9287.83
690.956	9303.43
691.303	9263.88
691.65	9210.77
691.997	9240.83
692.344	9154.96
692.69	9079.48
693.037	9206.71
693.383	9037.9
693.73	9078.57
694.077	9007.84
694.423	9006.26
694.769	8935.53
695.116	8914.51
695.462	8919.71
695.808	8864.12
696.155	8852.14
696.501	8761.3
696.847	8764.91
697.193	8731.92
697.539	8745.25
697.885	8722.88
698.231	8719.71
698.577	8608.98
698.923	8605.37
699.269	8555.65
699.614	8473.84
699.96	8505.26
700.306	8544.8
700.651	8513.17
700.997	8380.51
701.342	8365.6
701.688	8402.21
702.033	8325.83
702.379	8311.59
702.724	8303.91
703.069	8307.07
703.415	8169.9
703.76	8261.2
704.105	8188.2
704.45	8200.86
704.795	8154.08
705.14	8057.13
705.485	8056.91
705.83	8079.96
706.175	8127.64
706.52	7985.5
706.865	7952.95
707.209	7972.84
707.554	7951.82
707.899	7927.64
708.243	7924.48
708.588	7891.94
708.932	7788.67
709.277	7820.3
709.621	7853.07
709.966	7788.21
710.31	7778.27
710.654	7694.2
710.998	7709.12
711.342	7735.79
711.687	7677.26
712.031	7622.34
712.375	7627.99
712.719	7609.01
713.063	7639.06
713.407	7618.5
713.75	7586.41
714.094	7583.25
714.438	7487.43
714.782	7554.55
715.125	7499.86
715.469	7517.26
715.812	7433.19
716.156	7437.49
716.499	7455.57
716.843	7491.27
717.186	7382.12
717.53	7488.79
717.873	7429.13
718.216	7423.48
718.559	7406.53
718.902	7327.43
719.246	7360.2
719.589	7284.95
719.932	7248.11
720.275	7310.71
720.617	7331.95
720.96	7323.82
721.303	7256.02
721.646	7309.13
721.989	7261
722.331	7275.68
722.674	7242.24
723.016	7227.1
723.359	7261.22
723.701	7210.38
724.044	7227.32
724.386	7133.32
724.729	7226.87
725.071	7222.8
725.413	7237.27
725.755	7172.64
726.097	7176.93
726.439	7136.25
726.782	7185.52
727.124	7193.2
727.465	7162.69
727.807	7150.94
728.149	7182.35
728.491	7133.77
728.833	7165.63
729.175	7074.11
729.516	7144.39
729.858	7145.52
730.199	7080.21
730.541	7178.74
730.882	7104.62
731.224	7097.61
731.565	7126.08
731.906	7133.09
732.248	7130.6
732.589	7030.49
732.93	7071.62
733.271	7061.23
733.612	7139.19
733.953	7136.93
734.294	7111.17
734.635	7152.52
734.976	7081.34
735.317	7105.29
735.658	7124.95
735.999	7112.75
736.339	7126.99
736.68	7123.82
737.021	7127.89
737.361	7125.18
737.702	7182.58
738.042	7165.63
738.383	7174.9
738.723	7208.34
739.063	7171.28
739.404	7187.78
739.744	7164.27
740.084	7145.07
740.424	7166.53
740.764	7191.62
741.104	7207.89
741.444	7242.24
741.784	7200.21
742.124	7280.2
742.464	7242.92
742.804	7244.72
743.143	7326.98
743.483	7275.23
743.823	7339.64
744.162	7349.35
744.502	7366.98
744.841	7426.41
745.181	7416.47
745.52	7422.57
745.86	7532.17
746.199	7561.55
746.538	7607.43
746.877	7630.93
747.216	7732.62
747.556	7649.69
747.895	7703.47
748.234	7784.15
748.573	7770.81
748.911	7921.54
749.25	7961.54
749.589	8006.74
749.928	8066.62
750.267	8141.2
750.605	8193.63
750.944	8241.08
751.283	8300.06
751.621	8435.43
751.96	8506.61
752.298	8596.55
752.636	8706.16
752.975	8749.32
753.313	8897.56
753.651	8986.6
753.989	8999.25
754.327	9131
754.666	9258.91
755.004	9391.79
755.342	9494.38
755.679	9623.87
756.017	9736.86
756.355	9869.06
756.693	10060.24
757.031	10204.65
757.368	10274.7
757.706	10423.62
758.044	10586.33
758.381	10798.53
758.719	10844.86
759.056	11100.44
759.394	11180.21
759.731	11306.99
760.068	11511.28
760.405	11683.93
760.743	11828.56
761.08	12035.33
761.417	12194.2
761.754	12308.32
762.091	12530.24
762.428	12767.97
762.765	12827.4
763.102	13021.52
763.438	13241.63
763.775	13391.46
764.112	13563.43
