Data from hue_100_FLMS001491_00041.txt Node
Date: Tue Feb 07 17:03:13 GMT 2017
User: dcchb
Spectrometer: FLMS00149
Trigger mode: 0
Integration Time (sec): 2.000000E-2
Scans to average: 10
Electric dark correction enabled: true
Nonlinearity correction enabled: false
Boxcar width: 0
XAxis mode: Wavelengths
Number of Pixels in Spectrum: 2048
>>>>>Begin Spectral Data<<<<<
341.393	5.8
341.776	5.8
342.16	5.8
342.543	-72.39
342.927	-90.24
343.31	-64.02
343.693	-73.29
344.077	-62.22
344.46	-71.71
344.843	-30.8
345.226	-52.72
345.61	-16.34
345.993	-23.57
346.376	11
346.759	7.61
347.142	34.28
347.525	41.06
347.908	40.61
348.291	70.44
348.674	80.61
349.057	109.08
349.44	120.83
349.823	140.94
350.206	172.81
350.588	203.54
350.971	199.02
351.354	238.79
351.737	238.12
352.119	258.68
352.502	254.61
352.884	265.91
353.267	269.98
353.65	291.67
354.032	304.1
354.414	326.02
354.797	316.08
355.179	307.49
355.562	324.21
355.944	329.86
356.326	350.43
356.709	331.9
357.091	342.07
357.473	345.23
357.855	365.12
358.238	343.42
358.62	354.5
359.002	355.4
359.384	359.69
359.766	334.16
360.148	335.74
360.53	348.62
360.912	334.16
361.294	308.17
361.676	348.62
362.057	330.09
362.439	352.46
362.821	339.58
363.203	325.12
363.584	338.45
363.966	340.49
364.348	325.8
364.729	316.08
365.111	346.36
365.493	335.06
365.874	312.24
366.256	318.57
366.637	327.83
367.019	323.99
367.4	334.84
367.781	312.46
368.163	318.34
368.544	333.03
368.925	323.08
369.306	311.56
369.688	309.3
370.069	317.44
370.45	330.54
370.831	327.83
371.212	302.07
371.593	318.34
371.974	313.82
372.355	325.57
372.736	307.72
373.117	309.98
373.498	326.93
373.879	319.47
374.26	323.54
374.641	322.18
375.021	331.45
375.402	330.54
375.783	335.06
376.163	337.32
376.544	348.85
376.925	330.54
377.305	324.44
377.686	335.51
378.066	340.71
378.447	342.52
378.827	324.21
379.208	330.09
379.588	352.69
379.968	330.54
380.349	366.25
380.729	345.91
381.109	351.56
381.489	359.24
381.87	337.32
382.25	368.51
382.63	364.89
383.01	360.6
383.39	367.83
383.77	358.34
384.15	367.83
384.53	376.64
384.91	349.75
385.29	360.82
385.67	359.24
386.049	353.37
386.429	366.93
386.809	359.92
387.189	360.82
387.568	381.84
387.948	366.47
388.328	369.41
388.707	374.38
389.087	369.41
389.466	393.14
389.846	378.68
390.225	388.85
390.605	382.29
390.984	403.53
391.363	380.48
391.743	397.21
392.122	388.62
392.501	420.03
392.881	399.92
393.26	384.78
393.639	410.31
394.018	381.39
394.397	412.8
394.776	403.08
395.155	420.71
395.534	406.25
395.913	422.29
396.292	403.99
396.671	413.25
397.05	415.29
397.429	427.04
397.808	418.9
398.186	406.25
398.565	413.25
398.944	433.59
399.323	423.65
399.701	427.04
400.08	425.91
400.458	444.44
400.837	440.6
401.215	420.94
401.594	413.48
401.972	437.43
402.351	442.18
402.729	449.86
403.107	430.88
403.486	447.6
403.864	436.53
404.242	451.44
404.62	442.63
404.999	450.09
405.377	455.51
405.755	451.67
406.133	440.14
406.511	475.17
406.889	479.01
407.267	490.31
407.645	476.75
408.023	488.96
408.401	511.33
408.779	494.15
409.156	470.2
409.534	482.4
409.912	493.48
410.29	488.28
410.667	503.19
411.045	489.41
411.422	498.45
411.8	513.14
412.178	512.01
412.555	521.05
412.933	532.57
413.31	553.36
413.687	529.41
414.065	527.6
414.442	555.62
414.819	548.16
415.197	550.42
415.574	552.46
415.951	568.95
416.328	572.8
416.705	554.94
417.082	591.55
417.46	585.22
417.837	574.15
418.214	564.89
418.591	580.03
418.967	584.55
419.344	594.94
419.721	608.73
420.098	600.82
420.475	622.51
420.852	606.69
421.228	611.21
421.605	603.76
421.982	625.45
422.358	597.65
422.735	617.54
423.111	637.2
423.488	653.92
423.864	650.99
424.241	661.38
424.617	632.68
424.994	644.43
425.37	649.18
425.746	672.45
426.123	648.95
426.499	660.48
426.875	680.14
427.251	687.59
427.627	686.92
428.003	691.89
428.379	718.33
428.756	727.37
429.132	716.29
429.507	731.89
429.883	738.89
430.259	743.41
430.635	732.34
431.011	746.58
431.387	746.35
431.763	747.48
432.138	781.15
432.514	793.58
432.89	787.48
433.265	778.21
433.641	806.46
434.016	796.52
434.392	807.37
434.767	826.35
435.143	815.05
435.518	827.93
435.894	813.92
436.269	873.35
436.644	862.96
437.02	857.76
437.395	855.73
437.77	905.89
438.145	890.3
438.52	899.57
438.895	914.93
439.271	921.71
439.646	912.9
440.021	920.58
440.395	916.97
440.77	928.72
441.145	947.25
441.52	941.83
441.895	980.69
442.27	968.27
442.645	954.03
443.019	974.59
443.394	983.63
443.769	956.74
444.143	978.43
444.518	1006.68
444.892	1011.88
445.267	1004.87
445.641	1031.99
446.016	1027.02
446.39	1046.46
446.764	1044.2
447.139	1032.9
447.513	1063.4
447.887	1042.61
448.262	1071.09
448.636	1035.38
449.01	1076.74
449.384	1088.04
449.758	1088.49
450.132	1109.28
450.506	1119.45
450.88	1129.62
451.254	1125.78
451.628	1132.78
452.002	1180.69
452.376	1149.28
452.75	1183.85
453.123	1184.31
453.497	1223.85
453.871	1175.27
454.244	1217.07
454.618	1246.68
454.992	1234.02
455.365	1263.4
455.739	1276.73
456.112	1267.69
456.486	1321.48
456.859	1327.13
457.232	1321.02
457.606	1358.54
457.979	1347.69
458.352	1366
458.725	1387.46
459.099	1394.92
459.472	1425.43
459.845	1453.9
460.218	1454.13
460.591	1477.18
460.964	1483.05
461.337	1523.28
461.71	1559.44
462.083	1552.2
462.456	1569.15
462.829	1619.32
463.201	1610.51
463.574	1612.99
463.947	1641.02
464.32	1684.86
464.692	1663.16
465.065	1704.74
465.438	1747.91
465.81	1759.21
466.183	1778.87
466.555	1801.46
466.928	1861.35
467.3	1880.11
467.672	1884.17
468.045	1961.23
468.417	1953.55
468.789	1978.18
469.161	1979.99
469.534	2054.34
469.906	2113.55
470.278	2112.64
470.65	2136.37
471.022	2196.93
471.394	2245.52
471.766	2250.49
472.138	2291.62
472.51	2379.08
472.882	2383.37
473.253	2456.14
473.625	2522.8
473.997	2566.64
474.369	2599.86
474.74	2633.08
475.112	2719.63
475.484	2796.47
475.855	2834.88
476.227	2897.25
476.598	2981.09
476.97	3037.36
477.341	3136.12
477.713	3162.56
478.084	3240.97
478.455	3358.49
478.827	3430.35
479.198	3531.14
479.569	3620.4
479.94	3688.87
480.311	3831.69
480.682	3914.85
481.053	4044.79
481.424	4159.59
481.795	4196.66
482.166	4315.75
482.537	4429.87
482.908	4547.83
483.279	4629.41
483.65	4768.84
484.021	4866.24
484.391	4998.89
484.762	5176.74
485.133	5261.03
485.503	5406.79
485.874	5551.87
486.244	5652.21
486.615	5854.46
486.985	5952.77
487.356	6184.4
487.726	6318.41
488.097	6479.08
488.467	6492.64
488.837	6735.57
489.207	6902.8
489.578	7054.21
489.948	7174.88
490.318	7339.85
490.688	7453.97
491.058	7672.27
491.428	7830.46
491.798	7985.93
492.168	8269.99
492.538	8354.51
492.908	8505.02
493.278	8625.69
493.648	8759.47
494.017	8929.64
494.387	9126.47
494.757	9274.71
495.126	9363.52
495.496	9540.47
495.866	9646.23
496.235	9802.16
496.605	9943.4
496.974	10157.63
497.344	10256.38
497.713	10365.76
498.082	10477.17
498.452	10649.82
498.821	10811.85
499.19	10806.42
499.559	11039.64
499.928	11158.73
500.298	11265.17
500.667	11416.58
501.036	11409.8
501.405	11668.1
501.774	11664.48
502.143	11827.87
502.512	11989.44
502.88	12132.72
503.249	12136.79
503.618	12263.79
503.987	12440.96
504.356	12512.14
504.724	12540.16
505.093	12600.28
505.462	12708.52
505.83	12864.68
506.199	12928.63
506.567	13219.47
506.936	13172.24
507.304	13262.41
507.672	13445.45
508.041	13485.68
508.409	13601.15
508.777	13621.04
509.145	13726.12
509.514	13774.48
509.882	13929.96
510.25	13868.27
510.618	14002.05
510.986	14091.54
511.354	14215.15
511.722	14354.58
512.09	14433.22
512.458	14411.3
512.826	14544.63
513.193	14551.41
513.561	14608.36
513.929	14658.75
514.297	14751.18
514.664	14910.72
515.032	14894.45
515.4	15068.46
515.767	15057.84
516.135	15125.41
516.502	15028.69
516.869	15256.48
517.237	15290.15
517.604	15234.78
517.972	15336.48
518.339	15441.78
518.706	15482.91
519.073	15449.01
519.44	15554.32
519.808	15721.32
520.175	15637.71
520.542	15852.39
520.909	15899.62
521.276	15784.83
521.643	15931.94
522.009	15963.35
522.376	16057.59
522.743	16029.11
523.11	16184.81
523.477	16365.37
523.843	16363.34
524.21	16410.57
524.577	16539.38
524.943	16391.36
525.31	16520.62
525.676	16715.65
526.043	16670
526.409	16729.43
526.776	16938.02
527.142	16827.74
527.508	16860.28
527.874	16912.48
528.241	17010.1
528.607	17039.93
528.973	17056.66
529.339	17038.13
529.705	17033.83
530.071	17095.3
530.437	17138.91
530.803	17164
531.169	17232.7
531.535	17197.9
531.901	17164.22
532.267	17203.54
532.632	17282.86
532.998	17195.64
533.364	17349.98
533.73	17315.86
534.095	17349.98
534.461	17274.28
534.826	17319.02
535.192	17289.64
535.557	17385.69
535.923	17332.81
536.288	17315.63
536.653	17407.38
537.019	17236.76
537.384	17216.88
537.749	17227.5
538.114	17181.85
538.479	17150.89
538.845	17266.14
539.21	17071.8
539.575	17135.75
539.94	17128.52
540.305	17139.82
540.67	17078.58
541.034	17124.45
541.399	17162.64
541.764	17045.58
542.129	16979.82
542.494	17035.41
542.858	17044.68
543.223	16978.01
543.587	16978.47
543.952	17007.84
544.316	16944.12
544.681	16829.54
545.045	16912.48
545.41	16936.89
545.774	16866.6
546.138	16748.87
546.503	16914.96
546.867	16893.95
547.231	16838.36
547.595	16722.2
547.959	16742.09
548.324	16652.6
548.688	16567.63
549.052	16645.14
549.416	16587.06
549.779	16571.02
550.143	16556.1
550.507	16590.23
550.871	16642.43
551.235	16555.65
551.599	16575.54
551.962	16529.66
552.326	16504.13
552.689	16529.21
553.053	16370.8
553.417	16392.49
553.78	16599.04
554.143	16463.9
554.507	16355.21
554.87	16411.7
555.234	16596.78
555.597	16350.23
555.96	16321.08
556.323	16378.48
556.686	16331.93
557.05	16424.36
557.413	16406.5
557.776	16389.1
558.139	16461.64
558.502	16418.71
558.865	16438.14
559.228	16400.18
559.59	16362.89
559.953	16364.7
560.316	16557.46
560.679	16437.92
561.041	16463.23
561.404	16531.7
561.767	16526.05
562.129	16435.88
562.492	16566.73
562.854	16500.74
563.217	16552.49
563.579	16544.81
563.941	16663.9
564.304	16627.06
564.666	16740.28
565.028	16709.09
565.39	16579.61
565.753	16797.68
566.115	16830.67
566.477	16865.7
566.839	16868.64
567.201	16898.69
567.563	16925.59
567.925	16984.79
568.287	17001.74
568.648	16928.07
569.01	16984.57
569.372	17044.68
569.734	16839.94
570.095	17091.46
570.457	17162.42
570.819	17100.27
571.18	17097.11
571.542	17140.72
571.903	17113.38
572.265	17163.55
572.626	17165.58
572.987	17293.26
573.349	17305.01
573.71	17243.54
574.071	17336.65
574.432	17278.8
574.794	17381.39
575.155	17236.09
575.516	17279.93
575.877	17458.68
576.238	17374.16
576.599	17434.95
576.96	17349.08
577.32	17333.94
577.681	17340.26
578.042	17406.93
578.403	17452.58
578.763	17494.84
579.124	17371.22
579.485	17509.3
579.845	17550.43
580.206	17517.89
580.566	17484.44
580.927	17505.68
581.287	17482.63
581.648	17455.74
582.008	17563.08
582.368	17432.47
582.728	17493.48
583.089	17545.68
583.449	17438.57
583.809	17427.49
584.169	17478.79
584.529	17417.55
584.889	17497.77
585.249	17366.48
585.609	17302.53
585.969	17465.01
586.329	17386.59
586.688	17423.88
587.048	17374.61
587.408	17267.27
587.768	17283.32
588.127	17270.89
588.487	17296.88
588.846	17452.35
589.206	17301.85
589.565	17295.75
589.925	17441.05
590.284	17207.39
590.643	17295.75
591.003	17339.13
591.362	17338.68
591.721	17306.82
592.08	17309.53
592.44	17338.23
592.799	17269.98
593.158	17225.24
593.517	17257.33
593.876	17348.63
594.235	17314.73
594.593	17140.27
594.952	17231.79
595.311	17169.42
595.67	17214.62
596.029	17265.01
596.387	17324.22
596.746	17333.03
597.104	17199.03
597.463	17135.75
597.822	17322.19
598.18	17167.61
598.538	17169.87
598.897	17284.45
599.255	17045.36
599.613	17354.5
599.972	17248.74
600.33	17218.23
600.688	17180.49
601.046	17342.3
601.404	17221.85
601.762	17243.09
602.12	17340.72
602.478	17306.37
602.836	17294.84
603.194	17206.26
603.552	17202.19
603.91	17110.44
604.268	17237.44
604.625	17091.23
604.983	17382.75
605.341	17239.02
605.698	17267.95
606.056	17293.49
606.413	17299.36
606.771	17346.82
607.128	17276.31
607.485	17316.54
607.843	17302.75
608.2	17383.43
608.557	17333.03
608.914	17282.86
609.272	17436.99
609.629	17439.47
609.986	17474.72
610.343	17346.59
610.7	17607.6
611.057	17476.53
611.414	17499.13
611.771	17552.24
612.127	17666.13
612.484	17582.74
612.841	17666.36
613.198	17547.04
613.554	17653.02
613.911	17636.53
614.267	17629.75
614.624	17558.34
614.98	17613.25
615.337	17718.56
615.693	17612.57
616.05	17631.78
616.406	17652.35
616.762	17672.91
617.118	17659.58
617.475	17655.51
617.831	17762.63
618.187	17765.56
618.543	17731.21
618.899	17858.22
619.255	17811.89
619.611	17898.67
619.967	17853.47
620.323	17865
620.678	17845.34
621.034	17727.37
621.39	17849.86
621.746	17794.49
622.101	17976.18
622.457	17779.35
622.812	17780.25
623.168	17924.88
623.523	17841.04
623.879	17977.08
624.234	17885.56
624.589	17872.91
624.945	17771.21
625.3	17836.07
625.655	17801.04
626.01	17861.61
626.365	17823.64
626.72	17792.91
627.075	17766.24
627.43	17674.49
627.785	17767.15
628.14	17832.68
628.495	17808.95
628.85	17676.98
629.205	17764.43
629.559	17912.23
629.914	17739.58
630.269	17747.03
630.623	17684.44
630.978	17679.46
631.332	17730.08
631.687	17680.82
632.041	17701.84
632.396	17695.74
632.75	17622.52
633.104	17694.38
633.459	17509.3
633.813	17531.9
634.167	17512.69
634.521	17587.94
634.875	17675.62
635.229	17502.07
635.583	17535.06
635.937	17527.83
636.291	17396.99
636.645	17432.69
636.999	17415.74
637.352	17350.43
637.706	17316.99
638.06	17367.16
638.413	17460.49
638.767	17180.27
639.121	17321.96
639.474	17228.18
639.828	17210.78
640.181	17280.6
640.534	17217.78
640.888	17151.57
641.241	17145.24
641.594	17125.81
641.947	17202.87
642.301	17095.3
642.654	17197.44
643.007	17177.33
643.36	17086.71
643.713	17167.61
644.066	17147.95
644.419	17025.02
644.771	16880.62
645.124	16820.96
645.477	16725.59
645.83	16625.93
646.182	16572.15
646.535	16527.86
646.888	16585.03
647.24	16487.41
647.593	16660.28
647.945	16476.78
648.298	16484.24
648.65	16350.46
649.002	16375.09
649.355	16493.06
649.707	16556.78
650.059	16587.97
650.411	16808.08
650.763	16817.57
651.115	16954.74
651.467	16924
651.819	16942.08
652.171	16804.46
652.523	16818.7
652.875	16785.02
653.227	16760.17
653.578	16892.59
653.93	16911.12
654.282	16826.15
654.633	16732.14
654.985	16771.92
655.337	16829.09
655.688	16868.19
656.039	16829.09
656.391	16790
656.742	16749.55
657.094	16743.9
657.445	16825.25
657.796	16846.27
658.147	16672.71
658.498	16836.32
658.849	16835.64
659.2	16821.18
659.551	16706.38
659.902	16842.88
660.253	16816.44
660.604	16853.27
660.955	16756.78
661.306	16789.54
661.656	16784.35
662.007	16887.39
662.358	16766.27
662.708	16758.58
663.059	16757
663.409	16767.62
663.76	16804.01
664.11	16859.15
664.461	16821.63
664.811	16987.96
665.161	16885.14
665.511	16785.7
665.862	16759.71
666.212	16936.43
666.562	16931.46
666.912	16804.91
667.262	16987.96
667.612	16816.44
667.962	16902.08
668.312	16872.93
668.662	16853.72
669.011	16916.09
669.361	16794.52
669.711	16799.26
670.06	16709.09
670.41	16743.67
670.76	16826.61
671.109	16836.77
671.459	16722.2
671.808	16849.88
672.157	16752.48
672.507	16609.44
672.856	16660.73
673.205	16707.74
673.554	16740.96
673.904	16661.19
674.253	16806.27
674.602	16693.5
674.951	16424.13
675.3	16457.35
675.649	16594.07
675.998	16626.84
676.346	16716.33
676.695	16656.89
677.044	16532.38
677.393	16535.09
677.741	16535.31
678.09	16498.48
678.438	16449.21
678.787	16537.8
679.135	16455.54
679.484	16358.82
679.832	16405.83
680.181	16298.71
680.529	16310.91
680.877	16272.27
681.225	16265.49
681.573	16333.74
681.922	16101.43
682.27	16119.05
682.618	16205.6
682.966	16122.67
683.314	16205.38
683.661	16098.49
684.009	15965.39
684.357	15972.62
684.705	15959.06
685.053	15988.44
685.4	15887.2
685.748	15911.6
686.095	15800.87
686.443	15819.63
686.79	15759.74
687.138	15812.62
687.485	15784.15
687.832	15741.21
688.18	15696.92
688.527	15625.28
688.874	15605.85
689.221	15568.79
689.568	15491.73
689.915	15463.25
690.262	15492.86
690.609	15459.18
690.956	15393.2
691.303	15436.13
691.65	15262.13
691.997	15333.09
692.344	15156.14
692.69	15169.93
693.037	15101.68
693.383	14959.31
693.73	15053.32
694.077	14906.2
694.423	14943.49
694.769	14863.49
695.116	14843.83
695.462	14819.65
695.808	14734.23
696.155	14704.63
696.501	14631.41
696.847	14597.96
697.193	14466.89
697.539	14530.62
697.885	14408.82
698.231	14364.52
698.577	14350.96
698.923	14324.98
699.269	14117.3
699.614	14131.31
699.96	14133.34
700.306	14058.54
700.651	14002.05
700.997	13986.45
701.342	13961.37
701.688	13912.33
702.033	13865.55
702.379	13839.34
702.724	13809.51
703.069	13897.64
703.415	13714.15
703.76	13685.67
704.105	13653.81
704.45	13586.46
704.795	13593.47
705.14	13484.55
705.485	13407.94
705.83	13410.2
706.175	13436.86
706.52	13354.61
706.865	13294.72
707.209	13266.25
707.554	13153.26
707.899	13184.89
708.243	13179.92
708.588	13142.41
708.932	13005.46
709.277	13039.13
709.621	13021.96
709.966	12855.86
710.31	12921.62
710.654	12733.83
710.998	12807.05
711.342	12886.14
711.687	12747.62
712.031	12732.25
712.375	12614.96
712.719	12722.76
713.063	12668.3
713.407	12681.18
713.75	12575.87
714.094	12596.43
714.438	12546.49
714.782	12613.38
715.125	12526.15
715.469	12508.75
715.812	12515.08
716.156	12302.66
716.499	12332.49
716.843	12372.49
717.186	12372.49
717.53	12393.5
717.873	12317.12
718.216	12311.02
718.559	12230.34
718.902	12216.56
719.246	12217.91
719.589	12171.36
719.932	12200.06
720.275	12118.25
720.617	12178.14
720.96	12141.53
721.303	12146.73
721.646	12083.91
721.989	12042.78
722.331	12055.43
722.674	12046.62
723.016	12094.98
723.359	12078.26
723.701	12057.47
724.044	11994.42
724.386	11878.49
724.729	11971.59
725.071	11954.64
725.413	11897.47
725.755	11904.02
726.097	11931.59
726.439	11868.09
726.782	11816.79
727.124	11932.27
727.465	11876.68
727.807	11842.78
728.149	11795.55
728.491	11871.26
728.833	11759.85
729.175	11777.7
729.516	11800.3
729.858	11772.5
730.199	11848.66
730.541	11801.2
730.882	11666.97
731.224	11794.65
731.565	11675.1
731.906	11704.71
732.248	11744.93
732.589	11728.21
732.93	11618.83
733.271	11694.09
733.612	11758.49
733.953	11728.21
734.294	11698.38
734.635	11671.03
734.976	11660.87
735.317	11634.43
735.658	11661.54
735.999	11615.22
736.339	11628.1
736.68	11723.46
737.021	11620.64
737.361	11651.83
737.702	11650.92
738.042	11637.82
738.383	11719.85
738.723	11762.78
739.063	11713.75
739.404	11657.93
739.744	11693.41
740.084	11661.54
740.424	11672.16
740.764	11762.33
741.104	11703.8
741.444	11711.94
741.784	11692.73
742.124	11745.61
742.464	11758.04
742.804	11718.49
743.143	11778.83
743.483	11843.01
743.823	11767.53
744.162	11864.7
744.502	11788.32
744.841	11933.63
745.181	11956.23
745.52	11950.58
745.86	12082.32
746.199	12105.37
746.538	12077.58
746.877	12188.31
747.216	12227.4
747.556	12270.79
747.895	12299.72
748.234	12307.85
748.573	12275.76
748.911	12423.78
749.25	12573.84
749.589	12530.67
749.928	12643.44
750.267	12725.24
750.605	12803.21
750.944	12816.99
751.283	12874.17
751.621	13039.81
751.96	13066.48
752.298	13208.17
752.636	13278.22
752.975	13280.71
753.313	13432.57
753.651	13591.21
753.989	13623.75
754.327	13747.82
754.666	13725.9
755.004	14047.92
755.342	14096.28
