Data from hue_20_FLMS001491_87.txt Node
Date: Mon Feb 06 15:34:47 GMT 2017
User: dcchb
Spectrometer: FLMS00149
Trigger mode: 0
Integration Time (sec): 2.000000E-2
Scans to average: 10
Electric dark correction enabled: true
Nonlinearity correction enabled: false
Boxcar width: 0
XAxis mode: Wavelengths
Number of Pixels in Spectrum: 2048
>>>>>Begin Spectral Data<<<<<
341.393	-9.82
341.776	-9.82
342.16	-9.82
342.543	-44.62
342.927	-51.85
343.31	-67.44
343.693	-70.61
344.077	-89.36
344.46	-48.46
344.843	-60.89
345.226	-49.14
345.61	-25.18
345.993	-22.25
346.376	4.42
346.759	-4.17
347.142	16.17
347.525	36.74
347.908	52.56
348.291	89.39
348.674	105.66
349.057	132.55
349.44	124.42
349.823	140.46
350.206	164.64
350.588	189.5
350.971	236.96
351.354	217.75
351.737	236.28
352.119	253
352.502	233.34
352.884	278.99
353.267	277.41
353.65	292.1
354.032	301.81
354.414	321.25
354.797	311.76
355.179	308.14
355.562	321.47
355.944	312.21
356.326	327.58
356.709	327.8
357.091	346.56
357.473	348.59
357.855	335.71
358.238	350.85
358.62	348.14
359.002	354.92
359.384	364.64
359.766	347.01
360.148	339.78
360.53	353.79
360.912	332.1
361.294	339.33
361.676	327.8
362.057	316.5
362.439	328.48
362.821	338.2
363.203	318.99
363.584	319.21
363.966	336.16
364.348	358.08
364.729	312.89
365.111	336.39
365.493	309.72
365.874	320.34
366.256	329.38
366.637	308.14
367.019	329.16
367.4	329.84
367.781	321.7
368.163	330.74
368.544	317.18
368.925	322.38
369.306	327.8
369.688	302.04
370.069	323.51
370.45	322.15
370.831	333.68
371.212	332.32
371.593	323.96
371.974	333.9
372.355	296.39
372.736	296.84
373.117	309.27
373.498	306.33
373.879	327.35
374.26	327.58
374.641	301.81
375.021	322.15
375.402	324.86
375.783	324.64
376.163	330.51
376.544	310.4
376.925	327.8
377.305	319.44
377.686	323.51
378.066	333.45
378.447	337.07
378.827	300.46
379.208	358.54
379.588	326.22
379.968	328.25
380.349	334.36
380.729	333
381.109	332.32
381.489	337.07
381.87	348.14
382.25	354.69
382.63	330.29
383.01	348.14
383.39	337.52
383.77	345.88
384.15	365.99
384.53	368.7
384.91	332.32
385.29	330.97
385.67	354.69
386.049	348.59
386.429	344.3
386.809	358.54
387.189	336.39
387.568	350.63
387.948	348.14
388.328	345.65
388.707	356.5
389.087	371.19
389.466	379.33
389.846	380.23
390.225	353.79
390.605	364.19
390.984	379.33
391.363	386.56
391.743	360.34
392.122	382.26
392.501	360.12
392.881	368.03
393.26	354.02
393.639	380.46
394.018	380.23
394.397	374.35
394.776	385.88
395.155	374.58
395.534	385.2
395.913	397.86
396.292	392.43
396.671	384.98
397.05	386.11
397.429	383.85
397.808	394.92
398.186	361.47
398.565	385.43
398.944	389.5
399.323	405.09
399.701	378.65
400.08	398.99
400.458	393.11
400.837	401.7
401.215	394.69
401.594	396.73
401.972	379.33
402.351	405.99
402.729	402.38
403.107	416.84
403.486	409.83
403.864	424.07
404.242	415.71
404.62	413
404.999	411.64
405.377	428.14
405.755	411.87
406.133	419.55
406.511	434.24
406.889	417.07
407.267	437.63
407.645	441.47
408.023	423.17
408.401	431.3
408.779	448.25
409.156	438.08
409.534	439.66
409.912	429.04
410.29	440.12
410.667	448.93
411.045	453.22
411.422	466.1
411.8	472.21
412.178	473.79
412.555	461.81
412.933	468.36
413.31	467.23
413.687	469.04
414.065	475.37
414.442	485.76
414.819	474.01
415.197	469.49
415.574	469.27
415.951	484.63
416.328	474.46
416.705	498.19
417.082	494.13
417.46	509.94
417.837	502.49
418.214	502.03
418.591	498.87
418.967	510.17
419.344	540
419.721	496.61
420.098	528.7
420.475	516.05
420.852	508.36
421.228	522.83
421.605	517.85
421.982	532.09
422.358	527.34
422.735	538.87
423.111	551.98
423.488	541.13
423.864	529.15
424.241	545.42
424.617	555.59
424.994	548.81
425.37	545.65
425.746	563.5
426.123	567.12
426.499	562.6
426.875	581.58
427.251	579.55
427.627	572.77
428.003	599.89
428.379	598.08
428.756	598.08
429.132	594.01
429.507	576.84
429.883	586.78
430.259	602.82
430.635	609.83
431.011	647.12
431.387	631.07
431.763	627.23
432.138	637.17
432.514	613.67
432.89	642.82
433.265	610.96
433.641	665.65
434.016	659.77
434.392	676.04
434.767	643.5
435.143	681.69
435.518	686.89
435.894	680.56
436.269	684.18
436.644	697.96
437.02	708.36
437.395	716.49
437.77	688.02
438.145	717.85
438.52	713.55
438.895	702.93
439.271	726.21
439.646	753.33
440.021	728.02
440.395	727.79
440.77	747.45
441.145	759.66
441.52	750.39
441.895	749.03
442.27	759.66
442.645	758.07
443.019	768.92
443.394	763.27
443.769	778.86
444.143	780.67
444.518	796.72
444.892	765.08
445.267	781.35
445.641	785.42
446.016	784.74
446.39	798.3
446.764	803.5
447.139	798.3
447.513	798.52
447.887	805.53
448.262	832.42
448.636	816.15
449.01	817.73
449.384	819.09
449.758	840.33
450.132	853.21
450.506	876.94
450.88	833.1
451.254	877.84
451.628	876.49
452.002	893.21
452.376	894.11
452.75	869.71
453.123	882.59
453.497	914.23
453.871	891.4
454.244	895.7
454.618	906.54
454.992	916.71
455.365	925.3
455.739	955.36
456.112	986.99
456.486	975.24
456.859	982.25
457.232	998.97
457.606	995.13
457.979	989.71
458.352	1000.55
458.725	1043.72
459.099	1030.16
459.472	1057.95
459.845	1072.64
460.218	1050.49
460.591	1041.46
460.964	1084.39
461.337	1104.5
461.71	1100.89
462.083	1092.98
462.456	1112.87
462.829	1089.82
463.201	1149.02
463.574	1157.84
463.947	1174.79
464.32	1152.87
464.692	1192.19
465.065	1221.56
465.438	1190.38
465.81	1225.86
466.183	1255.01
466.555	1272.18
466.928	1280.32
467.3	1283.03
467.672	1316.25
468.045	1311.28
468.417	1337.95
468.789	1309.25
469.161	1350.15
469.534	1371.16
469.906	1428.11
470.278	1404.38
470.65	1437.15
471.022	1429.47
471.394	1467.66
471.766	1485.06
472.138	1509.24
472.51	1503.59
472.882	1555.34
473.253	1585.4
473.625	1603.7
473.997	1615.23
474.369	1649.8
474.74	1659.74
475.112	1694.32
475.484	1715.79
475.855	1736.8
476.227	1778.84
476.598	1796.01
476.97	1850.7
477.341	1852.73
477.713	1913.07
478.084	1929.12
478.455	1968.44
478.827	1996.01
479.198	2059.73
479.569	2061.99
479.94	2140.18
480.311	2158.04
480.682	2209.11
481.053	2273.74
481.424	2264.25
481.795	2287.75
482.166	2354.64
482.537	2402.1
482.908	2425.37
483.279	2453.85
483.65	2537.46
484.021	2560.74
484.391	2584.92
484.762	2644.35
485.133	2675.31
485.503	2687.74
485.874	2728.64
486.244	2819.26
486.615	2851.13
486.985	2954.85
487.356	2961.41
487.726	2988.07
488.097	3041.86
488.467	3071.91
488.837	3125.69
489.207	3170.44
489.578	3248.86
489.948	3281.85
490.318	3320.72
490.688	3328.4
491.058	3409.98
491.428	3484.1
491.798	3488.62
492.168	3578.56
492.538	3610.88
492.908	3640.94
493.278	3672.57
493.648	3710.09
494.017	3780.14
494.387	3804.55
494.757	3850.65
495.126	3903.98
495.496	3888.61
495.866	3980.59
496.235	3970.87
496.605	4002.96
496.974	4035.5
497.344	4040.92
497.713	4097.87
498.082	4195.05
498.452	4184.2
498.821	4223.29
499.19	4220.36
499.559	4236.17
499.928	4306.23
500.298	4308.71
500.667	4357.75
501.036	4356.17
501.405	4408.6
501.774	4444.98
502.143	4497.64
502.512	4480.91
502.88	4536.51
503.249	4522.95
503.618	4553.23
503.987	4581.48
504.356	4619.67
504.724	4638.2
505.093	4649.72
505.462	4655.82
505.83	4705.09
506.199	4799.1
506.567	4806.78
506.936	4814.69
507.304	4841.13
507.672	4849.27
508.041	4851.75
508.409	4961.13
508.777	4977.62
509.145	4982.82
509.514	5000.67
509.882	4978.08
510.25	5026.89
510.618	4987.57
510.986	5040.67
511.354	5096.04
511.722	5148.01
512.09	5182.14
512.458	5158.41
512.826	5169.71
513.193	5239.76
513.561	5192.31
513.929	5254.23
514.297	5272.08
514.664	5333.77
515.032	5328.57
515.4	5386.2
515.767	5367.67
516.135	5411.51
516.502	5321.8
516.869	5473.43
517.237	5489.25
517.604	5454.22
517.972	5479.76
518.339	5550.49
518.706	5547.1
519.073	5584.84
519.44	5580.09
519.808	5660.09
520.175	5603.14
520.542	5664.16
520.909	5757.72
521.276	5730.37
521.643	5752.29
522.009	5774.89
522.376	5832.97
522.743	5797.04
523.11	5884.94
523.477	5921.1
523.843	5936.69
524.21	5971.72
524.577	6016.47
524.943	6023.47
525.31	6025.28
525.676	6120.19
526.043	6134.2
526.409	6188.66
526.776	6249.23
527.142	6193.64
527.508	6270.47
527.874	6289.68
528.241	6344.14
528.607	6326.29
528.973	6347.53
529.339	6434.53
529.705	6419.39
530.071	6508.88
530.437	6512.5
530.803	6509.79
531.169	6551.59
531.535	6570.8
531.901	6635.88
532.267	6644.92
532.632	6698.71
532.998	6759.72
533.364	6783
533.73	6736.45
534.095	6842.89
534.461	6845.82
534.826	6873.84
535.192	6895.99
535.557	6971.7
535.923	6980.06
536.288	6965.82
536.653	6996.78
537.019	6995.2
537.384	7035.87
537.749	7096.89
538.114	7062.99
538.479	7100.73
538.845	7133.5
539.21	7056.44
539.575	7207.17
539.94	7201.29
540.305	7242.65
540.67	7276.32
541.034	7332.82
541.399	7341.18
541.764	7370.1
542.129	7360.84
542.494	7451.68
542.858	7438.58
543.223	7452.36
543.587	7492.13
543.952	7592.24
544.316	7552.7
544.681	7539.14
545.045	7569.42
545.41	7740.94
545.774	7663.88
546.138	7741.84
546.503	7747.49
546.867	7707.95
547.231	7773.26
547.595	7881.73
547.959	7833.14
548.324	7885.57
548.688	7857.55
549.052	7931.67
549.416	7996.3
549.779	7975.74
550.143	8020.71
550.507	8099.58
550.871	8063.42
551.235	8049.41
551.599	8123.08
551.962	8218.67
552.326	8198.78
552.689	8238.55
553.053	8230.19
553.417	8297.54
553.78	8350.19
554.143	8316.52
554.507	8354.03
554.87	8438.1
555.234	8360.36
555.597	8448.72
555.96	8427.93
556.323	8477.42
556.686	8462.5
557.05	8608.26
557.413	8575.72
557.776	8542.95
558.139	8639
558.502	8605.78
558.865	8659.33
559.228	8676.28
559.59	8736.62
559.953	8777.07
560.316	8815.49
560.679	8848.03
561.041	8923.96
561.404	8914.92
561.767	8976.16
562.129	8890.74
562.492	9013.22
562.854	8981.36
563.217	8950.85
563.579	9064.52
563.941	9103.39
564.304	9132.09
564.666	9232.65
565.028	9189.49
565.39	9186.1
565.753	9279.43
566.115	9281.69
566.477	9311.75
566.839	9370.95
567.201	9435.13
567.563	9445.08
567.925	9461.35
568.287	9543.38
568.648	9512.87
569.01	9563.72
569.372	9628.35
569.734	9609.59
570.095	9727.55
570.457	9812.07
570.819	9702.7
571.18	9856.14
571.542	9864.05
571.903	9881.9
572.265	9889.58
572.626	10001.22
572.987	10026.76
573.349	10129.35
573.71	10157.83
574.071	10205.96
574.432	10200.99
574.794	10348.56
575.155	10405.05
575.516	10394.43
575.877	10463.13
576.238	10492.28
576.599	10615.89
576.96	10663.12
577.32	10732.95
577.681	10761.43
578.042	10831.25
578.403	10975.88
578.763	11071.93
579.124	11210.45
579.485	11271.24
579.845	11407.51
580.206	11465.14
580.566	11619.03
580.927	11732.47
581.287	11842.75
581.648	11907.38
582.008	12152.8
582.368	12232.8
582.728	12400.71
583.089	12569.51
583.449	12690.41
583.809	12903.52
584.169	13042.95
584.529	13190.74
584.889	13502.37
585.249	13664.63
585.609	13836.15
585.969	14086.54
586.329	14329.47
586.688	14521.33
587.048	14665.96
587.408	14881.32
587.768	15211.25
588.127	15417.35
588.487	15581.86
588.846	16006.94
589.206	16192.92
589.565	16470.2
589.925	16886.46
590.284	17021.15
590.643	17337.3
591.003	17622.71
591.362	17970.95
591.721	18196.94
592.08	18604.61
592.44	18822.23
592.799	19215.89
593.158	19443.91
593.517	19841.41
593.876	20128.19
594.235	20503.99
594.593	20850.65
594.952	21173.81
595.311	21418.77
595.67	21808.14
596.029	22237.06
596.387	22574
596.746	22881.11
597.104	23140.76
597.463	23562.67
597.822	23843.12
598.18	24062.09
598.538	24500.5
598.897	24867.27
599.255	25056.87
599.613	25749.05
599.972	25862.27
600.33	26214.81
600.688	26483.27
601.046	26924.62
601.404	27308.34
601.762	27656.58
602.12	28031.71
602.478	28378.14
602.836	28580.84
603.194	28667.85
603.552	29145.8
603.91	29356.87
604.268	29834.37
604.625	30016.51
604.983	30449.72
605.341	30486.78
605.698	30992.53
606.056	31369.92
606.413	31668.9
606.771	31989.34
607.128	32267.3
607.485	32470.01
607.843	32737.12
608.2	33126.49
608.557	33405.12
608.914	33561.05
609.272	33852.57
609.629	34228.83
609.986	34596.96
610.343	34568.71
610.7	35128.69
611.057	35382.02
611.414	35468.8
611.771	35784.04
612.127	36028.56
612.484	36228.55
612.841	36516.23
613.198	36546.74
613.554	36790.8
613.911	37096.1
614.267	37389.65
614.624	37563.21
614.98	37766.14
615.337	38134.04
615.693	38226.24
616.05	38284.77
616.406	38625.55
616.762	38575.38
617.118	38742.84
617.475	39095.37
617.831	39308.47
618.187	39451.07
618.543	39535.81
618.899	40026.65
619.255	40049.92
619.611	40072.75
619.967	40412.85
620.323	40611.04
620.678	40496.24
621.034	40594.54
621.39	40671.6
621.746	40900.75
622.101	41427.29
622.457	41249.21
622.812	41176.67
623.168	41332.37
623.523	41569.2
623.879	41808.97
624.234	41636.32
624.589	41865.02
624.945	41966.26
625.3	42108.17
625.655	42151.34
626.01	42343.42
626.365	42390.2
626.72	42454.6
627.075	42303.2
627.43	42561.72
627.785	42578.22
628.14	42707.93
628.495	42785.44
628.85	42802.62
629.205	42727.14
629.559	43003.74
629.914	42919.45
630.269	43068.83
630.623	42922.61
630.978	42960.81
631.332	43165.55
631.687	43196.28
632.041	43086.68
632.396	43329.84
632.75	43076.06
633.104	43284.41
633.459	43226.79
633.813	43265.66
634.167	43363.05
634.521	43293.9
634.875	43456.61
635.229	43244.41
635.583	43169.39
635.937	43254.36
636.291	43170.52
636.645	43154.47
636.999	43248.03
637.352	43204.41
637.706	43142.72
638.06	43358.54
638.413	43209.16
638.767	43123.29
639.121	43289.84
639.474	42961.48
639.828	43141.82
640.181	43347.01
640.534	43247.8
640.888	43098.88
641.241	43075.6
641.594	43136.39
641.947	43257.75
642.301	43189.73
642.654	43087.13
643.007	43252.1
643.36	43133.68
643.713	43063.63
644.066	43183.4
644.419	42947.7
644.771	42691.89
645.124	42369.18
645.477	42236.76
645.83	42143.43
646.182	42066.14
646.535	41959.25
646.888	41945.69
647.24	41786.6
647.593	42124.22
647.945	41935.07
648.298	41834.73
648.65	41801.97
649.002	41680.61
649.355	41947.72
649.707	41756.09
650.059	41982.98
650.411	42299.58
650.763	42443.08
651.115	42864.08
651.467	42700.47
651.819	42695.05
652.171	42631.55
652.523	42562.85
652.875	42580.48
653.227	42382.29
653.578	42767.59
653.93	42624.32
654.282	42354.27
654.633	42449.41
654.985	42513.59
655.337	42468.61
655.688	42535.73
656.039	42630.19
656.391	42262.52
656.742	42360.14
657.094	42334.83
657.445	42441.27
657.796	42460.03
658.147	42256.42
658.498	42359.69
658.849	42386.13
659.2	42361.05
659.551	42279.02
659.902	42375.74
660.253	42392.91
660.604	42399.69
660.955	42153.37
661.306	42220.94
661.656	42163.09
662.007	42143.65
662.358	42192.01
662.708	42169.87
663.059	42162.18
663.409	42102.52
663.76	42350.2
664.11	42322.63
664.461	42228.4
664.811	42293.03
665.161	42241.5
665.511	42154.5
665.862	42181.39
666.212	42313.36
666.562	42316.53
666.912	42130.77
667.262	42073.37
667.612	42058.68
667.962	42268.17
668.312	42215.51
668.662	42155.4
669.011	42042.19
669.361	42055.74
669.711	41980.72
670.06	41850.33
670.41	41937.56
670.76	41901.4
671.109	42154.05
671.459	42016.2
671.808	41933.04
672.157	42025.91
672.507	41618.69
672.856	41811.23
673.205	41891.68
673.554	42020.27
673.904	41905.01
674.253	42069.76
674.602	41881.51
674.951	41359.94
675.3	41121.08
675.649	41820.95
675.998	41725.81
676.346	41883.32
676.695	41952.92
677.044	41595.19
677.393	41671.57
677.741	41698.24
678.09	41604.68
678.438	41463.22
678.787	41565.14
679.135	41542.99
679.484	41337.35
679.832	41489.43
680.181	41235.43
680.529	41319.04
680.877	41204.92
681.225	41226.84
681.573	41430.68
681.922	41116.33
682.27	41005.6
682.618	41037.24
682.966	41091.02
683.314	41125.83
683.661	40802.44
684.009	40737.81
684.357	40722.67
684.705	40700.07
685.053	40660.07
685.4	40434.54
685.748	40427.99
686.095	40412.17
686.443	40203.59
686.79	40129.02
687.138	40223.48
687.485	40310.71
687.832	40086.98
688.18	40261.44
688.527	39937.83
688.874	39765.86
689.221	39942.58
689.568	39868.91
689.915	39741.23
690.262	39673.89
690.609	39601.35
690.956	39421.01
691.303	39450.16
691.65	39300.56
691.997	39190.96
692.344	39017.63
692.69	39027.8
693.037	39083.62
693.383	38624.2
693.73	38891.08
694.077	38634.59
694.423	38668.26
694.769	38388.04
695.116	38375.62
695.462	38461.94
695.808	38281.61
696.155	38308.72
696.501	37993.03
696.847	38128.16
697.193	37717.33
697.539	38029.64
697.885	37730.43
698.231	37517.33
698.577	37480.5
698.923	37521.4
699.269	37209.32
699.614	37123.22
699.96	36950.57
700.306	37107.63
700.651	36940.4
700.997	36777.69
701.342	36898.82
701.688	36817.01
702.033	36654.76
702.379	36562.33
702.724	36309.23
703.069	36654.3
703.415	36092.06
703.76	36014.55
704.105	36032.4
704.45	36081.21
704.795	35873.31
705.14	35734.33
705.485	35795.8
705.83	35641.9
706.175	35791.73
706.52	35630.6
706.865	35419.53
707.209	35357.62
707.554	35296.37
707.899	35412.98
708.243	35001.92
708.588	35100
708.932	34831.3
709.277	34801.02
709.621	34955.14
709.966	34699.1
710.31	34615.94
710.654	34487.36
710.998	34573.46
711.342	34548.37
711.687	34343.63
712.031	34262.28
712.375	34148.61
712.719	34290.07
713.063	34184.31
713.407	34198.55
713.75	34015.96
714.094	34044.2
714.438	33795.4
714.782	33818.67
715.125	33760.82
715.469	33799.24
715.812	33620.49
716.156	33392.47
716.499	33610.99
716.843	33309.76
717.186	33257.33
717.53	33359.48
717.873	33346.82
718.216	33184.34
718.559	33106.6
718.902	32922.43
719.246	32858.47
719.589	32896.66
719.932	32803.56
720.275	32734.86
720.617	32554.53
720.96	32559.95
721.303	32649.44
721.646	32561.08
721.989	32288.54
722.331	32560.85
722.674	32463.91
723.016	32410.8
723.359	32313.18
723.701	32448.54
724.044	32207.87
724.386	31972.39
724.729	32087.87
725.071	32172.16
725.413	32010.13
725.755	32006.74
726.097	31857.59
726.439	31758.84
726.782	31727.2
727.124	31814.66
727.465	31663.48
727.807	31792.06
728.149	31585.74
728.491	31526.08
728.833	31593.87
729.175	31514.55
729.516	31331.05
729.858	31386.87
730.199	31438.4
730.541	31173.32
730.882	31233.2
731.224	31282.92
731.565	31077.73
731.906	31098.52
732.248	31067.78
732.589	30827.34
732.93	30892.65
733.271	30854.68
733.612	30802.48
733.953	30896.49
734.294	30755.25
734.635	30548.02
734.976	30644.75
735.317	30570.85
735.658	30545.54
735.999	30480.23
736.339	30497.18
736.68	30520.68
737.021	30519.78
737.361	30292.21
737.702	30454.24
738.042	30391.64
738.383	30265.09
738.723	30282.27
739.063	30227.81
739.404	30209.5
739.744	30162.05
740.084	29977.19
740.424	30137.87
740.764	30068.26
741.104	30087.02
741.444	29887.93
741.784	29872.34
742.124	29928.83
742.464	29653.13
742.804	29696.97
743.143	29633.02
743.483	29645.9
743.823	29635.96
744.162	29541.95
744.502	29566.13
744.841	29454.95
745.181	29508.96
745.52	29352.8
745.86	29428.51
746.199	29366.36
746.538	29176.08
746.877	29353.48
747.216	29318.68
747.556	29083.43
747.895	29167.5
748.234	29067.16
748.573	29103.54
748.911	28948.07
749.25	28998.91
749.589	28883.89
749.928	28864.68
750.267	28991.46
750.605	28753.04
750.944	28640.73
751.283	28716.66
751.621	28691.12
751.96	28681.18
752.298	28615.65
752.636	28531.81
752.975	28468.53
753.313	28256.79
753.651	28479.6
753.989	28303.56
754.327	28281.42
754.666	28179.95
755.004	28154.87
755.342	28161.87
755.679	28039.39
756.017	27979.73
756.355	28005.49
756.693	27940.64
757.031	27995.78
757.368	27845.95
757.706	27796.68
758.044	27649.8
758.381	27681.89
758.719	27696.12
759.056	27619.74
759.394	27484.83
759.731	27277.83
760.068	27280.54
760.405	27210.49
