Data from hue_240_FLMS001491_00046.txt Node
Date: Tue Feb 07 16:35:32 GMT 2017
User: dcchb
Spectrometer: FLMS00149
Trigger mode: 0
Integration Time (sec): 2.000000E-2
Scans to average: 10
Electric dark correction enabled: true
Nonlinearity correction enabled: false
Boxcar width: 0
XAxis mode: Wavelengths
Number of Pixels in Spectrum: 2048
>>>>>Begin Spectral Data<<<<<
341.393	-8.73
341.776	-8.73
342.16	-8.73
342.543	-68.39
342.927	-48.73
343.31	-53.93
343.693	-88.5
344.077	-78.11
344.46	-58.67
344.843	-48.28
345.226	-34.94
345.61	-45.34
345.993	-13.25
346.376	-3.98
346.759	-0.82
347.142	32.85
347.525	32.85
347.908	53.19
348.291	82.34
348.674	96.13
349.057	128.44
349.44	111.49
349.823	136.13
350.206	168.89
350.588	193.98
350.971	190.59
351.354	208.44
351.737	205.05
352.119	251.38
352.502	246.63
352.884	281.21
353.267	267.42
353.65	273.07
354.032	298.38
354.414	292.96
354.797	313.3
355.179	299.29
355.562	304.94
355.944	324.6
356.326	346.29
356.709	318.72
357.091	342.9
357.473	342.67
357.855	345.84
358.238	342.67
358.62	330.47
359.002	344.03
359.384	346.29
359.766	342.22
360.148	323.24
360.53	328.21
360.912	343.58
361.294	316.46
361.676	321.43
362.057	330.92
362.439	336.12
362.821	297.48
363.203	308.55
363.584	321.21
363.966	330.47
364.348	316.69
364.729	312.62
365.111	302.9
365.493	291.15
365.874	306.74
366.256	292.28
366.637	313.3
367.019	301.77
367.4	318.04
367.781	308.55
368.163	316.23
368.544	289.57
368.925	304.48
369.306	302.22
369.688	284.6
370.069	313.07
370.45	304.94
370.831	324.14
371.212	313.07
371.593	295.67
371.974	306.74
372.355	320.3
372.736	284.15
373.117	304.48
373.498	312.62
373.879	311.04
374.26	318.04
374.641	311.04
375.021	313.07
375.402	303.58
375.783	324.82
376.163	316.01
376.544	306.29
376.925	333.86
377.305	304.48
377.686	307.65
378.066	313.97
378.447	325.27
378.827	313.07
379.208	323.24
379.588	330.7
379.968	311.49
380.349	360.75
380.729	312.17
381.109	330.92
381.489	335.22
381.87	332.51
382.25	336.8
382.63	327.99
383.01	351.26
383.39	345.84
383.77	328.44
384.15	349.91
384.53	326.4
384.91	341.54
385.29	338.83
385.67	320.53
386.049	335.67
386.429	335.22
386.809	351.94
387.189	346.06
387.568	356.69
387.948	331.15
388.328	321.88
388.707	362.34
389.087	349.68
389.466	351.94
389.846	372.96
390.225	353.3
390.605	361.88
390.984	365.95
391.363	342.67
391.743	370.47
392.122	362.79
392.501	368.21
392.881	372.28
393.26	359.62
393.639	358.95
394.018	365.05
394.397	352.39
394.776	352.39
395.155	369.79
395.534	378.61
395.913	379.28
396.292	361.43
396.671	379.74
397.05	394.2
397.429	391.26
397.808	373.86
398.186	389.68
398.565	387.65
398.944	380.87
399.323	384.26
399.701	384.71
400.08	388.55
400.458	378.15
400.837	412.73
401.215	419.73
401.594	393.52
401.972	411.83
402.351	410.24
402.729	428.77
403.107	415.44
403.486	410.02
403.864	410.7
404.242	429.45
404.62	429.45
404.999	425.38
405.377	412.96
405.755	437.81
406.133	451.37
406.511	459.51
406.889	455.44
407.267	462.9
407.645	454.54
408.023	465.61
408.401	482.11
408.779	457.93
409.156	471.71
409.534	469
409.912	482.56
410.29	480.3
410.667	494.76
411.045	498.83
411.422	505.16
411.8	504.03
412.178	504.25
412.555	525.04
412.933	507.42
413.31	538.83
413.687	541.99
414.065	554.19
414.442	545.61
414.819	542.67
415.197	564.36
415.574	552.39
415.951	543.12
416.328	558.26
416.705	573.63
417.082	591.26
417.46	586.74
417.837	611.37
418.214	604.36
418.591	619.05
418.967	619.96
419.344	626.73
419.721	618.15
420.098	627.86
420.475	643.01
420.852	656.11
421.228	653.63
421.605	672.16
421.982	662.21
422.358	682.55
422.735	699.5
423.111	698.37
423.488	730.46
423.864	726.17
424.241	724.36
424.617	716.9
424.994	753.74
425.37	743.57
425.746	733.85
426.123	783.34
426.499	783.57
426.875	804.58
427.251	814.3
427.627	822.21
428.003	788.99
428.379	833.96
428.756	848.65
429.132	822.89
429.507	838.25
429.883	850.68
430.259	855.2
430.635	863.11
431.011	861.08
431.387	880.74
431.763	919.16
432.138	921.87
432.514	939.72
432.89	935.88
433.265	944.92
433.641	976.78
434.016	956.9
434.392	1004.35
434.767	1027.4
435.143	1032.37
435.518	1037.35
435.894	1055.42
436.269	1039.15
436.644	1104.69
437.02	1075.76
437.395	1120.28
437.77	1126.38
438.145	1149.89
438.52	1135.42
438.895	1129.77
439.271	1175.87
439.646	1177
440.021	1200.73
440.395	1213.16
440.77	1218.58
441.145	1243.22
441.52	1275.31
441.895	1258.58
442.27	1276.44
442.645	1268.75
443.019	1304.68
443.394	1293.38
443.769	1324.12
444.143	1297.9
444.518	1335.42
444.892	1326.83
445.267	1344.46
445.641	1362.76
446.016	1373.38
446.39	1389.2
446.764	1381.29
447.139	1384
447.513	1412.93
447.887	1400.95
448.262	1406.83
448.636	1429.2
449.01	1456.09
449.384	1451.12
449.758	1479.37
450.132	1482.98
450.506	1478.92
450.88	1504.23
451.254	1509.88
451.628	1507.84
452.002	1527.73
452.376	1539.25
452.75	1570.44
453.123	1585.81
453.497	1588.52
453.871	1599.14
454.244	1637.33
454.618	1663.09
454.992	1657.67
455.365	1656.99
455.739	1689.98
456.112	1728.4
456.486	1728.4
456.859	1705.12
457.232	1758.46
457.606	1769.3
457.979	1783.77
458.352	1785.35
458.725	1839.13
459.099	1843.43
459.472	1879.81
459.845	1920.71
460.218	1889.98
460.591	1898.57
460.964	1925.91
461.337	1958.45
461.71	1999.35
462.083	2003.2
462.456	1994.38
462.829	2012.46
463.201	2079.58
463.574	2055.62
463.947	2130.2
464.32	2162.74
464.692	2136.3
465.065	2145.57
465.438	2185.79
465.81	2228.27
466.183	2220.37
466.555	2290.19
466.928	2300.14
467.3	2306.69
467.672	2337.42
468.045	2403.19
468.417	2384.43
468.789	2376.97
469.161	2433.02
469.534	2464.65
469.906	2528.61
470.278	2524.99
470.65	2596.63
471.022	2589.62
471.394	2656.06
471.766	2616.97
472.138	2640.92
472.51	2721.14
472.882	2776.51
473.253	2803.85
473.625	2816.96
473.997	2862.38
474.369	2890.86
474.74	2902.38
475.112	2951.19
475.484	2993.23
475.855	3039.55
476.227	3030.74
476.598	3129.27
476.97	3171.98
477.341	3218.31
477.713	3232.54
478.084	3270.51
478.455	3351.86
478.827	3377.85
479.198	3469.6
479.569	3443.38
479.94	3531.52
480.311	3555.25
480.682	3627.33
481.053	3725.86
481.424	3768.57
481.795	3773.77
482.166	3885.41
482.537	3874.33
482.908	3926.99
483.279	3971.05
483.65	4052.41
484.021	4105.74
484.391	4146.64
484.762	4171.95
485.133	4248.33
485.503	4278.16
485.874	4352.06
486.244	4360.42
486.615	4398.61
486.985	4479.97
487.356	4544.6
487.726	4522.45
488.097	4607.2
488.467	4670.7
488.837	4794.31
489.207	4803.8
489.578	4847.64
489.948	4918.6
490.318	4960.18
490.688	4987.3
491.058	5029.78
491.428	5119.5
491.798	5156.33
492.168	5246.05
492.538	5281.75
492.908	5251.47
493.278	5392.03
493.648	5347.06
494.017	5406.5
494.387	5421.64
494.757	5484.69
495.126	5477.68
495.496	5563.33
495.866	5528.3
496.235	5622.54
496.605	5706.83
496.974	5685.36
497.344	5768.29
497.713	5761.29
498.082	5775.07
498.452	5844.68
498.821	5874.51
499.19	5838.8
499.559	5871.57
499.928	5974.84
500.298	5938.91
500.667	6029.53
501.036	6044.67
501.405	6008.74
501.774	6055.97
502.143	6118.57
502.512	6077.21
502.88	6183.88
503.249	6161.73
503.618	6156.31
503.987	6180.71
504.356	6273.82
504.724	6249.86
505.093	6276.98
505.462	6281.5
505.83	6340.71
506.199	6329.86
506.567	6365.34
506.936	6410.31
507.304	6403.76
507.672	6431.1
508.041	6508.16
508.409	6538.67
508.777	6526.92
509.145	6615.5
509.514	6555.84
509.882	6598.33
510.25	6610.08
510.618	6631.32
510.986	6609.85
511.354	6693.69
511.722	6707.48
512.09	6753.58
512.458	6725.56
512.826	6801.04
513.193	6787.93
513.561	6785.67
513.929	6825.44
514.297	6819.11
514.664	6843.75
515.032	6922.16
515.4	6924.65
515.767	6979.34
516.135	6952.22
516.502	6925.55
516.869	7011.65
517.237	7000.13
517.604	7015.27
517.972	7052.78
518.339	7043.29
518.706	7017.08
519.073	7116.73
519.44	7103.85
519.808	7155.6
520.175	7100.24
520.542	7152.44
520.909	7196.51
521.276	7133.23
521.643	7190.18
522.009	7281.93
522.376	7273.79
522.743	7239.67
523.11	7342.04
523.477	7333.23
523.843	7381.81
524.21	7443.5
524.577	7480.79
524.943	7418.65
525.31	7435.14
525.676	7408.25
526.043	7539.1
526.409	7560.56
526.776	7554.01
527.142	7532.99
527.508	7530.51
527.874	7602.6
528.241	7598.98
528.607	7614.35
528.973	7603.5
529.339	7677.85
529.705	7658.64
530.071	7692.31
530.437	7643.95
530.803	7714.23
531.169	7681.46
531.535	7685.31
531.901	7719.2
532.267	7668.13
532.632	7735.47
532.998	7722.37
533.364	7740.9
533.73	7731.86
534.095	7814.57
534.461	7754.01
534.826	7759.88
535.192	7747.68
535.557	7805.08
535.923	7772.99
536.288	7763.27
536.653	7725.53
537.019	7718.07
537.384	7717.4
537.749	7743.38
538.114	7712.42
538.479	7701.8
538.845	7776.38
539.21	7688.24
539.575	7707
539.94	7714.91
540.305	7756.72
540.67	7727.57
541.034	7774.12
541.399	7695.02
541.764	7711.29
542.129	7751.97
542.494	7723.95
542.858	7758.3
543.223	7675.59
543.587	7716.72
543.952	7709.94
544.316	7633.33
544.681	7661.13
545.045	7650.51
545.41	7697.96
545.774	7629.71
546.138	7697.96
546.503	7641.01
546.867	7553.11
547.231	7730.95
547.595	7645.08
547.959	7665.65
548.324	7693.89
548.688	7620.22
549.052	7708.13
549.416	7618.87
549.779	7588.36
550.143	7614.57
550.507	7574.35
550.871	7687.34
551.235	7542.26
551.599	7620.45
551.962	7565.76
552.326	7544.29
552.689	7610.51
553.053	7604.4
553.417	7626.32
553.78	7647.79
554.143	7564.41
554.507	7587.46
554.87	7621.13
555.234	7617.29
555.597	7573.44
555.96	7585.65
556.323	7632.2
556.686	7604.63
557.05	7628.58
557.413	7625.42
557.776	7641.01
558.139	7665.65
558.502	7650.96
558.865	7615.03
559.228	7671.07
559.59	7648.02
559.953	7655.7
560.316	7706.1
560.679	7703.61
561.041	7740.45
561.404	7723.72
561.767	7768.02
562.129	7771.63
562.492	7773.67
562.854	7798.07
563.217	7817.05
563.579	7793.1
563.941	7890.95
564.304	7864.06
564.666	7884.85
565.028	7878.52
565.39	7878.97
565.753	7854.79
566.115	7908.35
566.477	7997.16
566.839	7949.25
567.201	7936.37
567.563	7994.45
567.925	8005.98
568.287	8023.83
568.648	8004.62
569.01	8024.73
569.372	8128.91
569.734	8030.61
570.095	8138.85
570.457	8123.71
570.819	8189.25
571.18	8164.84
571.542	8129.36
571.903	8179.76
572.265	8215.24
572.626	8281.22
572.987	8227.67
573.349	8212.98
573.71	8314.89
574.071	8316.93
574.432	8271.96
574.794	8377.04
575.155	8400.09
575.516	8378.4
575.877	8330.26
576.238	8403.93
576.599	8404.84
576.96	8411.16
577.32	8408.45
577.681	8462.24
578.042	8504.72
578.403	8491.61
578.763	8461.56
579.124	8504.27
579.485	8508.34
579.845	8577.26
580.206	8610.03
580.566	8572.74
580.927	8567.32
581.287	8586.3
581.648	8643.02
582.008	8684.6
582.368	8647.99
582.728	8661.55
583.089	8593.98
583.449	8709.01
583.809	8648.9
584.169	8653.87
584.529	8657.03
584.889	8790.59
585.249	8659.07
585.609	8717.37
585.969	8742.23
586.329	8724.15
586.688	8803.92
587.048	8762.57
587.408	8732.28
587.768	8731.38
588.127	8743.58
588.487	8746.52
588.846	8894.54
589.206	8788.1
589.565	8829.23
589.925	8843.24
590.284	8877.59
590.643	8866.52
591.003	8939.06
591.362	8909
591.721	8913.52
592.08	8902.9
592.44	8893.18
592.799	8953.52
593.158	8958.04
593.517	8954.43
593.876	8893.64
594.235	8937.93
594.593	8963.01
594.952	8965.05
595.311	8883.69
595.67	8977.93
596.029	9003.46
596.387	9034.42
596.746	8982.67
597.104	8954.88
597.463	8956.91
597.822	8984.71
598.18	9007.98
598.538	8927.76
598.897	9062.22
599.255	8963.01
599.613	9074.87
599.972	9035.55
600.33	9055.44
600.688	9024.93
601.046	9061.32
601.404	9076.91
601.762	9058.38
602.12	9078.26
602.478	9073.97
602.836	9117.36
603.194	9078.04
603.552	9065.38
603.91	9118.26
604.268	9125.27
604.625	9041.65
604.983	9128.88
605.341	8996.91
605.698	9128.43
606.056	9194.87
606.413	9072.39
606.771	9170.92
607.128	9120.3
607.485	9134.31
607.843	9128.66
608.2	9183.57
608.557	9148.32
608.914	9164.36
609.272	9229.67
609.629	9200.07
609.986	9238.26
610.343	9158.26
610.7	9184.02
611.057	9271.25
611.414	9224.93
611.771	9160.75
612.127	9250.91
612.484	9276.68
612.841	9345.83
613.198	9283.68
613.554	9282.78
613.911	9337.01
614.267	9317.13
614.624	9292.27
614.98	9334.3
615.337	9358.71
615.693	9277.13
616.05	9341.99
616.406	9388.54
616.762	9384.47
617.118	9369.56
617.475	9358.93
617.831	9300.18
618.187	9374.53
618.543	9351.25
618.899	9468.08
619.255	9361.19
619.611	9441.19
619.967	9455.43
620.323	9455.66
620.678	9444.81
621.034	9398.71
621.39	9445.26
621.746	9388.76
622.101	9505.6
622.457	9459.95
622.812	9492.94
623.168	9456.33
623.523	9498.59
623.879	9509.21
624.234	9404.36
624.589	9488.65
624.945	9451.36
625.3	9471.93
625.655	9460.63
626.01	9448.65
626.365	9483
626.72	9415.43
627.075	9472.38
627.43	9406.17
627.785	9418.37
628.14	9443.68
628.495	9401.19
628.85	9420.4
629.205	9407.52
629.559	9516.9
629.914	9359.84
630.269	9342.66
630.623	9339.95
630.978	9402.1
631.332	9343.57
631.687	9380.86
632.041	9375.43
632.396	9384.02
632.75	9317.13
633.104	9398.26
633.459	9290.46
633.813	9297.24
634.167	9277.58
634.521	9299.5
634.875	9297.47
635.229	9263.34
635.583	9209.33
635.937	9231.03
636.291	9238.94
636.645	9172.72
636.999	9164.36
637.352	9195.1
637.706	9163.01
638.06	9136.12
638.413	9151.48
638.767	9129.34
639.121	9114.65
639.474	9116.23
639.828	9171.6
640.181	9090.02
640.534	9122.78
640.888	9070.58
641.241	9066.74
641.594	9033.29
641.947	9066.74
642.301	9048.21
642.654	9011.37
643.007	9061.09
643.36	9056.12
643.713	9036.01
644.066	9079.39
644.419	8979.96
644.771	8993.75
645.124	8888.66
645.477	8843.24
645.83	8837.37
646.182	8805.28
646.535	8719.86
646.888	8809.34
647.24	8650.03
647.593	8723.47
647.945	8686.41
648.298	8652.06
648.65	8661.55
649.002	8704.49
649.355	8676.69
649.707	8691.83
650.059	8759.4
650.411	8803.92
650.763	8827.42
651.115	8912.84
651.467	8970.7
651.819	8876.69
652.171	8877.14
652.523	8885.27
652.875	8901.77
653.227	8836.01
653.578	8873.3
653.93	8865.84
654.282	8857.03
654.633	8849.8
654.985	8791.72
655.337	8810.93
655.688	8818.61
656.039	8913.3
656.391	8813.19
656.742	8783.81
657.094	8825.16
657.445	8840.3
657.796	8842.34
658.147	8815.22
658.498	8816.35
658.849	8815.67
659.2	8864.26
659.551	8816.35
659.902	8810.93
660.253	8860.19
660.604	8857.7
660.955	8805.05
661.306	8807.08
661.656	8871.72
662.007	8855.45
662.358	8909
662.708	8852.96
663.059	8901.77
663.409	8807.76
663.76	8895.44
664.11	8906.74
664.461	8845.73
664.811	8886.86
665.161	8839.85
665.511	8910.58
665.862	8860.19
666.212	8897.25
666.562	8884.14
666.912	8822
667.262	8835.78
667.612	8869.46
667.962	8798.27
668.312	8780.87
668.662	8911.26
669.011	8920.98
669.361	8844.37
669.711	8828.33
670.06	8807.54
670.41	8734.77
670.76	8793.07
671.109	8872.39
671.459	8862.9
671.808	8829.91
672.157	8767.99
672.507	8779.29
672.856	8747.2
673.205	8756.92
673.554	8792.85
673.904	8741.32
674.253	8805.28
674.602	8740.65
674.951	8640.99
675.3	8616.36
675.649	8707.65
675.998	8734.77
676.346	8690.03
676.695	8735.67
677.044	8630.82
677.393	8665.17
677.741	8752.17
678.09	8687.77
678.438	8603.02
678.787	8672.4
679.135	8706.75
679.484	8608.22
679.832	8615.68
680.181	8584.94
680.529	8585.85
680.877	8533.19
681.225	8568.67
681.573	8622.46
681.922	8491.84
682.27	8498.84
682.618	8535.68
682.966	8417.26
683.314	8474.21
683.661	8403.93
684.009	8384.27
684.357	8365.74
684.705	8403.25
685.053	8397.38
685.4	8362.8
685.748	8308.34
686.095	8342.01
686.443	8292.3
686.79	8269.47
687.138	8357.83
687.485	8291.39
687.832	8298.62
688.18	8279.19
688.527	8205.97
688.874	8184.95
689.221	8151.51
689.568	8127.78
689.915	8152.64
690.262	8153.77
690.609	8130.72
690.956	8074
691.303	8053.66
691.65	8002.36
691.997	7971.63
692.344	7969.59
692.69	7951.29
693.037	7959.2
693.383	7865.87
693.73	7916.71
694.077	7836.94
694.423	7801.24
694.769	7803.5
695.116	7787.22
695.462	7744.51
695.808	7713.1
696.155	7754.68
696.501	7643.27
696.847	7672.65
697.193	7603.27
697.539	7604.4
697.885	7517.85
698.231	7514.01
698.577	7535.48
698.923	7550.62
699.269	7492.09
699.614	7420.45
699.96	7460
700.306	7428.82
700.651	7374.81
700.997	7408.7
701.342	7333.68
701.688	7335.03
702.033	7286.45
702.379	7242.38
702.724	7292.77
703.069	7302.04
703.415	7227.69
703.76	7153.57
704.105	7187.47
704.45	7169.61
704.795	7130.97
705.14	7030.63
705.485	7082.84
705.83	7035.83
706.175	7033.12
706.52	7017.75
706.865	7006.91
707.209	7013.23
707.554	6956.74
707.899	7011.65
708.243	6982.73
708.588	6838.32
708.932	6882.16
709.277	6886.91
709.621	6861.83
709.966	6804.65
710.31	6812.56
710.654	6740.7
710.998	6778.21
711.342	6702.51
711.687	6713.58
712.031	6682.85
712.375	6756.29
712.719	6669.06
713.063	6642.4
713.407	6725.78
713.75	6662.96
714.094	6670.87
714.438	6619.8
714.782	6589.06
715.125	6637.42
715.469	6638.1
715.812	6585.67
716.156	6500.93
716.499	6579.35
716.843	6529.86
717.186	6525.79
717.53	6566.69
717.873	6494.38
718.216	6560.14
718.559	6506.58
718.902	6462.29
719.246	6482.85
719.589	6465.23
719.932	6410.09
720.275	6433.81
720.617	6404.89
720.96	6469.97
721.303	6412.12
721.646	6410.09
721.989	6396.75
722.331	6406.24
722.674	6392.46
723.016	6337.09
723.359	6370.54
723.701	6387.49
724.044	6383.87
724.386	6346.13
724.729	6352.23
725.071	6418.22
725.413	6396.75
725.755	6305.68
726.097	6298.9
726.439	6315.17
726.782	6310.65
727.124	6333.03
727.465	6318.11
727.807	6255.29
728.149	6296.42
728.491	6248.96
728.833	6325.12
729.175	6216.42
729.516	6272.69
729.858	6232.01
730.199	6238.79
730.541	6205.35
730.882	6265.91
731.224	6306.13
731.565	6178.91
731.906	6273.14
732.248	6253.71
732.589	6227.49
732.93	6193.14
733.271	6212.12
733.612	6188.62
733.953	6223.65
734.294	6210.32
734.635	6205.12
734.976	6205.57
735.317	6167.15
735.658	6217.1
735.999	6241.05
736.339	6163.54
736.68	6233.82
737.021	6260.26
737.361	6181.39
737.702	6256.19
738.042	6218.9
738.383	6229.75
738.723	6226.14
739.063	6193.37
739.404	6230.66
739.744	6214.38
740.084	6242.18
740.424	6275.85
740.764	6250.99
741.104	6251.45
741.444	6239.92
741.784	6280.37
742.124	6254.84
742.464	6287.6
742.804	6315.85
743.143	6282.86
743.483	6316.75
743.823	6352.69
744.162	6304.78
744.502	6353.36
744.841	6345.68
745.181	6413.93
745.52	6403.98
745.86	6460.25
746.199	6451.89
746.538	6436.98
746.877	6517.65
747.216	6546.58
747.556	6537.54
747.895	6589.97
748.234	6610.31
748.573	6604.2
748.911	6640.36
749.25	6695.73
749.589	6725.78
749.928	6758.78
750.267	6833.8
750.605	6829.51
750.944	6943.63
751.283	6945.44
751.621	6993.8
751.96	7007.58
752.298	7078.32
752.636	7151.54
752.975	7146.34
753.313	7272.21
753.651	7269.72
753.989	7338.42
754.327	7365.09
754.666	7415.48
755.004	7498.64
755.342	7659.77
755.679	7710.39
756.017	7812.31
756.355	7889.14
756.693	7905.64
757.031	8005.98
757.368	8045.3
757.706	8204.16
758.044	8211.85
758.381	8381.11
758.719	8412.74
759.056	8562.12
759.394	8586.98
759.731	8619.29
760.068	8719.63
760.405	8801.44
760.743	8864.26
761.08	8998.72
761.417	9102.9
761.754	9225.6
762.091	9324.59
762.428	9418.14
762.765	9474.41
763.102	9530.68
763.438	9610.91
763.775	9702.88
764.112	9807.06
764.449	9899.03
764.785	10013.38
765.122	10030.56
765.458	10104.23
765.795	10190.33
766.131	10319.36
766.467	10361.17
766.804	10424.67
767.14	10470.09
767.476	10509.19
767.812	10647.94
768.148	10714.15
768.485	10700.82
768.821	10816.75
769.157	10815.17
769.492	10825.34
