Data from hue_00_FLMS001491_6.txt Node
Date: Mon Feb 06 15:29:11 GMT 2017
User: dcchb
Spectrometer: FLMS00149
Trigger mode: 0
Integration Time (sec): 2.000000E-2
Scans to average: 10
Electric dark correction enabled: true
Nonlinearity correction enabled: false
Boxcar width: 0
XAxis mode: Wavelengths
Number of Pixels in Spectrum: 2048
>>>>>Begin Spectral Data<<<<<
341.393	-4.56
341.776	-4.56
342.16	-4.56
342.543	-55.41
342.927	-82.3
343.31	-105.12
343.693	-58.12
344.077	-62.41
344.46	-54.05
344.843	-59.93
345.226	-23.77
345.61	-15.86
345.993	-28.97
346.376	-7.5
346.759	26.85
347.142	25.04
347.525	44.48
347.908	48.54
348.291	73.63
348.674	88.54
349.057	108.66
349.44	116.34
349.823	122.21
350.206	156.79
350.588	199.95
350.971	215.09
351.354	221.19
351.737	232.95
352.119	252.83
352.502	253.28
352.884	267.3
353.267	260.97
353.65	288.76
354.032	299.61
354.414	308.65
354.797	303.45
355.179	293.28
355.562	324.92
355.944	315.2
356.326	338.71
356.709	329.44
357.091	323.56
357.473	343.23
357.855	338.48
358.238	349.78
358.62	335.32
359.002	312.94
359.384	355.2
359.766	336.67
360.148	322.89
360.53	337.58
360.912	343.23
361.294	333.73
361.676	346.39
362.057	348.42
362.439	342.1
362.821	308.2
363.203	331.7
363.584	315.66
363.966	324.69
364.348	319.27
364.729	319.5
365.111	317.01
365.493	325.37
365.874	314.3
366.256	307.07
366.637	313.4
367.019	321.76
367.4	306.84
367.781	303
368.163	314.75
368.544	309.33
368.925	312.04
369.306	326.73
369.688	305.71
370.069	300.06
370.45	314.53
370.831	307.75
371.212	326.73
371.593	317.01
371.974	329.44
372.355	341.64
372.736	319.5
373.117	308.65
373.498	307.07
373.879	296
374.26	298.25
374.641	305.71
375.021	305.49
375.402	310.01
375.783	321.31
376.163	321.53
376.544	325.37
376.925	312.72
377.305	309.33
377.686	296
378.066	343.68
378.447	327.63
378.827	316.11
379.208	325.37
379.588	325.15
379.968	325.82
380.349	342.32
380.729	335.54
381.109	342.1
381.489	322.89
381.87	317.69
382.25	338.25
382.63	346.39
383.01	336.9
383.39	337.35
383.77	313.85
384.15	340.74
384.53	327.18
384.91	324.24
385.29	350.91
385.67	338.71
386.049	355.43
386.429	334.86
386.809	350.68
387.189	355.2
387.568	367.86
387.948	351.13
388.328	322.66
388.707	351.13
389.087	354.07
389.466	372.6
389.846	366.73
390.225	344.81
390.605	352.04
390.984	349.1
391.363	373.73
391.743	347.29
392.122	337.35
392.501	371.02
392.881	354.3
393.26	385.71
393.639	354.3
394.018	359.72
394.397	380.29
394.776	352.49
395.155	386.84
395.534	369.67
395.913	361.3
396.292	375.77
396.671	385.26
397.05	372.15
397.429	384.13
397.808	350.23
398.186	360.63
398.565	398.59
398.944	382.77
399.323	373.06
399.701	396.11
400.08	365.6
400.458	385.26
400.837	386.16
401.215	396.78
401.594	392.04
401.972	404.69
402.351	371.25
402.729	399.72
403.107	387.97
403.486	414.18
403.864	410.34
404.242	399.5
404.62	404.47
404.999	423.9
405.377	401.08
405.755	418.48
406.133	393.62
406.511	411.7
406.889	430.45
407.267	428.65
407.645	411.7
408.023	432.94
408.401	440.85
408.779	439.95
409.156	429.1
409.534	425.48
409.912	421.42
410.29	453.05
410.667	431.58
411.045	437.23
411.422	456.22
411.8	440.4
412.178	453.73
412.555	453.73
412.933	474.07
413.31	459.38
413.687	473.62
414.065	442.66
414.442	452.6
414.819	472.71
415.197	494.41
415.574	467.29
415.951	484.24
416.328	479.95
416.705	490.57
417.082	471.36
417.46	500.74
417.837	493.28
418.214	475.2
418.591	500.51
418.967	504.35
419.344	517.23
419.721	515.88
420.098	510.68
420.475	521.98
420.852	504.8
421.228	515.65
421.605	535.99
421.982	535.76
422.358	535.54
422.735	536.67
423.111	552.94
423.488	531.47
423.864	531.47
424.241	545.93
424.617	556.1
424.994	575.31
425.37	573.95
425.746	549.32
426.123	552.94
426.499	530.57
426.875	574.86
427.251	561.3
427.627	578.7
428.003	601.75
428.379	585.93
428.756	592.03
429.132	610.56
429.507	577.34
429.883	599.49
430.259	632.26
430.635	592.26
431.011	606.95
431.387	628.87
431.763	616.21
432.138	643.56
432.514	646.72
432.89	647.17
433.265	681.75
433.641	664.12
434.016	663.22
434.392	676.55
434.767	668.64
435.143	683.78
435.518	685.14
435.894	670.67
436.269	698.7
436.644	708.19
437.02	705.48
437.395	719.49
437.77	731.01
438.145	726.72
438.52	723.78
438.895	725.14
439.271	727.62
439.646	754.74
440.021	724.23
440.395	738.7
440.77	743.89
441.145	749.32
441.52	757
441.895	774.63
442.27	764.68
442.645	770.11
443.019	757.23
443.394	791.35
443.769	797.45
444.143	789.09
444.518	806.04
444.892	792.48
445.267	791.12
445.641	799.26
446.016	797.68
446.39	806.94
446.764	821.63
447.139	802.87
447.513	798.81
447.887	821.63
448.262	811.01
448.636	818.02
449.01	846.72
449.384	831.57
449.758	852.82
450.132	846.72
450.506	859.82
450.88	855.3
451.254	858.69
451.628	868.86
452.002	891.23
452.376	888.07
452.75	896.21
453.123	906.37
453.497	902.08
453.871	914.06
454.244	908.41
454.618	938.46
454.992	949.09
455.365	907.05
455.739	956.09
456.112	945.7
456.486	961.06
456.859	965.81
457.232	981.63
457.606	982.08
457.979	1008.97
458.352	1016.65
458.725	1001.51
459.099	1028.18
459.472	1074.73
459.845	1048.29
460.218	1062.98
460.591	1063.66
460.964	1081.51
461.337	1081.96
461.71	1079.48
462.083	1135.75
462.456	1109.53
462.829	1118.12
463.201	1133.49
463.574	1131
463.947	1142.3
464.32	1159.7
464.692	1181.85
465.065	1200.83
465.438	1213.03
465.81	1210.32
466.183	1238.34
466.555	1255.07
466.928	1259.81
467.3	1239.25
467.672	1290.77
468.045	1295.29
468.417	1307.72
468.789	1324.67
469.161	1332.8
469.534	1371
469.906	1373.25
470.278	1370.54
470.65	1378.68
471.022	1423.2
471.394	1444.67
471.766	1468.85
472.138	1498.68
472.51	1497.09
472.882	1542.97
473.253	1532.57
473.625	1562.18
473.997	1555.85
474.369	1628.16
474.74	1627.71
475.112	1663.19
475.484	1671.1
475.855	1708.61
476.227	1705.68
476.598	1788.84
476.97	1777.31
477.341	1809.85
477.713	1828.38
478.084	1829.97
478.455	1912.68
478.827	1892.56
479.198	1979.11
479.569	1978.89
479.94	2036.51
480.311	2053.01
480.682	2115.83
481.053	2140.69
481.424	2154.7
481.795	2214.36
482.166	2242.16
482.537	2223.18
482.908	2285.32
483.279	2292.78
483.65	2357.64
484.021	2421.81
484.391	2447.12
484.762	2450.06
485.133	2531.19
485.503	2516.5
485.874	2604.63
486.244	2625.43
486.615	2638.98
486.985	2686.21
487.356	2729.6
487.726	2755.14
488.097	2795.36
488.467	2848.7
488.837	2886.44
489.207	2927.34
489.578	2997.17
489.948	2995.36
490.318	3060.22
490.688	3074.23
491.058	3125.07
491.428	3161.23
491.798	3222.92
492.168	3252.53
492.538	3262.24
492.908	3282.13
493.278	3363.71
493.648	3372.52
494.017	3423.82
494.387	3428.57
494.757	3478.51
495.126	3530.26
495.496	3506.31
495.866	3562.12
496.235	3572.29
496.605	3600.31
496.974	3642.8
497.344	3662.01
497.713	3728.22
498.082	3723.48
498.452	3789.91
498.821	3788.33
499.19	3816.13
499.559	3871.95
499.928	3870.36
500.298	3872.62
500.667	3928.89
501.036	3921.89
501.405	3937.26
501.774	3986.97
502.143	3999.4
502.512	4022.45
502.88	4056.35
503.249	4052.28
503.618	4087.76
503.987	4099.96
504.356	4132.5
504.724	4169.11
505.093	4134.99
505.462	4205.04
505.83	4201.2
506.199	4224.93
506.567	4344.02
506.936	4287.98
507.304	4292.95
507.672	4329.34
508.041	4317.58
508.409	4402.33
508.777	4419.05
509.145	4480.52
509.514	4428.99
509.882	4461.31
510.25	4490.24
510.618	4509.67
510.986	4495.21
511.354	4565.04
511.722	4619.5
512.09	4622.66
512.458	4574.3
512.826	4675.77
513.193	4662.89
513.561	4691.81
513.929	4781.53
514.297	4757.57
514.664	4756.89
515.032	4784.24
515.4	4833.73
515.767	4827.85
516.135	4842.77
516.502	4855.65
516.869	4915.99
517.237	4916.44
517.604	4899.04
517.972	4977.45
518.339	4946.27
518.706	4982.43
519.073	5013.39
519.44	5000.5
519.808	5043.21
520.175	5068.52
520.542	5133.38
520.909	5127.05
521.276	5115.98
521.643	5179.26
522.009	5235.3
522.376	5211.12
522.743	5275.98
523.11	5263.77
523.477	5324.11
523.843	5322.98
524.21	5381.06
524.577	5399.59
524.943	5425.58
525.31	5459.93
525.676	5539.92
526.043	5485.24
526.409	5521.39
526.776	5587.61
527.142	5607.49
527.508	5620.37
527.874	5708.73
528.241	5721.16
528.607	5756.42
528.973	5758.9
529.339	5759.58
529.705	5807.71
530.071	5868.28
530.437	5889.97
530.803	5922.74
531.169	5983.76
531.535	5965.68
531.901	5963.87
532.267	5969.97
532.632	6092.68
532.998	6053.36
533.364	6085.22
533.73	6130.42
534.095	6158.67
534.461	6162.28
534.826	6213.58
535.192	6265.1
535.557	6264.43
535.923	6255.39
536.288	6342.84
536.653	6304.2
537.019	6324.54
537.384	6356.17
537.749	6330.64
538.114	6403.18
538.479	6457.64
538.845	6444.53
539.21	6431.88
539.575	6525.89
539.94	6545.1
540.305	6579.67
540.67	6590.74
541.034	6588.94
541.399	6642.27
541.764	6662.83
542.129	6729.5
542.494	6713.45
542.858	6724.98
543.223	6788.93
543.587	6792.77
543.952	6813.79
544.316	6799.1
544.681	6818.54
545.045	6905.31
545.41	6886.56
545.774	6892.43
546.138	6904.86
546.503	6998.19
546.867	6969.49
547.231	7046.55
547.595	7053.11
547.959	7023.05
548.324	7114.12
548.688	7135.59
549.052	7112.76
549.416	7227.79
549.779	7205.19
550.143	7215.36
550.507	7301.01
550.871	7273.44
551.235	7294.68
551.599	7346.21
551.962	7390.5
552.326	7355.24
552.689	7434.56
553.053	7367.45
553.417	7442.47
553.78	7515.69
554.143	7535.8
554.507	7492.42
554.87	7576.26
555.234	7598.4
555.597	7617.38
555.96	7539.65
556.323	7640.43
556.686	7628.68
557.05	7692.86
557.413	7718.17
557.776	7776.7
558.139	7775.35
558.502	7763.6
558.865	7782.13
559.228	7886.3
559.59	7896.47
559.953	7908.22
560.316	8033.42
560.679	7989.8
561.041	8110.7
561.404	8094.89
561.767	8073.42
562.129	8103.7
562.492	8141.66
562.854	8171.27
563.217	8198.61
563.579	8202.23
563.941	8235
564.304	8316.8
564.666	8307.31
565.028	8318.61
565.39	8347.53
565.753	8397.02
566.115	8444.48
566.477	8455.33
566.839	8460.07
567.201	8489.23
567.563	8505.72
567.925	8569
568.287	8627.53
568.648	8618.94
569.01	8691.93
569.372	8768.77
569.734	8698.26
570.095	8787.52
570.457	8816.45
570.819	8863
571.18	8837.01
571.542	8927.86
571.903	8918.82
572.265	9025.71
572.626	9053.73
572.987	9072.49
573.349	9105.48
573.71	9170.34
574.071	9219.15
574.432	9277.45
574.794	9358.36
575.155	9419.6
575.516	9371.91
575.877	9503.21
576.238	9553.38
576.599	9668.86
576.96	9679.48
577.32	9658.01
577.681	9765.58
578.042	9841.51
578.403	9825.69
578.763	10058.9
579.124	10066.13
579.485	10180.48
579.845	10328.27
580.206	10357.2
580.566	10400.59
580.927	10512
581.287	10646.91
581.648	10711.31
582.008	10913.57
582.368	10957.86
582.728	11137.52
583.089	11216.39
583.449	11367.12
583.809	11458.64
584.169	11672.65
584.529	11737.73
584.889	11988.57
585.249	12052.07
585.609	12237.6
585.969	12463.81
586.329	12563.92
586.688	12769.11
587.048	12885.72
587.408	13106.28
587.768	13223.34
588.127	13466.5
588.487	13583.1
588.846	13976.09
589.206	13999.82
589.565	14219.7
589.925	14603.42
590.284	14664.2
590.643	14940.81
591.003	15251.31
591.362	15440.46
591.721	15654.69
592.08	15898.3
592.44	16138.97
592.799	16390.94
593.158	16700.54
593.517	16815.56
593.876	17095.1
594.235	17293.97
594.593	17616.9
594.952	17873.84
595.311	18031.35
595.67	18380.27
596.029	18747.71
596.387	18977.76
596.746	19194.48
597.104	19395.38
597.463	19740.46
597.822	20020.9
598.18	20118.52
598.538	20536.37
598.897	20845.51
599.255	20807.55
599.613	21560.52
599.972	21584.93
600.33	21884.58
600.688	22015.42
601.046	22353.49
601.404	22652.7
601.762	22893.59
602.12	23153.47
602.478	23426.01
602.836	23603.18
603.194	23731.76
603.552	24051.08
603.91	24219.43
604.268	24551.85
604.625	24641.12
604.983	25034.1
605.341	25079.07
605.698	25394.09
606.056	25722.45
606.413	25975.09
606.771	26279.04
607.128	26500.5
607.485	26524.68
607.843	26783.66
608.2	27098.68
608.557	27251.22
608.914	27379.12
609.272	27805.78
609.629	27921.26
609.986	28080.35
610.343	28375.48
610.7	28560.79
611.057	28744.51
611.414	28857.73
611.771	29106.54
612.127	29325.74
612.484	29464.49
612.841	29797.59
613.198	29743.81
613.554	29930.24
613.911	30224.93
614.267	30348.09
614.624	30483.9
614.98	30653.16
615.337	30936.32
615.693	31007.96
616.05	31126.37
616.406	31423.76
616.762	31465.34
617.118	31570.2
617.475	31748.28
617.831	31929.06
618.187	32131.54
618.543	32187.36
618.899	32488.59
619.255	32426.45
619.611	32564.07
619.967	32785.31
620.323	32871.86
620.678	32779.89
621.034	32908.24
621.39	33082.93
621.746	33157.96
622.101	33641.78
622.457	33289.7
622.812	33549.36
623.168	33668.22
623.523	33762.69
623.879	33979.4
624.234	33708.9
624.589	33926.07
624.945	33982.57
625.3	34119.96
625.655	34143.92
626.01	34245.16
626.365	34394.99
626.72	34299.39
627.075	34375.1
627.43	34459.16
627.785	34427.08
628.14	34715.43
628.495	34633.17
628.85	34718.82
629.205	34557.92
629.559	34960.85
629.914	34937.12
630.269	34911.13
630.623	34840.85
630.978	34660.29
631.332	35005.14
631.687	35043.1
632.041	34971.02
632.396	34969.89
632.75	34922.66
633.104	34999.72
633.459	34961.98
633.813	35066.38
634.167	34914.75
634.521	35066.38
634.875	35088.3
635.229	35079.94
635.583	34980.73
635.937	35070
636.291	34975.99
636.645	35121.29
636.999	34978.02
637.352	35154.06
637.706	35068.19
638.06	35130.79
638.413	35014.63
638.767	34983.44
639.121	35107.96
639.474	35020.05
639.828	35027.29
640.181	35088.98
640.534	35062.54
640.888	34941.86
641.241	34898.93
641.594	34877.91
641.947	35088.07
642.301	34874.75
642.654	34938.7
643.007	34937.8
643.36	34957.23
643.713	34840.17
644.066	34951.58
644.419	34734.64
644.771	34590.69
645.124	34284.03
645.477	34281.99
645.83	34071.15
646.182	33941.21
646.535	33878.84
646.888	34043.81
647.24	33861.44
647.593	33961.78
647.945	33950.48
648.298	33857.37
648.65	33746.19
649.002	33737.83
649.355	33849.01
649.707	33843.59
650.059	33956.58
650.411	34344.82
650.763	34452.39
651.115	34703.68
651.467	34432.72
651.819	34541.42
652.171	34537.35
652.523	34539.39
652.875	34532.16
653.227	34389.11
653.578	34537.81
653.93	34474.98
654.282	34383.01
654.633	34263.01
654.985	34347.98
655.337	34441.09
655.688	34460.52
656.039	34438.6
656.391	34127.65
656.742	34118.83
657.094	34381.43
657.445	34437.47
657.796	34205.84
658.147	34202.67
658.498	34280.41
658.849	34261.43
659.2	34281.54
659.551	34237.93
659.902	34292.16
660.253	34318.38
660.604	34141.43
660.955	34155.22
661.306	34299.17
661.656	34178.95
662.007	34311.82
662.358	34130.81
662.708	34290.36
663.059	34122.45
663.409	34078.38
663.76	34154.09
664.11	34210.13
664.461	34192.28
664.811	34194.31
665.161	34194.31
665.511	34037.48
665.862	34089.46
666.212	34222.79
666.562	34233.86
666.912	34123.35
667.262	34156.57
667.612	34197.25
667.962	34110.7
668.312	34052.85
668.662	34212.62
669.011	34130.59
669.361	34056.24
669.711	34091.72
670.06	34152.28
670.41	33970.59
670.76	33871.38
671.109	34080.19
671.459	33971.49
671.808	34012.4
672.157	34021.89
672.507	33723.14
672.856	33766.08
673.205	33750.93
673.554	33975.34
673.904	33811.27
674.253	33942.12
674.602	33794.1
674.951	33455.8
675.3	33409.93
675.649	33744.38
675.998	33852.63
676.346	33902.12
676.695	33896.24
677.044	33580.09
677.393	33625.29
677.741	33715.46
678.09	33665.06
678.438	33678.17
678.787	33604.05
679.135	33665.74
679.484	33426.65
679.832	33444.73
680.181	33386.2
680.529	33502.13
680.877	33520.88
681.225	33369.7
681.573	33487.66
681.922	33279.76
682.27	33177.62
682.618	33243.83
682.966	33098.3
683.314	33397.27
683.661	33006.32
684.009	32937.17
684.357	32920
684.705	32894.23
685.053	32761.13
685.4	32797.51
685.748	32666.44
686.095	32758.19
686.443	32502.61
686.79	32552.77
687.138	32649.04
687.485	32490.4
687.832	32446.11
688.18	32484.75
688.527	32268.49
688.874	32106.23
689.221	32344.64
689.568	32293.8
689.915	32028.27
690.262	32171.77
690.609	31881.15
690.956	31796.41
691.303	31839.57
691.65	31642.52
691.997	31683.87
692.344	31500.37
692.69	31439.58
693.037	31519.81
693.383	31226.93
693.73	31277.33
694.077	31060.84
694.423	31168.4
694.769	31002.98
695.116	31047.5
695.462	30917.79
695.808	30764.8
696.155	31003.66
696.501	30600.06
696.847	30639.83
697.193	30450
697.539	30603.9
697.885	30383.34
698.231	30270.57
698.577	30299.05
698.923	30286.39
699.269	30068.09
699.614	29958.27
699.96	29938.15
700.306	29936.12
700.651	29843.92
700.997	29654.55
701.342	29704.26
701.688	29585.62
702.033	29495.23
702.379	29494.1
702.724	29485.74
703.069	29438.28
703.415	29177.27
703.76	29234.67
704.105	29238.28
704.45	29190.15
704.795	28950.83
705.14	28792.42
705.485	28870.61
705.83	28704.97
706.175	28756.72
706.52	28660.45
706.865	28549.94
707.209	28463.62
707.554	28460.23
707.899	28479.43
708.243	28337.07
708.588	28351.3
708.932	28126
709.277	28046.23
709.621	28051.65
709.966	27872.9
710.31	28001.71
710.654	27767.59
710.998	27809.17
711.342	27935.49
711.687	27690.98
712.031	27566.24
712.375	27615.28
712.719	27549.52
713.063	27401.5
713.407	27632
713.75	27425.45
714.094	27403.3
714.438	27399.24
714.782	27262.07
715.125	27160.15
715.469	27160.15
715.812	27091.9
716.156	26898.01
716.499	26876.31
716.843	27035.63
717.186	26837.9
717.53	26964.9
717.873	26808.74
718.216	26787.95
718.559	26682.87
718.902	26472.48
719.246	26449.88
719.589	26463.89
719.932	26337.8
720.275	26502.09
720.617	26433.61
720.96	26439.71
721.303	26367.63
721.646	26324.01
721.989	26176.22
722.331	26226.61
722.674	26225.03
723.016	26155.43
723.359	26059.84
723.701	26115.66
724.044	25864.81
724.386	25787.3
724.729	25940.74
725.071	25910.91
725.413	25914.53
725.755	25851.93
726.097	25804.7
726.439	25625.72
726.782	25643.35
727.124	25732.61
727.465	25574.65
727.807	25523.35
728.149	25495.11
728.491	25407.2
728.833	25583.92
729.175	25401.32
729.516	25311.16
729.858	25282.68
730.199	25368.1
730.541	25315.68
730.882	25204.94
731.224	25305.28
731.565	25112.29
731.906	25091.5
732.248	25099.18
732.589	25040.43
732.93	24889.7
733.271	24900.09
733.612	24974.44
733.953	24999.3
734.294	24813.32
734.635	24799.31
734.976	24832.53
735.317	24652.42
735.658	24613.1
735.999	24750.49
736.339	24722.7
736.68	24703.94
737.021	24546.2
737.361	24412.88
737.702	24574.68
738.042	24499.43
738.383	24424.85
738.723	24405.42
739.063	24364.29
739.404	24383.72
739.744	24255.37
740.084	24158.64
740.424	24273.67
740.764	24136.72
741.104	24193.9
741.444	24172.88
741.784	24109.83
742.124	24094.24
742.464	24103.5
742.804	23994.58
743.143	23930.85
743.483	23968.59
743.823	23831.2
744.162	23885.21
744.502	23884.3
744.841	23708.71
745.181	23830.97
745.52	23792.78
745.86	23826.68
746.199	23781.93
746.538	23717.53
746.877	23651.99
747.216	23678.21
747.556	23570.19
747.895	23526.12
748.234	23548.72
748.573	23428.72
748.911	23513.24
749.25	23430.75
749.589	23225.11
749.928	23348.95
750.267	23372.68
750.605	23275.73
750.944	23287.93
751.283	23095.85
751.621	23173.81
751.96	23065.11
752.298	23114.15
752.636	23025.57
752.975	22944.44
753.313	22879.58
753.651	22981.95
753.989	22873.48
754.327	22824.22
754.666	22751.9
755.004	22752.58
755.342	22747.83
755.679	22595.52
756.017	22470.55
756.355	22615.86
756.693	22474.17
757.031	22466.71
757.368	22378.58
757.706	22374.96
758.044	22236.44
758.381	22270.78
758.719	22218.58
759.056	22187.4
759.394	22111.69
759.731	21961.41
760.068	21920.51
760.405	21878.48
760.743	21918.25
761.08	21830.34
761.417	21789.89
