Data from hue_00_FLMS001491_24.txt Node
Date: Mon Feb 06 15:29:28 GMT 2017
User: dcchb
Spectrometer: FLMS00149
Trigger mode: 0
Integration Time (sec): 2.000000E-2
Scans to average: 10
Electric dark correction enabled: true
Nonlinearity correction enabled: false
Boxcar width: 0
XAxis mode: Wavelengths
Number of Pixels in Spectrum: 2048
>>>>>Begin Spectral Data<<<<<
341.393	-28.11
341.776	-28.11
342.16	-28.11
342.543	-62.23
342.927	-47.77
343.31	-53.87
343.693	-84.15
344.077	-67.43
344.46	-63.59
344.843	-31.27
345.226	-44.15
345.61	-34.43
345.993	-12.51
346.376	-10.25
346.759	0.82
347.142	12.12
347.525	50.08
347.908	34.94
348.291	90.99
348.674	95.51
349.057	117.2
349.44	149.29
349.823	148.61
350.206	175.73
350.588	182.96
350.971	212.79
351.354	238.78
351.737	234.03
352.119	253.02
352.502	255.73
352.884	274.26
353.267	289.4
353.65	302.73
354.032	318.1
354.414	312.68
354.797	307.48
355.179	307.03
355.562	358.78
355.944	314.94
356.326	345.22
356.709	327.14
357.091	327.59
357.473	326.91
357.855	331.88
358.238	372.79
358.62	344.76
359.002	342.96
359.384	356.29
359.766	329.85
360.148	350.87
360.53	346.35
360.912	329.85
361.294	353.13
361.676	327.14
362.057	349.96
362.439	332.34
362.821	331.21
363.203	328.95
363.584	339.34
363.966	348.61
364.348	330.3
364.729	362.39
365.111	307.93
365.493	307.48
365.874	326.69
366.256	320.81
366.637	317.42
367.019	326.69
367.4	329.4
367.781	334.82
368.163	325.1
368.544	309.06
368.925	318.32
369.306	323.75
369.688	319.68
370.069	325.33
370.45	313.58
370.831	316.07
371.212	328.72
371.593	321.26
371.974	308.16
372.355	305.9
372.736	328.27
373.117	282.17
373.498	313.81
373.879	311.77
374.26	324.65
374.641	318.55
375.021	303.41
375.402	320.58
375.783	302.51
376.163	315.84
376.544	314.94
376.925	349.51
377.305	323.97
377.686	331.43
378.066	338.44
378.447	313.58
378.827	323.97
379.208	339.12
379.588	323.52
379.968	340.47
380.349	340.7
380.729	320.81
381.109	318.55
381.489	329.4
381.87	355.61
382.25	330.3
382.63	350.41
383.01	352.9
383.39	360.13
383.77	352.22
384.15	335.27
384.53	337.53
384.91	353.8
385.29	359.91
385.67	353.58
386.049	350.19
386.429	329.4
386.809	359.45
387.189	357.42
387.568	362.39
387.948	358.55
388.328	353.35
388.707	347.48
389.087	328.72
389.466	374.14
389.846	341.38
390.225	351.77
390.605	357.19
390.984	354.71
391.363	382.96
391.743	366.23
392.122	378.89
392.501	377.53
392.881	343.18
393.26	376.4
393.639	367.82
394.018	374.59
394.397	380.7
394.776	361.94
395.155	369.85
395.534	360.36
395.913	375.27
396.292	389.28
396.671	386.57
397.05	381.15
397.429	401.03
397.808	374.37
398.186	399
398.565	399.68
398.944	400.81
399.323	375.05
399.701	376.63
400.08	389.28
400.458	405.33
400.837	397.42
401.215	413.24
401.594	378.66
401.972	401.71
402.351	394.93
402.729	400.36
403.107	413.24
403.486	403.97
403.864	409.62
404.242	431.99
404.62	424.08
404.999	418.21
405.377	416.4
405.755	411.88
406.133	439
406.511	416.18
406.889	458.43
407.267	430.19
407.645	427.25
408.023	413.69
408.401	436.97
408.779	438.55
409.156	428.15
409.534	461.15
409.912	445.78
410.29	460.47
410.667	453.24
411.045	477.87
411.422	459.56
411.8	473.8
412.178	480.35
412.555	472.22
412.933	465.89
413.31	463.86
413.687	464.99
414.065	461.6
414.442	487.36
414.819	467.7
415.197	489.17
415.574	490.75
415.951	507.02
416.328	495.04
416.705	518.09
417.082	493.69
417.46	506.34
417.837	510.64
418.214	520.81
418.591	521.03
418.967	527.81
419.344	501.82
419.721	515.83
420.098	518.77
420.475	540.01
420.852	523.52
421.228	502.5
421.605	532.78
421.982	518.55
422.358	557.64
422.735	539.34
423.111	550.18
423.488	517.64
423.864	554.48
424.241	597.64
424.617	565.55
424.994	545.89
425.37	570.75
425.746	555.15
426.123	559.45
426.499	580.01
426.875	582.05
427.251	583.63
427.627	566.91
428.003	575.27
428.379	594.93
428.756	616.85
429.132	635.15
429.507	625.21
429.883	622.05
430.259	612.55
430.635	651.42
431.011	628.6
431.387	632.44
431.763	640.8
432.138	633.57
432.514	652.33
432.89	662.27
433.265	649.62
433.641	664.3
434.016	658.2
434.392	684.87
434.767	677.86
435.143	671.54
435.518	700.01
435.894	713.34
436.269	726.45
436.644	720.12
437.02	715.38
437.395	731.2
437.77	721.03
438.145	728.03
438.52	734.59
438.895	746.79
439.271	751.99
439.646	757.18
440.021	766.45
440.395	745.88
440.77	763.06
441.145	775.49
441.52	775.04
441.895	767.8
442.27	775.71
442.645	773
443.019	785.66
443.394	789.5
443.769	790.85
444.143	775.04
444.518	810.29
444.892	797.18
445.267	793.11
445.641	824.75
446.016	823.17
446.39	826.33
446.764	812.55
447.139	822.72
447.513	825.88
447.887	833.11
448.262	817.07
448.636	844.64
449.01	861.14
449.384	855.71
449.758	851.42
450.132	851.42
450.506	875.37
450.88	869.5
451.254	868.59
451.628	858.65
452.002	909.27
452.376	894.81
452.75	908.14
453.123	911.3
453.497	900.91
453.871	909.5
454.244	925.99
454.618	950.85
454.992	922.15
455.365	946.56
455.739	939.33
456.112	968.03
456.486	951.3
456.859	958.53
457.232	1004.41
457.606	972.55
457.979	1028.36
458.352	1029.49
458.725	1030.4
459.099	1031.53
459.472	1006.22
459.845	1044.63
460.218	1076.27
460.591	1071.75
460.964	1082.82
461.337	1093.67
461.71	1109.04
462.083	1140.9
462.456	1123.05
462.829	1149.72
463.201	1170.28
463.574	1171.41
463.947	1139.32
464.32	1186.78
464.692	1182.71
465.065	1211.18
465.438	1237.85
465.81	1224.52
466.183	1228.81
466.555	1285.31
466.928	1251.63
467.3	1255.25
467.672	1301.12
468.045	1326.89
468.417	1307.68
468.789	1357.85
469.161	1324.63
469.534	1349.03
469.906	1400.56
470.278	1414.12
470.65	1451.4
471.022	1437.84
471.394	1456.83
471.766	1469.93
472.138	1478.97
472.51	1524.39
472.882	1542.25
473.253	1552.64
473.625	1568.91
473.997	1594
474.369	1626.31
474.74	1637.61
475.112	1663.37
475.484	1679.42
475.855	1683.71
476.227	1749.02
476.598	1770.94
476.97	1789.7
477.341	1815.69
477.713	1880.54
478.084	1841.67
478.455	1923.25
478.827	1949.24
479.198	1992.63
479.569	2039.18
479.94	2041.67
480.311	2105.4
480.682	2147.66
481.053	2146.07
481.424	2190.82
481.795	2224.94
482.166	2285.05
482.537	2272.17
482.908	2317.82
483.279	2356.92
483.65	2407.08
484.021	2462.45
484.391	2475.33
484.762	2510.13
485.133	2549
485.503	2553.07
485.874	2646.63
486.244	2702.44
486.615	2725.95
486.985	2735.44
487.356	2807.75
487.726	2823.34
488.097	2855.89
488.467	2900.63
488.837	2946.5
489.207	2984.47
489.578	3072.6
489.948	3069.44
490.318	3117.57
490.688	3112.38
491.058	3161.87
491.428	3231.24
491.798	3267.17
492.168	3335.19
492.538	3312.14
492.908	3376.78
493.278	3421.29
493.648	3449.09
494.017	3496.09
494.387	3518.01
494.757	3549.65
495.126	3570.89
495.496	3613.15
495.866	3661.74
496.235	3713.72
496.605	3761.17
496.974	3734.96
497.344	3800.95
497.713	3792.36
498.082	3804.79
498.452	3861.51
498.821	3899.7
499.19	3894.95
499.559	3938.79
499.928	3921.17
500.298	3989.87
500.667	4049.75
501.036	4044.1
501.405	4069.41
501.774	4054.72
502.143	4087.72
502.512	4119.35
502.88	4171.11
503.249	4134.04
503.618	4184.66
503.987	4209.3
504.356	4234.61
504.724	4243.42
505.093	4304.21
505.462	4275.28
505.83	4306.92
506.199	4339.24
506.567	4358.44
506.936	4405.22
507.304	4433.7
507.672	4456.52
508.041	4466.69
508.409	4466.01
508.777	4532.68
509.145	4549.17
509.514	4532.45
509.882	4564.09
510.25	4546.24
510.618	4560.25
510.986	4596.4
511.354	4638.44
511.722	4687.25
512.09	4705.78
512.458	4713.01
512.826	4717.76
513.193	4700.13
513.561	4733.58
513.929	4796.63
514.297	4820.13
514.664	4812.22
515.032	4844.99
515.4	4884.08
515.767	4876.4
516.135	4933.8
516.502	4846.79
516.869	4979.67
517.237	4985.55
517.604	4946
517.972	5014.47
518.339	5012.66
518.706	5005.89
519.073	5013.12
519.44	5049.95
519.808	5136.28
520.175	5127.24
520.542	5126.33
520.909	5152.77
521.276	5135.15
521.643	5215.15
522.009	5239.55
522.376	5303.28
522.743	5266.44
523.11	5303.5
523.477	5306.44
523.843	5386.67
524.21	5430.73
524.577	5423.05
524.943	5428.02
525.31	5474.57
525.676	5535.59
526.043	5548.92
526.409	5566.1
526.776	5594.8
527.142	5632.54
527.508	5681.57
527.874	5682.48
528.241	5749.37
528.607	5698.52
528.973	5736.26
529.339	5755.24
529.705	5797.28
530.071	5858.97
530.437	5819.2
530.803	5932.87
531.169	5970.38
531.535	5953.88
531.901	5978.29
532.267	6020.1
532.632	6022.13
532.998	6063.48
533.364	6037.95
533.73	6142.8
534.095	6134.9
534.461	6178.74
534.826	6198.85
535.192	6202.01
535.557	6269.13
535.923	6246.76
536.288	6289.92
536.653	6359.97
537.019	6299.64
537.384	6384.61
537.749	6396.58
538.114	6353.19
538.479	6394.32
538.845	6462.8
539.21	6471.61
539.575	6479.07
539.94	6518.61
540.305	6563.58
540.67	6533.75
541.034	6557.93
541.399	6630.7
541.764	6653.98
542.129	6709.57
542.494	6660.98
542.858	6682.45
543.223	6761.77
543.587	6726.74
543.952	6768.78
544.316	6828.66
544.681	6854.65
545.045	6922.45
545.41	6891.03
545.774	6948.66
546.138	6938.04
546.503	6954.76
546.867	7027.53
547.231	7072.5
547.595	7050.58
547.959	7105.72
548.324	7107.07
548.688	7087.41
549.052	7126.28
549.416	7128.77
549.779	7142.1
550.143	7248.99
550.507	7245.15
550.871	7253.74
551.235	7314.07
551.599	7379.61
551.962	7344.13
552.326	7330.12
552.689	7425.03
553.053	7391.13
553.417	7374.86
553.78	7504.58
554.143	7484.01
554.507	7522.66
554.87	7532.37
555.234	7626.38
555.597	7523.11
555.96	7540.28
556.323	7609.66
556.686	7649.43
557.05	7696.89
557.413	7709.32
557.776	7703.89
558.139	7756.55
558.502	7799.03
558.865	7833.61
559.228	7940.27
559.59	7919.71
559.953	7855.75
560.316	7970.78
560.679	7996.54
561.041	7999.93
561.404	8064.56
561.767	8044.68
562.129	8049.42
562.492	8132.81
562.854	8179.59
563.217	8141.85
563.579	8160.83
563.941	8270.88
564.304	8257.55
564.666	8274.95
565.028	8293.93
565.39	8323.31
565.753	8477.88
566.115	8432.01
566.477	8432.24
566.839	8444.66
567.201	8496.42
567.563	8502.52
567.925	8574.83
568.287	8542.52
568.648	8575.28
569.01	8741.61
569.372	8732.34
569.734	8722.85
570.095	8764.43
570.457	8812.11
570.819	8832.23
571.18	8877.87
571.542	8908.83
571.903	8898.44
572.265	8977.08
572.626	9067.7
572.987	9061.6
573.349	9107.02
573.71	9150.18
574.071	9182.05
574.432	9255.94
574.794	9384.08
575.155	9318.09
575.516	9399.44
575.877	9425.88
576.238	9474.69
576.599	9609.83
576.96	9672.66
577.32	9751.3
577.681	9780
578.042	9897.96
578.403	9944.06
578.763	10052.31
579.124	10115.58
579.485	10220.89
579.845	10368.46
580.206	10489.58
580.566	10569.13
580.927	10653.42
581.287	10756.69
581.648	10867.88
582.008	11051.38
582.368	11089.34
582.728	11323.46
583.089	11423.12
583.449	11500.18
583.809	11716.67
584.169	11866.27
584.529	12035.76
584.889	12226.71
585.249	12371.79
585.609	12477.78
585.969	12716.42
586.329	12923.42
586.688	13209.51
587.048	13327.93
587.408	13562.5
587.768	13760.01
588.127	13977.4
588.487	14185.3
588.846	14516.6
589.206	14638.85
589.565	14948
589.925	15204.94
590.284	15441.54
590.643	15632.27
591.003	15975.09
591.362	16159.72
591.721	16496.43
592.08	16711.79
592.44	17062.74
592.799	17286.69
593.158	17579.57
593.517	17766.45
593.876	18143.17
594.235	18344.74
594.593	18670.38
594.952	18937.04
595.311	19173.87
595.67	19554.88
596.029	19951.26
596.387	20146.5
596.746	20546.04
597.104	20667.39
597.463	20931.79
597.822	21379.92
598.18	21603.64
598.538	21813.8
598.897	22204.3
599.255	22281.14
599.613	22939.2
599.972	23065.75
600.33	23576.92
600.688	23609.24
601.046	24018.04
601.404	24263.46
601.762	24476.33
602.12	24968.98
602.478	25112.7
602.836	25447.38
603.194	25531
603.552	25903.64
603.91	25997.65
604.268	26454.13
604.625	26560.8
604.983	27057.73
605.341	27120.56
605.698	27483.71
606.056	27781.33
606.413	27820.2
606.771	28281.88
607.128	28530.92
607.485	28647.98
607.843	28893.39
608.2	29295.19
608.557	29438.24
608.914	29555.97
609.272	29920.26
609.629	30255.39
609.986	30463.97
610.343	30440.47
610.7	30875.49
611.057	31088.82
611.414	31247.68
611.771	31428.69
612.127	31724.73
612.484	31804.95
612.841	32028
613.198	32159.97
613.554	32298.95
613.911	32756.79
614.267	32818.71
614.624	32836.34
614.98	33081.53
615.337	33466.61
615.693	33619.14
616.05	33624.57
616.406	33938.46
616.762	34000.15
617.118	33984.33
617.475	34241.05
617.831	34424.09
618.187	34591.32
618.543	34670.42
618.899	35062.04
619.255	35149.05
619.611	35213.68
619.967	35345.65
620.323	35572.54
620.678	35512.43
621.034	35507.46
621.39	35705.42
621.746	35810.05
622.101	36171.17
622.457	35935.47
622.812	36260.2
623.168	36382.69
623.523	36454.78
623.879	36707.65
624.234	36356.25
624.589	36650.93
624.945	36729.12
625.3	36809.34
625.655	37025.61
626.01	37045.95
626.365	37229.9
626.72	37170.46
627.075	37174.76
627.43	37238.03
627.785	37258.6
628.14	37582.43
628.495	37440.51
628.85	37515.54
629.205	37340.63
629.559	37548.76
629.914	37560.06
630.269	37731.13
630.623	37512.38
630.978	37488.42
631.332	37766.38
631.687	37863.55
632.041	37734.06
632.396	37932.25
632.75	37705.59
633.104	37794.63
633.459	37760.5
633.813	37660.62
634.167	37893.61
634.521	37716.89
634.875	37902.87
635.229	37826.94
635.583	37730.22
635.937	37659.72
636.291	37821.07
636.645	37843.44
636.999	37736.1
637.352	37961.85
637.706	37848.41
638.06	37856.77
638.413	37783.78
638.767	37848.41
639.121	37761.86
639.474	37737
639.828	37797.34
640.181	37805.25
640.534	37854.74
640.888	37683.22
641.241	37571.58
641.594	37750.79
641.947	37871.24
642.301	37650.45
642.654	37701.3
643.007	37657.23
643.36	37720.96
643.713	37646.16
644.066	37780.39
644.419	37539.27
644.771	37297.69
645.124	36925.5
645.477	37108.77
645.83	36780.64
646.182	36723.24
646.535	36465.17
646.888	36752.62
647.24	36458.62
647.593	36688.89
647.945	36609.35
648.298	36429.69
648.65	36406.64
649.002	36381.56
649.355	36493.19
649.707	36347.21
650.059	36590.14
650.411	36920.53
650.763	37016.8
651.115	37437.8
651.467	37327.07
651.819	37355.77
652.171	37288.65
652.523	37200.52
652.875	37165.94
653.227	36994.2
653.578	37297.69
653.93	37245.94
654.282	37094.76
654.633	37051.37
654.985	37067.42
655.337	37010.69
655.688	37187.86
656.039	37146.28
656.391	36804.82
656.742	36843.01
657.094	36887.08
657.445	37209.78
657.796	37035.33
658.147	36913.75
658.498	36789.46
658.849	36996.46
659.2	37094.53
659.551	36810.92
659.902	37085.72
660.253	37063.57
660.604	37044.14
660.955	36865.84
661.306	36952.84
661.656	36944.71
662.007	36883.01
662.358	36772.96
662.708	36790.13
663.059	36899.51
663.409	36663.13
663.76	36927.31
664.11	36790.36
664.461	36889.57
664.811	36852.28
665.161	36804.6
665.511	36784.48
665.862	36904.93
666.212	36810.92
666.562	36861.54
666.912	36823.13
667.262	36706.29
667.612	36781.32
667.962	36887.53
668.312	36736.8
668.662	36964.82
669.011	36756.69
669.361	36801.89
669.711	36678.5
670.06	36702.9
670.41	36603.02
670.76	36715.33
671.109	36772.51
671.459	36815.67
671.808	36599.18
672.157	36737.71
672.507	36487.77
672.856	36534.55
673.205	36586.52
673.554	36569.8
673.904	36492.29
674.253	36722.57
674.602	36527.54
674.951	36044.17
675.3	35936.6
675.649	36473.98
675.998	36408.45
676.346	36439.41
676.695	36481.67
677.044	36253.65
677.393	36280.09
677.741	36428.56
678.09	36264.05
678.438	36160.32
678.787	36257.27
679.135	36232.63
679.484	36038.97
679.832	36126.2
680.181	35916.71
680.529	36216.14
680.877	35981.79
681.225	35990.83
681.573	36152.64
681.922	36007.33
682.27	35778.86
682.618	35817.73
682.966	35603.72
683.314	35694.34
683.661	35666.1
684.009	35468.36
684.357	35403.05
684.705	35364.41
685.053	35395.14
685.4	35349.04
685.748	35281.93
686.095	35268.37
686.443	35116.51
686.79	35103.17
687.138	35160.12
687.485	35179.33
687.832	34940.69
688.18	34956.96
688.527	34753.8
688.874	34836.29
689.221	34665.67
689.568	34663.86
689.915	34595.84
690.262	34561.04
690.609	34529.85
690.956	34486.92
691.303	34329.86
691.65	34153.14
691.997	34200.6
692.344	33962.86
692.69	33883.09
693.037	33942.53
693.383	33649.65
693.73	33787.05
694.077	33562.42
694.423	33621.18
694.769	33476.55
695.116	33377.34
695.462	33362.65
695.808	33220.74
696.155	33346.38
696.501	33082.21
696.847	33125.82
697.193	32823.23
697.539	33018.03
697.885	32758.38
698.231	32602
698.577	32783.01
698.923	32698.72
699.269	32409.01
699.614	32258.5
699.96	32299.86
700.306	32323.59
700.651	32186.87
700.997	32033.2
701.342	32119.3
701.688	31909.81
702.033	31860.09
702.379	31891.28
702.724	31731.96
703.069	31894.44
703.415	31408.58
703.76	31431.86
704.105	31402.48
704.45	31415.36
704.795	31195.03
705.14	31037.52
705.485	31109.38
705.83	31053.11
706.175	30996.39
706.52	30940.8
706.865	30774.02
707.209	30754.81
707.554	30790.52
707.899	30808.82
708.243	30478.21
708.588	30467.14
708.932	30367.7
709.277	30218.1
709.621	30247.93
709.966	30123.42
710.31	30168.61
710.654	30033.25
710.998	29823.54
711.342	29971.33
711.687	29858.57
712.031	29734.5
712.375	29654.5
712.719	29777.66
713.063	29597.56
713.407	29754.84
713.75	29570.89
714.094	29402.76
714.438	29427.84
714.782	29412.48
715.125	29334.29
715.469	29282.08
715.812	29147.4
716.156	28987.63
716.499	29082.31
716.843	29124.57
717.186	28811.14
717.53	29000.28
717.873	28985.37
718.216	28892.94
718.559	28742.21
718.902	28544.7
719.246	28633.29
719.589	28541.76
719.932	28441.43
720.275	28492.05
720.617	28414.31
720.96	28426.51
721.303	28363.46
721.646	28383.12
721.989	28217.93
722.331	28318.72
722.674	28192.17
723.016	28133.41
723.359	28117.59
723.701	28161.66
724.044	27949.69
724.386	27838.28
724.729	28014.09
725.071	27990.59
725.413	27898.16
725.755	27904.04
726.097	27676.7
726.439	27515.35
726.782	27577.5
727.124	27656.59
727.465	27499.76
727.807	27576.59
728.149	27590.83
728.491	27410.04
728.833	27480.77
729.175	27258.63
729.516	27296.82
729.858	27323.26
730.199	27150.84
730.541	27191.29
730.882	27158.75
731.224	27289.59
731.565	27004.85
731.906	27019.09
732.248	27058.64
732.589	26857.51
732.93	26914.91
733.271	26894.58
733.612	26886.89
733.953	26912.88
734.294	26823.62
734.635	26684.41
734.976	26813.22
735.317	26513.34
735.658	26550.18
735.999	26608.93
736.339	26490.74
736.68	26636.28
737.021	26518.54
737.361	26329.17
737.702	26607.58
738.042	26485.09
738.383	26245.33
738.723	26286.91
739.063	26250.07
739.404	26318.55
739.744	26203.29
740.084	26074.03
740.424	26103.18
740.764	25995.39
741.104	26160.36
741.444	25940.48
741.784	25889.18
742.124	25963.75
742.464	25879.01
742.804	25797.66
743.143	25718.34
743.483	25813.7
743.823	25713.82
744.162	25601.05
744.502	25677.66
744.841	25542.29
745.181	25622.29
745.52	25544.78
745.86	25529.64
746.199	25459.13
746.538	25435.86
746.877	25526.25
747.216	25495.52
747.556	25345.24
747.895	25360.15
748.234	25360.83
748.573	25274.05
748.911	25245.58
749.25	25282.19
749.589	25123.55
749.928	25213.49
750.267	25213.72
750.605	25131.68
750.944	25041.52
751.283	24934.4
751.621	25027.51
751.96	24937.79
752.298	24839.49
752.636	24743.9
752.975	24700.51
753.313	24621.87
753.651	24569.44
753.989	24546.39
754.327	24508.65
754.666	24452.15
755.004	24361.76
755.342	24409.22
755.679	24442.44
756.017	24311.59
756.355	24395.21
756.693	24206.51
757.031	24239.05
757.368	24093.97
757.706	24046.74
758.044	23967.87
758.381	23898.95
758.719	23934.88
759.056	23928.33
759.394	23680.65
759.731	23584.15
760.068	23616.02
760.405	23605.85
760.743	23456.93
