Data from hue_250_FLMS001491_00067.txt Node
Date: Tue Feb 07 16:01:19 GMT 2017
User: dcchb
Spectrometer: FLMS00149
Trigger mode: 0
Integration Time (sec): 2.000000E-2
Scans to average: 10
Electric dark correction enabled: true
Nonlinearity correction enabled: false
Boxcar width: 0
XAxis mode: Wavelengths
Number of Pixels in Spectrum: 2048
>>>>>Begin Spectral Data<<<<<
341.393	-25.69
341.776	-25.69
342.16	-25.69
342.543	-59.36
342.927	-69.53
343.31	-63.43
343.693	-72.92
344.077	-74.96
344.46	-42.41
344.843	-59.36
345.226	-50.55
345.61	-29.08
345.993	-23.66
346.376	-13.71
346.759	12.27
347.142	31.26
347.525	51.14
347.908	59.96
348.291	86.4
348.674	80.75
349.057	108.32
349.44	117.81
349.823	148.32
350.206	179.05
350.588	183.57
350.971	204.59
351.354	218.37
351.737	230.35
352.119	243.68
352.502	262.21
352.884	263.34
353.267	264.47
353.65	296.11
354.032	292.27
354.414	283.45
354.797	295.88
355.179	304.92
355.562	332.04
355.944	329.78
356.326	332.04
356.709	323.23
357.091	330.23
357.473	305.15
357.855	324.36
358.238	326.16
358.62	344.69
359.002	334.3
359.384	322.55
359.766	337.24
360.148	311.25
360.53	313.51
360.912	322.77
361.294	320.97
361.676	330.91
362.057	326.39
362.439	330.01
362.821	331.81
363.203	322.1
363.584	311.93
363.966	313.06
364.348	302.89
364.729	312.83
365.111	312.6
365.493	323.23
365.874	318.03
366.256	329.78
366.637	312.83
367.019	304.92
367.4	308.76
367.781	312.83
368.163	317.12
368.544	315.09
368.925	297.01
369.306	296.11
369.688	307.63
370.069	300.4
370.45	320.97
370.831	305.15
371.212	304.24
371.593	295.43
371.974	306.96
372.355	299.05
372.736	326.16
373.117	283
373.498	311.93
373.879	320.06
374.26	314.86
374.641	317.8
375.021	328.2
375.402	326.84
375.783	321.19
376.163	345.82
376.544	305.6
376.925	327.75
377.305	325.03
377.686	319.84
378.066	319.84
378.447	313.06
378.827	324.58
379.208	339.27
379.588	322.55
379.968	338.37
380.349	335.88
380.729	327.52
381.109	332.27
381.489	323.23
381.87	322.55
382.25	322.1
382.63	338.37
383.01	331.36
383.39	363
383.77	357.8
384.15	354.19
384.53	358.93
384.91	362.09
385.29	346.95
385.67	328.65
386.049	340.17
386.429	351.47
386.809	362.77
387.189	348.76
387.568	347.63
387.948	363.9
388.328	386.73
388.707	359.16
389.087	370.68
389.466	363.22
389.846	372.94
390.225	367.07
390.605	380.4
390.984	386.28
391.363	380.4
391.743	367.29
392.122	364.81
392.501	384.47
392.881	370.68
393.26	394.86
393.639	401.87
394.018	371.59
394.397	381.3
394.776	401.87
395.155	388.53
395.534	408.65
395.913	395.31
396.292	406.16
396.671	403.68
397.05	415.65
397.429	396.9
397.808	408.2
398.186	401.19
398.565	421.75
398.944	423.11
399.323	418.36
399.701	417.91
400.08	411.36
400.458	430.12
400.837	438.93
401.215	436.44
401.594	435.99
401.972	444.58
402.351	443
402.729	436.67
403.107	449.32
403.486	443.22
403.864	448.65
404.242	454.07
404.62	468.76
404.999	464.69
405.377	455.2
405.755	459.95
406.133	466.5
406.511	500.85
406.889	495.42
407.267	494.52
407.645	488.19
408.023	521.86
408.401	494.07
408.779	494.52
409.156	507.85
409.534	504.24
409.912	518.93
410.29	544.92
410.667	534.97
411.045	530.45
411.422	549.43
411.8	567.97
412.178	567.97
412.555	565.25
412.933	558.02
413.31	594.18
413.687	593.28
414.065	592.82
414.442	613.39
414.819	598.92
415.197	625.36
415.574	614.74
415.951	633.27
416.328	631.24
416.705	639.6
417.082	637.79
417.46	644.57
417.837	646.16
418.214	648.64
418.591	680.28
418.967	672.6
419.344	679.15
419.721	719.15
420.098	711.46
420.475	702.43
420.852	727.74
421.228	716.44
421.605	736.77
421.982	765.7
422.358	757.11
422.735	779.94
423.111	741.07
423.488	793.72
423.864	795.08
424.241	808.64
424.617	824.46
424.994	836.21
425.37	825.36
425.746	805.25
426.123	869.43
426.499	866.49
426.875	878.69
427.251	882.99
427.627	916.88
428.003	927.96
428.379	915.3
428.756	907.84
429.132	938.35
429.507	954.17
429.883	950.1
430.259	977.22
430.635	965.92
431.011	1002.3
431.387	1009.08
431.763	1029.2
432.138	1056.09
432.514	1068.74
432.89	1051.79
433.265	1075.75
433.641	1104.22
434.016	1107.61
434.392	1111.23
434.767	1162.53
435.143	1151.9
435.518	1161.62
435.894	1192.58
436.269	1194.16
436.644	1205.24
437.02	1234.39
437.395	1227.16
437.77	1274.16
438.145	1281.17
438.52	1294.05
438.895	1331.56
439.271	1330.43
439.646	1355.74
440.021	1360.03
440.395	1387.15
440.77	1386.7
441.145	1373.59
441.52	1439.35
441.895	1410.88
442.27	1458.34
442.645	1427.6
443.019	1447.26
443.394	1468.96
443.769	1500.37
444.143	1469.64
444.518	1507.6
444.892	1521.61
445.267	1520.71
445.641	1547.15
446.016	1550.99
446.39	1560.93
446.764	1600.03
447.139	1581.05
447.513	1584.21
447.887	1622.85
448.262	1579.24
448.636	1625.11
449.01	1619.24
449.384	1643.42
449.758	1657.65
450.132	1669.86
450.506	1683.87
450.88	1665.56
451.254	1699.69
451.628	1696.98
452.002	1752.79
452.376	1726.8
452.75	1757.54
453.123	1771.78
453.497	1808.38
453.871	1822.17
454.244	1860.36
454.618	1841.38
454.992	1869.4
455.365	1900.36
455.739	1927.93
456.112	1937.42
456.486	1946.69
456.859	1977.65
457.232	2009.06
457.606	1969.28
457.979	1993.69
458.352	2090.41
458.725	2081.15
459.099	2119.11
459.472	2141.48
459.845	2152.78
460.218	2156.4
460.591	2169.05
460.964	2214.7
461.337	2270.75
461.71	2289.05
462.083	2299.67
462.456	2310.97
462.829	2304.19
463.201	2346.45
463.574	2335.6
463.947	2394.81
464.32	2468.93
464.692	2438.65
465.065	2483.17
465.438	2488.82
465.81	2545.09
466.183	2547.57
466.555	2612.88
466.928	2609.04
467.3	2621.7
467.672	2637.74
468.045	2731.98
468.417	2733.33
468.789	2756.61
469.161	2771.07
469.534	2838.87
469.906	2885.19
470.278	2889.94
470.65	2923.84
471.022	2986.43
471.394	3027.56
471.766	3047.9
472.138	3094.9
472.51	3113.66
472.882	3162.47
473.253	3172.64
473.625	3240.66
473.997	3288.8
474.369	3299.19
474.74	3342.58
475.112	3414.44
475.484	3443.6
475.855	3499.19
476.227	3517.72
476.598	3607.66
476.97	3640.2
477.341	3733.53
477.713	3732.18
478.084	3778.28
478.455	3895.56
478.827	3899.18
479.198	4021.21
479.569	4029.57
479.94	4112.73
480.311	4111.15
480.682	4249.22
481.053	4294.42
481.424	4337.58
481.795	4377.81
482.166	4434.08
482.537	4492.16
482.908	4581.87
483.279	4577.13
483.65	4676.33
484.021	4735.09
484.391	4801.98
484.762	4831.13
485.133	4865.93
485.503	4934.86
485.874	4991.35
486.244	5063.67
486.615	5197
486.985	5186.15
487.356	5310.89
487.726	5280.61
488.097	5416.2
488.467	5441.74
488.837	5529.42
489.207	5613.93
489.578	5627.04
489.948	5638.11
490.318	5689.86
490.688	5757.21
491.058	5831.56
491.428	5887.15
491.798	5969.86
492.168	6097.09
492.538	6038.56
492.908	6154.26
493.278	6189.96
493.648	6230.42
494.017	6277.19
494.387	6357.64
494.757	6369.17
495.126	6445.55
495.496	6419.79
495.866	6531.42
496.235	6602.38
496.605	6596.28
496.974	6636.96
497.344	6678.99
497.713	6739.33
498.082	6792.43
498.452	6816.16
498.821	6844.18
499.19	6868.14
499.559	6905.88
499.928	6936.16
500.298	6968.7
500.667	7015.48
501.036	7013.67
501.405	7107.91
501.774	7079.43
502.143	7077.4
502.512	7170.96
502.88	7191.75
503.249	7210.5
503.618	7251.18
503.987	7341.35
504.356	7307.9
504.724	7343.83
505.093	7396.71
505.462	7376.37
505.83	7464.96
506.199	7449.82
506.567	7520.1
506.936	7507.67
507.304	7652.98
507.672	7633.99
508.041	7683.71
508.409	7674.22
508.777	7759.19
509.145	7750.15
509.514	7815.46
509.882	7834.67
510.25	7840.32
510.618	7923.7
510.986	7912.4
511.354	7955.34
511.722	7929.13
512.09	8046.41
512.458	8033.08
512.826	8050.48
513.193	8049.35
513.561	8113.08
513.929	8162.57
514.297	8229.23
514.664	8229.91
515.032	8257.25
515.4	8312.85
515.767	8272.85
516.135	8280.76
516.502	8238.95
516.869	8423.8
517.237	8370.92
517.604	8330.02
517.972	8453.63
518.339	8450.24
518.706	8476.46
519.073	8487.53
519.44	8508.1
519.808	8626.74
520.175	8579.51
520.542	8634.42
520.909	8678.94
521.276	8673.06
521.643	8739.73
522.009	8801.2
522.376	8785.38
522.743	8852.49
523.11	8875.54
523.477	8908.31
523.843	8977.46
524.21	9044.35
524.577	9031.92
524.943	9019.49
525.31	9133.16
525.676	9180.62
526.043	9146.5
526.409	9136.33
526.776	9203.44
527.142	9247.74
527.508	9235.53
527.874	9285.48
528.241	9355.98
528.607	9350.56
528.973	9346.49
529.339	9374.29
529.705	9446.15
530.071	9482.53
530.437	9520.95
530.803	9525.92
531.169	9526.83
531.535	9509.88
531.901	9550.33
532.267	9565.24
532.632	9648.4
532.998	9619.7
533.364	9651.12
533.73	9660.83
534.095	9717.78
534.461	9733.15
534.826	9705.35
535.192	9684.34
535.557	9763.66
535.923	9694.5
536.288	9716.65
536.653	9790.77
537.019	9722.75
537.384	9747.38
537.749	9713.49
538.114	9734.96
538.479	9756.42
538.845	9778.12
539.21	9682.98
539.575	9821.96
539.94	9795.07
540.305	9845.24
540.67	9889.75
541.034	9853.14
541.399	9876.42
541.764	9889.75
542.129	9869.64
542.494	9882.52
542.858	9880.71
543.223	9849.76
543.587	9979.7
543.952	9925.23
544.316	9893.37
544.681	9890.88
545.045	9861.28
545.41	9894.95
545.774	9926.59
546.138	9875.97
546.503	9922.52
546.867	9915.29
547.231	9969.98
547.595	9899.02
547.959	9967.04
548.324	9983.08
548.688	9951.9
549.052	9992.35
549.416	9961.84
549.779	9956.42
550.143	10007.27
550.507	10028.96
550.871	9993.03
551.235	9927.49
551.599	10000.71
551.962	10027.6
552.326	10001.84
552.689	10115.28
553.053	10029.41
553.417	10047.94
553.78	10126.36
554.143	10082.74
554.507	10083.42
554.87	10097.88
555.234	10205.9
555.597	10145.34
555.96	10128.84
556.323	10187.37
556.686	10120.93
557.05	10244.77
557.413	10214.49
557.776	10209.07
558.139	10280.48
558.502	10269.41
558.865	10341.04
559.228	10359.35
559.59	10371.55
559.953	10381.49
560.316	10413.13
560.679	10473.24
561.041	10486.57
561.404	10526.8
561.767	10536.52
562.129	10515.05
562.492	10583.97
562.854	10555.73
563.217	10569.51
563.579	10607.7
563.941	10598.89
564.304	10724.76
564.666	10699
565.028	10737.64
565.39	10718.88
565.753	10805.66
566.115	10849.95
566.477	10922.5
566.839	10905.55
567.201	10974.02
567.563	10955.71
567.925	10957.3
568.287	10988.71
568.648	11000.46
569.01	11112.32
569.372	11123.62
569.734	11047.46
570.095	11189.83
570.457	11193.67
570.819	11148.03
571.18	11265.09
571.542	11238.42
571.903	11345.99
572.265	11286.33
572.626	11408.58
572.987	11269.38
573.349	11369.26
573.71	11378.3
574.071	11482.03
574.432	11460.33
574.794	11550.95
575.155	11529.94
575.516	11558.86
575.877	11586.88
576.238	11558.41
576.599	11679.76
576.96	11650.84
577.32	11773.09
577.681	11710.95
578.042	11759.08
578.403	11828.46
578.763	11769.93
579.124	11887.89
579.485	11892.19
579.845	11957.27
580.206	11875.92
580.566	11883.37
580.927	11971.06
581.287	11948.91
581.648	11923.37
582.008	12051.51
582.368	11998.63
582.728	12032.3
583.089	12015.57
583.449	12022.35
583.809	12026.65
584.169	12057.61
584.529	12059.64
584.889	12238.17
585.249	12096.02
585.609	12116.81
585.969	12213.31
586.329	12145.97
586.688	12135.12
587.048	12196.81
587.408	12131.28
587.768	12204.27
588.127	12178.51
588.487	12223.7
588.846	12293.31
589.206	12244.95
589.565	12245.4
589.925	12328.79
590.284	12342.8
590.643	12271.84
591.003	12421.21
591.362	12438.84
591.721	12389.58
592.08	12436.81
592.44	12393.19
592.799	12491.49
593.158	12370.82
593.517	12436.58
593.876	12417.82
594.235	12370.14
594.593	12414.89
594.952	12475.45
595.311	12412.17
595.67	12398.39
596.029	12579.85
596.387	12503.92
596.746	12560.64
597.104	12509.57
597.463	12528.1
597.822	12541.89
598.18	12521.1
598.538	12419.86
598.897	12577.14
599.255	12476.8
599.613	12688.78
599.972	12606.97
600.33	12607.65
600.688	12613.75
601.046	12616.24
601.404	12628.44
601.762	12646.52
602.12	12749.34
602.478	12709.34
602.836	12684.26
603.194	12579.63
603.552	12661.21
603.91	12644.71
604.268	12655.56
604.625	12630.7
604.983	12674.31
605.341	12705.05
605.698	12811.26
606.056	12807.19
606.413	12762.9
606.771	12810.13
607.128	12789.34
607.485	12726.06
607.843	12729.23
608.2	12827.53
608.557	12785.27
608.914	12809
609.272	12860.3
609.629	12860.52
609.986	12916.57
610.343	12832.28
610.7	12940.52
611.057	12926.51
611.414	12887.64
611.771	12931.48
612.127	12986.85
612.484	12973.51
612.841	12991.14
613.198	12956.79
613.554	12990.24
613.911	13047.41
614.267	13020.29
614.624	12920.63
614.98	13079.73
615.337	13036.79
615.693	13092.16
616.05	13068.43
616.406	13175.32
616.762	13095.55
617.118	13135.32
617.475	13078.37
617.831	13064.13
618.187	13150.01
618.543	13101.2
618.899	13141.87
619.255	13156.11
619.611	13199.72
619.967	13225.71
620.323	13220.97
620.678	13161.31
621.034	13103.68
621.39	13121.08
621.746	13153.85
622.101	13247.41
622.457	13221.87
622.812	13190.01
623.168	13257.8
623.523	13251.02
623.879	13275.2
624.234	13165.15
624.589	13193.17
624.945	13240.85
625.3	13238.82
625.655	13203.11
626.01	13218.48
626.365	13220.29
626.72	13186.16
627.075	13186.39
627.43	13204.24
627.785	13241.08
628.14	13128.54
628.495	13161.31
628.85	13140.97
629.205	13152.27
629.559	13093.29
629.914	13098.48
630.269	13138.26
630.623	13082.21
630.978	13013.97
631.332	13099.61
631.687	13056.68
632.041	13034.3
632.396	13101.65
632.75	12982.78
633.104	13015.77
633.459	12878.38
633.813	12985.27
634.167	12975.55
634.521	12980.75
634.875	13046.96
635.229	12986.62
635.583	12962.22
635.937	12908.21
636.291	12867.08
636.645	12877.25
636.999	12864.59
637.352	12905.27
637.706	12788.43
638.06	12849
638.413	12793.63
638.767	12742.79
639.121	12828.43
639.474	12753.86
639.828	12731.49
640.181	12707.31
640.534	12739.85
640.888	12672.73
641.241	12662.34
641.594	12710.02
641.947	12691.71
642.301	12653.98
642.654	12618.72
643.007	12602.45
643.36	12547.99
643.713	12565.62
644.066	12663.92
644.419	12531.72
644.771	12581.66
645.124	12396.35
645.477	12434.77
645.83	12262.12
646.182	12222.12
646.535	12200.88
646.888	12193.87
647.24	12125.4
647.593	12101.45
647.945	12144.38
648.298	12119.53
648.65	12009.7
649.002	12045.18
649.355	12167.43
649.707	12097.38
650.059	12092.63
650.411	12235.23
650.763	12314.55
651.115	12368.78
651.467	12391.38
651.819	12401.1
652.171	12395.68
652.523	12341.67
652.875	12306.64
653.227	12326.75
653.578	12396.58
653.93	12411.72
654.282	12303.7
654.633	12279.97
654.985	12268.22
655.337	12231.16
655.688	12249.92
656.039	12273.19
656.391	12217.15
656.742	12236.81
657.094	12265.51
657.445	12326.98
657.796	12259.64
658.147	12283.59
658.498	12335.34
658.849	12292.18
659.2	12248.11
659.551	12243.14
659.902	12268.45
660.253	12221.67
660.604	12288.56
660.955	12218.73
661.306	12277.49
661.656	12247.66
662.007	12262.8
662.358	12278.17
662.708	12316.81
663.059	12214.66
663.409	12145.97
663.76	12259.18
664.11	12287.66
664.461	12253.76
664.811	12232.97
665.161	12257.38
665.511	12192.07
665.862	12239.75
666.212	12260.31
666.562	12331.5
666.912	12191.61
667.262	12199.52
667.612	12159.07
667.962	12220.09
668.312	12244.95
668.662	12258.73
669.011	12232.74
669.361	12152.29
669.711	12303.7
670.06	12154.55
670.41	12180.09
670.76	12144.61
671.109	12148.23
671.459	12175.8
671.808	12133.31
672.157	12066.42
672.507	12154.33
672.856	12151.16
673.205	12159.52
673.554	12186.87
673.904	12032.97
674.253	12167.66
674.602	12055.12
674.951	11865.3
675.3	11825.07
675.649	12063.03
675.998	12049.7
676.346	12026.65
676.695	12042.69
677.044	12007.44
677.393	12013.99
677.741	12028.68
678.09	11944.84
678.438	11967.21
678.787	11921.11
679.135	11952.07
679.484	11862.81
679.832	11912.07
680.181	11827.78
680.529	11841.34
680.877	11869.59
681.225	11799.99
681.573	11947.55
681.922	11795.47
682.27	11748.24
682.618	11749.37
682.966	11684.74
683.314	11759.99
683.661	11680.22
684.009	11700.1
684.357	11590.73
684.705	11598.64
685.053	11588.01
685.4	11554.12
685.748	11554.34
686.095	11499.2
686.443	11505.3
686.79	11437.51
687.138	11494.01
687.485	11499.88
687.832	11371.07
688.18	11465.31
688.527	11306.44
688.874	11278.64
689.221	11229.61
689.568	11291.53
689.915	11228.48
690.262	11219.44
690.609	11195.71
690.956	11125.65
691.303	11110.29
691.65	11097.18
691.997	11058.99
692.344	10950.52
692.69	10971.53
693.037	11008.14
693.383	10848.6
693.73	10924.3
694.077	10891.54
694.423	10856.06
694.769	10803.63
695.116	10817.87
695.462	10755.95
695.808	10724.99
696.155	10704.87
696.501	10622.84
696.847	10669.85
697.193	10592.79
697.539	10578.32
697.885	10435.28
698.231	10474.37
698.577	10450.19
698.923	10400.48
699.269	10365.9
699.614	10268.5
699.96	10313.25
700.306	10220.37
700.651	10217.43
700.997	10197.09
701.342	10182.63
701.688	10129.52
702.033	10176.3
702.379	10094.72
702.724	10041.39
703.069	10016.76
703.415	9923.88
703.76	10015.17
704.105	9944.89
704.45	9925.69
704.795	9890.43
705.14	9863.09
705.485	9727.72
705.83	9765.69
706.175	9760.49
706.52	9727.72
706.865	9676.65
707.209	9643.66
707.554	9660.38
707.899	9635.98
708.243	9591.68
708.588	9556.88
708.932	9514.62
709.277	9477.11
709.621	9464.68
709.966	9457.22
710.31	9464.68
710.654	9327.28
710.998	9358.02
711.342	9420.84
711.687	9308.75
712.031	9297.91
712.375	9284.35
712.719	9236.44
713.063	9309.2
713.407	9350.33
713.75	9254.06
714.094	9218.36
714.438	9204.8
714.782	9215.42
715.125	9146.5
715.469	9187.17
715.812	9132.49
716.156	9128.42
716.499	9144.46
716.843	9110.57
717.186	9061.08
717.53	9026.73
717.873	9045.48
718.216	9029.89
718.559	9020.62
718.902	8883
719.246	8992.83
719.589	8957.58
719.932	8892.49
720.275	8843.23
720.617	8902.44
720.96	8870.8
721.303	8858.59
721.646	8859.5
721.989	8869.89
722.331	8885.49
722.674	8830.57
723.016	8891.14
723.359	8786.96
723.701	8828.31
724.044	8819.95
724.386	8775.21
724.729	8825.6
725.071	8731.37
725.413	8817.47
725.755	8726.17
726.097	8698.82
726.439	8639.17
726.782	8676.45
727.124	8760.29
727.465	8660.63
727.807	8657.92
728.149	8638.04
728.491	8609.56
728.833	8666.06
729.175	8619.5
729.516	8611.37
729.858	8574.08
730.199	8597.36
730.541	8573.86
730.882	8562.11
731.224	8689.56
731.565	8542.9
731.906	8596.45
732.248	8575.21
732.589	8525.5
732.93	8530.69
733.271	8523.69
733.612	8553.07
733.953	8565.95
734.294	8507.42
734.635	8515.1
734.976	8512.62
735.317	8520.52
735.658	8488.21
735.999	8546.29
736.339	8488.89
736.68	8532.28
737.021	8520.52
737.361	8451.15
737.702	8520.07
738.042	8509.23
738.383	8513.52
738.723	8485.72
739.063	8506.29
739.404	8520.52
739.744	8492.5
740.084	8418.15
740.424	8533.41
740.764	8539.06
741.104	8554.87
741.444	8496.12
741.784	8445.5
742.124	8517.81
742.464	8495.67
742.804	8511.49
743.143	8518.49
743.483	8537.47
743.823	8469.45
744.162	8556.91
744.502	8572.05
744.841	8550.58
745.181	8623.12
745.52	8610.47
745.86	8625.38
746.199	8704.47
746.538	8627.41
746.877	8725.49
747.216	8755.09
747.556	8719.84
747.895	8720.97
748.234	8751.93
748.573	8815.43
748.911	8833.96
749.25	8804.81
749.589	8915.99
749.928	8988.76
750.267	9019.95
750.605	9004.81
750.944	9036.9
751.283	9098.14
751.621	9199.38
751.96	9177
752.298	9315.31
752.636	9319.37
752.975	9424.46
753.313	9407.05
753.651	9513.04
753.989	9529.54
754.327	9658.8
754.666	9631.46
755.004	9792.13
755.342	9919.81
755.679	9948.28
756.017	9901.96
756.355	10050.88
756.693	10133.59
757.031	10308.27
757.368	10232.8
757.706	10386.24
758.044	10428.5
758.381	10532.45
758.719	10668.26
759.056	10793.23
759.394	10877.52
759.731	10826.23
760.068	11017.86
760.405	11105.09
760.743	11117.07
