Data from hue_320_FLMS001491_92.txt Node
Date: Mon Feb 06 15:47:59 GMT 2017
User: dcchb
Spectrometer: FLMS00149
Trigger mode: 0
Integration Time (sec): 2.000000E-2
Scans to average: 10
Electric dark correction enabled: true
Nonlinearity correction enabled: false
Boxcar width: 0
XAxis mode: Wavelengths
Number of Pixels in Spectrum: 2048
>>>>>Begin Spectral Data<<<<<
341.393	9.24
341.776	9.24
342.16	9.24
342.543	-66.02
342.927	-63.53
343.31	-56.75
343.693	-64.89
344.077	-88.84
344.46	-64.21
344.843	-56.98
345.226	-53.81
345.61	-29.41
345.993	-1.84
346.376	10.82
346.759	21.21
347.142	28.45
347.525	25.51
347.908	73.19
348.291	57.15
348.674	98.95
349.057	101.44
349.44	145.05
349.823	124.94
350.206	164.71
350.588	177.82
350.971	211.27
351.354	255.56
351.737	232.28
352.119	242.45
352.502	265.28
352.884	264.6
353.267	283.58
353.65	260.98
354.032	304.14
354.414	294.65
354.797	338.04
355.179	338.04
355.562	322.22
355.944	331.04
356.326	329.91
356.709	326.52
357.091	331.94
357.473	332.84
357.855	331.94
358.238	338.72
358.62	329.91
359.002	339.62
359.384	336.23
359.766	347.99
360.148	355.44
360.53	341.21
360.912	322
361.294	342.79
361.676	320.42
362.057	336.91
362.439	331.04
362.821	330.58
363.203	336.46
363.584	324.48
363.966	326.29
364.348	304.37
364.729	311.38
365.111	332.39
365.493	317.7
365.874	323.81
366.256	321.32
366.637	292.39
367.019	331.94
367.4	323.13
367.781	293.07
368.163	316.8
368.544	290.59
368.925	307.76
369.306	316.12
369.688	295.56
370.069	305.5
370.45	300.53
370.831	300.53
371.212	300.3
371.593	297.37
371.974	318.38
372.355	311.15
372.736	319.96
373.117	303.24
373.498	317.48
373.879	311.6
374.26	293.52
374.641	304.82
375.021	335.78
375.402	292.85
375.783	295.56
376.163	339.62
376.544	331.94
376.925	321.32
377.305	325.16
377.686	320.64
378.066	341.66
378.447	334.43
378.827	313.86
379.208	340.75
379.588	333.75
379.968	291.49
380.349	342.34
380.729	329.91
381.109	331.26
381.489	328.78
381.87	336.69
382.25	337.36
382.63	336.46
383.01	345.73
383.39	330.58
383.77	318.38
384.15	336.46
384.53	345.5
384.91	336.46
385.29	336.69
385.67	339.85
386.049	353.41
386.429	330.81
386.809	353.18
387.189	366.97
387.568	350.25
387.948	364.48
388.328	350.92
388.707	357.25
389.087	359.51
389.466	345.73
389.846	355.67
390.225	370.58
390.605	376.23
390.984	357.48
391.363	366.97
391.743	360.64
392.122	353.41
392.501	345.95
392.881	366.52
393.26	362.9
393.639	372.62
394.018	365.39
394.397	378.94
394.776	390.47
395.155	386.63
395.534	370.58
395.913	374.2
396.292	363.8
396.671	365.84
397.05	377.14
397.429	364.71
397.808	375.33
398.186	380.75
398.565	392.05
398.944	356.8
399.323	395.89
399.701	387.31
400.08	399.74
400.458	407.19
400.837	413.75
401.215	402.67
401.594	413.07
401.972	407.19
402.351	423.69
402.729	396.57
403.107	403.8
403.486	419.4
403.864	397.02
404.242	413.07
404.62	399.74
404.999	420.53
405.377	421.43
405.755	419.85
406.133	438.83
406.511	421.66
406.889	449.9
407.267	445.61
407.645	453.07
408.023	454.42
408.401	430.69
408.779	461.88
409.156	460.3
409.534	460.3
409.912	434.76
410.29	480.19
410.667	463.46
411.045	476.12
411.422	483.35
411.8	477.93
412.178	499.85
412.555	502.78
412.933	508.21
413.31	519.28
413.687	537.13
414.065	516.79
414.442	512.73
414.819	547.53
415.197	539.84
415.574	560.41
415.951	556.12
416.328	546.4
416.705	590.69
417.082	560.63
417.46	579.84
417.837	592.27
418.214	579.84
418.591	571.71
418.967	596.11
419.344	623.91
419.721	603.35
420.098	614.19
420.475	610.8
420.852	620.97
421.228	623.23
421.605	639.5
421.982	632.72
422.358	650.8
422.735	658.26
423.111	654.87
423.488	670.69
423.864	659.62
424.241	674.76
424.617	692.61
424.994	703.23
425.37	686.51
425.746	705.04
426.123	722.44
426.499	697.13
426.875	727.64
427.251	724.7
427.627	739.16
428.003	772.38
428.379	775.54
428.756	746.17
429.132	774.19
429.507	794.53
429.883	801.98
430.259	839.27
430.635	804.92
431.011	792.49
431.387	823.9
431.763	842.44
432.138	839.72
432.514	850.12
432.89	833.17
433.265	859.84
433.641	868.65
434.016	881.98
434.392	891.02
434.767	906.84
435.143	886.73
435.518	926.05
435.894	939.16
436.269	939.16
436.644	938.03
437.02	961.08
437.395	969.89
437.77	986.61
438.145	962.88
438.52	1014.18
438.895	1010.57
439.271	987.06
439.646	996.56
440.021	1028.65
440.395	1013.05
440.77	996.1
441.145	1029.78
441.52	1050.11
441.895	1043.56
442.27	1053.05
442.645	1054.41
443.019	1070
443.394	1024.35
443.769	1074.07
444.143	1061.86
444.518	1087.85
444.892	1086.27
445.267	1074.52
445.641	1070.68
446.016	1073.62
446.39	1098.25
446.764	1092.37
447.139	1082.88
447.513	1114.29
447.887	1129.89
448.262	1116.78
448.636	1114.74
449.01	1131.24
449.384	1133.73
449.758	1126.27
450.132	1139.83
450.506	1127.85
450.88	1165.36
451.254	1146.83
451.628	1158.13
452.002	1150.9
452.376	1171.01
452.75	1184.35
453.123	1178.25
453.497	1181.41
453.871	1188.64
454.244	1246.94
454.618	1203.33
454.992	1220.73
455.365	1223.67
455.739	1261.63
456.112	1274.06
456.486	1288.98
456.859	1285.36
457.232	1285.81
457.606	1314.97
457.979	1277.9
458.352	1310.22
458.725	1315.64
459.099	1342.54
459.472	1350.67
459.845	1350.44
460.218	1352.7
460.591	1352.48
460.964	1346.83
461.337	1398.58
461.71	1404.68
462.083	1404.91
462.456	1409.2
462.829	1401.74
463.201	1434.06
463.574	1438.8
463.947	1446.71
464.32	1488.29
464.692	1476.32
465.065	1524.23
465.438	1517.22
465.81	1495.3
466.183	1515.19
466.555	1538.91
466.928	1562.64
467.3	1563.77
467.672	1578.91
468.045	1633.83
468.417	1597.44
468.789	1631.57
469.161	1625.69
469.534	1655.75
469.906	1642.64
470.278	1715.41
470.65	1695.97
471.022	1695.97
471.394	1753.82
471.766	1751.11
472.138	1772.35
472.51	1758.12
472.882	1794.27
473.253	1784.11
473.625	1817.78
473.997	1866.59
474.369	1874.72
474.74	1913.14
475.112	1891
475.484	1920.15
475.855	1965.8
476.227	1975.74
476.598	2013.25
476.97	2029.07
477.341	2073.14
477.713	2061.39
478.084	2097.32
478.455	2140.25
478.827	2143.19
479.198	2184.32
479.569	2180.71
479.94	2218.22
480.311	2267.03
480.682	2270.42
481.053	2329.18
481.424	2347.48
481.795	2354.26
482.166	2417.08
482.537	2419.57
482.908	2447.82
483.279	2472.22
483.65	2504.99
484.021	2513.58
484.391	2558.77
484.762	2564.42
485.133	2599.68
485.503	2627.02
485.874	2656.85
486.244	2653.91
486.615	2704.31
486.985	2762.84
487.356	2764.42
487.726	2782.5
488.097	2820.69
488.467	2841.48
488.837	2895.04
489.207	2904.98
489.578	2982.04
489.948	2970.97
490.318	2980.91
490.688	2975.49
491.058	3046.22
491.428	3058.87
491.798	3085.54
492.168	3128.7
492.538	3177.06
492.908	3180.68
493.278	3197.85
493.648	3250.06
494.017	3221.81
494.387	3239.21
494.757	3286.66
495.126	3336.16
495.496	3309.94
495.866	3323.27
496.235	3335.03
496.605	3395.36
496.974	3428.13
497.344	3412.54
497.713	3443.05
498.082	3494.12
498.452	3492.76
498.821	3497.51
499.19	3503.38
499.559	3511.52
499.928	3575.24
500.298	3539.09
500.667	3612.76
501.036	3576.6
501.405	3608.46
501.774	3582.02
502.143	3583.61
502.512	3615.47
502.88	3663.15
503.249	3683.94
503.618	3675.58
503.987	3731.4
504.356	3713.55
504.724	3731.85
505.093	3726.88
505.462	3751.51
505.83	3813.88
506.199	3799.19
506.567	3815.24
506.936	3813.43
507.304	3830.61
507.672	3845.97
508.041	3840.77
508.409	3885.07
508.777	3915.35
509.145	3932.98
509.514	3953.09
509.882	3924.39
510.25	3959.87
510.618	3928.68
510.986	3989.7
511.354	3988.57
511.722	3925.29
512.09	3996.25
512.458	4017.72
512.826	3997.38
513.193	4048.23
513.561	4068.57
513.929	4076.93
514.297	4127.32
514.664	4089.81
515.032	4089.36
515.4	4137.49
515.767	4139.07
516.135	4139.3
516.502	4113.99
516.869	4211.61
517.237	4195.57
517.604	4166.87
517.972	4183.36
518.339	4209.35
518.706	4205.96
519.073	4192.63
519.44	4238.73
519.808	4255
520.175	4248.22
520.542	4312.4
520.909	4318.28
521.276	4293.64
521.643	4339.07
522.009	4342
522.376	4377.71
522.743	4393.08
523.11	4415.9
523.477	4459.29
523.843	4511.04
524.21	4448.89
524.577	4503.36
524.943	4530.25
525.31	4525.73
525.676	4518.72
526.043	4503.13
526.409	4565.95
526.776	4631.94
527.142	4621.55
527.508	4643.92
527.874	4676.23
528.241	4732.95
528.607	4695.89
528.973	4739.28
529.339	4752.62
529.705	4736.12
530.071	4817.7
530.437	4832.84
530.803	4854.76
531.169	4855.21
531.535	4894.08
531.901	4905.15
532.267	4897.47
532.632	4951.93
532.998	4960.97
533.364	4942.67
533.73	5005.04
534.095	5058.37
534.461	5074.19
534.826	5036.9
535.192	5066.96
535.557	5125.94
535.923	5110.35
536.288	5144.02
536.653	5192.6
537.019	5163
537.384	5230.79
537.749	5244.58
538.114	5203.22
538.479	5248.42
538.845	5267.4
539.21	5227.86
539.575	5285.93
539.94	5342.88
540.305	5370.45
540.67	5394.18
541.034	5394.41
541.399	5443.44
541.764	5416.55
542.129	5448.19
542.494	5485.93
542.858	5500.62
543.223	5533.39
543.587	5570.67
543.952	5566.15
544.316	5617.68
544.681	5591.46
545.045	5671.46
545.41	5621.07
545.774	5678.01
546.138	5713.72
546.503	5701.52
546.867	5732.02
547.231	5764.57
547.595	5746.26
547.959	5814.51
548.324	5815.64
548.688	5870.33
549.052	5870.55
549.416	5864
549.779	5905.58
550.143	5904
550.507	5946.93
550.871	5982.19
551.235	6011.79
551.599	5976.54
551.962	6050.43
552.326	6030.77
552.689	6081.17
553.053	6088.85
553.417	6056.08
553.78	6100.83
554.143	6159.58
554.507	6180.6
554.87	6145.12
555.234	6256.76
555.597	6200.03
555.96	6184.44
556.323	6255.17
556.686	6299.24
557.05	6311.22
557.413	6299.92
557.776	6299.47
558.139	6345.57
558.502	6364.32
558.865	6353.48
559.228	6429.86
559.59	6425.79
559.953	6421.5
560.316	6480.25
560.679	6484.55
561.041	6503.76
561.404	6515.05
561.767	6597.99
562.129	6563.19
562.492	6582.62
562.854	6605.9
563.217	6607.71
563.579	6597.76
563.941	6666.92
564.304	6694.26
564.666	6695.61
565.028	6721.38
565.39	6762.28
565.753	6788.27
566.115	6819.23
566.477	6810.87
566.839	6826.68
567.201	6830.75
567.563	6846.8
567.925	6966.79
568.287	6884.54
568.648	6952.56
569.01	6939
569.372	6982.84
569.734	7000.92
570.095	7029.62
570.457	7065.32
570.819	7145.32
571.18	7139.9
571.542	7177.86
571.903	7172.66
572.265	7269.16
572.626	7294.47
572.987	7376.73
573.349	7332.43
573.71	7414.92
574.071	7487.91
574.432	7523.62
574.794	7624.63
575.155	7602.71
575.516	7610.39
575.877	7741.24
576.238	7733.1
576.599	7893.55
576.96	7883.38
577.32	8025.3
577.681	8049.93
578.042	8110.72
578.403	8221
578.763	8270.71
579.124	8302.13
579.485	8494.21
579.845	8557.71
580.206	8701.66
580.566	8743.7
580.927	8879.51
581.287	9023.92
581.648	9044.03
582.008	9213.74
582.368	9351.14
582.728	9497.58
583.089	9625.48
583.449	9742.99
583.809	9997.9
584.169	10165.81
584.529	10201.06
584.889	10502.52
585.249	10618.68
585.609	10717.88
585.969	11003.98
586.329	11182.05
586.688	11373.46
587.048	11557.86
587.408	11742.71
587.768	12021.8
588.127	12277.16
588.487	12482.36
588.846	12816.81
589.206	12960.08
589.565	13230.58
589.925	13510.35
590.284	13675.54
590.643	13938.36
591.003	14178.13
591.362	14515.3
591.721	14706.03
592.08	15035.73
592.44	15291.55
592.799	15494.93
593.158	15803.85
593.517	16210.39
593.876	16510.05
594.235	16576.94
594.593	16957.94
594.952	17225.96
595.311	17492.62
595.67	17846.51
596.029	18174.64
596.387	18462.54
596.746	18832.92
597.104	18972.58
597.463	19259.35
597.822	19597.87
598.18	19803.74
598.538	20107.01
598.897	20385.65
599.255	20590.62
599.613	21126.42
599.972	21372.29
600.33	21544.49
600.688	21819.29
601.046	22156.45
601.404	22494.3
601.762	22693.61
602.12	23082.08
602.478	23271.22
602.836	23576.75
603.194	23630.08
603.552	23987.59
603.91	24270.97
604.268	24522.26
604.625	24788.25
604.983	25026.88
605.341	25134.23
605.698	25542.58
606.056	25789.58
606.413	26056.46
606.771	26215.33
607.128	26550.69
607.485	26554.53
607.843	26835.42
608.2	27214.4
608.557	27451.45
608.914	27589.3
609.272	27873.82
609.629	28169.4
609.986	28394.25
610.343	28571.42
610.7	28789.27
611.057	29015.93
611.414	29053.22
611.771	29336.15
612.127	29619.08
612.484	29690.26
612.841	30019.3
613.198	29936.36
613.554	30090.03
613.911	30606.85
614.267	30618.6
614.624	30756.45
614.98	30986.73
615.337	31227.63
615.693	31357.79
616.05	31468.75
616.406	31729.08
616.762	31818.8
617.118	31917.32
617.475	32027.83
617.831	32327.71
618.187	32289.97
618.543	32615.84
618.899	32856.28
619.255	32828.94
619.611	32936.96
619.967	33261.24
620.323	33207.01
620.678	33317.74
621.034	33261.47
621.39	33347.57
621.746	33545.3
622.101	33903.94
622.457	33686.54
622.812	33832.98
623.168	34055.8
623.523	34197.72
623.879	34199.52
624.234	34129.47
624.589	34338.05
624.945	34525.39
625.3	34628.67
625.655	34654.88
626.01	34710.7
626.365	34776.91
626.72	34850.35
627.075	34902.33
627.43	35027.98
627.785	35016.9
628.14	35178.48
628.495	35158.6
628.85	35183.45
629.205	35205.83
629.559	35446.5
629.914	35266.62
630.269	35273.62
630.623	35316.78
630.978	35311.13
631.332	35506.38
631.687	35542.54
632.041	35472.49
632.396	35645.81
632.75	35506.83
633.104	35556.32
633.459	35379.83
633.813	35540.73
634.167	35555.2
634.521	35663.44
634.875	35722.42
635.229	35609.2
635.583	35544.12
635.937	35436.33
636.291	35535.76
636.645	35669.32
636.999	35505.25
637.352	35586.38
637.706	35465.25
638.06	35794.28
638.413	35561.52
638.767	35559.04
639.121	35621.63
639.474	35430.68
639.828	35511.81
640.181	35500.28
640.534	35533.05
640.888	35406.27
641.241	35352.94
641.594	35489.21
641.947	35499.83
642.301	35463.67
642.654	35588.19
643.007	35486.72
643.36	35497.34
643.713	35497.34
644.066	35550
644.419	35305.26
644.771	35154.98
645.124	34808.1
645.477	34783.01
645.83	34629.34
646.182	34493.08
646.535	34410.59
646.888	34483.58
647.24	34283.59
647.593	34575.56
647.945	34571.04
648.298	34269.58
648.65	34301.22
649.002	34114.78
649.355	34253.08
649.707	34257.6
650.059	34461.89
650.411	34917.02
650.763	34963.12
651.115	35371.92
651.467	35193.62
651.819	35102.33
652.171	35071.14
652.523	35100.29
652.875	34945.27
653.227	34829.11
653.578	35020.97
653.93	35067.52
654.282	34820.75
654.633	34844.03
654.985	34873.41
655.337	34933.29
655.688	34873.41
656.039	34991.14
656.391	34885.83
656.742	34808.77
657.094	34869.79
657.445	34941.65
657.796	34929.22
658.147	34917.92
658.498	34801.32
658.849	34971.48
659.2	34905.27
659.551	34711.38
659.902	34802.45
660.253	34833.18
660.604	34854.87
660.955	34689.91
661.306	34710.7
661.656	34612.62
662.007	34829.56
662.358	34781.66
662.708	34805.61
663.059	34752.5
663.409	34526.52
663.76	34825.95
664.11	34706.4
664.461	34744.37
664.811	34658.72
665.161	34640.19
665.511	34637.03
665.862	34568.78
666.212	34822.33
666.562	34671.38
666.912	34647.65
667.262	34716.35
667.612	34673.86
667.962	34737.82
668.312	34609.91
668.662	34826.63
669.011	34712.28
669.361	34541.89
669.711	34587.54
670.06	34484.49
670.41	34535.11
670.76	34455.79
671.109	34550.7
671.459	34440.65
671.808	34503.47
672.157	34605.16
672.507	34265.74
672.856	34430.93
673.205	34397.03
673.554	34526.97
673.904	34464.15
674.253	34594.77
674.602	34293.99
674.951	34026.42
675.3	33816.26
675.649	34344.15
675.998	34247.88
676.346	34264.83
676.695	34391.61
677.044	34107.32
677.393	34273.87
677.741	34324.94
678.09	34268
678.438	34096.48
678.787	34149.81
679.135	34127.44
679.484	33922.02
679.832	34144.38
680.181	33766.77
680.529	34078.85
680.877	33903.49
681.225	33903.26
681.573	34030.94
681.922	33761.12
682.27	33728.58
682.618	33812.64
682.966	33600.22
683.314	33682.7
683.661	33571.97
684.009	33490.84
684.357	33479.77
684.705	33334.69
685.053	33441.8
685.4	33428.47
685.748	33233.67
686.095	33258.08
686.443	33125.2
686.79	33052.21
687.138	33124.98
687.485	33012.44
687.832	32997.52
688.18	33002.04
688.527	32867.36
688.874	32808.15
689.221	32778.77
689.568	32744.42
689.915	32546.69
690.262	32517.99
690.609	32531.09
690.956	32361.83
691.303	32453.13
691.65	32304.21
691.997	32310.99
692.344	32031.67
692.69	31897.21
693.037	32051.33
693.383	31703.77
693.73	31849.3
694.077	31704.9
694.423	31816.31
694.769	31544.23
695.116	31500.39
695.462	31496.09
695.808	31346.04
696.155	31353.27
696.501	31120.06
696.847	31085.26
697.193	30976.78
697.539	31046.16
697.885	30906.73
698.231	30852.49
698.577	30894.98
698.923	30633.52
699.269	30580.41
699.614	30415.22
699.96	30417.03
700.306	30428.78
700.651	30269.23
700.997	30267.88
701.342	30200.76
701.688	30151.72
702.033	30104.49
702.379	30029.46
702.724	29877.38
703.069	29992.18
703.415	29778.4
703.76	29557.39
704.105	29595.13
704.45	29630.83
704.795	29284.17
705.14	29324.62
705.485	29320.78
705.83	29164.4
706.175	29139.32
706.52	29165.98
706.865	29039.21
707.209	29063.39
707.554	28877.4
707.899	29017.74
708.243	28748.59
708.588	28773
708.932	28527.36
709.277	28601.25
709.621	28764.64
709.966	28331.88
710.31	28536.62
710.654	28224.54
710.998	28194.71
711.342	28226.57
711.687	28224.09
712.031	28069.06
712.375	27998.11
712.719	28000.82
713.063	27901.16
713.407	28028.16
713.75	27843.31
714.094	27890.54
714.438	27765.57
714.782	27754.72
715.125	27591.34
715.469	27553.82
715.812	27459.36
716.156	27340.27
716.499	27378.23
716.843	27425.69
717.186	27204.45
717.53	27303.43
717.873	27347.95
718.216	27245.81
718.559	27202.65
718.902	27050.11
719.246	27039.71
719.589	26919.94
719.932	26848.76
720.275	26854.41
720.617	26833.39
720.96	26755.2
721.303	26768.31
721.646	26685.6
721.989	26514.08
722.331	26694.86
722.674	26567.41
723.016	26554.08
723.359	26457.81
723.701	26586.17
724.044	26297.36
724.386	26229.56
724.729	26324.03
725.071	26257.59
725.413	26206.29
725.755	26244.48
726.097	26130.81
726.439	25959.06
726.782	26037.25
727.124	26107.53
727.465	25908.22
727.807	25992.51
728.149	25905.51
728.491	25856.47
728.833	25775.34
729.175	25674.32
729.516	25689.01
729.858	25617.6
730.199	25773.98
730.541	25627.09
730.882	25566.08
731.224	25712.52
731.565	25408.57
731.906	25511.17
732.248	25551.84
732.589	25320.44
732.93	25332.41
733.271	25361.56
733.612	25302.58
733.953	25426.65
734.294	25236.14
734.635	25170.16
734.976	25262.81
735.317	25172.64
735.658	25045.19
735.999	25115.47
736.339	25147.56
736.68	24978.98
737.021	24909.37
737.361	24859.43
737.702	25049.48
738.042	24807
738.383	24778.08
738.723	24844.52
739.063	24671.64
739.404	24823.05
739.744	24697.4
740.084	24563.39
740.424	24607.91
740.764	24539.44
741.104	24680.23
741.444	24499.89
741.784	24336.28
742.124	24442.72
742.464	24478.2
742.804	24312.78
743.143	24273.01
743.483	24271.88
743.823	24175.38
744.162	24165.89
744.502	24248.37
744.841	24070.98
745.181	24219
745.52	24120.69
745.86	24149.85
746.199	24090.41
746.538	24011.77
746.877	24099.45
747.216	24046.57
747.556	23890.19
747.895	24039.57
748.234	23907.82
748.573	23719.8
748.911	23791.89
749.25	23742.4
749.589	23543.99
749.928	23693.81
750.267	23579.01
750.605	23593.7
750.944	23630.76
751.283	23523.42
751.621	23494.5
751.96	23283.88
752.298	23293.82
752.636	23301.28
752.975	23199.59
753.313	23199.14
753.651	23210.89
753.989	22977.9
754.327	23003.43
754.666	22989.2
755.004	22963.44
755.342	22970.89
755.679	22964.79
756.017	22754.63
756.355	22911.91
756.693	22702.2
757.031	22719.83
757.368	22568.87
757.706	22516.22
758.044	22551.7
758.381	22513.5
758.719	22406.61
759.056	22395.54
759.394	22333.17
759.731	22174.76
760.068	22072.84
