Data from hue_240_FLMS001491_00029.txt Node
Date: Tue Feb 07 16:35:16 GMT 2017
User: dcchb
Spectrometer: FLMS00149
Trigger mode: 0
Integration Time (sec): 2.000000E-2
Scans to average: 10
Electric dark correction enabled: true
Nonlinearity correction enabled: false
Boxcar width: 0
XAxis mode: Wavelengths
Number of Pixels in Spectrum: 2048
>>>>>Begin Spectral Data<<<<<
341.393	-25.97
341.776	-25.97
342.16	-25.97
342.543	-54.9
342.927	-58.29
343.31	-69.36
343.693	-67.78
344.077	-85.63
344.46	-61.23
344.843	-51.51
345.226	-45.41
345.61	-45.86
345.993	-8.12
346.376	1.82
346.759	17.41
347.142	22.84
347.525	41.82
347.908	67.36
348.291	79.11
348.674	91.54
349.057	113.01
349.44	121.14
349.823	118.66
350.206	157.75
350.588	175.6
350.971	189.39
351.354	206.34
351.737	218.99
352.119	249.73
352.502	260.57
352.884	272.55
353.267	297.86
353.65	291.53
354.032	297.86
354.414	305.99
354.797	297.18
355.179	316.39
355.562	313.45
355.944	319.78
356.326	345.54
356.709	331.08
357.091	343.96
357.473	337.18
357.855	315.49
358.238	364.3
358.62	330.4
359.002	317.07
359.384	352.32
359.766	337.86
360.148	326.33
360.53	348.25
360.912	321.36
361.294	333.79
361.676	325.66
362.057	333.79
362.439	302.38
362.821	322.27
363.203	338.76
363.584	319.1
363.966	320.23
364.348	312.77
364.729	337.86
365.111	320.46
365.493	310.74
365.874	318.42
366.256	301.7
366.637	309.61
367.019	319.1
367.4	320.68
367.781	331.08
368.163	298.99
368.544	311.19
368.925	316.84
369.306	313.45
369.688	307.58
370.069	306.45
370.45	318.88
370.831	290.4
371.212	311.19
371.593	316.84
371.974	328.14
372.355	317.07
372.736	303.51
373.117	311.19
373.498	311.19
373.879	297.63
374.26	321.81
374.641	301.25
375.021	319.78
375.402	320.23
375.783	307.8
376.163	338.31
376.544	327.92
376.925	315.94
377.305	334.69
377.686	301.48
378.066	320.91
378.447	322.72
378.827	327.24
379.208	314.58
379.588	327.92
379.968	321.59
380.349	343.28
380.729	355.71
381.109	340.57
381.489	331.08
381.87	337.63
382.25	323.62
382.63	360.46
383.01	355.26
383.39	348.03
383.77	345.09
384.15	345.09
384.53	353
384.91	348.93
385.29	338.08
385.67	356.61
386.049	336.95
386.429	375.15
386.809	369.5
387.189	350.74
387.568	338.99
387.948	351.42
388.328	362.26
388.707	358.2
389.087	352.32
389.466	350.29
389.846	357.07
390.225	359.78
390.605	363.17
390.984	350.29
391.363	375.6
391.743	354.36
392.122	362.94
392.501	378.99
392.881	386.44
393.26	383.51
393.639	394.81
394.018	377.86
394.397	384.41
394.776	378.76
395.155	389.83
395.534	377.18
395.913	375.15
396.292	390.06
396.671	388.93
397.05	391.64
397.429	397.29
397.808	394.35
398.186	397.07
398.565	407.91
398.944	384.41
399.323	395.94
399.701	421.25
400.08	416.05
400.458	397.74
400.837	412.43
401.215	405.88
401.594	415.14
401.972	428.03
402.351	417.63
402.729	434.35
403.107	436.84
403.486	424.64
403.864	433
404.242	424.41
404.62	435.93
404.999	435.26
405.377	442.71
405.755	458.76
406.133	465.54
406.511	453.79
406.889	458.99
407.267	452.88
407.645	468.93
408.023	478.87
408.401	485.88
408.779	470.96
409.156	473.45
409.534	482.94
409.912	494.24
410.29	507.35
410.667	499.44
411.045	510.06
411.422	524.07
411.8	507.8
412.178	527.91
412.555	542.6
412.933	547.34
413.31	556.84
413.687	538.08
414.065	565.65
414.442	564.52
414.819	574.69
415.197	554.8
415.574	570.39
415.951	595.03
416.328	602.03
416.705	617.4
417.082	587.34
417.46	621.47
417.837	647.45
418.214	602.71
418.591	633.22
418.967	623.95
419.344	642.26
419.721	661.69
420.098	633.9
420.475	647.45
420.852	676.15
421.228	677.28
421.605	686.55
421.982	701.46
422.358	712.09
422.735	710.5
423.111	702.82
423.488	710.5
423.864	738.53
424.241	743.95
424.617	731.97
424.994	766.1
425.37	762.48
425.746	781.91
426.123	809.71
426.499	774.23
426.875	808.13
427.251	816.72
427.627	839.54
428.003	835.25
428.379	849.26
428.756	842.7
429.132	884.06
429.507	894.91
429.883	861.69
430.259	906.66
430.635	912.98
431.011	889.03
431.387	923.83
431.763	944.85
432.138	936.49
432.514	942.81
432.89	981.46
433.265	986.2
433.641	1009.71
434.016	1011.29
434.392	1002.25
434.767	1064.39
435.143	1063.04
435.518	1084.51
435.894	1074.11
436.269	1099.19
436.644	1111.4
437.02	1131.28
437.395	1151.62
437.77	1159.76
438.145	1176.93
438.52	1213.09
438.895	1176.93
439.271	1191.62
439.646	1239.76
440.021	1226.87
440.395	1233.43
440.77	1259.19
441.145	1303.48
441.52	1287.21
441.895	1300.32
442.27	1261.45
442.645	1335.35
443.019	1361.33
443.394	1355.23
443.769	1371.73
444.143	1348.45
444.518	1392.52
444.892	1385.97
445.267	1404.95
445.641	1404.72
446.016	1420.54
446.39	1454.44
446.764	1449.92
447.139	1427.32
447.513	1449.24
447.887	1466.19
448.262	1491.27
448.636	1474.55
449.01	1510.48
449.384	1502.57
449.758	1500.09
450.132	1529.01
450.506	1510.48
450.88	1550.93
451.254	1592.29
451.628	1558.17
452.002	1587.54
452.376	1600.2
452.75	1636.36
453.123	1634.55
453.497	1625.73
453.871	1648.33
454.244	1696.01
454.618	1701.89
454.992	1717.94
455.365	1706.64
455.739	1741.21
456.112	1778.95
456.486	1809.01
456.859	1811.94
457.232	1825.05
457.606	1820.53
457.979	1837.93
458.352	1878.83
458.725	1902.56
459.099	1906.18
459.472	1961.54
459.845	1976.23
460.218	1972.39
460.591	2000.64
460.964	2019.4
461.337	2063.24
461.71	2096.46
462.083	2071.6
462.456	2136.91
462.829	2085.61
463.201	2146.85
463.574	2132.61
463.947	2176.23
464.32	2237.7
464.692	2280.86
465.065	2259.62
465.438	2267.98
465.81	2329.67
466.183	2329.22
466.555	2367.86
466.928	2372.61
467.3	2376.9
467.672	2397.24
468.045	2481.76
468.417	2471.14
468.789	2494.19
469.161	2518.14
469.534	2602.88
469.906	2631.81
470.278	2641.07
470.65	2658.02
471.022	2699.6
471.394	2714.75
471.766	2769.88
472.138	2816.44
472.51	2875.87
472.882	2861.86
473.253	2895.98
473.625	2944.57
473.997	2997
474.369	3023.21
474.74	2997.45
475.112	3095.53
475.484	3137.33
475.855	3162.87
476.227	3203.32
476.598	3262.53
476.97	3314.5
477.341	3344.33
477.713	3416.2
478.084	3438.34
478.455	3517.21
478.827	3557.89
479.198	3631.11
479.569	3629.3
479.94	3723.08
480.311	3775.96
480.682	3818.9
481.053	3861.83
481.424	3943.41
481.795	3998.55
482.166	4020.25
482.537	4077.42
482.908	4121.49
483.279	4149.96
483.65	4249.17
484.021	4323.52
484.391	4328.26
484.762	4376.4
485.133	4370.75
485.503	4455.49
485.874	4550.85
486.244	4636.28
486.615	4698.87
486.985	4725.99
487.356	4797.85
487.726	4815.71
488.097	4914.46
488.467	4869.72
488.837	5029.26
489.207	5064.29
489.578	5083.5
489.948	5148.58
490.318	5195.58
490.688	5248.46
491.058	5285.75
491.428	5370.72
491.798	5426.76
492.168	5487.33
492.538	5525.52
492.908	5540.43
493.278	5648
493.648	5626.76
494.017	5672.63
494.387	5764.16
494.757	5748.34
495.126	5775
495.496	5840.99
495.866	5864.49
496.235	5901.78
496.605	6007.54
496.974	5977.48
497.344	6032.62
497.713	6067.2
498.082	6106.07
498.452	6144.71
498.821	6144.49
499.19	6179.96
499.559	6230.13
499.928	6258.61
500.298	6306.74
500.667	6340.86
501.036	6304.26
501.405	6377.02
501.774	6367.3
502.143	6422.22
502.512	6444.14
502.88	6459.05
503.249	6513.52
503.618	6516.9
503.987	6540.86
504.356	6567.3
504.724	6662.66
505.093	6637.13
505.462	6573.17
505.83	6692.27
506.199	6719.61
506.567	6806.16
506.936	6723.45
507.304	6798.71
507.672	6880.29
508.041	6826.28
508.409	6884.58
508.777	6858.59
509.145	6939.94
509.514	6958.7
509.882	6964.58
510.25	6975.2
510.618	7038.25
510.986	7015.42
511.354	7023.11
511.722	7089.55
512.09	7142.43
512.458	7159.15
512.826	7186.94
513.193	7206.6
513.561	7263.55
513.929	7231.69
514.297	7288.18
514.664	7283.66
515.032	7315.53
515.4	7336.32
515.767	7342.19
516.135	7401.63
516.502	7344.91
516.869	7399.14
517.237	7412.93
517.604	7350.33
517.972	7407.95
518.339	7524.34
518.706	7487.73
519.073	7435.98
519.44	7504.9
519.808	7587.39
520.175	7545.13
520.542	7637.33
520.909	7696.31
521.276	7619.25
521.643	7665.35
522.009	7662.19
522.376	7668.74
522.743	7758.68
523.11	7806.59
523.477	7814.72
523.843	7823.31
524.21	7851.79
524.577	7970.43
524.943	7910.31
525.31	7930.65
525.676	8019.69
526.043	7971.56
526.409	8071.44
526.776	8062.18
527.142	8030.54
527.508	8084.32
527.874	8072.34
528.241	8053.81
528.607	8132.23
528.973	8122.74
529.339	8164.32
529.705	8153.92
530.071	8169.52
530.437	8270.76
530.803	8249.51
531.169	8277.54
531.535	8200.02
531.901	8220.36
532.267	8219.91
532.632	8263.53
532.998	8299.68
533.364	8246.35
533.73	8280.93
534.095	8268.05
534.461	8301.94
534.826	8245.22
535.192	8309.63
535.557	8327.7
535.923	8309.17
536.288	8304.2
536.653	8334.26
537.019	8280.25
537.384	8342.17
537.749	8325.22
538.114	8339.91
538.479	8291.55
538.845	8255.39
539.21	8287.25
539.575	8294.26
539.94	8326.35
540.305	8372
540.67	8336.29
541.034	8274.82
541.399	8222.4
541.764	8246.35
542.129	8315.28
542.494	8272.34
542.858	8268.27
543.223	8312.56
543.587	8280.02
543.952	8254.94
544.316	8346.01
544.681	8238.22
545.045	8280.02
545.41	8270.08
545.774	8256.97
546.138	8326.12
546.503	8239.35
546.867	8197.09
547.231	8307.37
547.595	8273.24
547.959	8271.44
548.324	8240.93
548.688	8236.18
549.052	8295.84
549.416	8280.93
549.779	8188.27
550.143	8188.05
550.507	8257.65
550.871	8274.37
551.235	8206.35
551.599	8315.73
551.962	8272.56
552.326	8268.72
552.689	8205.22
553.053	8247.25
553.417	8302.62
553.78	8343.52
554.143	8235.28
554.507	8303.98
554.87	8314.6
555.234	8373.35
555.597	8297.65
555.96	8222.85
556.323	8291.77
556.686	8296.75
557.05	8300.81
557.413	8270.76
557.776	8358.21
558.139	8355.73
558.502	8372.9
558.865	8418.55
559.228	8420.36
559.59	8427.59
559.953	8422.39
560.316	8462.62
560.679	8475.05
561.041	8488.83
561.404	8471.2
561.767	8510.52
562.129	8540.58
562.492	8586.46
562.854	8521.82
563.217	8502.62
563.579	8612.22
563.941	8610.86
564.304	8608.38
564.666	8681.82
565.028	8664.87
565.39	8665.77
565.753	8685.89
566.115	8776.05
566.477	8747.35
566.839	8739.45
567.201	8848.14
567.563	8765.89
567.925	8875.49
568.287	8858.76
568.648	8906.9
569.01	8914.58
569.372	8951.19
569.734	8927.91
570.095	9050.85
570.457	8993.22
570.819	8950.74
571.18	9001.81
571.542	9097.63
571.903	9117.06
572.265	9127.91
572.626	9106.22
572.987	9103.73
573.349	9186.21
573.71	9155.03
574.071	9213.33
574.432	9233.44
574.794	9271.41
575.155	9218.53
575.516	9236.38
575.877	9343.95
576.238	9338.75
576.599	9314.57
576.96	9358.19
577.32	9338.75
577.681	9452.65
578.042	9461.23
578.403	9445.64
578.763	9500.56
579.124	9476.6
579.485	9448.81
579.845	9545.53
580.206	9532.42
580.566	9510.27
580.927	9511.4
581.287	9627.33
581.648	9580.33
582.008	9646.54
582.368	9565.64
582.728	9624.39
583.089	9660.1
583.449	9661
583.809	9687.67
584.169	9679.76
584.529	9663.04
584.889	9773.54
585.249	9609.7
585.609	9688.12
585.969	9754.33
586.329	9725.63
586.688	9684.28
587.048	9738.06
587.408	9738.97
587.768	9698.06
588.127	9773.09
588.487	9666.2
588.846	9799.3
589.206	9700.55
589.565	9747.55
589.925	9837.5
590.284	9751.85
590.643	9803.37
591.003	9876.82
591.362	9869.59
591.721	9841.56
592.08	9852.64
592.44	9889.7
592.799	9881.34
593.158	9824.39
593.517	9853.54
593.876	9877.49
594.235	9856.7
594.593	9889.25
594.952	9846.08
595.311	9830.94
595.67	9910.49
596.029	9926.76
596.387	9968.57
596.746	9983.93
597.104	9924.05
597.463	9984.84
597.822	9990.03
598.18	9916.82
598.538	9902.8
598.897	9936.02
599.255	9872.52
599.613	10055.12
599.972	9987.32
600.33	9986.87
600.688	9990.71
601.046	10026.64
601.404	10052.63
601.762	10024.84
602.12	10008.56
602.478	10049.47
602.836	10103.93
603.194	10020.54
603.552	10053.99
603.91	10004.95
604.268	10054.67
604.625	10029.81
604.983	10049.47
605.341	10002.91
605.698	10059.18
606.056	10136.24
606.413	10076.36
606.771	10075
607.128	10154.32
607.485	10000.2
607.843	10089.01
608.2	10146.19
608.557	10218.28
608.914	10099.18
609.272	10226.86
609.629	10238.16
609.986	10246.52
610.343	10181.89
610.7	10333.3
611.057	10205.17
611.414	10191.38
611.771	10223.47
612.127	10264.83
612.484	10205.17
612.841	10332.17
613.198	10209.24
613.554	10237.49
613.911	10321.1
614.267	10249.01
614.624	10253.3
614.98	10256.02
615.337	10399.06
615.693	10312.06
616.05	10284.94
616.406	10320.87
616.762	10356.13
617.118	10293.75
617.475	10342.34
617.831	10381.66
618.187	10425.28
618.543	10394.09
618.899	10483.13
619.255	10424.6
619.611	10459.85
619.967	10439.51
620.323	10502.11
620.678	10440.64
621.034	10387.09
621.39	10442.45
621.746	10364.71
622.101	10516.35
622.457	10399.29
622.812	10490.59
623.168	10425.05
623.523	10416.92
623.879	10496.46
624.234	10414.2
624.589	10483.13
624.945	10481.32
625.3	10528.32
625.655	10451.94
626.01	10445.84
626.365	10474.99
626.72	10451.94
627.075	10440.19
627.43	10386.41
627.785	10404.94
628.14	10377.37
628.495	10510.7
628.85	10381.21
629.205	10376.69
629.559	10422.34
629.914	10393.87
630.269	10387.31
630.623	10368.33
630.978	10337.37
631.332	10350.93
631.687	10356.8
632.041	10247.88
632.396	10349.35
632.75	10319.52
633.104	10296.47
633.459	10279.97
633.813	10225.06
634.167	10297.14
634.521	10271.38
634.875	10230.48
635.229	10181.89
635.583	10183.7
635.937	10183.7
636.291	10161.55
636.645	10177.15
636.999	10135.57
637.352	10181.22
637.706	10063.48
638.06	10078.62
638.413	10101.67
638.767	10100.09
639.121	10133.31
639.474	10109.8
639.828	10030.94
640.181	10051.05
640.534	10049.24
640.888	10025.74
641.241	9945.29
641.594	9926.08
641.947	10079.07
642.301	9959.98
642.654	9988
643.007	9978.06
643.36	9907.1
643.713	10037.04
644.066	9999.75
644.419	9926.76
644.771	9860.77
645.124	9766.76
645.477	9718.4
645.83	9710.95
646.182	9643.6
646.535	9587.11
646.888	9631.4
647.24	9588.91
647.593	9616.03
647.945	9544.17
648.298	9540.1
648.65	9502.82
649.002	9566.77
649.355	9606.77
649.707	9626.88
650.059	9620.78
650.411	9709.14
650.763	9704.84
651.115	9839.76
651.467	9762.7
651.819	9781
652.171	9802.47
652.523	9751.62
652.875	9789.81
653.227	9710.04
653.578	9825.07
653.93	9723.83
654.282	9712.98
654.633	9612.87
654.985	9655.81
655.337	9696.93
655.688	9729.02
656.039	9715.46
656.391	9676.82
656.742	9709.59
657.094	9656.94
657.445	9745.52
657.796	9700.78
658.147	9667.33
658.498	9623.94
658.849	9683.6
659.2	9687.22
659.551	9717.05
659.902	9700.78
660.253	9680.89
660.604	9762.7
660.955	9700.32
661.306	9779.87
661.656	9666.2
662.007	9686.31
662.358	9701.68
662.708	9618.07
663.059	9691.28
663.409	9656.71
663.76	9668.91
664.11	9713.43
664.461	9682.02
664.811	9671.85
665.161	9715.92
665.511	9664.17
665.862	9691.96
666.212	9688.8
666.562	9701.45
666.912	9660.78
667.262	9601.12
667.612	9650.38
667.962	9702.81
668.312	9641.34
668.662	9729.93
669.011	9670.72
669.361	9617.61
669.711	9694.67
670.06	9587.56
670.41	9660.55
670.76	9626.88
671.109	9641.57
671.459	9572.42
671.808	9617.84
672.157	9602.47
672.507	9490.16
672.856	9593.66
673.205	9590.04
673.554	9670.04
673.904	9558.63
674.253	9649.7
674.602	9531.06
674.951	9461.46
675.3	9372.88
675.649	9523.38
675.998	9514.34
676.346	9542.36
676.695	9467.79
677.044	9445.87
677.393	9489.93
677.741	9503.04
678.09	9481.35
678.438	9498.97
678.787	9469.82
679.135	9440.67
679.484	9376.49
679.832	9398.86
680.181	9362.93
680.529	9389.37
680.877	9405.19
681.225	9348.47
681.573	9404.74
681.922	9323.16
682.27	9309.83
682.618	9294.23
682.966	9237.96
683.314	9306.44
683.661	9299.2
684.009	9136.95
684.357	9197.51
684.705	9165.65
685.053	9187.57
685.4	9143.73
685.748	9083.84
686.095	9078.65
686.443	9142.6
686.79	9029.83
687.138	9111.19
687.485	9033
687.832	8985.54
688.18	9053.11
688.527	8953.45
688.874	8928.59
689.221	8953.9
689.568	8877.29
689.915	8865.54
690.262	8880.91
690.609	8884.53
690.956	8817.64
691.303	8803.4
691.65	8687.02
691.997	8752.33
692.344	8724.53
692.69	8668.71
693.037	8639.33
693.383	8616.74
693.73	8675.49
694.077	8591.65
694.423	8531.09
694.769	8525.89
695.116	8523.41
695.462	8510.98
695.808	8439.34
696.155	8528.15
696.501	8426.46
696.847	8481.83
697.193	8320.02
697.539	8367.03
697.885	8357.53
698.231	8270.53
698.577	8242.96
698.923	8266.24
699.269	8148.5
699.614	8194.37
699.96	8194.37
700.306	8134.26
700.651	8087.94
700.997	8035.74
701.342	8121.38
701.688	8008.62
702.033	8029.41
702.379	8023.76
702.724	7980.37
703.069	7971.56
703.415	7923.65
703.76	7887.49
704.105	7838.45
704.45	7861.5
704.795	7831.45
705.14	7806.14
705.485	7807.72
705.83	7759.13
706.175	7722.97
706.52	7701.05
706.865	7663.54
707.209	7641.17
707.554	7663.09
707.899	7657.89
708.243	7666.48
708.588	7620.15
708.932	7522.3
709.277	7530.44
709.621	7562.75
709.966	7525.69
710.31	7497.44
710.654	7395.98
710.998	7450.89
711.342	7450.44
711.687	7430.55
712.031	7319.37
712.375	7353.49
712.719	7321.18
713.063	7345.81
713.407	7398.24
713.75	7329.09
714.094	7277.11
714.438	7268.3
714.782	7307.39
715.125	7306.49
715.469	7323.89
715.812	7240.5
716.156	7175.42
716.499	7234.63
716.843	7203.44
717.186	7112.14
717.53	7203.67
717.873	7222.88
718.216	7106.72
718.559	7124.12
718.902	7076.89
719.246	7113.73
719.589	7070.56
719.932	7074.4
720.275	7057.46
720.617	7095.19
720.96	7028.98
721.303	7033.73
721.646	7015.42
721.989	6997.12
722.331	6980.17
722.674	6982.88
723.016	6934.97
723.359	6991.92
723.701	6967.97
724.044	6984.01
724.386	6922.32
724.729	7029.43
725.071	6933.39
725.413	6937.68
725.755	6949.89
726.097	6915.99
726.439	6911.92
726.782	6917.57
727.124	6922.09
727.465	6839.38
727.807	6916.22
728.149	6918.48
728.491	6834.86
728.833	6859.27
729.175	6843.45
729.516	6848.42
729.858	6805.03
730.199	6838.25
730.541	6838.48
730.882	6845.03
731.224	6886.61
731.565	6795.09
731.906	6813.39
732.248	6824.69
732.589	6788.54
732.93	6783.56
733.271	6809.33
733.612	6831.25
733.953	6807.52
734.294	6758.03
734.635	6748.09
734.976	6785.15
735.317	6789.44
735.658	6724.36
735.999	6779.5
736.339	6785.37
736.68	6762.32
737.021	6713.06
737.361	6751.93
737.702	6777.01
738.042	6770.46
738.383	6772.04
738.723	6770.46
739.063	6731.14
739.404	6821.08
739.744	6807.97
740.084	6779.27
740.424	6807.07
740.764	6776.33
741.104	6861.98
741.444	6762.32
741.784	6726.84
742.124	6832.83
742.464	6833.05
742.804	6832.6
743.143	6785.15
743.483	6843
743.823	6854.07
744.162	6859.04
744.502	6867.18
744.841	6895.2
745.181	6963.22
745.52	6920.06
745.86	6937.46
746.199	6903.11
746.538	7019.04
746.877	6960.96
747.216	7009.55
747.556	7059.04
747.895	7058.36
748.234	7058.36
748.573	7082.77
748.911	7087.29
749.25	7144.01
749.589	7213.61
749.928	7223.55
750.267	7269.43
750.605	7326.6
750.944	7292.93
751.283	7410.21
751.621	7435.98
751.96	7468.97
752.298	7519.36
752.636	7583.32
752.975	7591.23
753.313	7656.08
753.651	7710.09
753.989	7716.87
754.327	7835.29
754.666	7854.5
755.004	7955.29
755.342	8066.47
755.679	8067.15
756.017	8171.32
756.355	8279.12
756.693	8367.93
757.031	8397.76
757.368	8398.21
757.706	8492.22
758.044	8627.58
758.381	8719.11
758.719	8807.24
759.056	8984.18
759.394	8907.58
759.731	9042.26
760.068	9128.36
760.405	9208.13
760.743	9237.06
761.08	9417.85
761.417	9493.55
761.754	9606.32
762.091	9664.62
762.428	9697.16
762.765	9738.74
763.102	9962.01
763.438	9934.67
763.775	10019.41
764.112	10185.28
764.449	10292.62
764.785	10304.15
765.122	10302.12
765.458	10447.88
765.795	10540.3
766.131	10580.53
766.467	10683.12
766.804	10816.9
767.14	10758.6
