Data from hue_34_FLMS001491_00058.txt Node
Date: Tue Feb 07 17:25:50 GMT 2017
User: dcchb
Spectrometer: FLMS00149
Trigger mode: 0
Integration Time (sec): 2.000000E-2
Scans to average: 10
Electric dark correction enabled: true
Nonlinearity correction enabled: false
Boxcar width: 0
XAxis mode: Wavelengths
Number of Pixels in Spectrum: 2048
>>>>>Begin Spectral Data<<<<<
341.393	2.18
341.776	2.18
342.16	2.18
342.543	-53.64
342.927	-62.23
343.31	-68.56
343.693	-78.27
344.077	-72.4
344.46	-40.31
344.843	-41.89
345.226	-38.5
345.61	-25.85
345.993	-17.71
346.376	-9.35
346.759	0.37
347.142	12.8
347.525	43.3
347.908	36.98
348.291	93.92
348.674	100.25
349.057	105.22
349.44	121.95
349.823	148.16
350.206	161.72
350.588	201.04
350.971	230.87
351.354	241.04
351.737	251.21
352.119	266.57
352.502	272.9
352.884	256.18
353.267	286.91
353.65	297.53
354.032	292.11
354.414	303.64
354.797	319.91
355.179	305.67
355.562	312.68
355.944	357.42
356.326	318.32
356.709	360.58
357.091	354.48
357.473	345.44
357.855	349.06
358.238	350.41
358.62	353.13
359.002	354.03
359.384	340.92
359.766	337.99
360.148	351.77
360.53	343.64
360.912	331.21
361.294	328.72
361.676	341.38
362.057	337.99
362.439	336.18
362.821	341.38
363.203	323.07
363.584	322.84
363.966	330.98
364.348	318.78
364.729	326.91
365.111	307.48
365.493	324.88
365.874	309.74
366.256	324.43
366.637	315.61
367.019	317.87
367.4	322.84
367.781	320.58
368.163	301.38
368.544	312.45
368.925	321.94
369.306	318.78
369.688	314.26
370.069	326.91
370.45	317.87
370.831	320.36
371.212	309.74
371.593	326.91
371.974	313.58
372.355	323.75
372.736	313.58
373.117	305.67
373.498	334.14
373.879	322.62
374.26	315.61
374.641	314.94
375.021	333.01
375.402	318.32
375.783	319
376.163	344.09
376.544	307.25
376.925	332.34
377.305	332.34
377.686	337.53
378.066	320.13
378.447	336.86
378.827	329.62
379.208	336.63
379.588	325.1
379.968	337.31
380.349	326.46
380.729	339.57
381.109	349.74
381.489	341.6
381.87	336.4
382.25	316.52
382.63	341.38
383.01	358.32
383.39	352.67
383.77	348.15
384.15	337.76
384.53	334.82
384.91	356.06
385.29	372.33
385.67	375.72
386.049	342.73
386.429	363.52
386.809	337.31
387.189	347.02
387.568	373.69
387.948	372.11
388.328	359.45
388.707	335.27
389.087	361.71
389.466	362.39
389.846	373.24
390.225	357.65
390.605	371.43
390.984	381.83
391.363	360.58
391.743	368.95
392.122	357.19
392.501	368.72
392.881	354.71
393.26	383.18
393.639	395.84
394.018	360.13
394.397	365.1
394.776	379.11
395.155	386.57
395.534	370.08
395.913	386.8
396.292	409.17
396.671	412.11
397.05	405.1
397.429	380.7
397.808	392.67
398.186	390.19
398.565	386.12
398.944	394.71
399.323	378.89
399.701	416.18
400.08	448.27
400.458	419.34
400.837	401.49
401.215	406.23
401.594	401.71
401.972	414.59
402.351	381.15
402.729	388.38
403.107	404.65
403.486	414.37
403.864	411.43
404.242	415.05
404.62	410.53
404.999	412.79
405.377	409.85
405.755	429.51
406.133	418.66
406.511	428.6
406.889	410.98
407.267	437.42
407.645	432.22
408.023	435.16
408.401	419.34
408.779	424.76
409.156	444.65
409.534	429.96
409.912	443.97
410.29	474.71
410.667	479
411.045	452.33
411.422	455.27
411.8	465.44
412.178	445.78
412.555	481.03
412.933	452.78
413.31	471.54
413.687	490.3
414.065	478.32
414.442	468.38
414.819	505.21
415.197	479.68
415.574	493.01
415.951	475.16
416.328	503.86
416.705	510.86
417.082	502.95
417.46	504.53
417.837	506.57
418.214	511.09
418.591	504.31
418.967	506.12
419.344	524.2
419.721	510.86
420.098	520.81
420.475	511.54
420.852	517.64
421.228	533.01
421.605	553.8
421.982	523.29
422.358	522.39
422.735	554.25
423.111	541.14
423.488	563.74
423.864	548.6
424.241	573.91
424.617	554.93
424.994	572.1
425.37	566.23
425.746	528.71
426.123	580.69
426.499	557.41
426.875	591.54
427.251	594.02
427.627	609.39
428.003	592.89
428.379	571.65
428.756	582.27
429.132	613.91
429.507	607.13
429.883	612.33
430.259	630.41
430.635	606
431.011	616.62
431.387	634.02
431.763	662.04
432.138	660.24
432.514	654.36
432.89	643.97
433.265	646
433.641	647.36
434.016	690.29
434.392	678.09
434.767	655.27
435.143	694.81
435.518	679.67
435.894	685.32
436.269	695.26
436.644	702.72
437.02	721.48
437.395	695.94
437.77	721.25
438.145	714.92
438.52	714.47
438.895	716.73
439.271	729.39
439.646	781.14
440.021	763.96
440.395	748.82
440.77	755.38
441.145	758.09
441.52	758.31
441.895	761.03
442.27	776.39
442.645	767.13
443.019	769.61
443.394	767.58
443.769	785.43
444.143	778.2
444.518	797.41
444.892	777.52
445.267	787.47
445.641	798.54
446.016	829.5
446.39	818.42
446.764	829.5
447.139	813.23
447.513	812.78
447.887	861.36
448.262	832.44
448.636	827.24
449.01	837.63
449.384	837.63
449.758	850.74
450.132	865.43
450.506	881.25
450.88	873.11
451.254	889.16
451.628	871.76
452.002	876.73
452.376	905.88
452.75	912.66
453.123	900.68
453.497	925.99
453.871	907.46
454.244	946.56
454.618	937.74
454.992	956.73
455.365	984.07
455.739	979.32
456.112	963.96
456.486	977.97
456.859	997.18
457.232	1016.84
457.606	996.05
457.979	1021.58
458.352	1020.45
458.725	1043.05
459.099	1043.05
459.472	1071.98
459.845	1089.83
460.218	1092.54
460.591	1101.58
460.964	1123.5
461.337	1113.33
461.71	1137.06
462.083	1127.57
462.456	1146.1
462.829	1163.95
463.201	1177.06
463.574	1172.09
463.947	1220
464.32	1236.72
464.692	1215.7
465.065	1226.55
465.438	1272.88
465.81	1284.63
466.183	1293.67
466.555	1330.73
466.928	1303.61
467.3	1334.12
467.672	1343.38
468.045	1396.94
468.417	1399.65
468.789	1423.15
469.161	1423.15
469.534	1433.32
469.906	1481.01
470.278	1483.94
470.65	1513.1
471.022	1545.64
471.394	1567.78
471.766	1591.29
472.138	1605.52
472.51	1634
472.882	1673.54
473.253	1695.24
473.625	1744.73
473.997	1796.48
474.369	1788.34
474.74	1841.45
475.112	1876.7
475.484	1912.63
475.855	1903.82
476.227	1956.47
476.598	2013.2
476.97	2055.91
477.341	2110.82
477.713	2135.45
478.084	2157.82
478.455	2238.95
478.827	2286.86
479.198	2373.41
479.569	2374.99
479.94	2470.13
480.311	2483.92
480.682	2611.37
481.053	2640.52
481.424	2709.45
481.795	2770.69
482.166	2806.4
482.537	2866.05
482.908	2963.23
483.279	3008.65
483.65	3069.44
484.021	3219.49
484.391	3248.19
484.762	3320.05
485.133	3307.85
485.503	3463.78
485.874	3584
486.244	3625.58
486.615	3657.22
486.985	3769.53
487.356	3863.54
487.726	3955.29
488.097	4044.55
488.467	4105.12
488.837	4177.21
489.207	4293.36
489.578	4411.32
489.948	4489.74
490.318	4539.68
490.688	4645.22
491.058	4748.04
491.428	4807.02
491.798	4847.47
492.168	5013.79
492.538	5111.87
492.908	5142.38
493.278	5322.71
493.648	5262.83
494.017	5440
494.387	5515.02
494.757	5622.59
495.126	5705.53
495.496	5710.05
495.866	5793.66
496.235	5920.66
496.605	5996.14
496.974	6062.35
497.344	6129.47
497.713	6198.62
498.082	6284.95
498.452	6359.75
498.821	6431.84
499.19	6464.83
499.559	6557.48
499.928	6689.91
500.298	6686.07
500.667	6829.57
501.036	6791.6
501.405	6905.04
501.774	6936
502.143	7045.61
502.512	7108.88
502.88	7199.5
503.249	7245.83
503.618	7300.06
503.987	7286.5
504.356	7409.21
504.724	7451.24
505.093	7507.06
505.462	7571.02
505.83	7724.68
506.199	7756.1
506.567	7726.72
506.936	7821.4
507.304	7901.4
507.672	7963.1
508.041	8004.9
508.409	8062.08
508.777	8178.46
509.145	8229.98
509.514	8178.23
509.882	8312.92
510.25	8340.26
510.618	8370.99
510.986	8500.71
511.354	8536.41
511.722	8610.99
512.09	8627.94
512.458	8688.5
512.826	8686.69
513.193	8818.44
513.561	8790.87
513.929	8888.5
514.297	8988.83
514.664	9024.76
515.032	9104.99
515.4	9182.05
515.767	9147.92
516.135	9222.5
516.502	9262.5
516.869	9334.81
517.237	9388.82
517.604	9348.14
517.972	9459.55
518.339	9462.94
518.706	9596.05
519.073	9556.27
519.44	9601.7
519.808	9687.12
520.175	9717.63
520.542	9849.15
520.909	9915.13
521.276	9911.97
521.643	9961.69
522.009	10041.69
522.376	10095.24
522.743	10107.67
523.11	10276.03
523.477	10333.65
523.843	10360.77
524.21	10453.2
524.577	10526.42
524.943	10497.72
525.31	10619.07
525.676	10735
526.043	10741.55
526.409	10820.2
526.776	10855.68
527.142	10831.04
527.508	11053.41
527.874	11077.59
528.241	11122.56
528.607	11171.15
528.973	11271.94
529.339	11265.38
529.705	11400.52
530.071	11529.33
530.437	11547.63
530.803	11631.47
531.169	11585.6
531.535	11655.65
531.901	11712.83
532.267	11703.79
532.632	11787.63
532.998	11843.9
533.364	11970.9
533.73	12020.39
534.095	12094.06
534.461	12103.78
534.826	12180.16
535.192	12190.56
535.557	12367.73
535.923	12322.98
536.288	12418.8
536.653	12375.64
537.019	12316.2
537.384	12478.91
537.749	12532.92
538.114	12575.86
538.479	12598.91
538.845	12730.65
539.21	12714.61
539.575	12736.98
539.94	12821.5
540.305	12915.28
540.67	12819.69
541.034	12896.98
541.399	12983.3
541.764	13026.69
542.129	13108.27
542.494	13146.46
542.858	13171.09
543.223	13240.7
543.587	13256.29
543.952	13289.28
544.316	13433.46
544.681	13399.34
545.045	13514.36
545.41	13503.97
545.774	13551.42
546.138	13626.68
546.503	13728.37
546.867	13728.82
547.231	13773.79
547.595	13789.84
547.959	13940.57
548.324	13909.38
548.688	13939.21
549.052	14059.43
549.416	13993.67
549.779	14074.35
550.143	14116.15
550.507	14208.58
550.871	14293.78
551.235	14294
551.599	14430.95
551.962	14408.58
552.326	14471.4
552.689	14526.99
553.053	14473.43
553.417	14522.7
553.78	14722.69
554.143	14714.56
554.507	14684.73
554.87	14729.47
555.234	14880.88
555.597	14905.06
555.96	14853.31
556.323	14936.25
556.686	15004.72
557.05	15137.82
557.413	15110.93
557.776	15169.91
558.139	15274.54
558.502	15259.63
558.865	15330.13
559.228	15433.63
559.59	15513.86
559.953	15445.16
560.316	15571.48
560.679	15652.84
561.041	15712.95
561.404	15862.55
561.767	15815.32
562.129	15812.38
562.492	15917.69
562.854	15923.34
563.217	15939.61
563.579	15968.31
563.941	16144.8
564.304	16219.6
564.666	16224.57
565.028	16332.14
565.39	16373.72
565.753	16463.21
566.115	16446.04
566.477	16533.49
566.839	16622.76
567.201	16681.28
567.563	16681.06
567.925	16782.3
568.287	16786.59
568.648	16888.06
569.01	16937.32
569.372	17196.98
569.734	16983.88
570.095	17168.96
570.457	17265.22
570.819	17362.85
571.18	17354.94
571.542	17432
571.903	17550.87
572.265	17546.12
572.626	17628.6
572.987	17728.71
573.349	17806.23
573.71	17846.9
574.071	17947.69
574.432	18041.93
574.794	18217.97
575.155	18307.23
575.516	18300.9
575.877	18357.17
576.238	18492.76
576.599	18638.3
576.96	18737.73
577.32	18812.75
577.681	18948.34
578.042	19117.15
578.403	19238.51
578.763	19248.22
579.124	19470.59
579.485	19557.59
579.845	19784.03
580.206	19819.28
580.566	20046.62
580.927	20219.5
581.287	20371.81
581.648	20511.24
582.008	20754.17
582.368	20752.36
582.728	20986.26
583.089	21130.66
583.449	21218.11
583.809	21551.66
584.169	21795.5
584.529	21877.76
584.889	22285.2
585.249	22323.62
585.609	22411.76
585.969	22824.17
586.329	22984.4
586.688	23163.6
587.048	23360.88
587.408	23434.55
587.768	23696.02
588.127	24045.84
588.487	24097.59
588.846	24554.75
589.206	24533.96
589.565	24850.11
589.925	25102.31
590.284	25344.56
590.643	25628.85
591.003	25848.5
591.362	26189.51
591.721	26419.79
592.08	26554.02
592.44	26981.35
592.799	27187.67
593.158	27363.72
593.517	27629.02
593.876	27938.62
594.235	27928.45
594.593	28278.49
594.952	28645.49
595.311	28845.48
595.67	29008.19
596.029	29612.7
596.387	29753.48
596.746	29987.15
597.104	30012.46
597.463	30333.81
597.822	30608.83
598.18	30787.81
598.538	30989.16
598.897	31391.41
599.255	31281.8
599.613	31844.28
599.972	31912.07
600.33	32311.16
600.688	32413.3
601.046	32638.15
601.404	32876.56
601.762	32976.68
602.12	33265.03
602.478	33502.99
602.836	33763.32
603.194	33623.66
603.552	33992.24
603.91	34030.43
604.268	34371.67
604.625	34445.79
604.983	34782.73
605.341	34917.19
605.698	35163.28
606.056	35317.4
606.413	35493.45
606.771	35682.14
607.128	35811.18
607.485	35890.72
607.843	36215.69
608.2	36432.86
608.557	36473.31
608.914	36725.73
609.272	36959.62
609.629	37088.66
609.986	37400.74
610.343	37294.98
610.7	37662.65
611.057	37793.27
611.414	37864.23
611.771	38075.98
612.127	38138.35
612.484	38428.74
612.841	38555.74
613.198	38560.94
613.554	38688.16
613.911	38919.34
614.267	38984.43
614.624	39189.62
614.98	39353.46
615.337	39452.66
615.693	39539.21
616.05	39550.97
616.406	39918.19
616.762	39892.2
617.118	39954.12
617.475	39915.25
617.831	40219.87
618.187	40179.88
618.543	40405.86
618.899	40685.4
619.255	40669.13
619.611	40537.61
619.967	40897.37
620.323	41075.67
620.678	40863.02
621.034	40889.01
621.39	41007.42
621.746	40968.33
622.101	41439.96
622.457	41234.09
622.812	41450.12
623.168	41486.51
623.523	41556.79
623.879	41787.52
624.234	41508.65
624.589	41758.59
624.945	41797.46
625.3	41889.89
625.655	41828.65
626.01	41990.68
626.365	42012.82
626.72	41993.61
627.075	41947.29
627.43	41964.91
627.785	42024.35
628.14	42047.62
628.495	42263.44
628.85	42200.39
629.205	42112.93
629.559	42399.48
629.914	42022.99
630.269	42393.38
630.623	42180.73
630.978	42083.55
631.332	42286.04
631.687	42375.3
632.041	42412.59
632.396	42400.61
632.75	42220.05
633.104	42288.07
633.459	42159.94
633.813	42227.96
634.167	42150.9
634.521	42204.23
634.875	42253.49
635.229	42274.28
635.583	42211.01
635.937	42153.61
636.291	42237.9
636.645	42116.77
636.999	42256.43
637.352	42309.54
637.706	42060.28
638.06	42214.4
638.413	42055.08
638.767	42013.95
639.121	42194.06
639.474	41912.49
639.828	42002.65
640.181	42080.62
640.534	41973.5
640.888	41916.55
641.241	41809.44
641.594	41936.44
641.947	41993.84
642.301	41923.56
642.654	41994.29
643.007	41914.52
643.36	41947.51
643.713	41806.5
644.066	41942.32
644.419	41681.53
644.771	41537.81
645.124	41101.66
645.477	40996.58
645.83	40819.41
646.182	40705.96
646.535	40659.64
646.888	40779.63
647.24	40479.75
647.593	40666.64
647.945	40788.67
648.298	40559.98
648.65	40444.05
649.002	40283.38
649.355	40513.88
649.707	40486.31
650.059	40599.98
650.411	41113.18
650.763	41085.84
651.115	41468.88
651.467	41380.07
651.819	41422.55
652.171	41265.27
652.523	41253.52
652.875	41305.72
653.227	41023.47
653.578	41288.32
653.93	41321.77
654.282	41152.73
654.633	40939.18
654.985	41074.99
655.337	41281.09
655.688	41206.29
656.039	41196.12
656.391	41051.04
656.742	41022.79
657.094	41082
657.445	41152.73
657.796	41085.84
658.147	41020.53
658.498	40866.64
658.849	40993.64
659.2	40892.4
659.551	40807.66
659.902	40998.61
660.253	40831.61
660.604	40984.15
660.955	40783.25
661.306	40985.73
661.656	40840.42
662.007	40902.12
662.358	40919.97
662.708	40856.92
663.059	40694.66
663.409	40580.77
663.76	40804.04
664.11	40771.05
664.461	40809.92
664.811	40849.46
665.161	40915.68
665.511	40770.82
665.862	40733.08
666.212	40780.54
666.562	40996.13
666.912	40595.46
667.262	40585.51
667.612	40622.35
667.962	40762.23
668.312	40720.65
668.662	40994.54
669.011	40797.26
669.361	40723.59
669.711	40811.27
670.06	40645.17
670.41	40561.56
670.76	40528.34
671.109	40729.69
671.459	40631.39
671.808	40506.19
672.157	40745.74
672.507	40364.5
672.856	40508.45
673.205	40510.04
673.554	40589.13
673.904	40472.75
674.253	40740.09
674.602	40521.79
674.951	39942.82
675.3	39795.71
675.649	40316.82
675.998	40379.19
676.346	40221.68
676.695	40386.2
677.044	40159.76
677.393	40215.81
677.741	40346.43
678.09	40168.35
678.438	40065.08
678.787	40098.52
679.135	40249.7
679.484	39821.92
679.832	40076.15
680.181	39952.76
680.529	40036.15
680.877	39805.87
681.225	39826.89
681.573	40229.59
681.922	39777.63
682.27	39837.74
682.618	39631.87
682.966	39626.9
683.314	39701.02
683.661	39544.64
684.009	39404.53
684.357	39320.01
684.705	39245.89
685.053	39486.56
685.4	39378.99
685.748	39003.41
686.095	39112.11
686.443	39014.03
686.79	38935.16
687.138	39119.11
687.485	38806.13
687.832	38857.42
688.18	38862.85
688.527	38500.37
688.874	38727.03
689.221	38527.49
689.568	38407.04
689.915	38475.06
690.262	38399.36
690.609	38229.87
690.956	38139.48
691.303	38038.46
691.65	37999.59
691.997	37935.41
692.344	37686.83
692.69	37612.49
693.037	37624.24
693.383	37295.21
693.73	37453.85
694.077	37253.62
694.423	37267.86
694.769	37131.59
695.116	37155.77
695.462	37081.2
695.808	36914.88
696.155	37129.79
696.501	36727.54
696.847	36781.55
697.193	36523.25
697.539	36828.78
697.885	36302.24
698.231	36374.33
698.577	36341.11
698.923	36259.75
699.269	36139.53
699.614	35860.67
699.96	35816.6
700.306	35923.49
700.651	35720.11
700.997	35650.05
701.342	35678.75
701.688	35485.76
702.033	35460.23
702.379	35547.23
702.724	35312.43
703.069	35269.27
703.415	34779.11
703.76	34926.45
704.105	34991.99
704.45	34788.83
704.795	34740.92
705.14	34610.3
705.485	34674.26
705.83	34509.29
706.175	34473.81
706.52	34446.24
706.865	34314.49
707.209	34194.95
707.554	34003.54
707.899	34175.06
708.243	34018.68
708.588	33894.17
708.932	33714.73
709.277	33784.34
709.621	33831.57
709.966	33562.65
710.31	33680.39
710.654	33196.33
710.998	33344.58
711.342	33330.79
711.687	33263.22
712.031	33117.69
712.375	33036.33
712.719	33090.57
713.063	32912.04
713.407	32988.88
713.75	32867.07
714.094	32916.56
714.438	32586.4
714.782	32684.03
715.125	32562.22
715.469	32638.15
715.812	32551.15
716.156	32373.53
716.499	32332.17
716.843	32350.25
717.186	32083.59
717.53	32445.62
717.873	32335.11
718.216	32045.63
718.559	32030.71
718.902	31939.41
719.246	32070.71
719.589	31879.08
719.932	31792.53
720.275	31727.22
720.617	31610.16
720.96	31624.62
721.303	31479.31
721.646	31591.63
721.989	31301.69
722.331	31453.78
722.674	31343.05
723.016	31460.33
723.359	31368.36
723.701	31391.18
724.044	31193.45
724.386	30901.7
724.729	31257.85
725.071	31119.77
725.413	31137.18
725.755	30971.98
726.097	30955.71
726.439	30638.21
726.782	30849.73
727.124	30898.09
727.465	30757.3
727.807	30687.24
728.149	30589.17
728.491	30618.77
728.833	30731.31
729.175	30417.42
729.516	30444.76
729.858	30428.04
730.199	30426.46
730.541	30325.67
730.882	30141.27
731.224	30255.84
731.565	30122.06
731.906	30216.97
732.248	30158.44
732.589	30138.56
732.93	29895.4
733.271	29873.03
733.612	30021.05
733.953	29942.86
734.294	29814.27
734.635	29736.99
734.976	29938.11
735.317	29685.91
735.658	29528.63
735.999	29606.82
736.339	29569.31
736.68	29627.84
737.021	29474.62
737.361	29334.51
737.702	29438.92
738.042	29267.85
738.383	29421.97
738.723	29450.44
739.063	29266.94
739.404	29344.68
739.744	29111.01
740.084	29162.54
740.424	29172.48
740.764	29083.9
741.104	29234.17
741.444	28984.69
741.784	28912.83
742.124	28987.18
742.464	28924.8
742.804	28858.59
743.143	28831.47
743.483	28860.4
743.823	28655.21
744.162	28734.53
744.502	28708.76
744.841	28543.8
745.181	28696.34
745.52	28540.18
745.86	28656.79
746.199	28525.27
746.538	28537.7
746.877	28487.08
747.216	28384.03
747.556	28336.57
747.895	28348.32
748.234	28200.98
748.573	28160.08
748.911	28135.67
749.25	28050.25
749.589	27984.72
749.928	27947.65
750.267	27914.89
750.605	27775.46
750.944	27756.47
751.283	27739.98
751.621	27786.3
751.96	27644.39
752.298	27623.6
752.636	27637.15
752.975	27398.29
753.313	27360.33
753.651	27603.26
753.989	27301.8
754.327	27309.03
754.666	27184.74
755.004	27283.94
755.342	27275.81
755.679	27192.19
756.017	27069.49
756.355	27114.23
756.693	26950.62
757.031	26952.65
757.368	26810.74
757.706	26687.58
