Data from hue_230_FLMS001491_00079.txt Node
Date: Tue Feb 07 16:37:44 GMT 2017
User: dcchb
Spectrometer: FLMS00149
Trigger mode: 0
Integration Time (sec): 2.000000E-2
Scans to average: 10
Electric dark correction enabled: true
Nonlinearity correction enabled: false
Boxcar width: 0
XAxis mode: Wavelengths
Number of Pixels in Spectrum: 2048
>>>>>Begin Spectral Data<<<<<
341.393	-2.27
341.776	-2.27
342.16	-2.27
342.543	-56.06
342.927	-66.45
343.31	-102.84
343.693	-86.79
344.077	-59
344.46	-72.1
344.843	-60.58
345.226	-46.34
345.61	-24.65
345.993	-14.93
346.376	24.84
346.759	11.51
347.142	33.66
347.525	39.53
347.908	63.26
348.291	76.82
348.674	108.46
349.057	109.14
349.44	134.22
349.823	126.76
350.206	169.92
350.588	197.04
350.971	193.2
351.354	190.94
351.737	221.9
352.119	232.97
352.502	239.98
352.884	245.63
353.267	254.22
353.65	270.94
354.032	280.43
354.414	299.86
354.797	310.49
355.179	295.8
355.562	324.5
355.944	321.33
356.326	324.5
356.709	315.01
357.091	313.65
357.473	326.76
357.855	319.75
358.238	339.86
358.62	332.63
359.002	343.71
359.384	320.66
359.766	342.58
360.148	308.45
360.53	326.53
360.912	336.7
361.294	319.07
361.676	320.66
362.057	304.61
362.439	325.63
362.821	320.66
363.203	321.33
363.584	335.57
363.966	313.2
364.348	306.64
364.729	330.37
365.111	327.43
365.493	307.1
365.874	309.36
366.256	305.06
366.637	316.59
367.019	306.64
367.4	322.92
367.781	290.6
368.163	306.64
368.544	307.55
368.925	303.03
369.306	303.03
369.688	305.97
370.069	289.92
370.45	289.02
370.831	309.58
371.212	311.62
371.593	292.63
371.974	300.32
372.355	299.19
372.736	297.38
373.117	311.84
373.498	303.25
373.879	307.1
374.26	307.77
374.641	323.59
375.021	323.37
375.402	318.4
375.783	306.42
376.163	304.61
376.544	311.62
376.925	324.72
377.305	323.59
377.686	318.4
378.066	306.42
378.447	314.78
378.827	315.23
379.208	328.34
379.588	324.27
379.968	327.43
380.349	327.66
380.729	333.08
381.109	328.56
381.489	329.92
381.87	326.53
382.25	319.53
382.63	333.76
383.01	336.02
383.39	324.72
383.77	330.82
384.15	336.02
384.53	331.28
384.91	366.3
385.29	326.3
385.67	319.75
386.049	342.8
386.429	343.48
386.809	342.12
387.189	332.41
387.568	352.07
387.948	341.9
388.328	339.64
388.707	357.49
389.087	351.62
389.466	362.46
389.846	349.13
390.225	366.98
390.605	346.42
390.984	348.9
391.363	346.87
391.743	333.08
392.122	370.15
392.501	343.71
392.881	366.98
393.26	357.49
393.639	362.46
394.018	367.89
394.397	360.43
394.776	355.46
395.155	368.34
395.534	379.86
395.913	406.98
396.292	374.67
396.671	382.12
397.05	386.19
397.429	387.32
397.808	408.11
398.186	388.68
398.565	390.71
398.944	393.65
399.323	405.85
399.701	390.94
400.08	418.96
400.458	406.53
400.837	404.72
401.215	407.43
401.594	401.11
401.972	423.03
402.351	400.2
402.729	419.86
403.107	403.14
403.486	419.18
403.864	413.31
404.242	417.38
404.62	408.79
404.999	418.73
405.377	420.99
405.755	426.87
406.133	446.98
406.511	444.72
406.889	444.27
407.267	467.54
407.645	460.76
408.023	457.83
408.401	444.04
408.779	456.02
409.156	478.62
409.534	475
409.912	482.46
410.29	492.18
410.667	510.48
411.045	481.78
411.422	502.8
411.8	516.81
412.178	529.69
412.555	511.16
412.933	513.19
413.31	551.16
413.687	542.57
414.065	527.2
414.442	568.56
414.819	557.26
415.197	561.78
415.574	576.69
415.951	580.76
416.328	564.72
416.705	575.56
417.082	611.04
417.46	608.11
417.837	630.48
418.214	617.37
418.591	617.14
418.967	619.63
419.344	647.65
419.721	662.57
420.098	651.49
420.475	668.22
420.852	671.61
421.228	687.65
421.605	700.98
421.982	721.77
422.358	719.74
422.735	722.68
423.111	696.01
423.488	717.26
423.864	713.87
424.241	753.19
424.617	760.64
424.994	754.77
425.37	789.8
425.746	781.66
426.123	786.41
426.499	805.16
426.875	801.55
427.251	837.7
427.627	824.6
428.003	840.64
428.379	849.23
428.756	877.25
429.132	868.44
429.507	887.87
429.883	897.59
430.259	907.31
430.635	918.61
431.011	909.57
431.387	957.02
431.763	949.11
432.138	959.51
432.514	986.17
432.89	968.32
433.265	1017.81
433.641	1012.61
434.016	1020.52
434.392	1031.6
434.767	1060.52
435.143	1074.53
435.518	1086.96
435.894	1129.67
436.269	1131.71
436.644	1142.55
437.02	1157.02
437.395	1180.07
437.77	1205.38
438.145	1213.29
438.52	1223.23
438.895	1247.64
439.271	1268.65
439.646	1301.87
440.021	1305.71
440.395	1282.21
440.77	1292.61
441.145	1286.28
441.52	1315.43
441.895	1346.39
442.27	1358.14
442.645	1398.37
443.019	1415.32
443.394	1397.46
443.769	1397.92
444.143	1391.81
444.518	1415.54
444.892	1433.39
445.267	1453.96
445.641	1473.17
446.016	1441.98
446.39	1486.5
446.764	1481.08
447.139	1458.93
447.513	1483.34
447.887	1500.74
448.262	1518.14
448.636	1526.5
449.01	1569.66
449.384	1552.71
449.758	1564.69
450.132	1597.91
450.506	1601.07
450.88	1619.83
451.254	1614.86
451.628	1608.76
452.002	1643.56
452.376	1653.05
452.75	1670.22
453.123	1705.25
453.497	1720.17
453.871	1697.57
454.244	1767.4
454.618	1773.72
454.992	1782.54
455.365	1799.71
455.739	1823.44
456.112	1824.57
456.486	1833.38
456.859	1873.38
457.232	1942.08
457.606	1901.4
457.979	1936.21
458.352	1985.02
458.725	1963.55
459.099	2005.58
459.472	2048.75
459.845	2063.43
460.218	2049.2
460.591	2083.09
460.964	2062.53
461.337	2145.47
461.71	2171.68
462.083	2189.76
462.456	2183.88
462.829	2195.18
463.201	2249.19
463.574	2222.75
463.947	2286.25
464.32	2295.29
464.692	2328.51
465.065	2308.17
465.438	2379.36
465.81	2418
466.183	2406.02
466.555	2485.57
466.928	2478.56
467.3	2478.11
467.672	2518.56
468.045	2574.16
468.417	2562.63
468.789	2587.71
469.161	2635.62
469.534	2700.25
469.906	2698.9
470.278	2739.35
470.65	2775.73
471.022	2814.15
471.394	2855.5
471.766	2876.97
472.138	2912.45
472.51	2952
472.882	3009.85
473.253	2973.47
473.625	3049.17
473.997	3135.04
474.369	3094.59
474.74	3168.04
475.112	3179.79
475.484	3240.58
475.855	3307.24
476.227	3310.18
476.598	3403.96
476.97	3428.37
477.341	3497.07
477.713	3545.2
478.084	3557.18
478.455	3621.13
478.827	3653.45
479.198	3707.68
479.569	3776.38
479.94	3865.87
480.311	3911.75
480.682	3914.91
481.053	4053.44
481.424	4056.15
481.795	4113.55
482.166	4167.33
482.537	4146.54
482.908	4297.95
483.279	4282.13
483.65	4382.47
484.021	4434.9
484.391	4495.69
484.762	4489.36
485.133	4572.75
485.503	4590.6
485.874	4704.49
486.244	4734.1
486.615	4793.53
486.985	4832.4
487.356	4967.31
487.726	4982
488.097	5041.44
488.467	5066.97
488.837	5141.55
489.207	5227.19
489.578	5284.37
489.948	5313.29
490.318	5366.4
490.688	5418.83
491.058	5444.59
491.428	5520.07
491.798	5584.7
492.168	5680.51
492.538	5645.04
492.908	5712.38
493.278	5779.95
493.648	5761.87
494.017	5876.22
494.387	5885.25
494.757	5930
495.126	5971.58
495.496	5983.78
495.866	6053.84
496.235	6101.52
496.605	6162.99
496.974	6148.3
497.344	6225.13
497.713	6228.75
498.082	6214.74
498.452	6334.51
498.821	6313.04
499.19	6336.99
499.559	6391.46
499.928	6429.87
500.298	6474.17
500.667	6493.37
501.036	6515.97
501.405	6538.35
501.774	6530.89
502.143	6591
502.512	6605.69
502.88	6670.32
503.249	6628.74
503.618	6713.26
503.987	6748.06
504.356	6720.71
504.724	6751.45
505.093	6772.92
505.462	6835.51
505.83	6836.87
506.199	6857.88
506.567	6915.74
506.936	6893.36
507.304	6949.86
507.672	6952.8
508.041	6979.69
508.409	7028.05
508.777	7052.91
509.145	7068.27
509.514	7066.69
509.882	7135.84
510.25	7109.18
510.618	7210.87
510.986	7172.68
511.354	7179.91
511.722	7225.78
512.09	7263.3
512.458	7270.3
512.826	7311.43
513.193	7341.04
513.561	7316.63
513.929	7369.51
514.297	7387.14
514.664	7379.23
515.032	7368.15
515.4	7443.86
515.767	7477.98
516.135	7503.74
516.502	7460.81
516.869	7588.49
517.237	7530.41
517.604	7502.61
517.972	7531.09
518.339	7517.08
518.706	7506.46
519.073	7611.09
519.44	7584.87
519.808	7709.84
520.175	7591.65
520.542	7706.68
520.909	7694.7
521.276	7741.93
521.643	7753.91
522.009	7733.57
522.376	7744.64
522.743	7769.73
523.11	7863.51
523.477	7802.72
523.843	7786.45
524.21	7897.41
524.577	7911.64
524.943	7899.44
525.31	7903.28
525.676	7974.47
526.043	8018.53
526.409	7992.54
526.776	7995.71
527.142	8001.81
527.508	8043.84
527.874	8091.3
528.241	8025.76
528.607	8075.71
528.973	8119.09
529.339	8034.12
529.705	8079.77
530.071	8096.27
530.437	8123.84
530.803	8141.92
531.169	8158.87
531.535	8114.57
531.901	8101.24
532.267	8133.33
532.632	8139.66
532.998	8123.84
533.364	8199.77
533.73	8182.14
534.095	8167.91
534.461	8208.58
534.826	8138.75
535.192	8192.09
535.557	8193.67
535.923	8218.07
536.288	8160.45
536.653	8187.34
537.019	8171.07
537.384	8145.76
537.749	8175.82
538.114	8170.62
538.479	8129.49
538.845	8149.38
539.21	8123.61
539.575	8092.43
539.94	8070.06
540.305	8071.19
540.67	8104.63
541.034	8115.25
541.399	8108.47
541.764	8044.75
542.129	8072.54
542.494	8077.51
542.858	8061.92
543.223	8058.98
543.587	8058.76
543.952	7978.99
544.316	7973.79
544.681	7966.1
545.045	8010.4
545.41	7983.05
545.774	8002.04
546.138	7957.06
546.503	8006.78
546.867	7967.69
547.231	8008.14
547.595	7931.3
547.959	7948.25
548.324	7958.87
548.688	7940.34
549.052	7892.89
549.416	7866.9
549.779	7902.6
550.143	7861.93
550.507	7897.63
550.871	7855.82
551.235	7826.45
551.599	7898.08
551.962	7833.9
552.326	7837.07
552.689	7807.01
553.053	7803.17
553.417	7838.42
553.78	7857.41
554.143	7815.15
554.507	7857.41
554.87	7781.25
555.234	7873.9
555.597	7802.04
555.96	7856.73
556.323	7846.33
556.686	7783.51
557.05	7804.53
557.413	7797.75
557.776	7774.7
558.139	7864.19
558.502	7795.71
558.865	7800.01
559.228	7852.43
559.59	7909.61
559.953	7872.32
560.316	7933.34
560.679	7898.99
561.041	7899.67
561.404	7897.86
561.767	7954.13
562.129	7855.6
562.492	7965.2
562.854	7947.8
563.217	7955.26
563.579	7974.47
563.941	7954.8
564.304	7956.16
564.666	8076.84
565.028	7973.11
565.39	8050.85
565.753	8022.37
566.115	8145.53
566.477	8108.7
566.839	8107.57
567.201	8126.1
567.563	8124.29
567.925	8248.58
568.287	8174.91
568.648	8183.27
569.01	8198.64
569.372	8189.6
569.734	8171.75
570.095	8282.71
570.457	8279.32
570.819	8282.48
571.18	8312.54
571.542	8316.6
571.903	8284.97
572.265	8313.67
572.626	8376.71
572.987	8402.02
573.349	8436.37
573.71	8413.78
574.071	8446.77
574.432	8431.63
574.794	8445.87
575.155	8501.68
575.516	8443.61
575.877	8471.85
576.238	8484.06
576.599	8550.72
576.96	8581
577.32	8603.15
577.681	8584.17
578.042	8637.27
578.403	8642.92
578.763	8736.71
579.124	8665.29
579.485	8695.35
579.845	8707.55
580.206	8696.71
580.566	8742.58
580.927	8699.64
581.287	8801.11
581.648	8795.46
582.008	8785.97
582.368	8796.59
582.728	8776.48
583.089	8853.54
583.449	8825.06
583.809	8842.24
584.169	8839.3
584.529	8842.01
584.889	8988.68
585.249	8874.78
585.609	8943.71
585.969	8964.72
586.329	8858.28
586.688	8879.75
587.048	8875.01
587.408	8922.46
587.768	8869.36
588.127	8871.62
588.487	8878.4
588.846	8992.29
589.206	8940.54
589.565	9030.48
589.925	8990.71
590.284	8976.7
590.643	9003.36
591.003	9013.99
591.362	9027.32
591.721	9050.6
592.08	9028.45
592.44	9030.26
592.799	9068.45
593.158	9063.7
593.517	9059.86
593.876	9123.59
594.235	9093.08
594.593	9120.2
594.952	9134.66
595.311	9080.65
595.67	9186.41
596.029	9163.13
596.387	9195.68
596.746	9163.81
597.104	9104.83
597.463	9154.55
597.822	9210.59
598.18	9133.98
598.538	9160.2
598.897	9206.98
599.255	9148.45
599.613	9320.87
599.972	9238.84
600.33	9254.88
600.688	9162.68
601.046	9218.05
601.404	9258.05
601.762	9251.95
602.12	9339.63
602.478	9358.38
602.836	9329.01
603.194	9255.34
603.552	9244.49
603.91	9275.9
604.268	9259.86
604.625	9225.73
604.983	9368.55
605.341	9220.76
605.698	9264.38
606.056	9337.14
606.413	9307.31
606.771	9309.8
607.128	9368.55
607.485	9273.41
607.843	9311.83
608.2	9354.32
608.557	9392.96
608.914	9363.13
609.272	9413.3
609.629	9419.85
609.986	9469.34
610.343	9357.71
610.7	9472.28
611.057	9458.72
611.414	9400.64
611.771	9470.47
612.127	9509.11
612.484	9465.5
612.841	9461.66
613.198	9402.22
613.554	9429.34
613.911	9538.27
614.267	9581.2
614.624	9535.55
614.98	9540.53
615.337	9494.65
615.693	9585.72
616.05	9518.38
616.406	9575.33
616.762	9530.13
617.118	9590.69
617.475	9561.32
617.831	9578.27
618.187	9627.08
618.543	9624.37
618.899	9623.69
619.255	9684.48
619.611	9628.43
619.967	9695.1
620.323	9643.57
620.678	9622.78
621.034	9683.35
621.39	9598.6
621.746	9624.14
622.101	9729.22
622.457	9663.23
622.812	9647.42
623.168	9744.81
623.523	9672.73
623.879	9666.4
624.234	9616.91
624.589	9693.06
624.945	9679.96
625.3	9696.68
625.655	9652.61
626.01	9702.33
626.365	9650.35
626.72	9594.31
627.075	9639.28
627.43	9626.17
627.785	9563.8
628.14	9696.45
628.495	9637.25
628.85	9641.99
629.205	9611.48
629.559	9641.54
629.914	9634.53
630.269	9554.76
630.623	9633.63
630.978	9620.98
631.332	9579.17
631.687	9589.56
632.041	9513.18
632.396	9557.93
632.75	9510.02
633.104	9545.5
633.459	9541.88
633.813	9511.15
634.167	9474.99
634.521	9469.79
634.875	9455.1
635.229	9434.31
635.583	9429.34
635.937	9389.12
636.291	9401.77
636.645	9416.91
636.999	9378.04
637.352	9409.46
637.706	9322.68
638.06	9384.6
638.413	9388.67
638.767	9308.89
639.121	9354.54
639.474	9299.18
639.828	9310.93
640.181	9263.25
640.534	9303.92
640.888	9293.3
641.241	9204.72
641.594	9216.01
641.947	9186.41
642.301	9244.94
642.654	9215.79
643.007	9260.53
643.36	9249.91
643.713	9159.75
644.066	9194.09
644.419	9171.27
644.771	9028.9
645.124	8988.9
645.477	9022.12
645.83	9002.69
646.182	8923.37
646.535	8877.94
646.888	8912.75
647.24	8876.36
647.593	8923.59
647.945	8872.75
648.298	8853.99
648.65	8830.71
649.002	8802.92
649.355	8915.91
649.707	8905.51
650.059	8930.6
650.411	9008.56
650.763	9052.18
651.115	9114.55
651.467	9074.32
651.819	9075.68
652.171	9132.63
652.523	9006.3
652.875	9051.27
653.227	8971.73
653.578	9106.41
653.93	9002.01
654.282	9016.92
654.633	8955.46
654.985	9015.57
655.337	9043.14
655.688	9023.03
656.039	9147.77
656.391	9019.86
656.742	8941.22
657.094	8983.03
657.445	9064.61
657.796	9012.63
658.147	9037.71
658.498	9027.09
658.849	9065.74
659.2	9056.47
659.551	9029.13
659.902	9041.33
660.253	9062.8
660.604	9063.02
660.955	9009.24
661.306	9053.31
661.656	9057.15
662.007	9101.44
662.358	9024.61
662.708	9069.35
663.059	9083.36
663.409	9052.86
663.76	9119.29
664.11	9061.44
664.461	9033.65
664.811	9093.98
665.161	9046.3
665.511	9055.79
665.862	9040.43
666.212	9133.08
666.562	9113.87
666.912	9053.76
667.262	9036.58
667.612	9087.43
667.962	9079.75
668.312	9115.9
668.662	9063.93
669.011	9020.54
669.361	9000.2
669.711	9026.87
670.06	8982.35
670.41	8958.62
670.76	8986.19
671.109	9065.96
671.459	8969.24
671.808	8966.98
672.157	9072.74
672.507	9003.36
672.856	9002.69
673.205	9025.51
673.554	8946.19
673.904	8943.25
674.253	8979.64
674.602	8952.97
674.951	8855.8
675.3	8809.7
675.649	8980.09
675.998	8941.22
676.346	8929.24
676.695	8954.55
677.044	8850.15
677.393	8904.38
677.741	8927.21
678.09	8950.94
678.438	8890.37
678.787	8887.66
679.135	8885.18
679.484	8819.64
679.832	8766.08
680.181	8767.66
680.529	8779.64
680.877	8792.98
681.225	8770.38
681.573	8865.74
681.922	8794.78
682.27	8686.09
682.618	8777.61
682.966	8668.46
683.314	8734.45
683.661	8696.48
684.009	8618.06
684.357	8628.91
684.705	8603.15
685.053	8588.46
685.4	8577.84
685.748	8508.91
686.095	8496.26
686.443	8527.22
686.79	8535.35
687.138	8502.36
687.485	8457.84
687.832	8494.45
688.18	8529.03
688.527	8397.51
688.874	8338.52
689.221	8309.82
689.568	8342.14
689.915	8318.41
690.262	8311.86
690.609	8275.47
690.956	8221.46
691.303	8228.47
691.65	8273.21
691.997	8255.59
692.344	8148.92
692.69	8106.44
693.037	8135.14
693.383	8083.84
693.73	8119.32
694.077	8076.38
694.423	8026.44
694.769	8049.04
695.116	7988.02
695.462	7999.32
695.808	7943.51
696.155	7919.78
696.501	7849.95
696.847	7845.88
697.193	7793.68
697.539	7916.61
697.885	7762.49
698.231	7748.03
698.577	7670.74
698.923	7770.18
699.269	7724.3
699.614	7700.57
699.96	7605.44
700.306	7620.35
700.651	7593.01
700.997	7558.43
701.342	7490.41
701.688	7507.36
702.033	7457.19
702.379	7417.64
702.724	7416.74
703.069	7473.91
703.415	7282.05
703.76	7314.37
704.105	7354.82
704.45	7303.52
704.795	7242.06
705.14	7230.98
705.485	7202.06
705.83	7200.47
706.175	7153.92
706.52	7190.08
706.865	7177.2
707.209	7093.36
707.554	7082.29
707.899	7099.69
708.243	7096.52
708.588	7021.04
708.932	6964.77
709.277	6995.96
709.621	6995.73
709.966	6974.04
710.31	6964.32
710.654	6898.11
710.998	6917.09
711.342	6905.12
711.687	6847.72
712.031	6857.21
712.375	6863.76
712.719	6842.07
713.063	6865.79
713.407	6852.46
713.75	6832.8
714.094	6804.33
714.438	6784.89
714.782	6818.11
715.125	6713.93
715.469	6735.63
715.812	6772.92
716.156	6689.53
716.499	6708.06
716.843	6687.27
717.186	6672.13
717.53	6671.45
717.873	6619.25
718.216	6680.26
718.559	6666.7
718.902	6590.77
719.246	6534.96
719.589	6591.9
719.932	6590.55
720.275	6605.46
720.617	6565.01
720.96	6556.42
721.303	6525.01
721.646	6596.2
721.989	6506.03
722.331	6548.06
722.674	6492.24
723.016	6521.62
723.359	6516.65
723.701	6555.07
724.044	6473.26
724.386	6479.36
724.729	6498.35
725.071	6426.26
725.413	6476.2
725.755	6492.7
726.097	6407.05
726.439	6397.33
726.782	6407.95
727.124	6459.48
727.465	6459.93
727.807	6469.19
728.149	6449.08
728.491	6402.98
728.833	6406.37
729.175	6376.09
729.516	6379.03
729.858	6409.99
730.199	6303.32
730.541	6330.21
730.882	6391.68
731.224	6433.94
731.565	6353.49
731.906	6410.21
732.248	6303.1
732.589	6362.08
732.93	6363.43
733.271	6402.08
733.612	6365.02
733.953	6418.35
734.294	6345.58
734.635	6357.56
734.976	6407.05
735.317	6310.78
735.658	6342.64
735.999	6287.96
736.339	6326.83
736.68	6328.41
737.021	6416.31
737.361	6352.59
737.702	6393.26
738.042	6350.33
738.383	6393.04
738.723	6390.55
739.063	6393.49
739.404	6412.25
739.744	6383.09
740.084	6408.63
740.424	6403.43
740.764	6380.61
741.104	6423.77
741.444	6378.58
741.784	6385.58
742.124	6379.93
742.464	6439.82
742.804	6428.07
743.143	6500.38
743.483	6487.95
743.823	6473.49
744.162	6505.58
744.502	6582.64
744.841	6502.64
745.181	6541.73
745.52	6570.89
745.86	6610.43
746.199	6649.98
746.538	6653.82
746.877	6692.24
747.216	6708.96
747.556	6728.85
747.895	6765.46
748.234	6729.75
748.573	6794.84
748.911	6871.9
749.25	6866.47
749.589	6900.37
749.928	7014.94
750.267	7073.92
750.605	7069.18
750.944	7161.83
751.283	7116.18
751.621	7202.06
751.96	7228.72
752.298	7328.15
752.636	7404.76
752.975	7444.99
753.313	7484.08
753.651	7586.23
753.989	7651.31
754.327	7760.46
754.666	7770.18
755.004	7865.32
755.342	8005.88
755.679	8109.83
756.017	8152.31
756.355	8220.79
756.693	8346.43
757.031	8468.01
757.368	8438.63
757.706	8643.15
758.044	8744.16
758.381	8843.82
758.719	8927.21
759.056	9022.35
759.394	9181.44
759.731	9236.13
760.068	9279.29
760.405	9381.89
760.743	9501.88
761.08	9658.49
761.417	9708.66
761.754	9871.36
762.091	9967.41
762.428	10114.07
762.765	10139.61
763.102	10305.25
763.438	10390.9
763.775	10478.81
764.112	10619.37
764.449	10749.53
764.785	10879.47
765.122	10854.84
765.458	10968.51
765.795	11060.94
766.131	11224.55
766.467	11285.56
766.804	11281.72
767.14	11392.23
767.476	11570.3
767.812	11660.7
768.148	11789.28
768.485	11745.44
768.821	11863.4
769.157	11930.52
