Data from hue_120_FLMS001491_00024.txt Node
Date: Tue Feb 07 16:59:08 GMT 2017
User: dcchb
Spectrometer: FLMS00149
Trigger mode: 0
Integration Time (sec): 2.000000E-2
Scans to average: 10
Electric dark correction enabled: true
Nonlinearity correction enabled: false
Boxcar width: 0
XAxis mode: Wavelengths
Number of Pixels in Spectrum: 2048
>>>>>Begin Spectral Data<<<<<
341.393	-16.34
341.776	-16.34
342.16	-16.34
342.543	-55.44
342.927	-79.39
343.31	-82.33
343.693	-65.61
344.077	-65.38
344.46	-46.62
344.843	-66.06
345.226	-43.23
345.61	-40.3
345.993	-33.97
346.376	-18.15
346.759	16.88
347.142	29.99
347.525	48.97
347.908	68.4
348.291	76.76
348.674	87.84
349.057	132.81
349.44	121.28
349.823	129.87
350.206	152.69
350.588	213.48
350.971	194.73
351.354	212.58
351.737	226.14
352.119	259.36
352.502	256.42
352.884	281.28
353.267	283.09
353.65	285.35
354.032	289.87
354.414	325.57
354.797	304.1
355.179	319.02
355.562	328.96
355.944	317.66
356.326	318.79
356.709	329.41
357.091	327.83
357.473	347.04
357.855	347.04
358.238	348.17
358.62	346.81
359.002	298.9
359.384	335.74
359.766	338.45
360.148	348.62
360.53	337.77
360.912	332.35
361.294	317.44
361.676	352.01
362.057	319.24
362.439	324.67
362.821	335.97
363.203	317.21
363.584	322.18
363.966	322.63
364.348	296.64
364.729	318.11
365.111	336.42
365.493	340.71
365.874	320.37
366.256	315.63
366.637	318.79
367.019	309.98
367.4	309.07
367.781	292.8
368.163	303.2
368.544	310.66
368.925	301.84
369.306	339.36
369.688	308.85
370.069	309.53
370.45	289.41
370.831	320.15
371.212	334.38
371.593	318.57
371.974	309.53
372.355	321.73
372.736	301.84
373.117	323.76
373.498	305.46
373.879	322.63
374.26	302.52
374.641	319.24
375.021	318.57
375.402	333.71
375.783	309.07
376.163	317.21
376.544	325.57
376.925	303.2
377.305	325.12
377.686	298
378.066	330.54
378.447	327.83
378.827	336.64
379.208	321.5
379.588	334.61
379.968	337.55
380.349	349.3
380.729	321.95
381.109	333.25
381.489	355.17
381.87	344.1
382.25	349.07
382.63	338.23
383.01	349.3
383.39	358.56
383.77	339.13
384.15	328.51
384.53	340.03
384.91	357.21
385.29	375.29
385.67	318.57
386.049	350.43
386.429	336.19
386.809	340.94
387.189	332.58
387.568	347.72
387.948	341.39
388.328	358.11
388.707	353.82
389.087	367.15
389.466	362.86
389.846	360.82
390.225	370.77
390.605	370.77
390.984	371.9
391.363	389.07
391.743	373.93
392.122	372.12
392.501	363.99
392.881	388.39
393.26	382.07
393.639	393.59
394.018	375.51
394.397	377.09
394.776	392.69
395.155	390.88
395.534	385
395.913	380.03
396.292	392.01
396.671	392.24
397.05	399.47
397.429	397.43
397.808	385.91
398.186	399.92
398.565	371.22
398.944	414.83
399.323	406.25
399.701	412.57
400.08	386.13
400.458	404.44
400.837	406.25
401.215	417.32
401.594	411.44
401.972	385.91
402.351	415.29
402.729	396.98
403.107	411.9
403.486	416.42
403.864	406.25
404.242	428.17
404.62	433.36
404.999	428.17
405.377	427.26
405.755	447.6
406.133	427.26
406.511	420.03
406.889	419.58
407.267	430.88
407.645	440.37
408.023	436.98
408.401	444.21
408.779	458.9
409.156	450.76
409.534	443.08
409.912	481.27
410.29	478.79
410.667	460.03
411.045	442.63
411.422	469.97
411.8	478.11
412.178	469.07
412.555	472.46
412.933	476.3
413.31	512.01
413.687	483.76
414.065	497.09
414.442	506.36
414.819	505
415.197	517.66
415.574	508.16
415.951	506.36
416.328	529.63
416.705	518.79
417.082	542.97
417.46	534.15
417.837	527.37
418.214	519.69
418.591	522.18
418.967	536.41
419.344	541.84
419.721	528.28
420.098	547.94
420.475	546.36
420.852	550.42
421.228	551.1
421.605	558.78
421.982	554.72
422.358	562.4
422.735	558.11
423.111	560.14
423.488	590.2
423.864	571.89
424.241	576.41
424.617	594.26
424.994	573.93
425.37	585.9
425.746	595.85
426.123	625.68
426.499	588.84
426.875	611.44
427.251	643.3
427.627	636.52
428.003	625.45
428.379	628.61
428.756	648.27
429.132	636.07
429.507	653.7
429.883	641.72
430.259	638.56
430.635	647.37
431.011	657.54
431.387	686.69
431.763	678.33
432.138	673.81
432.514	674.94
432.89	700.25
433.265	722.62
433.641	711.55
434.016	719.91
434.392	728.5
434.767	749.29
435.143	716.29
435.518	728.72
435.894	747.03
436.269	730.98
436.644	775.5
437.02	755.39
437.395	765.11
437.77	792.22
438.145	776.86
438.52	803.07
438.895	770.76
439.271	788.38
439.646	808.95
440.021	820.7
440.395	815.95
440.77	807.82
441.145	813.92
441.52	815.05
441.895	823.64
442.27	847.82
442.645	852.56
443.019	857.31
443.394	861.6
443.769	849.17
444.143	856.63
444.518	882.62
444.892	869.96
445.267	874.48
445.641	884.88
446.016	908.61
446.39	886.69
446.764	924.42
447.139	888.49
447.513	916.52
447.887	912.22
448.262	912.9
448.636	909.06
449.01	928.27
449.384	953.8
449.758	921.71
450.132	963.29
450.506	970.53
450.88	972.79
451.254	956.29
451.628	978.43
452.002	999.23
452.376	1028.15
452.75	1010.98
453.123	1023.86
453.497	1043.97
453.871	1055.04
454.244	1026.8
454.618	1030.64
454.992	1084.65
455.365	1095.95
455.739	1117.41
456.112	1122.84
456.486	1123.74
456.859	1112.22
457.232	1135.72
457.606	1137.98
457.979	1171.65
458.352	1177.3
458.725	1201.93
459.099	1216.39
459.472	1207.58
459.845	1254.59
460.218	1260.91
460.591	1270.18
460.964	1268.82
461.337	1305.21
461.71	1341.14
462.083	1352.66
462.456	1347.24
462.829	1365.77
463.201	1371.19
463.574	1349.72
463.947	1422.49
464.32	1451.64
464.692	1447.12
465.065	1429.04
465.438	1482.83
465.81	1533.45
466.183	1529.83
466.555	1578.42
466.928	1545.2
467.3	1580.23
467.672	1620
468.045	1658.64
468.417	1714.23
468.789	1679.43
469.161	1732.77
469.534	1773.67
469.906	1812.99
470.278	1829.49
470.65	1850.5
471.022	1869.71
471.394	1941.35
471.766	1953.78
472.138	1973.66
472.51	2063.83
472.882	2050.5
473.253	2119.65
473.625	2146.99
473.997	2210.27
474.369	2241.9
474.74	2285.52
475.112	2338.17
475.484	2415.23
475.855	2433.09
476.227	2494.1
476.598	2596.47
476.97	2621.78
477.341	2683.02
477.713	2778.16
478.084	2812.96
478.455	2930.7
478.827	2939.29
479.198	3091.37
479.569	3102.22
479.94	3254.08
480.311	3263.8
480.682	3425.15
481.053	3535.88
481.424	3584.69
481.795	3706.27
482.166	3772.94
482.537	3903.56
482.908	3974.51
483.279	4084.57
483.65	4264.22
484.021	4382.64
484.391	4470.55
484.762	4513.93
485.133	4623.99
485.503	4769.3
485.874	4905.79
486.244	5026.46
486.615	5214.03
486.985	5271.66
487.356	5414.25
487.726	5539.22
488.097	5738.08
488.467	5856.5
488.837	6007.46
489.207	6134.46
489.578	6280.22
489.948	6391.85
490.318	6537.16
490.688	6657.38
491.058	6880.2
491.428	7027.09
491.798	7107.31
492.168	7342.34
492.538	7412.39
492.908	7580.75
493.278	7711.59
493.648	7873.39
494.017	8047.85
494.387	8149.32
494.757	8300.5
495.126	8446.71
495.496	8479.48
495.866	8670.44
496.235	8812.13
496.605	8954.27
496.974	9129.86
497.344	9156.98
497.713	9349.29
498.082	9402.62
498.452	9602.61
498.821	9734.81
499.19	9758.77
499.559	9955.15
499.928	10009.61
500.298	10201.24
500.667	10326.89
501.036	10348.58
501.405	10467.68
501.774	10582.02
502.143	10716.94
502.512	10786.09
502.88	10957.61
503.249	10951.96
503.618	11097.04
503.987	11088.45
504.356	11316.24
504.724	11344.26
505.093	11441.44
505.462	11502.23
505.83	11561.89
506.199	11692.73
506.567	11851.14
506.936	11854.76
507.304	12000.29
507.672	11976.79
508.041	12154.41
508.409	12247.52
508.777	12389.66
509.145	12385.82
509.514	12420.85
509.882	12435.31
510.25	12552.14
510.618	12686.6
510.986	12683.21
511.354	12764.57
511.722	12925.01
512.09	13000.72
512.458	12930.89
512.826	13009.08
513.193	13094.05
513.561	13121.39
513.929	13197.77
514.297	13354.83
514.664	13423.08
515.032	13353.48
515.4	13518.22
515.767	13423.08
516.135	13526.13
516.502	13407.26
516.869	13685.9
517.237	13756.63
517.604	13579.69
517.972	13770.64
518.339	13810.87
518.706	13806.35
519.073	13885.21
519.44	13964.99
519.808	14016.74
520.175	13982.39
520.542	14097.41
520.909	14040.01
521.276	14136.96
521.643	14155.49
522.009	14184.42
522.376	14293.11
522.743	14259.89
523.11	14328.14
523.477	14415.37
523.843	14444.52
524.21	14571.07
524.577	14538.3
524.943	14692.42
525.31	14578.76
525.676	14709.15
526.043	14745.3
526.409	14791.18
526.776	14814
527.142	14718.19
527.508	14893.32
527.874	14907.56
528.241	14869.37
528.607	14901.01
528.973	14993.89
529.339	14984.62
529.705	14917.5
530.071	15077.5
530.437	15106.88
530.803	15018.52
531.169	15065.97
531.535	14928.35
531.901	14962.7
532.267	14996.15
532.632	15101.68
532.998	15076.14
533.364	15108.46
533.73	14997.73
534.095	15062.36
534.461	15086.31
534.826	15058.74
535.192	15077.27
535.557	15084.5
535.923	15085.41
536.288	14974.45
536.653	15042.47
537.019	14828.69
537.384	14885.64
537.749	14885.87
538.114	14895.13
538.479	14849.26
538.845	14872.76
539.21	14764.74
539.575	14835.47
539.94	14778.3
540.305	14818.97
540.67	14734.46
541.034	14721.12
541.399	14706.44
541.764	14693.55
542.129	14603.39
542.494	14603.16
542.858	14549.83
543.223	14506.44
543.587	14511.41
543.952	14450.4
544.316	14388.7
544.681	14293.56
545.045	14397.97
545.41	14364.3
545.774	14343.51
546.138	14209.95
546.503	14254.02
546.867	14212.21
547.231	14255.83
547.595	14213.79
547.959	14213.11
548.324	14169.73
548.688	14031.65
549.052	14072.78
549.416	14004.76
549.779	14037.98
550.143	13989.17
550.507	13978.77
550.871	13950.52
551.235	13846.8
551.599	13925.66
551.962	13790.53
552.326	13829.62
552.689	13884.54
553.053	13724.54
553.417	13754.82
553.78	13874.82
554.143	13766.57
554.507	13657.65
554.87	13655.16
555.234	13835.05
555.597	13674.37
555.96	13626.92
556.323	13642.96
556.686	13581.72
557.05	13622.17
557.413	13587.14
557.776	13624.2
558.139	13685.67
558.502	13653.36
558.865	13604.09
559.228	13676.18
559.59	13626.24
559.953	13604.77
560.316	13788.27
560.679	13637.31
561.041	13686.12
561.404	13686.8
561.767	13733.81
562.129	13633.24
562.492	13680.25
562.854	13695.61
563.217	13596.86
563.579	13644.09
563.941	13709.85
564.304	13684.32
564.666	13781.94
565.028	13781.71
565.39	13713.02
565.753	13762.51
566.115	13749.62
566.477	13790.75
566.839	13780.81
567.201	13834.82
567.563	13843.86
567.925	13917.3
568.287	13854.71
568.648	13937.64
569.01	13921.15
569.372	14049.73
569.734	13886.57
570.095	13988.04
570.457	13933.57
570.819	13999.11
571.18	13942.16
571.542	14036.85
571.903	14030.29
572.265	14036.17
572.626	14035.94
572.987	14015.15
573.349	14074.59
573.71	14073.46
574.071	14021.48
574.432	14126.79
574.794	14156.85
575.155	14149.61
575.516	14028.49
575.877	14134.92
576.238	14133.12
576.599	14140.57
576.96	14058.77
577.32	14211.53
577.681	14186.45
578.042	14214.47
578.403	14153
578.763	14090.63
579.124	14272.55
579.485	14228.71
579.845	14277.29
580.206	14182.83
580.566	14170.18
580.927	14228.71
581.287	14294.92
581.648	14226.67
582.008	14256.5
582.368	14226.45
582.728	14270.74
583.089	14245.43
583.449	14151.42
583.809	14156.39
584.169	14205.66
584.529	14167.92
584.889	14240.91
585.249	14165.43
585.609	14058.77
585.969	14150.07
586.329	14027.13
586.688	14137.64
587.048	14155.94
587.408	14009.05
587.768	14096.51
588.127	14065.55
588.487	13940.81
588.846	14083.63
589.206	14031.42
589.565	14032.33
589.925	14035.72
590.284	14027.58
590.643	14016.28
591.003	14055.15
591.362	14029.17
591.721	14017.87
592.08	14001.6
592.44	13957.53
592.799	13997.53
593.158	13942.84
593.517	13924.54
593.876	13992.56
594.235	13969.51
594.593	13924.99
594.952	13857.42
595.311	13932.44
595.67	13866.91
596.029	13935.16
596.387	13986.23
596.746	13975.61
597.104	13792.56
597.463	13871.2
597.822	13903.97
598.18	13788.04
598.538	13840.92
598.897	13855.61
599.255	13853.58
599.613	14024.87
599.972	13877.53
600.33	13887.93
600.688	13849.73
601.046	13920.69
601.404	13997.08
601.762	13921.15
602.12	13884.54
602.478	13939.22
602.836	13895.38
603.194	13869.17
603.552	13850.86
603.91	13782.39
604.268	13878.21
604.625	13871.2
604.983	13884.31
605.341	13797.98
605.698	13943.97
606.056	13843.41
606.413	13876.85
606.771	13857.87
607.128	13946.91
607.485	13921.15
607.843	13966.12
608.2	14056.28
608.557	13988.26
608.914	13976.96
609.272	14004.53
609.629	14005.66
609.986	14061.25
610.343	14028.26
610.7	14066.23
611.057	14143.51
611.414	14000.92
611.771	13986.68
612.127	14168.37
612.484	14124.08
612.841	14141.03
613.198	14086.34
613.554	14073.01
613.911	14173.12
614.267	14134.25
614.624	14204.75
614.98	14102.84
615.337	14197.3
615.693	14223.74
616.05	14252.89
616.406	14230.97
616.762	14173.34
617.118	14262.61
617.475	14282.04
617.831	14278.42
618.187	14253.11
618.543	14368.14
618.899	14395.71
619.255	14283.4
619.611	14256.05
619.967	14363.17
620.323	14332.21
620.678	14223.28
621.034	14260.35
621.39	14272.77
621.746	14259.22
622.101	14433.67
622.457	14324.98
622.812	14258.09
623.168	14324.98
623.523	14414.69
623.879	14431.87
624.234	14337.18
624.589	14341.25
624.945	14371.98
625.3	14368.59
625.655	14392.32
626.01	14321.59
626.365	14329.95
626.72	14312.32
627.075	14255.6
627.43	14249.72
627.785	14306.67
628.14	14296.28
628.495	14295.15
628.85	14419.89
629.205	14199.33
629.559	14344.41
629.914	14245.43
630.269	14279.33
630.623	14200.23
630.978	14152.33
631.332	14216.05
631.687	14298.31
632.041	14155.72
632.396	14196.62
632.75	14140.12
633.104	14175.38
633.459	14142.61
633.813	14065.1
634.167	14090.86
634.521	14012.89
634.875	14044.08
635.229	14055.15
635.583	13980.58
635.937	13940.13
636.291	14012.67
636.645	14015.83
636.999	13941.71
637.352	13950.07
637.706	13867.81
638.06	13902.16
638.413	13922.5
638.767	13896.74
639.121	13864.2
639.474	13793.24
639.828	13812.9
640.181	13827.14
640.534	13833.46
640.888	13807.93
641.241	13778.1
641.594	13680.7
641.947	13768.38
642.301	13739.91
642.654	13715.73
643.007	13834.82
643.36	13759.12
643.713	13700.59
644.066	13728.61
644.419	13586.24
644.771	13543.08
645.124	13465.34
645.477	13474.83
645.83	13367.26
646.182	13265.34
646.535	13276.64
646.888	13283.42
647.24	13166.81
647.593	13274.61
647.945	13204.33
648.298	13234.16
648.65	13118
649.002	13107.38
649.355	13259.02
649.707	13207.27
650.059	13282.29
650.411	13430.54
650.763	13504.89
651.115	13554.83
651.467	13477.54
651.819	13559.57
652.171	13516.86
652.523	13531.78
652.875	13429.63
653.227	13462.63
653.578	13518.44
653.93	13507.37
654.282	13503.76
654.633	13430.99
654.985	13482.29
655.337	13430.99
655.688	13533.36
656.039	13494.94
656.391	13451.78
656.742	13521.38
657.094	13480.93
657.445	13525
657.796	13521.61
658.147	13539.91
658.498	13391.67
658.849	13500.82
659.2	13513.92
659.551	13456.98
659.902	13522.96
660.253	13516.18
660.604	13518.67
660.955	13478.67
661.306	13493.81
661.656	13630.53
662.007	13581.72
662.358	13615.39
662.708	13551.66
663.059	13531.55
663.409	13487.94
663.76	13535.62
664.11	13576.75
664.461	13588.27
664.811	13658.55
665.161	13641.83
665.511	13534.04
665.862	13555.73
666.212	13634.6
666.562	13607.03
666.912	13648.38
667.262	13592.79
667.612	13569.97
667.962	13571.78
668.312	13587.82
668.662	13584.88
669.011	13559.35
669.361	13636.63
669.711	13540.14
670.06	13508.05
670.41	13594.15
670.76	13484.55
671.109	13659.01
671.459	13481.16
671.808	13432.12
672.157	13472.34
672.507	13413.59
672.856	13489.52
673.205	13401.84
673.554	13491.55
673.904	13456.52
674.253	13536.3
674.602	13470.08
674.951	13240.71
675.3	13214.72
675.649	13506.01
675.998	13322.29
676.346	13378.79
676.695	13443.64
677.044	13285.68
677.393	13372.46
677.741	13406.13
678.09	13301.5
678.438	13250.43
678.787	13343.99
679.135	13306.47
679.484	13084.56
679.832	13215.63
680.181	13087.04
680.529	13141.96
680.877	13107.61
681.225	13090.66
681.573	13164.55
681.922	13105.57
682.27	12987.16
682.618	13036.87
682.966	12978.12
683.314	13059.92
683.661	12916.65
684.009	12858.57
684.357	12818.8
684.705	12848.18
685.053	12859.03
685.4	12860.83
685.748	12722.53
686.095	12847.73
686.443	12720.95
686.79	12742.42
687.138	12756.43
687.485	12771.8
687.832	12718.24
688.18	12717.56
688.527	12548.98
688.874	12562.54
689.221	12616.77
689.568	12519.37
689.915	12465.82
690.262	12446.61
690.609	12318.02
690.956	12358.7
691.303	12373.16
691.65	12207.97
691.997	12233.28
692.344	12174.07
692.69	12123.68
693.037	12139.05
693.383	11880.52
693.73	12090.23
694.077	11978.82
694.423	11987.18
694.769	11946.96
695.116	11801.2
695.462	11784.48
695.808	11820.41
696.155	11796.46
696.501	11745.16
696.847	11608.89
697.193	11605.95
697.539	11628.78
697.885	11538.16
698.231	11589.68
698.577	11537.93
698.923	11544.94
699.269	11441.44
699.614	11384.04
699.96	11325.73
700.306	11302.68
700.651	11263.36
700.997	11194.21
701.342	11219.75
701.688	11177.49
702.033	11043.03
702.379	11066.08
702.724	11083.25
703.069	11093.42
703.415	10849.59
703.76	10890.49
704.105	10871.28
704.45	10878.97
704.795	10802.36
705.14	10753.09
705.485	10722.81
705.83	10643.94
706.175	10723.94
706.52	10622.25
706.865	10625.86
707.209	10598.97
707.554	10629.48
707.899	10602.36
708.243	10451.86
708.588	10511.07
708.932	10415.47
709.277	10426.55
709.621	10424.06
709.966	10319.43
710.31	10352.2
710.654	10203.95
710.998	10329.83
711.342	10351.3
711.687	10298.87
712.031	10193.33
712.375	10145.88
712.719	10200.79
713.063	10131.19
713.407	10174.58
713.75	10118.53
714.094	10100.45
714.438	10064.98
714.782	10064.75
715.125	10005.32
715.469	10080.79
715.812	9969.84
716.156	9845.32
716.499	9945.88
716.843	9928.48
717.186	9890.74
717.53	10009.16
717.873	9904.75
718.216	9892.32
718.559	9807.36
718.902	9789.28
719.246	9743.63
719.589	9783.4
719.932	9681.93
720.275	9745.89
720.617	9726.68
720.96	9656.17
721.303	9674.48
721.646	9724.65
721.989	9656.17
722.331	9758.09
722.674	9628.15
723.016	9623.86
723.359	9608.04
723.701	9593.58
724.044	9580.24
724.386	9548.6
724.729	9647.59
725.071	9646
725.413	9614.14
725.755	9564.88
726.097	9535.05
726.439	9490.3
726.782	9577.76
727.124	9557.87
727.465	9493.92
727.807	9564.2
728.149	9517.87
728.491	9548.83
728.833	9475.16
729.175	9511.09
729.516	9486.91
729.858	9495.95
730.199	9436.52
730.541	9435.61
730.882	9485.1
731.224	9429.74
731.565	9420.7
731.906	9437.87
732.248	9456.86
732.589	9442.39
732.93	9441.26
733.271	9473.8
733.612	9396.29
733.953	9500.92
734.294	9441.04
734.635	9385.45
734.976	9445.33
735.317	9367.59
735.658	9438.33
735.999	9399.46
736.339	9471.54
736.68	9472.9
737.021	9469.74
737.361	9440.36
737.702	9428.61
738.042	9396.74
738.383	9441.26
738.723	9528.49
739.063	9430.42
739.404	9483.97
739.744	9519
740.084	9436.74
740.424	9593.35
740.764	9453.24
741.104	9565.1
741.444	9519.91
741.784	9505.22
742.124	9508.15
742.464	9540.7
742.804	9581.6
743.143	9543.41
743.483	9619.56
743.823	9611.65
744.162	9660.24
744.502	9702.27
744.841	9677.64
745.181	9816.39
745.52	9820.24
745.86	9871.08
746.199	9881.48
746.538	9883.96
746.877	9959.44
747.216	10016.62
747.556	10005.77
747.895	10093
748.234	10085.09
748.573	10149.49
748.911	10235.14
749.25	10222.71
749.589	10342.48
749.928	10406.66
750.267	10500.22
750.605	10548.58
750.944	10638.29
751.283	10649.59
751.621	10739.99
751.96	10828.35
752.298	10872.19
752.636	11052.29
752.975	11080.54
753.313	11199.86
753.651	11429.91
753.989	11408.22
754.327	11532.73
754.666	11629.68
755.004	11813.4
755.342	11922.78
755.679	12029.9
756.017	12142.66
756.355	12282.54
756.693	12496.78
757.031	12572.48
757.368	12670.33
757.706	12815.64
