Data from hue_240_FLMS001491_00066.txt Node
Date: Tue Feb 07 16:35:48 GMT 2017
User: dcchb
Spectrometer: FLMS00149
Trigger mode: 0
Integration Time (sec): 2.000000E-2
Scans to average: 10
Electric dark correction enabled: true
Nonlinearity correction enabled: false
Boxcar width: 0
XAxis mode: Wavelengths
Number of Pixels in Spectrum: 2048
>>>>>Begin Spectral Data<<<<<
341.393	-15.96
341.776	-15.96
342.16	-15.96
342.543	-71.1
342.927	-69.74
343.31	-71.55
343.693	-70.2
344.077	-57.54
344.46	-67.26
344.843	-58.9
345.226	-48.28
345.61	-29.74
345.993	-18.22
346.376	-9.18
346.759	-9.63
347.142	30.82
347.525	45.73
347.908	69.24
348.291	87.31
348.674	109.91
349.057	97.48
349.44	120.99
349.823	127.09
350.206	171.61
350.588	181.32
350.971	191.04
351.354	210.47
351.737	235.56
352.119	258.38
352.502	241.21
352.884	248.67
353.267	256.58
353.65	286.18
354.032	288.21
354.414	305.39
354.797	302.9
355.179	310.59
355.562	306.07
355.944	330.02
356.326	316.01
356.709	341.54
357.091	309.91
357.473	338.15
357.855	324.6
358.238	330.25
358.62	342
359.002	357.59
359.384	357.59
359.766	320.75
360.148	352.39
360.53	333.86
360.912	331.15
361.294	312.17
361.676	295.9
362.057	324.14
362.439	311.94
362.821	327.08
363.203	331.15
363.584	323.24
363.966	324.6
364.348	318.95
364.729	308.1
365.111	314.65
365.493	315.1
365.874	302.22
366.256	300.64
366.637	303.13
367.019	328.21
367.4	312.17
367.781	307.42
368.163	298.61
368.544	302.45
368.925	293.86
369.306	318.04
369.688	291.38
370.069	326.63
370.45	321.88
370.831	303.81
371.212	294.09
371.593	292.51
371.974	286.4
372.355	327.31
372.736	309.91
373.117	319.62
373.498	312.17
373.879	320.08
374.26	314.88
374.641	310.36
375.021	286.18
375.402	317.36
375.783	298.83
376.163	320.53
376.544	316.01
376.925	316.46
377.305	330.7
377.686	311.26
378.066	310.13
378.447	323.24
378.827	297.03
379.208	333.64
379.588	316.69
379.968	323.92
380.349	316.91
380.729	312.84
381.109	334.09
381.489	334.54
381.87	300.64
382.25	327.76
382.63	336.35
383.01	325.27
383.39	317.59
383.77	344.48
384.15	330.47
384.53	344.71
384.91	336.57
385.29	343.8
385.67	341.77
386.049	339.51
386.429	342.45
386.809	353.07
387.189	369.34
387.568	353.3
387.948	346.74
388.328	352.62
388.707	344.26
389.087	350.36
389.466	366.63
389.846	348.32
390.225	367.31
390.605	341.09
390.984	351.04
391.363	357.14
391.743	347.19
392.122	360.08
392.501	358.04
392.881	377.7
393.26	362.11
393.639	368.44
394.018	369.34
394.397	366.18
394.776	366.85
395.155	381.32
395.534	372.73
395.913	381.32
396.292	370.02
396.671	384.03
397.05	390.36
397.429	395.78
397.808	388.55
398.186	393.97
398.565	401.43
398.944	396.01
399.323	387.19
399.701	398.27
400.08	383.35
400.458	388.1
400.837	421.99
401.215	409.11
401.594	391.03
401.972	404.37
402.351	424.93
402.729	409.79
403.107	429
403.486	438.94
403.864	428.55
404.242	412.5
404.62	423.8
404.999	430.13
405.377	450.92
405.755	424.25
406.133	439.62
406.511	452.28
406.889	456.12
407.267	478.26
407.645	464.48
408.023	462.67
408.401	482.56
408.779	472.16
409.156	487.3
409.534	469.45
409.912	485.95
410.29	505.61
410.667	486.63
411.045	478.72
411.422	496.34
411.8	492.05
412.178	536.12
412.555	507.64
412.933	538.83
413.31	547.41
413.687	549
414.065	535.44
414.442	538.6
414.819	549.45
415.197	567.75
415.574	582.22
415.951	591.93
416.328	561.88
416.705	594.87
417.082	590.58
417.46	578.6
417.837	600.07
418.214	578.15
418.591	607.53
418.967	630.35
419.344	613.18
419.721	654.98
420.098	652.5
420.475	660.18
420.852	643.46
421.228	658.6
421.605	681.87
421.982	673.51
422.358	692.5
422.735	681.2
423.111	718.48
423.488	717.35
423.864	722.33
424.241	714.87
424.617	733.85
424.994	741.08
425.37	772.72
425.746	770.91
426.123	777.92
426.499	780.18
426.875	795.77
427.251	798.48
427.627	811.81
428.003	818.37
428.379	813.85
428.756	831.48
429.132	849.78
429.507	859.27
429.883	876.22
430.259	859.72
430.635	861.76
431.011	889.1
431.387	896.78
431.763	889.33
432.138	918.7
432.514	930.46
432.89	946.05
433.265	962.77
433.641	1005.03
434.016	1007.74
434.392	1006.61
434.767	1006.16
435.143	1024.92
435.518	1035.99
435.894	1064.69
436.269	1046.61
436.644	1075.08
437.02	1103.78
437.395	1113.28
437.77	1109.21
438.145	1133.84
438.52	1127.96
438.895	1173.39
439.271	1170.22
439.646	1188.98
440.021	1240.96
440.395	1211.35
440.77	1231.24
441.145	1241.63
441.52	1247.06
441.895	1285.25
442.27	1275.08
442.645	1287.51
443.019	1313.95
443.394	1321.41
443.769	1311.46
444.143	1294.51
444.518	1368.86
444.892	1333.38
445.267	1360.5
445.641	1380.84
446.016	1374.06
446.39	1386.71
446.764	1411.57
447.139	1401.4
447.513	1409.77
447.887	1413.15
448.262	1418.35
448.636	1430.33
449.01	1455.87
449.384	1478.01
449.758	1460.16
450.132	1511.91
450.506	1496.32
450.88	1510.1
451.254	1487.96
451.628	1540.84
452.002	1545.58
452.376	1560.95
452.75	1576.31
453.123	1601.4
453.497	1606.6
453.871	1623.54
454.244	1621.06
454.618	1625.13
454.992	1687.05
455.365	1684.11
455.739	1691.57
456.112	1738.34
456.486	1722.98
456.859	1763.65
457.232	1804.78
457.606	1770.66
457.979	1804.56
458.352	1826.25
458.725	1839.13
459.099	1855.4
459.472	1891.33
459.845	1874.39
460.218	1881.62
460.591	1925.91
460.964	1963.42
461.337	1993.7
461.71	2019.69
462.083	2042.52
462.456	2028.96
462.829	2055.4
463.201	2080.93
463.574	2052.01
463.947	2110.54
464.32	2166.81
464.692	2155.73
465.065	2163.19
465.438	2219.91
465.81	2213.36
466.183	2258.56
466.555	2299.69
466.928	2290.65
467.3	2273.02
467.672	2366.8
468.045	2386.24
468.417	2399.8
468.789	2400.02
469.161	2446.35
469.534	2453.13
469.906	2530.19
470.278	2524.09
470.65	2593.24
471.022	2615.38
471.394	2656.06
471.766	2647.02
472.138	2721.6
472.51	2753.68
472.882	2790.97
473.253	2798.2
473.625	2846.56
473.997	2872.33
474.369	2939.89
474.74	2940.57
475.112	2978.31
475.484	3023.06
475.855	3091.08
476.227	3087.91
476.598	3169.72
476.97	3180.11
477.341	3230.51
477.713	3281.13
478.084	3293.33
478.455	3352.54
478.827	3440.67
479.198	3524.06
479.569	3498.98
479.94	3592.98
480.311	3618.75
480.682	3677.95
481.053	3749.14
481.424	3792.98
481.795	3866.65
482.166	3879.53
482.537	3917.27
482.908	3961.34
483.279	3984.61
483.65	4122.24
484.021	4166.08
484.391	4214.66
484.762	4248.11
485.133	4229.35
485.503	4262.12
485.874	4379.18
486.244	4345.28
486.615	4458.5
486.985	4508.21
487.356	4601.09
487.726	4654.65
488.097	4707.08
488.467	4698.72
488.837	4795.21
489.207	4884.48
489.578	4945.04
489.948	4926.06
490.318	5005.15
490.688	5075.43
491.058	5102.32
491.428	5147.52
491.798	5154.3
492.168	5263.45
492.538	5284.24
492.908	5324.24
493.278	5392.26
493.648	5430.22
494.017	5493.95
494.387	5473.84
494.757	5542.54
495.126	5597.23
495.496	5599.26
495.866	5615.53
496.235	5677.45
496.605	5684.68
496.974	5760.16
497.344	5859.82
497.713	5856.88
498.082	5860.27
498.452	5869.53
498.821	5906.37
499.19	5879.03
499.559	5966.71
499.928	6010.32
500.298	6008.97
500.667	6044.67
501.036	6024.56
501.405	6136.65
501.774	6076.08
502.143	6187.49
502.512	6173.03
502.88	6224.1
503.249	6245.8
503.618	6265.23
503.987	6269.3
504.356	6327.6
504.724	6367.6
505.093	6385.23
505.462	6354.27
505.83	6391.56
506.199	6403.08
506.567	6504.77
506.936	6504.32
507.304	6537.77
507.672	6572.79
508.041	6570.53
508.409	6604.66
508.777	6629.97
509.145	6739.79
509.514	6673.36
509.882	6664.77
510.25	6731.66
510.618	6709.51
510.986	6769.62
511.354	6794.71
511.722	6824.54
512.09	6895.04
512.458	6834.93
512.826	6872.22
513.193	6991.09
513.561	6890.07
513.929	6929.85
514.297	6963.07
514.664	7003.52
515.032	7059.33
515.4	7086.23
515.767	7075.6
516.135	7125.32
516.502	7036.96
516.869	7199.44
517.237	7153.79
517.604	7104.76
517.972	7130.97
518.339	7216.39
518.706	7222.72
519.073	7208.26
519.44	7216.62
519.808	7291.19
520.175	7245.54
520.542	7308.14
520.909	7366.22
521.276	7363.51
521.643	7363.28
522.009	7400.57
522.376	7384.98
522.743	7420.23
523.11	7467.91
523.477	7523.95
523.843	7482.37
524.21	7530.51
524.577	7557.63
524.943	7549.94
525.31	7615.93
525.676	7586.1
526.043	7627.91
526.409	7679.88
526.776	7728.02
527.142	7677.4
527.508	7716.49
527.874	7765.3
528.241	7737.28
528.607	7806.43
528.973	7812.99
529.339	7826.55
529.705	7887.56
530.071	7907
530.437	7867.45
530.803	7925.98
531.169	7911.97
531.535	7849.82
531.901	7827.22
532.267	7867.9
532.632	7936.15
532.998	7906.32
533.364	7925.53
533.73	7944.96
534.095	7984.96
534.461	7970.04
534.826	7970.27
535.192	8026.54
535.557	7994.22
535.923	7967.33
536.288	7980.89
536.653	8008.69
537.019	7951.51
537.384	7969.14
537.749	7974.56
538.114	7896.15
538.479	7932.53
538.845	8009.59
539.21	7883.04
539.575	8001.91
539.94	7922.59
540.305	7987.67
540.67	7896.6
541.034	7918.29
541.399	8021.57
541.764	7950.61
542.129	7916.49
542.494	7952.42
542.858	7981.12
543.223	7965.3
543.587	7920.78
543.952	7929.37
544.316	7897.5
544.681	7886.66
545.045	7892.08
545.41	7943.15
545.774	7887.33
546.138	7897.28
546.503	7918.75
546.867	7823.61
547.231	7939.99
547.595	7871.06
547.959	7848.47
548.324	7858.86
548.688	7881.23
549.052	7904.06
549.416	7880.33
549.779	7859.31
550.143	7829.26
550.507	7894.79
550.871	7827.22
551.235	7795.36
551.599	7851.86
551.962	7852.08
552.326	7843.27
552.689	7825.87
553.053	7820.9
553.417	7821.12
553.78	7880.1
554.143	7834.91
554.507	7844.17
554.87	7806.66
555.234	7906.32
555.597	7844.85
555.96	7882.14
556.323	7842.59
556.686	7848.47
557.05	7883.49
557.413	7897.73
557.776	7912.65
558.139	8006.65
558.502	7977.05
558.865	7919.2
559.228	8018.18
559.59	7947.67
559.953	7945.41
560.316	8025.41
560.679	8012.98
561.041	8021.79
561.404	8001.46
561.767	8012.3
562.129	8009.59
562.492	8089.59
562.854	8109.7
563.217	8047.56
563.579	8104.73
563.941	8131.17
564.304	8270.83
564.666	8193.09
565.028	8269.02
565.39	8171.4
565.753	8207.55
566.115	8226.76
566.477	8294.1
566.839	8282.8
567.201	8337.04
567.563	8316.48
567.925	8338.62
568.287	8349.02
568.648	8388.11
569.01	8442.12
569.372	8502.23
569.734	8434.21
570.095	8481.9
570.457	8491.39
570.819	8496.58
571.18	8455.23
571.542	8536.36
571.903	8504.72
572.265	8629.69
572.626	8584.72
572.987	8612.97
573.349	8562.35
573.71	8612.51
574.071	8644.38
574.432	8713.08
574.794	8741.55
575.155	8714.66
575.516	8744.71
575.877	8734.77
576.238	8713.08
576.599	8794.88
576.96	8818.16
577.32	8812.28
577.681	8856.58
578.042	8873.3
578.403	8815.9
578.763	8858.83
579.124	8882.34
579.485	8939.51
579.845	8945.16
580.206	8907.2
580.566	8941.09
580.927	8941.32
581.287	9009.79
581.648	9026.74
582.008	8994.65
582.368	8947.19
582.728	9050.69
583.089	9029.9
583.449	9011.15
583.809	9066.74
584.169	9006.4
584.529	9125.49
584.889	9211.59
585.249	9147.87
585.609	9077.36
585.969	9118.72
586.329	9116
586.688	9135.44
587.048	9114.65
587.408	9095.89
587.768	9164.36
588.127	9167.08
588.487	9133.4
588.846	9203.91
589.206	9194.19
589.565	9170.92
589.925	9228.09
590.284	9134.76
590.643	9263.34
591.003	9228.09
591.362	9233.74
591.721	9187.64
592.08	9298.6
592.44	9287.3
592.799	9235.1
593.158	9224.93
593.517	9275.32
593.876	9256.79
594.235	9289.33
594.593	9363
594.952	9314.87
595.311	9205.72
595.67	9289.56
596.029	9326.62
596.387	9352.38
596.746	9393.74
597.104	9381.76
597.463	9316.22
597.822	9372.95
598.18	9323.68
598.538	9337.24
598.897	9330.23
599.255	9370.46
599.613	9479.16
599.972	9408.42
600.33	9419.95
600.688	9330.23
601.046	9460.85
601.404	9363.91
601.762	9401.19
602.12	9498.59
602.478	9456.33
602.836	9477.35
603.194	9385.37
603.552	9463.79
603.91	9381.76
604.268	9444.81
604.625	9431.25
604.983	9457.24
605.341	9431.02
605.698	9429.67
606.056	9484.13
606.413	9474.19
606.771	9473.73
607.128	9454.75
607.485	9502.89
607.843	9458.14
608.2	9503.56
608.557	9532.49
608.914	9501.08
609.272	9568.87
609.629	9581.98
609.986	9594.86
610.343	9550.57
610.7	9612.04
611.057	9648.64
611.414	9569.1
611.771	9658.14
612.127	9661.75
612.484	9628.08
612.841	9653.39
613.198	9636.89
613.554	9612.49
613.911	9589.44
614.267	9664.46
614.624	9624.69
614.98	9689.1
615.337	9679.38
615.693	9678.93
616.05	9698.13
616.406	9715.08
616.762	9640.74
617.118	9701.98
617.475	9739.94
617.831	9740.39
618.187	9767.06
618.543	9797.34
618.899	9755.53
619.255	9750.56
619.611	9762.77
619.967	9806.15
620.323	9857.45
620.678	9688.42
621.034	9811.13
621.39	9785.14
621.746	9756.66
622.101	9840.96
622.457	9738.81
622.812	9754.86
623.168	9797.57
623.523	9835.53
623.879	9799.83
624.234	9797.57
624.589	9838.47
624.945	9830.33
625.3	9755.53
625.655	9810.45
626.01	9824.23
626.365	9805.7
626.72	9742.65
627.075	9775.65
627.43	9863.78
627.785	9809.77
628.14	9805.48
628.495	9832.14
628.85	9785.82
629.205	9716.21
629.559	9770.9
629.914	9708.53
630.269	9730.9
630.623	9740.17
630.978	9698.59
631.332	9768.19
631.687	9774.74
632.041	9687.74
632.396	9717.8
632.75	9696.1
633.104	9674.63
633.459	9619.49
633.813	9637.8
634.167	9636.67
634.521	9624.46
634.875	9598.48
635.229	9620.62
635.583	9586.73
635.937	9567.52
636.291	9539.49
636.645	9544.92
636.999	9541.08
637.352	9588.99
637.706	9480.74
638.06	9498.14
638.413	9486.61
638.767	9506.05
639.121	9463.79
639.474	9438.03
639.828	9402.55
640.181	9368.88
640.534	9496.11
640.888	9442.77
641.241	9446.62
641.594	9409.33
641.947	9448.2
642.301	9426.96
642.654	9392.15
643.007	9396
643.36	9380.63
643.713	9358.48
644.066	9413.17
644.419	9333.17
644.771	9256.34
645.124	9180.41
645.477	9155.32
645.83	9120.52
646.182	9093.63
646.535	9066.29
646.888	9100.64
647.24	9037.14
647.593	9077.59
647.945	9010.7
648.298	9002.79
648.65	9004.37
649.002	8880.98
649.355	9018.83
649.707	8944.26
650.059	9011.83
650.411	9134.08
650.763	9102.67
651.115	9224.25
651.467	9214.31
651.819	9166.17
652.171	9150.8
652.523	9186.06
652.875	9210.01
653.227	9115.78
653.578	9214.76
653.93	9208.66
654.282	9181.09
654.633	9139.96
654.985	9146.74
655.337	9133.63
655.688	9111.48
656.039	9177.92
656.391	9059.51
656.742	9122.33
657.094	9159.62
657.445	9217.7
657.796	9132.05
658.147	9131.82
658.498	9104.93
658.849	9185.15
659.2	9116.23
659.551	9101.31
659.902	9175.44
660.253	9146.06
660.604	9140.86
660.955	9118.04
661.306	9167.75
661.656	9125.49
662.007	9071.03
662.358	9156
662.708	9156.68
663.059	9149.9
663.409	9051.37
663.76	9213.63
664.11	9132.27
664.461	9211.37
664.811	9199.84
665.161	9102.44
665.511	9119.84
665.862	9165.95
666.212	9086.85
666.562	9109.9
666.912	9085.95
667.262	9130.01
667.612	9251.82
667.962	9207.3
668.312	9111.71
668.662	9137.7
669.011	9191.03
669.361	9120.97
669.711	9052.73
670.06	9065.84
670.41	9108.32
670.76	9093.63
671.109	9147.41
671.459	9048.66
671.808	9116
672.157	9151.71
672.507	9003.24
672.856	9092.05
673.205	9180.86
673.554	9050.47
673.904	9063.35
674.253	9077.13
674.602	9099.73
674.951	8945.39
675.3	8978.61
675.649	9052.05
675.998	8968.44
676.346	8955.33
676.695	9042.33
677.044	8983.35
677.393	8975.44
677.741	8985.39
678.09	8917.59
678.438	8956.69
678.787	8899.74
679.135	8975.89
679.484	8913.3
679.832	8910.13
680.181	8887.99
680.529	8853.41
680.877	8871.72
681.225	8835.11
681.573	8977.48
681.922	8802.57
682.27	8793.75
682.618	8763.47
682.966	8796.01
683.314	8727.09
683.661	8774.32
684.009	8778.61
684.357	8715.34
684.705	8621.55
685.053	8668.78
685.4	8676.24
685.748	8597.37
686.095	8552.18
686.443	8652.06
686.79	8578.16
687.138	8557.37
687.485	8622
687.832	8515.12
688.18	8540.43
688.527	8490.03
688.874	8537.94
689.221	8449.58
689.568	8451.61
689.915	8397.6
690.262	8396.7
690.609	8312.63
690.956	8343.82
691.303	8330.04
691.65	8314.44
691.997	8311.96
692.344	8224.73
692.69	8235.57
693.037	8224.5
693.383	8166.2
693.73	8173.66
694.077	8173.88
694.423	8061.34
694.769	8091.62
695.116	8080.78
695.462	8049.59
695.808	8060.44
696.155	8000.1
696.501	7924.85
696.847	7883.49
697.193	7862.7
697.539	7926.2
697.885	7823.83
698.231	7878.3
698.577	7833.78
698.923	7795.59
699.269	7761.46
699.614	7679.43
699.96	7704.97
700.306	7689.37
700.651	7614.35
700.997	7647.79
701.342	7608.25
701.688	7564.86
702.033	7586.1
702.379	7554.69
702.724	7530.96
703.069	7581.13
703.415	7446.44
703.76	7440.34
704.105	7477.18
704.45	7376.16
704.795	7363.28
705.14	7370.51
705.485	7371.87
705.83	7328.25
706.175	7330.06
706.52	7268.59
706.865	7236.96
707.209	7252.78
707.554	7222.04
707.899	7162.38
708.243	7146.79
708.588	7205.77
708.932	7105.43
709.277	7084.64
709.621	7082.38
709.966	7026.79
710.31	7022.05
710.654	7015.72
710.998	7023.63
711.342	7050.29
711.687	7047.36
712.031	7021.37
712.375	6878.1
712.719	6951.54
713.063	6949.51
713.407	6954.48
713.75	6940.92
714.094	6907.47
714.438	6890.98
714.782	6841.71
715.125	6889.62
715.469	6876.51
715.812	6855.5
716.156	6824.99
716.499	6786.57
716.843	6812.56
717.186	6736.4
717.53	6839.45
717.873	6767.82
718.216	6766.91
718.559	6716.52
718.902	6687.37
719.246	6689.4
719.589	6676.29
719.932	6702.51
720.275	6712.45
720.617	6638.78
720.96	6659.57
721.303	6644.88
721.646	6668.61
721.989	6636.75
722.331	6634.49
722.674	6647.59
723.016	6646.01
723.359	6615.05
723.701	6621.15
724.044	6533.92
724.386	6532.12
724.729	6572.34
725.071	6544.32
725.413	6545.22
725.755	6577.09
726.097	6522.63
726.439	6556.97
726.782	6514.26
727.124	6556.07
727.465	6478.56
727.807	6517.65
728.149	6519.01
728.491	6466.13
728.833	6536.86
729.175	6432.23
729.516	6502.06
729.858	6489.63
730.199	6467.71
730.541	6491.21
730.882	6464.32
731.224	6476.3
731.565	6412.8
731.906	6420.25
732.248	6413.7
732.589	6492.34
732.93	6420.48
733.271	6454.15
733.612	6427.71
733.953	6425
734.294	6455.28
734.635	6392.01
734.976	6399.92
735.317	6358.79
735.658	6408.28
735.999	6413.48
736.339	6360.6
736.68	6437.66
737.021	6433.81
737.361	6394.49
737.702	6444.66
738.042	6438.56
738.383	6418.67
738.723	6446.69
739.063	6413.02
739.404	6431.1
739.744	6408.05
740.084	6409.63
740.424	6368.28
740.764	6454.15
741.104	6477.88
741.444	6442.63
741.784	6403.53
742.124	6422.29
742.464	6453.25
742.804	6506.58
743.143	6460.25
743.483	6534.83
743.823	6476.07
744.162	6507.71
744.502	6548.39
744.841	6525.79
745.181	6600.14
745.52	6503.42
745.86	6535.51
746.199	6645.33
746.538	6629.97
746.877	6605.11
747.216	6734.82
747.556	6709.06
747.895	6748.61
748.234	6802.39
748.573	6779.34
748.911	6812.11
749.25	6803.75
749.589	6881.94
749.928	6892.56
750.267	6978.21
750.605	6984.08
750.944	7011.88
751.283	7028.15
751.621	7128.71
751.96	7135.94
752.298	7194.7
752.636	7236.5
752.975	7330.51
753.313	7362.15
753.651	7424.75
753.989	7414.35
754.327	7540.45
754.666	7560.79
755.004	7608.25
755.342	7725.08
755.679	7768.47
756.017	7834.91
756.355	7929.82
756.693	7967.56
757.031	8120.78
757.368	8181.34
757.706	8289.81
758.044	8358.51
758.381	8442.57
758.719	8525.96
759.056	8615.68
759.394	8697.71
759.731	8734.77
760.068	8758.72
760.405	8919.17
760.743	8973.41
761.08	9076
761.417	9162.78
761.754	9232.84
762.091	9396.67
762.428	9445.49
762.765	9491.81
763.102	9629.66
763.438	9658.14
763.775	9797.12
764.112	9941.97
764.449	10013.38
764.785	10034.17
765.122	10100.84
765.458	10153.72
765.795	10237.78
766.131	10305.8
766.467	10360.72
766.804	10415.18
767.14	10492.69
767.476	10566.59
767.812	10625.57
768.148	10670.76
768.485	10783.76
768.821	10772.46
769.157	10892.68
769.492	10940.81
