Data from hue_100_FLMS001491_00001.txt Node
Date: Tue Feb 07 17:02:33 GMT 2017
User: dcchb
Spectrometer: FLMS00149
Trigger mode: 0
Integration Time (sec): 2.000000E-2
Scans to average: 10
Electric dark correction enabled: true
Nonlinearity correction enabled: false
Boxcar width: 0
XAxis mode: Wavelengths
Number of Pixels in Spectrum: 2048
>>>>>Begin Spectral Data<<<<<
341.393	-41
341.776	-41
342.16	-41
342.543	-70.83
342.927	-66.76
343.31	-81.23
343.693	-69.25
344.077	-71.28
344.46	-78.29
344.843	-67.44
345.226	-24.28
345.61	-11.62
345.993	4.42
346.376	1.03
346.759	0.13
347.142	39
347.525	21.82
347.908	55.94
348.291	67.92
348.674	100.24
349.057	112.89
349.44	96.17
349.823	125.77
350.206	169.61
350.588	183.63
350.971	216.84
351.354	240.8
351.737	211.87
352.119	243.28
352.502	239.44
352.884	255.94
353.267	284.64
353.65	287.8
354.032	293.45
354.414	300.01
354.797	322.15
355.179	325.32
355.562	316.5
355.944	343.39
356.326	335.03
356.709	333.9
357.091	335.94
357.473	343.39
357.855	330.06
358.238	335.94
358.62	356.73
359.002	339.55
359.384	358.99
359.766	348.59
360.148	339.55
360.53	328.71
360.912	337.07
361.294	337.75
361.676	335.49
362.057	319.44
362.439	333
362.821	348.37
363.203	318.54
363.584	328.25
363.966	309.27
364.348	306.79
364.729	330.97
365.111	290.29
365.493	316.95
365.874	321.02
366.256	328.71
366.637	320.8
367.019	314.24
367.4	312.66
367.781	305.88
368.163	323.06
368.544	301.36
368.925	336.62
369.306	325.54
369.688	324.86
370.069	310.4
370.45	294.13
370.831	318.31
371.212	322.83
371.593	304.07
371.974	331.87
372.355	325.99
372.736	314.47
373.117	311.31
373.498	330.74
373.879	305.2
374.26	320.8
374.641	319.44
375.021	316.5
375.402	317.18
375.783	315.6
376.163	340.68
376.544	337.75
376.925	333.45
377.305	343.85
377.686	329.61
378.066	347.46
378.447	322.6
378.827	329.61
379.208	356.73
379.588	350.85
379.968	356.5
380.349	337.97
380.729	367.35
381.109	377.74
381.489	344.07
381.87	350.85
382.25	339.55
382.63	333
383.01	351.08
383.39	349.27
383.77	357.86
384.15	315.15
384.53	353.56
384.91	364.41
385.29	349.5
385.67	355.6
386.049	360.12
386.429	351.98
386.809	351.98
387.189	359.67
387.568	357.18
387.948	368.48
388.328	365.77
388.707	356.73
389.087	358.99
389.466	381.36
389.846	377.07
390.225	387.01
390.605	396.95
390.984	362.6
391.363	385.65
391.743	374.81
392.122	368.25
392.501	373
392.881	408.7
393.26	401.47
393.639	362.83
394.018	390.63
394.397	384.75
394.776	396.05
395.155	399.89
395.534	384.52
395.913	378.87
396.292	401.92
396.671	423.62
397.05	379.1
397.429	394.92
397.808	397.86
398.186	398.99
398.565	412.09
398.944	392.89
399.323	409.38
399.701	411.64
400.08	422.04
400.458	408.7
400.837	435.14
401.215	408.48
401.594	417.29
401.972	419.1
402.351	419.33
402.729	423.84
403.107	437.63
403.486	435.82
403.864	430.4
404.242	447.8
404.62	453.45
404.999	457.06
405.377	435.82
405.755	453
406.133	468.59
406.511	445.09
406.889	449.15
407.267	452.32
407.645	466.33
408.023	461.36
408.401	478.31
408.779	465.2
409.156	459.1
409.534	476.72
409.912	470.85
410.29	496.84
410.667	507.91
411.045	495.93
411.422	501.13
411.8	508.59
412.178	501.81
412.555	523.5
412.933	531.86
413.31	506.55
413.687	532.54
414.065	518.31
414.442	530.28
414.819	543.39
415.197	532.09
415.574	545.42
415.951	554.91
416.328	558.08
416.705	560.11
417.082	551.53
417.46	551.75
417.837	569.6
418.214	567.34
418.591	564.63
418.967	575.71
419.344	579.09
419.721	593.56
420.098	564.18
420.475	574.35
420.852	600.34
421.228	612.54
421.605	605.31
421.982	617.74
422.358	609.6
422.735	602.6
423.111	609.6
423.488	590.39
423.864	631.07
424.241	642.37
424.617	629.26
424.994	650.05
425.37	645.99
425.746	635.82
426.123	639.88
426.499	653.44
426.875	656.83
427.251	640.56
427.627	660.67
428.003	672.88
428.379	682.14
428.756	678.98
429.132	691.41
429.507	710.84
429.883	722.82
430.259	726.44
430.635	733.67
431.011	759.2
431.387	732.54
431.763	734.12
432.138	742.48
432.514	749.94
432.89	746.55
433.265	751.97
433.641	794.91
434.016	776.15
434.392	782.93
434.767	794.23
435.143	789.26
435.518	819.09
435.894	802.14
436.269	836.72
436.644	823.38
437.02	852.53
437.395	857.73
437.77	864.74
438.145	871.74
438.52	864.29
438.895	888.24
439.271	879.2
439.646	910.39
440.021	892.53
440.395	921.01
440.77	922.59
441.145	905.87
441.52	921.01
441.895	923.49
442.27	942.48
442.645	932.98
443.019	956.49
443.394	939.09
443.769	954.45
444.143	962.36
444.518	969.37
444.892	961.01
445.267	991.74
445.641	1002.13
446.016	995.36
446.39	986.32
446.764	986.32
447.139	1042.59
447.513	1032.87
447.887	1007.78
448.262	1028.35
448.636	1036.48
449.01	1071.06
449.384	1051.85
449.758	1057.05
450.132	1089.14
450.506	1083.71
450.88	1108.35
451.254	1108.12
451.628	1090.72
452.002	1110.61
452.376	1148.35
452.75	1101.34
453.123	1153.54
453.497	1192.64
453.871	1143.15
454.244	1183.6
454.618	1198.06
454.992	1208.46
455.365	1216.82
455.739	1260.43
456.112	1259.76
456.486	1259.76
456.859	1278.06
457.232	1305.18
457.606	1297.04
457.979	1322.13
458.352	1345.85
458.725	1372.29
459.099	1380.43
459.472	1390.6
459.845	1411.62
460.218	1421.33
460.591	1425.85
460.964	1436.02
461.337	1452.52
461.71	1494.55
462.083	1516.92
462.456	1512.86
462.829	1542.46
463.201	1559.41
463.574	1583.36
463.947	1593.08
464.32	1664.26
464.692	1642.8
465.065	1641.89
465.438	1684.6
465.81	1716.24
466.183	1744.71
466.555	1756.24
466.928	1779.52
467.3	1779.74
467.672	1844.82
468.045	1905.39
468.417	1877.59
468.789	1894.54
469.161	1959.17
469.534	1975.89
469.906	2040.07
470.278	2049.11
470.65	2089.56
471.022	2151.71
471.394	2204.59
471.766	2182.44
472.138	2237.58
472.51	2291.37
472.882	2334.98
473.253	2385.38
473.625	2408.88
473.997	2496.78
474.369	2527.52
474.74	2541.98
475.112	2589.66
475.484	2685.25
475.855	2727.96
476.227	2814.06
476.598	2903.55
476.97	2967.05
477.341	3052.93
477.713	3083.89
478.084	3157.78
478.455	3266.71
478.827	3321.17
479.198	3404.11
479.569	3466.93
479.94	3576.98
480.311	3627.83
480.682	3790.54
481.053	3878.9
481.424	3975.39
481.795	4063.98
482.166	4205.44
482.537	4258.55
482.908	4382.84
483.279	4474.13
483.65	4608.14
484.021	4743.51
484.391	4811.75
484.762	4955.7
485.133	5057.85
485.503	5129.03
485.874	5326.77
486.244	5422.13
486.615	5524.73
486.985	5710.49
487.356	5840.2
487.726	5958.61
488.097	6066.63
488.467	6215.78
488.837	6399.73
489.207	6512.72
489.578	6737.35
489.948	6798.37
490.318	7020.06
490.688	7054.86
491.058	7275.42
491.428	7377.11
491.798	7591.79
492.168	7761.5
492.538	7932.35
492.908	8032.68
493.278	8253.02
493.648	8305.22
494.017	8491.43
494.387	8649.62
494.757	8812.55
495.126	8939.33
495.496	9010.74
495.866	9190.17
496.235	9322.14
496.605	9390.39
496.974	9614.11
497.344	9684.17
497.713	9798.06
498.082	9983.82
498.452	10109.69
498.821	10186.07
499.19	10311.72
499.559	10470.13
499.928	10499.06
500.298	10680.98
500.667	10911.93
501.036	10870.8
501.405	11047.52
501.774	11081.19
502.143	11187.86
502.512	11325.48
502.88	11473.72
503.249	11534.06
503.618	11654.74
503.987	11763.89
504.356	11766.37
504.724	11864.9
505.093	11862.19
505.462	12078.23
505.83	12204.78
506.199	12317.77
506.567	12488.84
506.936	12472.12
507.304	12648.38
507.672	12684.99
508.041	12805.21
508.409	12922.5
508.777	13038.43
509.145	13080.46
509.514	13068.48
509.882	13229.16
510.25	13244.52
510.618	13365.43
510.986	13356.16
511.354	13486.55
511.722	13592.09
512.09	13672.31
512.458	13722.03
512.826	13766.77
513.193	13921.57
513.561	13855.81
513.929	13964.28
514.297	14150.94
514.664	14200.43
515.032	14252.41
515.4	14327.89
515.767	14395
516.135	14401.78
516.502	14279.53
516.869	14533.3
517.237	14566.75
517.604	14541.89
517.972	14643.13
518.339	14699.18
518.706	14614.66
519.073	14679.29
519.44	14806.97
519.808	14977.81
520.175	14906.4
520.542	15081.54
520.909	15219.16
521.276	15026.17
521.643	15174.19
522.009	15220.29
522.376	15284.7
522.743	15355.2
523.11	15409.44
523.477	15497.12
523.843	15477.23
524.21	15597.46
524.577	15697.57
524.943	15764.46
525.31	15667.74
525.676	15843.33
526.043	15836.32
526.409	15896.43
526.776	15880.16
527.142	15939.37
527.508	16014.17
527.874	16005.13
528.241	16048.97
528.607	16058.01
528.973	16128.29
529.339	16166.26
529.705	16214.16
530.071	16294.84
530.437	16311.79
530.803	16347.27
531.169	16369.87
531.535	16253.49
531.901	16243.09
532.267	16263.43
532.632	16340.94
532.998	16385.23
533.364	16354.5
533.73	16287.61
534.095	16387.72
534.461	16414.38
534.826	16371.67
535.192	16359.24
535.557	16392.92
535.923	16340.49
536.288	16288.96
536.653	16276.54
537.019	16241.51
537.384	16301.17
537.749	16321.96
538.114	16341.39
538.479	16178.01
538.845	16272.24
539.21	16153.15
539.575	16215.97
539.94	16278.12
540.305	16181.85
540.67	16166.93
541.034	16117.67
541.399	16173.71
541.764	16110.21
542.129	16103.66
542.494	16104.11
542.858	16056.43
543.223	16032.47
543.587	16091.46
543.952	16032.47
544.316	15958.58
544.681	15919.71
545.045	15882.87
545.41	15965.13
545.774	15956.32
546.138	15822.76
546.503	15757.45
546.867	15737.34
547.231	15855.53
547.595	15852.14
547.959	15805.14
548.324	15695.99
548.688	15711.8
549.052	15653.27
549.416	15664.57
549.779	15620.06
550.143	15548.42
550.507	15604.91
550.871	15598.14
551.235	15518.36
551.599	15528.08
551.962	15522.2
552.326	15484.01
552.689	15525.37
553.053	15404.69
553.417	15351.14
553.78	15478.36
554.143	15419.16
554.507	15349.78
554.87	15341.19
555.234	15554.52
555.597	15408.99
555.96	15390.68
556.323	15404.24
556.686	15338.48
557.05	15513.62
557.413	15373.73
557.776	15396.11
558.139	15585.03
558.502	15405.15
558.865	15406.28
559.228	15460.51
559.59	15478.36
559.953	15423.22
560.316	15522.2
560.679	15527.18
561.041	15480.17
561.404	15505.48
561.767	15559.27
562.129	15500.51
562.492	15654.63
562.854	15599.72
563.217	15606.95
563.579	15606.27
563.941	15640.85
564.304	15695.08
564.666	15702.99
565.028	15707.06
565.39	15683.78
565.753	15738.02
566.115	15674.52
566.477	15782.76
566.839	15775.08
567.201	15825.25
567.563	15834.96
567.925	15866.83
568.287	15868.18
568.648	15846.72
569.01	15905.02
569.372	15977.79
569.734	15918.58
570.095	15957
570.457	15962.87
570.819	15995.19
571.18	16061.17
571.542	16092.59
571.903	16043.77
572.265	16166.71
572.626	16152.7
572.987	16125.8
573.349	16121.96
573.71	16135.3
574.071	16170.32
574.432	16229.08
574.794	16294.16
575.155	16308.4
575.516	16164.67
575.877	16234.95
576.238	16171.68
576.599	16291.45
576.96	16353.14
577.32	16237.89
577.681	16344.33
578.042	16334.84
578.403	16328.96
578.763	16333.71
579.124	16406.93
579.485	16305.01
579.845	16385.68
580.206	16411
580.566	16460.03
580.927	16394.72
581.287	16412.58
581.648	16241.06
582.008	16429.07
582.368	16458.23
582.728	16340.04
583.089	16330.55
583.449	16305.24
583.809	16389.53
584.169	16429.07
584.529	16321.05
584.889	16393.37
585.249	16324.67
585.609	16259.81
585.969	16269.53
586.329	16271.34
586.688	16312.47
587.048	16203.99
587.408	16265.24
587.768	16243.09
588.127	16265.69
588.487	16258.91
588.846	16250.77
589.206	16217.1
589.565	16198.12
589.925	16318.57
590.284	16177.55
590.643	16182.53
591.003	16256.2
591.362	16343.65
591.721	16161.06
592.08	16204.22
592.44	16278.8
592.799	16210.77
593.158	16233.15
593.517	16094.62
593.876	16163.54
594.235	16054.17
594.593	16076.09
594.952	16146.37
595.311	16095.07
595.67	16094.17
596.029	16150.66
596.387	16235.86
596.746	16224.56
597.104	16100.04
597.463	16188.63
597.822	16152.24
598.18	16190.44
598.538	16066.15
598.897	16151.79
599.255	16033.15
599.613	16129.42
599.972	16132.36
600.33	16196.31
600.688	16114.73
601.046	16022.98
601.404	16270.89
601.762	16143.88
602.12	16214.16
602.478	16172.13
602.836	16128.29
603.194	16168.74
603.552	16099.36
603.91	16107.27
604.268	16096.88
604.625	16006.94
604.983	16142.3
605.341	16140.72
605.698	16068.18
606.056	16245.8
606.413	16135.52
606.771	16194.28
607.128	16234.05
607.485	16008.97
607.843	16178.01
608.2	16234.5
608.557	16255.97
608.914	16196.09
609.272	16148.63
609.629	16324.67
609.986	16281.96
610.343	16234.73
610.7	16382.07
611.057	16273.6
611.414	16277.44
611.771	16333.26
612.127	16323.54
612.484	16325.57
612.841	16492.35
613.198	16313.6
613.554	16373.03
613.911	16465.46
614.267	16392.01
614.624	16456.87
614.98	16450.09
615.337	16599.69
615.693	16532.35
616.05	16522.86
616.406	16497.77
616.762	16533.7
617.118	16556.3
617.475	16511.56
617.831	16566.7
618.187	16576.41
618.543	16533.7
618.899	16716.07
619.255	16604.44
619.611	16552.23
619.967	16703.87
620.323	16721.04
620.678	16650.31
621.034	16630.42
621.39	16749.29
621.746	16602.18
622.101	16813.24
622.457	16623.42
622.812	16752.91
623.168	16715.62
623.523	16679.69
623.879	16723.98
624.234	16595.4
624.589	16693.25
624.945	16641.27
625.3	16653.25
625.655	16619.58
626.01	16683.98
626.365	16616.41
626.72	16601.72
627.075	16638.56
627.43	16608.73
627.785	16579.35
628.14	16587.94
628.495	16547.71
628.85	16599.01
629.205	16538.45
629.559	16570.99
629.914	16434.5
630.269	16621.61
630.623	16517.21
630.978	16454.16
631.332	16516.75
631.687	16610.54
632.041	16450.99
632.396	16528.73
632.75	16461.39
633.104	16485.8
633.459	16287.83
633.813	16518.56
634.167	16501.84
634.521	16379.36
634.875	16371.22
635.229	16372.8
635.583	16334.61
635.937	16306.37
636.291	16259.81
636.645	16325.12
636.999	16233.82
637.352	16301.62
637.706	16196.09
638.06	16287.83
638.413	16141.85
638.767	16180.04
639.121	16107.05
639.474	15981.18
639.828	16043.32
640.181	16086.94
640.534	16005.36
640.888	16059.14
641.241	15950.22
641.594	15997.9
641.947	15966.71
642.301	15926.94
642.654	16054.17
643.007	16017.33
643.36	15896.88
643.713	15868.64
644.066	16018.46
644.419	15853.04
644.771	15799.49
645.124	15689.21
645.477	15596.55
645.83	15546.84
646.182	15446.95
646.535	15445.6
646.888	15510.45
647.24	15363.34
647.593	15374.64
647.945	15385.94
648.298	15234.53
648.65	15308.43
649.002	15310.91
649.355	15343.45
649.707	15406.28
650.059	15482.21
650.411	15566.72
650.763	15709.77
651.115	15818.02
651.467	15656.66
651.819	15673.39
652.171	15693.95
652.523	15632.48
652.875	15722.2
653.227	15583.45
653.578	15796.55
653.93	15658.7
654.282	15615.31
654.633	15559.49
654.985	15640.62
655.337	15704.35
655.688	15701.86
656.039	15713.84
656.391	15574.86
656.742	15639.26
657.094	15718.81
657.445	15726.27
657.796	15692.6
658.147	15679.49
658.498	15660.28
658.849	15704.8
659.2	15747.28
659.551	15649.89
659.902	15722.2
660.253	15702.77
660.604	15716.1
660.955	15619.15
661.306	15674.97
661.656	15645.37
662.007	15661.64
662.358	15632.26
662.708	15694.4
663.059	15656.89
663.409	15545.71
663.76	15651.92
664.11	15742.09
664.461	15753.84
664.811	15737.34
665.161	15733.27
665.511	15733.27
665.862	15663.22
666.212	15800.16
666.562	15740.96
666.912	15714.74
667.262	15707.96
667.612	15697.79
667.962	15697.79
668.312	15785.47
668.662	15759.94
669.011	15678.36
669.361	15649.43
669.711	15746.83
670.06	15637.68
670.41	15618.25
670.76	15657.57
671.109	15652.14
671.459	15672.71
671.808	15604.24
672.157	15613.73
672.507	15561.98
672.856	15495.76
673.205	15488.53
673.554	15648.3
673.904	15504.58
674.253	15610.34
674.602	15578.7
674.951	15310.68
675.3	15253.51
675.649	15518.36
675.998	15386.84
676.346	15376.9
676.695	15530.79
677.044	15348.2
677.393	15400.17
677.741	15437.69
678.09	15397.91
678.438	15324.02
678.787	15450.34
679.135	15460.51
679.484	15280.86
679.832	15245.6
680.181	15178.71
680.529	15236.56
680.877	15131.71
681.225	15164.25
681.573	15209.67
681.922	15093.52
682.27	15171.48
682.618	15063.91
682.966	15009.9
683.314	14975.55
683.661	14924.93
684.009	14931.49
684.357	14823.69
684.705	14942.56
685.053	14930.36
685.4	14835.67
685.748	14744.82
686.095	14807.42
686.443	14727.2
686.79	14643.81
687.138	14699.4
687.485	14650.36
687.832	14687.2
688.18	14673.41
688.527	14538.73
688.874	14540.54
689.221	14545.28
689.568	14527.2
689.915	14450.14
690.262	14360.88
690.609	14352.97
690.956	14291.28
691.303	14264.16
691.65	14243.82
691.997	14197.04
692.344	14120.66
692.69	14096.93
693.037	14069.36
693.383	13898.97
693.73	13961.57
694.077	13871.17
694.423	13917.95
694.769	13823.72
695.116	13750.95
695.462	13680.9
695.808	13705.53
696.155	13719.77
696.501	13595.7
696.847	13537.85
697.193	13504.86
697.539	13482.94
697.885	13387.12
698.231	13395.93
698.577	13392.77
698.923	13309.38
699.269	13213.79
699.614	13219.21
699.96	13140.12
700.306	13125.88
700.651	13040.69
700.997	12986
701.342	13049.73
701.688	12971.54
702.033	12958.66
702.379	12922.95
702.724	12872.33
703.069	12858.55
703.415	12717.08
703.76	12781.03
704.105	12779.9
704.45	12747.59
704.795	12611.32
705.14	12503.3
705.485	12531.32
705.83	12423.08
706.175	12507.82
706.52	12411.33
706.865	12407.71
707.209	12310.99
707.554	12266.02
707.899	12253.82
708.243	12127.49
708.588	12136.98
708.932	12141.73
709.277	12042.52
709.621	12115.51
709.966	12014.73
710.31	12019.25
710.654	11892.24
710.998	11960.04
711.342	11943.09
711.687	11907.84
712.031	11853.37
712.375	11783.77
712.719	11859.02
713.063	11838.01
713.407	11814.05
713.75	11746.03
714.094	11754.39
714.438	11727.5
714.782	11700.61
715.125	11636.88
715.469	11661.29
715.812	11619.48
716.156	11522.99
716.499	11624
716.843	11510.56
717.186	11465.59
717.53	11525.47
717.873	11475.53
718.216	11470.33
718.559	11411.58
718.902	11393.27
719.246	11415.42
719.589	11277.34
719.932	11327.74
720.275	11354.63
720.617	11286.38
720.96	11323.9
721.303	11252.03
721.646	11318.02
721.989	11221.53
722.331	11272.6
722.674	11239.38
723.016	11238.7
723.359	11196.67
723.701	11213.17
724.044	11148.31
724.386	11088.88
724.729	11181.53
725.071	11195.54
725.413	11075.54
725.755	11112.15
726.097	11029.22
726.439	10968.2
726.782	11038.93
727.124	11102.89
727.465	11006.62
727.807	11019.5
728.149	10978.14
728.491	10944.47
728.833	11013.4
729.175	10962.78
729.516	11015.88
729.858	11004.13
730.199	10948.31
730.541	10940.18
730.882	10963.23
731.224	11010.69
731.565	10929.78
731.906	10917.35
732.248	10994.41
732.589	10850.92
732.93	10896.11
733.271	10909.22
733.612	10917.13
733.953	10921.87
734.294	10934.3
734.635	10845.27
734.976	10875.55
735.317	10868.77
735.658	10842.55
735.999	10848.66
736.339	10854.08
736.68	10893.63
737.021	10814.08
737.361	10862.21
737.702	10857.47
738.042	10900.63
738.383	10902.89
738.723	10866.06
739.063	10876.9
739.404	10977.01
739.744	10885.04
740.084	10856.79
740.424	11014.3
740.764	10894.3
741.104	10952.61
741.444	10979.05
741.784	10967.97
742.124	11056.79
742.464	10952.61
742.804	10997.58
743.143	10993.96
743.483	11029.89
743.823	11057.92
744.162	11114.64
744.502	11145.14
744.841	11089.78
745.181	11172.94
745.52	11214.75
745.86	11270.57
746.199	11303.11
746.538	11301.98
746.877	11372.71
747.216	11447.28
747.556	11412.26
747.895	11402.31
748.234	11457.45
748.573	11506.94
748.911	11592.36
749.25	11692.7
749.589	11750.78
749.928	11835.75
750.267	11947.38
750.605	11948.51
750.944	11969.3
751.283	12040.49
751.621	12166.81
751.96	12190.32
752.298	12265.12
752.636	12421.72
752.975	12493.13
753.313	12577.65
753.651	12700.58
753.989	12804.08
754.327	12898.09
754.666	12954.59
755.004	13141.25
755.342	13300.12
755.679	13414.46
756.017	13467.34
