Data from hue_350_FLMS001491_78.txt Node
Date: Mon Feb 06 15:38:30 GMT 2017
User: dcchb
Spectrometer: FLMS00149
Trigger mode: 0
Integration Time (sec): 2.000000E-2
Scans to average: 10
Electric dark correction enabled: true
Nonlinearity correction enabled: false
Boxcar width: 0
XAxis mode: Wavelengths
Number of Pixels in Spectrum: 2048
>>>>>Begin Spectral Data<<<<<
341.393	-21.14
341.776	-21.14
342.16	-21.14
342.543	-59.11
342.927	-99.33
343.31	-51.65
343.693	-71.76
344.077	-65.44
344.46	-61.37
344.843	-54.14
345.226	-38.77
345.61	-24.76
345.993	-24.76
346.376	-5.78
346.759	5.97
347.142	30.15
347.525	33.09
347.908	51.85
348.291	64.5
348.674	87.78
349.057	125.07
349.44	99.08
349.823	155.8
350.206	149.93
350.588	182.01
350.971	222.92
351.354	222.01
351.737	232.86
352.119	230.6
352.502	261.79
352.884	272.41
353.267	274.44
353.65	288.45
354.032	277.15
354.414	302.01
354.797	320.09
355.179	306.98
355.562	317.15
355.944	316.47
356.326	320.77
356.709	324.61
357.091	335.91
357.473	335.91
357.855	327.55
358.238	325.29
358.62	331.84
359.002	335.23
359.384	327.1
359.766	331.16
360.148	329.81
360.53	334.55
360.912	337.27
361.294	315.8
361.676	314.67
362.057	340.88
362.439	327.55
362.821	330.94
363.203	321.9
363.584	323.71
363.966	323.93
364.348	296.14
364.729	316.7
365.111	326.19
365.493	306.53
365.874	325.29
366.256	304.5
366.637	299.53
367.019	316.02
367.4	316.02
367.781	317.38
368.163	286.87
368.544	331.84
368.925	313.99
369.306	337.49
369.688	297.49
370.069	285.29
370.45	304.27
370.831	294.78
371.212	292.97
371.593	324.16
371.974	296.36
372.355	312.18
372.736	316.47
373.117	307.21
373.498	305.18
373.879	303.82
374.26	306.53
374.641	293.88
375.021	291.39
375.402	276.48
375.783	297.27
376.163	302.24
376.544	312.18
376.925	323.71
377.305	320.77
377.686	311.96
378.066	323.71
378.447	313.54
378.827	321.67
379.208	308.79
379.588	304.27
379.968	316.93
380.349	312.18
380.729	318.51
381.109	326.87
381.489	327.32
381.87	329.36
382.25	322.35
382.63	327.55
383.01	323.71
383.39	329.36
383.77	331.62
384.15	322.12
384.53	335.01
384.91	347.21
385.29	336.14
385.67	336.81
386.049	322.58
386.429	335.46
386.809	331.84
387.189	362.35
387.568	333.65
387.948	338.4
388.328	365.51
388.707	354.67
389.087	323.93
389.466	331.84
389.846	344.27
390.225	349.92
390.605	352.18
390.984	350.15
391.363	345.17
391.743	358.28
392.122	370.26
392.501	345.17
392.881	360.09
393.26	354.21
393.639	341.33
394.018	338.62
394.397	358.73
394.776	362.35
395.155	360.32
395.534	369.81
395.913	360.77
396.292	356.93
396.671	341.33
397.05	362.8
397.429	358.96
397.808	356.47
398.186	359.41
398.565	368.22
398.944	365.74
399.323	373.87
399.701	371.39
400.08	371.84
400.458	367.32
400.837	380.2
401.215	405.51
401.594	408.9
401.972	367.32
402.351	378.17
402.729	388.79
403.107	405.74
403.486	377.49
403.864	395.34
404.242	389.02
404.62	409.35
404.999	391.95
405.377	412.07
405.755	393.99
406.133	404.38
406.511	436.02
406.889	412.52
407.267	428.79
407.645	402.35
408.023	419.07
408.401	422.01
408.779	414.33
409.156	434.21
409.534	413.87
409.912	399.64
410.29	437.38
410.667	416.13
411.045	447.32
411.422	419.07
411.8	455.91
412.178	435.57
412.555	426.3
412.933	427.88
413.31	459.97
413.687	421.33
414.065	436.7
414.442	449.13
414.819	461.1
415.197	471.95
415.574	485.06
415.951	461.33
416.328	472.18
416.705	472.4
417.082	465.4
417.46	471.27
417.837	481.44
418.214	500.2
418.591	485.96
418.967	491.84
419.344	484.38
419.721	513.76
420.098	499.07
420.475	505.4
420.852	504.04
421.228	521.67
421.605	503.14
421.982	499.52
422.358	519.18
422.735	536.13
423.111	540.2
423.488	520.31
423.864	530.48
424.241	520.09
424.617	523.7
424.994	527.99
425.37	533.87
425.746	553.3
426.123	537.03
426.499	542.01
426.875	547.66
427.251	559.18
427.627	561.44
428.003	564.38
428.379	582.23
428.756	602.79
429.132	601.44
429.507	601.21
429.883	589.91
430.259	594.43
430.635	590.59
431.011	603.02
431.387	594.89
431.763	586.07
432.138	623.59
432.514	622.68
432.89	625.39
433.265	633.53
433.641	618.61
434.016	646.64
434.392	659.06
434.767	669.01
435.143	669.69
435.518	657.26
435.894	668.1
436.269	673.08
436.644	700.19
437.02	677.82
437.395	697.93
437.77	678.95
438.145	701.32
438.52	701.32
438.895	721.21
439.271	729.12
439.646	736.8
440.021	718.27
440.395	723.02
440.77	743.81
441.145	745.39
441.52	758.95
441.895	729.57
442.27	724.15
442.645	740.19
443.019	757.37
443.394	754.88
443.769	745.39
444.143	753.07
444.518	780.87
444.892	769.8
445.267	751.49
445.641	758.95
446.016	777.03
446.39	778.38
446.764	774.54
447.139	787.2
447.513	801.66
447.887	803.92
448.262	791.72
448.636	786.74
449.01	779.06
449.384	803.24
449.758	830.13
450.132	826.07
450.506	827.2
450.88	841.88
451.254	854.54
451.628	863.8
452.002	837.82
452.376	850.92
452.75	870.81
453.123	846.18
453.497	862.68
453.871	858.61
454.244	872.84
454.618	896.12
454.992	918.72
455.365	897.48
455.739	920.98
456.112	913.07
456.486	911.26
456.859	908.55
457.232	936.57
457.606	947.19
457.979	937.93
458.352	977.7
458.725	963.24
459.099	973.18
459.472	976.8
459.845	1014.76
460.218	996.23
460.591	1003.46
460.964	1019.51
461.337	1039.85
461.71	1055.44
462.083	1032.39
462.456	1079.84
462.829	1048.66
463.201	1107.87
463.574	1089.56
463.947	1106.51
464.32	1096.34
464.692	1127.53
465.065	1117.13
465.438	1130.01
465.81	1148.32
466.183	1192.84
466.555	1179.28
466.928	1169.11
467.3	1204.59
467.672	1224.93
468.045	1234.87
468.417	1251.59
468.789	1243
469.161	1254.98
469.534	1282.55
469.906	1311.25
470.278	1285.71
470.65	1318.26
471.022	1337.01
471.394	1349.67
471.766	1384.7
472.138	1409.78
472.51	1424.92
472.882	1446.84
473.253	1449.33
473.625	1478.7
473.997	1508.31
474.369	1490
474.74	1511.92
475.112	1545.37
475.484	1559.83
475.855	1586.05
476.227	1639.15
476.598	1623.56
476.97	1653.84
477.341	1709.21
477.713	1692.94
478.084	1721.18
478.455	1782.65
478.827	1789.43
479.198	1831.46
479.569	1842.08
479.94	1905.59
480.311	1903.33
480.682	1965.92
481.053	1986.71
481.424	1979.93
481.795	2036.66
482.166	2078.69
482.537	2065.13
482.908	2133.15
483.279	2188.52
483.65	2199.14
484.021	2241.85
484.391	2285.01
484.762	2293.82
485.133	2276.2
485.503	2354.84
485.874	2379.47
486.244	2396.42
486.615	2455.4
486.985	2468.96
487.356	2527.49
487.726	2576.53
488.097	2607.49
488.467	2621.05
488.837	2713.7
489.207	2731.55
489.578	2702.17
489.948	2809.29
490.318	2782.62
490.688	2777.65
491.058	2848.16
491.428	2906.24
491.798	2959.8
492.168	2971.09
492.538	3002.73
492.908	2995.5
493.278	3096.51
493.648	3100.36
494.017	3133.8
494.387	3161.15
494.757	3163.18
495.126	3219.9
495.496	3183.74
495.866	3228.49
496.235	3219.68
496.605	3299
496.974	3315.04
497.344	3385.09
497.713	3405.43
498.082	3385.55
498.452	3448.6
498.821	3452.21
499.19	3450.86
499.559	3459.67
499.928	3518.65
500.298	3565.2
500.667	3574.92
501.036	3570.63
501.405	3605.2
501.774	3581.02
502.143	3617.18
502.512	3650.17
502.88	3667.35
503.249	3685.65
503.618	3690.85
503.987	3715.48
504.356	3707.35
504.724	3727.46
505.093	3755.25
505.462	3791.64
505.83	3804.07
506.199	3830.96
506.567	3877.29
506.936	3888.58
507.304	3909.83
507.672	3925.65
508.041	3926.32
508.409	3934.46
508.777	3940.79
509.145	3979.66
509.514	3988.92
509.882	3988.02
510.25	4034.8
510.618	4054
510.986	4058.3
511.354	4089.71
511.722	4054.68
512.09	4127.22
512.458	4124.28
512.826	4174
513.193	4140.1
513.561	4163.38
513.929	4176.94
514.297	4205.86
514.664	4232.98
515.032	4221.46
515.4	4282.7
515.767	4272.08
516.135	4308.91
516.502	4285.41
516.869	4307.56
517.237	4330.83
517.604	4309.36
517.972	4346.43
518.339	4381.9
518.706	4407.67
519.073	4409.25
519.44	4413.32
519.808	4432.3
520.175	4421
520.542	4479.3
520.909	4511.62
521.276	4496.48
521.643	4554.78
522.009	4533.09
522.376	4566.98
522.743	4592.97
523.11	4598.62
523.477	4611.96
523.843	4658.73
524.21	4734.66
524.577	4731.27
524.943	4771.72
525.31	4749.13
525.676	4816.24
526.043	4815.79
526.409	4850.59
526.776	4863.93
527.142	4848.33
527.508	4918.16
527.874	4952.06
528.241	4901.66
528.607	4906.64
528.973	5032.06
529.339	4986.63
529.705	5057.14
530.071	5067.31
530.437	5102.34
530.803	5105.28
531.169	5134.88
531.535	5163.58
531.901	5194.31
532.267	5178.72
532.632	5208.1
532.998	5237.02
533.364	5229.79
533.73	5273.18
534.095	5327.19
534.461	5329
534.826	5360.18
535.192	5400.18
535.557	5427.98
535.923	5430.01
536.288	5429.11
536.653	5510.24
537.019	5458.94
537.384	5476.11
537.749	5463.91
538.114	5510.01
538.479	5557.92
538.845	5583.91
539.21	5563.57
539.575	5576.68
539.94	5672.27
540.305	5700.29
540.67	5634.53
541.034	5700.06
541.399	5750
541.764	5733.73
542.129	5774.64
542.494	5764.24
542.858	5810.79
543.223	5813.96
543.587	5863.45
543.952	5908.87
544.316	5894.18
544.681	5870.23
545.045	5937.12
545.41	5965.59
545.774	5962.65
546.138	5992.71
546.503	5995.87
546.867	6075.19
547.231	6109.99
547.595	6116.77
547.959	6155.64
548.324	6097.34
548.688	6190.22
549.052	6173.27
549.416	6258.01
549.779	6224.79
550.143	6272.48
550.507	6255.98
550.871	6320.61
551.235	6272.48
551.599	6391.12
551.962	6351.12
552.326	6383.89
552.689	6394.51
553.053	6409.2
553.417	6473.15
553.78	6483.32
554.143	6470.44
554.507	6491.23
554.87	6464.56
555.234	6613.94
555.597	6494.62
555.96	6581.62
556.323	6638.12
556.686	6565.12
557.05	6661.62
557.413	6667.27
557.776	6658.68
558.139	6709.75
558.502	6670.88
558.865	6757.44
559.228	6788.62
559.59	6788.62
559.953	6798.79
560.316	6889.64
560.679	6859.81
561.041	6859.81
561.404	6920.82
561.767	6908.17
562.129	6890.99
562.492	6936.87
562.854	6960.59
563.217	6952.01
563.579	7003.08
563.941	7025.9
564.304	7039.24
564.666	7130.76
565.028	7173.24
565.39	7119.69
565.753	7172.34
566.115	7210.53
566.477	7264.09
566.839	7261.6
567.201	7307.25
567.563	7291.43
567.925	7407.14
568.287	7366.46
568.648	7389.06
569.01	7428.6
569.372	7443.97
569.734	7508.6
570.095	7494.59
570.457	7608.71
570.819	7571.88
571.18	7636.51
571.542	7666.56
571.903	7658.88
572.265	7699.33
572.626	7839.67
572.987	7794.24
573.349	7862.49
573.71	7886.45
574.071	7929.16
574.432	7930.96
574.794	8031.75
575.155	8050.06
575.516	8060.23
575.877	8148.13
576.238	8178.41
576.599	8275.59
576.96	8329.6
577.32	8410.95
577.681	8509.93
578.042	8527.78
578.403	8635.13
578.763	8743.82
579.124	8759.19
579.485	8924.16
579.845	8977.26
580.206	8999.18
580.566	9156.92
580.927	9295.45
581.287	9377.03
581.648	9429.23
582.008	9603.69
582.368	9690.92
582.728	9782.67
583.089	10004.13
583.449	10126.84
583.809	10286.61
584.169	10433.27
584.529	10527.96
584.889	10761.17
585.249	10905.8
585.609	10999.81
585.969	11243.42
586.329	11364.32
586.688	11586.91
587.048	11818.09
587.408	11953.46
587.768	12148.71
588.127	12394.35
588.487	12548.92
588.846	12850.38
589.206	13040.21
589.565	13326.08
589.925	13582.11
590.284	13739.62
590.643	14050.8
591.003	14281.76
591.362	14500.73
591.721	14829.54
592.08	15025.01
592.44	15416.42
592.799	15557.66
593.158	15810.98
593.517	16002.39
593.876	16366.67
594.235	16646.67
594.593	16859.77
594.952	17252.75
595.311	17401.45
595.67	17710.37
596.029	18101.77
596.387	18442.78
596.746	18748.31
597.104	18947.4
597.463	19184
597.822	19575.63
598.18	19750.31
598.538	19971.78
598.897	20427.58
599.255	20597.07
599.613	21080.22
599.972	21142.37
600.33	21565.18
600.688	21752.75
601.046	22024.83
601.404	22370.81
601.762	22646.28
602.12	22993.84
602.478	23214.86
602.836	23433.83
603.194	23648.74
603.552	23968.28
603.91	24133.48
604.268	24502.05
604.625	24663.63
604.983	25088.25
605.341	25122.6
605.698	25538.64
606.056	25804.39
606.413	26026.99
606.771	26309.46
607.128	26594.43
607.485	26716.46
607.843	26970.46
608.2	27370.23
608.557	27549.66
608.914	27653.84
609.272	28144.22
609.629	28308.96
609.986	28624.88
610.343	28653.13
610.7	29073.91
611.057	29190.74
611.414	29371.08
611.771	29527.46
612.127	29870.5
612.484	30024.85
612.841	30299.64
613.198	30258.29
613.554	30488.34
613.911	30755.22
614.267	30970.13
614.624	31158.38
614.98	31333.51
615.337	31569.21
615.693	31706.61
616.05	31876.55
616.406	32146.37
616.762	32204.45
617.118	32399.92
617.475	32467.95
617.831	32672.91
618.187	32937.09
618.543	33009.17
618.899	33234.48
619.255	33434.47
619.611	33371.2
619.967	33589.72
620.323	33829.04
620.678	33838.08
621.034	33786.78
621.39	33930.73
621.746	33953.56
622.101	34522.58
622.457	34367.33
622.812	34316.26
623.168	34516.93
623.523	34638.28
623.879	34902.01
624.234	34758.06
624.589	34912.4
624.945	35077.14
625.3	35262.67
625.655	35320.07
626.01	35355.78
626.365	35442.56
626.72	35389.22
627.075	35454.76
627.43	35505.61
627.785	35553.51
628.14	35806.16
628.495	35794.86
628.85	35830.12
629.205	35872.15
629.559	36055.42
629.914	35939.49
630.269	36034.41
630.623	35984.01
630.978	35960.06
631.332	36105.59
631.687	36369.31
632.041	36157.57
632.396	36196.89
632.75	36222.2
633.104	36315.3
633.459	35957.12
633.813	36234.4
634.167	36204.34
634.521	36331.8
634.875	36325.02
635.229	36322.08
635.583	36177
635.937	36209.09
636.291	36451.57
636.645	36322.31
636.999	36298.81
637.352	36447.73
637.706	36192.59
638.06	36411.8
638.413	36281.63
638.767	36261.52
639.121	36327.05
639.474	36169.77
639.828	36303.78
640.181	36293.83
640.534	36405.24
640.888	36284.34
641.241	36140.39
641.594	36230.56
641.947	36393.94
642.301	36254.51
642.654	36231.69
643.007	36255.64
643.36	36218.13
643.713	36180.62
644.066	36382.65
644.419	36225.36
644.771	35860.17
645.124	35562.33
645.477	35530.01
645.83	35423.8
646.182	35343.58
646.535	35203.02
646.888	35269
647.24	35030.36
647.593	35245.5
647.945	35302.45
648.298	35191.94
648.65	34982.23
649.002	34933.19
649.355	34980.65
649.707	35106.75
650.059	35231.49
650.411	35698.37
650.763	35706.28
651.115	35976.78
651.467	35914.63
651.819	35862.21
652.171	35879.38
652.523	35809.33
652.875	35925.93
653.227	35666.28
653.578	35894.52
653.93	35917.8
654.282	35678.93
654.633	35605.26
654.985	35641.65
655.337	35817.01
655.688	35745.15
656.039	35860.17
656.391	35410.92
656.742	35662.44
657.094	35609.78
657.445	35737.24
657.796	35689.56
658.147	35648.88
658.498	35627.86
658.849	35579.73
659.2	35604.36
659.551	35475.78
659.902	35606.62
660.253	35617.69
660.604	35481.65
660.955	35406.85
661.306	35623.79
661.656	35439.17
662.007	35569.33
662.358	35563.46
662.708	35548.09
663.059	35584.93
663.409	35234.65
663.76	35567.75
664.11	35590.35
664.461	35528.2
664.811	35470.35
665.161	35571.59
665.511	35343.8
665.862	35551.93
666.212	35514.19
666.562	35531.82
666.912	35472.84
667.262	35357.59
667.612	35346.74
667.962	35470.13
668.312	35282.79
668.662	35666.51
669.011	35440.3
669.361	35319.4
669.711	35362.11
670.06	35353.07
670.41	35285.5
670.76	35210.25
671.109	35376.12
671.459	35342.22
671.808	35222.68
672.157	35414.53
672.507	35123.02
672.856	35145.62
673.205	35290.47
673.554	35359.4
673.904	35194.2
674.253	35445.04
674.602	35089.8
674.951	34764.16
675.3	34506.54
675.649	35012.51
675.998	35084.6
676.346	35163.69
676.695	35200.08
677.044	34896.36
677.393	34997.37
677.741	35008.44
678.09	34956.47
678.438	34897.71
678.787	34938.84
679.135	34956.24
679.484	34788.56
679.832	34827.66
680.181	34646.87
680.529	35028.1
680.877	34740.65
681.225	34671.73
681.573	35028.56
681.922	34673.09
682.27	34450.94
682.618	34526.42
682.966	34470.38
683.314	34633.76
683.661	34517.16
684.009	34238.75
684.357	34326.88
684.705	34285.53
685.053	34218.41
685.4	34125.76
685.748	33878.53
686.095	33944.29
686.443	33903.39
686.79	33888.7
687.138	33953.33
687.485	33917.85
687.832	33754.47
688.18	33847.34
688.527	33580.46
688.874	33655.26
689.221	33476.73
689.568	33541.59
689.915	33490.97
690.262	33424.3
690.609	33211.2
690.956	33033.58
691.303	33214.37
691.65	33042.62
691.997	33078.1
692.344	32796.75
692.69	32748.62
693.037	32795.17
693.383	32667.94
693.73	32791.33
694.077	32420.94
694.423	32566.25
694.769	32415.07
695.116	32328.29
695.462	32342.75
695.808	32167.61
696.155	32200.16
696.501	31956.09
696.847	32083.32
697.193	31756.1
697.539	31922.65
697.885	31654.86
698.231	31617.8
698.577	31525.6
698.923	31482.43
699.269	31449.22
699.614	31259.62
699.96	31162.22
700.306	31231.14
700.651	31089.9
700.997	30979.62
701.342	31053.52
701.688	30942.11
702.033	30723.81
702.379	30680.65
702.724	30661.89
703.069	30731.72
703.415	30337.61
703.76	30312.75
704.105	30441.56
704.45	30348.91
704.795	30210.6
705.14	30075.24
705.485	29942.36
705.83	29921.12
706.175	29977.39
706.52	29862.14
706.865	29759.77
707.209	29817.39
707.554	29653.78
707.899	29652.43
708.243	29549.38
708.588	29446.56
708.932	29281.14
709.277	29344.41
709.621	29209.27
709.966	29185.77
710.31	29226.9
710.654	28976.74
710.998	28901.49
711.342	28962.73
711.687	28903.75
712.031	28886.57
712.375	28687.71
712.719	28699.68
713.063	28664.88
713.407	28710.08
713.75	28608.84
714.094	28530.2
714.438	28425.57
714.782	28470.76
715.125	28329.75
715.469	28427.15
715.812	28145.35
716.156	28166.36
716.499	28041.17
716.843	28163.65
717.186	27903.09
717.53	28133.14
717.873	28014.73
718.216	27964.34
718.559	27810.89
718.902	27683.66
719.246	27706.71
719.589	27494.97
719.932	27564.8
720.275	27566.15
720.617	27465.37
720.96	27435.08
721.303	27368.42
721.646	27436.21
721.989	27348.76
722.331	27383.56
722.674	27275.09
723.016	27279.61
723.359	27317.8
723.701	27172.49
724.044	27057.92
724.386	26968.66
724.729	27064.47
725.071	26929.79
725.413	26966.85
725.755	26855.66
726.097	26903.8
726.439	26679.85
726.782	26723.01
727.124	26733.86
727.465	26670.13
727.807	26522.34
728.149	26418.16
728.491	26560.3
728.833	26607.53
729.175	26424.94
729.516	26318.05
729.858	26382
730.199	26404.15
730.541	26307.66
730.882	26166.87
731.224	26349.69
731.565	26155.12
731.906	26138.85
732.248	26177.49
732.589	25978.85
732.93	25971.39
733.271	25886.42
733.612	26005.97
733.953	25982.69
734.294	25906.08
734.635	25817.27
734.976	25828.35
735.317	25733.21
735.658	25731.17
735.999	25638.75
736.339	25726.65
736.68	25774.34
737.021	25587.22
737.361	25580.9
737.702	25650.5
738.042	25555.59
738.383	25475.14
738.723	25561.69
739.063	25464.51
739.404	25468.36
739.744	25356.27
740.084	25233.33
740.424	25283.28
740.764	25305.65
741.104	25321.47
741.444	25134.81
741.784	25020.23
742.124	24970.52
742.464	25043.73
742.804	25017.97
743.143	25050.97
743.483	24917.18
743.823	24884.64
744.162	24782.95
744.502	24835.6
744.841	24710.18
745.181	24900.24
745.52	24610.53
745.86	24764.19
746.199	24710.18
746.538	24685.33
746.877	24780.46
747.216	24636.06
747.556	24482.39
747.895	24495.05
748.234	24278.33
748.573	24353.81
748.911	24369.85
749.25	24367.14
749.589	24142.51
749.928	24232
750.267	24255.28
750.605	24249.4
750.944	24071.33
751.283	24013.93
751.621	24159.46
751.96	24014.16
752.298	24009.41
752.636	24061.16
752.975	23994.95
753.313	23770.55
753.651	23962.63
753.989	23699.14
754.327	23793.37
754.666	23574.62
755.004	23644.22
755.342	23592.92
755.679	23601.96
756.017	23366.49
756.355	23567.39
756.693	23429.77
757.031	23420.73
757.368	23354.51
757.706	23198.81
758.044	23117.01
758.381	23173.95
758.719	23107.74
759.056	23004.69
759.394	22918.59
759.731	22852.38
760.068	22790.23
760.405	22764.92
760.743	22759.5
761.08	22757.47
