Data from hue_330_FLMS001491_89.txt Node
Date: Mon Feb 06 15:46:03 GMT 2017
User: dcchb
Spectrometer: FLMS00149
Trigger mode: 0
Integration Time (sec): 2.000000E-2
Scans to average: 10
Electric dark correction enabled: true
Nonlinearity correction enabled: false
Boxcar width: 0
XAxis mode: Wavelengths
Number of Pixels in Spectrum: 2048
>>>>>Begin Spectral Data<<<<<
341.393	-7.91
341.776	-7.91
342.16	-7.91
342.543	-68.47
342.927	-80.45
343.31	-75.48
343.693	-84.52
344.077	-61.24
344.46	-62.6
344.843	-50.85
345.226	-55.82
345.61	-23.73
345.993	-15.37
346.376	-13.33
346.759	14.01
347.142	32.54
347.525	37.74
347.908	57.4
348.291	84.97
348.674	108.02
349.057	108.25
349.44	128.58
349.823	134.23
350.206	173.33
350.588	219.88
350.971	206.55
351.354	225.08
351.737	243.38
352.119	262.37
352.502	262.82
352.884	284.06
353.267	288.58
353.65	296.04
354.032	305.53
354.414	316.6
354.797	309.6
355.179	319.77
355.562	322.7
355.944	326.32
356.326	325.87
356.709	319.09
357.091	336.49
357.473	335.13
357.855	353.21
358.238	373.32
358.62	333.1
359.002	349.82
359.384	356.15
359.766	330.16
360.148	356.6
360.53	324.29
360.912	355.47
361.294	338.07
361.676	323.61
362.057	325.19
362.439	317.05
362.821	340.78
363.203	345.75
363.584	347.79
363.966	317.96
364.348	361.12
364.729	312.99
365.111	340.33
365.493	333.32
365.874	319.31
366.256	307.56
366.637	322.93
367.019	317.51
367.4	320.22
367.781	316.83
368.163	319.77
368.544	292.42
368.925	325.64
369.306	307.79
369.688	320.44
370.069	319.31
370.45	313.21
370.831	328.35
371.212	312.31
371.593	324.74
371.974	311.4
372.355	317.05
372.736	330.39
373.117	325.87
373.498	328.8
373.879	312.53
374.26	324.51
374.641	336.94
375.021	314.12
375.402	319.99
375.783	332.65
376.163	330.16
376.544	337.62
376.925	340.56
377.305	328.8
377.686	327
378.066	322.25
378.447	321.35
378.827	329.93
379.208	321.57
379.588	350.5
379.968	318.41
380.349	330.16
380.729	356.83
381.109	334.68
381.489	337.17
381.87	340.78
382.25	337.39
382.63	352.53
383.01	353.44
383.39	313.44
383.77	334.45
384.15	350.5
384.53	335.13
384.91	353.44
385.29	350.95
385.67	345.3
386.049	358.18
386.429	347.79
386.809	344.62
387.189	361.8
387.568	374.91
387.948	355.02
388.328	361.8
388.707	346.21
389.087	351.18
389.466	376.49
389.846	350.95
390.225	354.11
390.605	363.38
390.984	361.12
391.363	368.35
391.743	378.3
392.122	377.84
392.501	378.97
392.881	391.85
393.26	368.8
393.639	386.43
394.018	378.52
394.397	353.21
394.776	383.27
395.155	380.78
395.534	385.98
395.913	379.2
396.292	396.37
396.671	387.33
397.05	410.16
397.429	405.19
397.808	375.81
398.186	381.68
398.565	370.39
398.944	397.28
399.323	413.77
399.701	397.05
400.08	390.5
400.458	407.22
400.837	415.58
401.215	419.88
401.594	402.7
401.972	403.38
402.351	428.69
402.729	425.07
403.107	407.67
403.486	428.01
403.864	434.56
404.242	425.3
404.62	429.59
404.999	431.63
405.377	445.41
405.755	433.66
406.133	434.11
406.511	436.6
406.889	456.49
407.267	453.55
407.645	475.47
408.023	456.03
408.401	472.76
408.779	477.95
409.156	482.25
409.534	490.83
409.912	482.7
410.29	495.35
410.667	505.98
411.045	501.46
411.422	515.92
411.8	517.27
412.178	527.9
412.555	517.05
412.933	508.69
413.31	543.04
413.687	532.19
414.065	558.18
414.442	548.46
414.819	552.98
415.197	546.2
415.574	564.5
415.951	567.67
416.328	569.48
416.705	587.33
417.082	592.75
417.46	565.86
417.837	613.77
418.214	603.15
418.591	607.89
418.967	620.77
419.344	631.62
419.721	627.1
420.098	633.66
420.475	644.28
420.852	664.16
421.228	660.32
421.605	637.05
421.982	663.71
422.358	660.55
422.735	684.28
423.111	674.78
423.488	693.09
423.864	711.17
424.241	682.69
424.617	722.01
424.994	696.7
425.37	727.89
425.746	698.29
426.123	728.79
426.499	740.32
426.875	739.87
427.251	757.27
427.627	757.95
428.003	768.57
428.379	771.28
428.756	802.69
429.132	776.48
429.507	800.43
429.883	806.31
430.259	824.84
430.635	799.3
431.011	826.87
431.387	844.05
431.763	864.61
432.138	857.15
432.514	906.87
432.89	886.76
433.265	888.56
433.641	892.63
434.016	905.96
434.392	912.52
434.767	915.91
435.143	928.34
435.518	942.35
435.894	936.47
436.269	942.12
436.644	968.11
437.02	985.28
437.395	985.06
437.77	988.22
438.145	991.16
438.52	1026.87
438.895	1030.71
439.271	1022.12
439.646	1054.21
440.021	1032.97
440.395	1051.27
440.77	1016.02
441.145	1052.63
441.52	1048.33
441.895	1082.23
442.27	1079.97
442.645	1074.32
443.019	1098.95
443.394	1097.6
443.769	1099.63
444.143	1069.12
444.518	1131.04
444.892	1131.72
445.267	1119.07
445.641	1147.99
446.016	1124.26
446.39	1100.54
446.764	1141.44
447.139	1136.24
447.513	1145.51
447.887	1142.34
448.262	1154.77
448.636	1168.56
449.01	1154.55
449.384	1172.62
449.758	1165.39
450.132	1193.41
450.506	1179.4
450.88	1187.09
451.254	1190.93
451.628	1222.57
452.002	1206.3
452.376	1253.3
452.75	1237.48
453.123	1237.03
453.497	1237.26
453.871	1262.11
454.244	1295.56
454.618	1263.7
454.992	1295.56
455.365	1296.01
455.739	1315.9
456.112	1338.27
456.486	1326.97
456.859	1334.2
457.232	1362.68
457.606	1361.09
457.979	1378.95
458.352	1375.78
458.725	1397.93
459.099	1416.01
459.472	1432.05
459.845	1456.91
460.218	1462.33
460.591	1448.1
460.964	1472.96
461.337	1470.24
461.71	1527.42
462.083	1535.55
462.456	1532.84
462.829	1556.34
463.201	1543.46
463.574	1527.64
463.947	1581.65
464.32	1569.9
464.692	1593.4
465.065	1578.94
465.438	1646.06
465.81	1596.57
466.183	1659.17
466.555	1674.08
466.928	1718.6
467.3	1673.63
467.672	1705.94
468.045	1745.72
468.417	1711.37
468.789	1740.29
469.161	1777.35
469.534	1801.76
469.906	1816.68
470.278	1832.95
470.65	1848.31
471.022	1881.08
471.394	1913.85
471.766	1973.51
472.138	1944.81
472.51	1979.83
472.882	1984.35
473.253	1988.65
473.625	2040.4
473.997	2070.91
474.369	2071.58
474.74	2108.42
475.112	2114.75
475.484	2147.29
475.855	2161.07
476.227	2214.63
476.598	2235.2
476.97	2234.97
477.341	2300.05
477.713	2309.09
478.084	2338.02
478.455	2374.63
478.827	2397.68
479.198	2446.72
479.569	2477.22
479.94	2521.97
480.311	2517.9
480.682	2580.72
481.053	2621.85
481.424	2678.8
481.795	2688.29
482.166	2717.44
482.537	2723.77
482.908	2793.82
483.279	2806.25
483.65	2816.88
484.021	2891.9
484.391	2902.52
484.762	2923.09
485.133	2976.42
485.503	3010.99
485.874	3048.73
486.244	3077.89
486.615	3105.46
486.985	3148.39
487.356	3251.21
487.726	3215.28
488.097	3264.55
488.467	3279.69
488.837	3345.45
489.207	3338.67
489.578	3417.31
489.948	3431.77
490.318	3502.05
490.688	3460.93
491.058	3563.97
491.428	3575.73
491.798	3603.97
492.168	3664.99
492.538	3699.79
492.908	3741.82
493.278	3730.07
493.648	3761.71
494.017	3818.2
494.387	3786.34
494.757	3838.54
495.126	3893.46
495.496	3911.08
495.866	3933.46
496.235	3950.63
496.605	3970.07
496.974	4034.24
497.344	4029.72
497.713	4043.06
498.082	4114.69
498.452	4071.98
498.821	4126.22
499.19	4115.82
499.559	4156.73
499.928	4175.94
500.298	4193.56
500.667	4195.82
501.036	4209.15
501.405	4257.52
501.774	4242.15
502.143	4301.36
502.512	4338.64
502.88	4356.95
503.249	4379.32
503.618	4372.31
503.987	4369.15
504.356	4417.74
504.724	4446.66
505.093	4445.08
505.462	4457.74
505.83	4506.32
506.199	4450.5
506.567	4572.31
506.936	4532.76
507.304	4606.66
507.672	4605.75
508.041	4667.45
508.409	4634
508.777	4647.79
509.145	4716.03
509.514	4670.39
509.882	4651.86
510.25	4737.5
510.618	4744.51
510.986	4715.36
511.354	4790.16
511.722	4778.86
512.09	4862.25
512.458	4855.47
512.826	4899.98
513.193	4847.78
513.561	4859.31
513.929	4900.21
514.297	4994.67
514.664	4955.12
515.032	4985.86
515.4	4981.34
515.767	5006.87
516.135	5039.87
516.502	4985.41
516.869	5061.56
517.237	5135.01
517.604	5042.35
517.972	5144.72
518.339	5102.01
518.706	5115.8
519.073	5141.79
519.44	5149.47
519.808	5262.23
520.175	5210.71
520.542	5224.04
520.909	5256.81
521.276	5274.44
521.643	5284.15
522.009	5293.19
522.376	5339.07
522.743	5372.51
523.11	5415.22
523.477	5433.76
523.843	5471.27
524.21	5494.77
524.577	5549.23
524.943	5513.08
525.31	5542.68
525.676	5644.6
526.043	5631.94
526.409	5663.58
526.776	5685.05
527.142	5702.22
527.508	5716.01
527.874	5803.24
528.241	5763.24
528.607	5779.28
528.973	5892.73
529.339	5846.63
529.705	5873.29
530.071	5948.09
530.437	5951.93
530.803	6019.95
531.169	6009.79
531.535	6053.85
531.901	6014.98
532.267	6111.03
532.632	6084.59
532.998	6132.95
533.364	6180.63
533.73	6181.98
534.095	6240.29
534.461	6224.7
534.826	6289.78
535.192	6307.86
535.557	6305.82
535.923	6360.74
536.288	6360.06
536.653	6392.6
537.019	6426.5
537.384	6451.58
537.749	6507.85
538.114	6463.78
538.479	6473.05
538.845	6524.35
539.21	6497.23
539.575	6547.4
539.94	6589.21
540.305	6633.05
540.67	6671.46
541.034	6679.15
541.399	6719.82
541.764	6693.84
542.129	6767.96
542.494	6773.83
542.858	6843.44
543.223	6793.72
543.587	6806.37
543.952	6836.43
544.316	6922.98
544.681	6939.93
545.045	6958.24
545.41	6995.3
545.774	7053.37
546.138	7019.25
546.503	7036.43
546.867	7049.53
547.231	7125.24
547.595	7167.95
547.959	7223.09
548.324	7160.72
548.688	7271.45
549.052	7303.76
549.416	7316.42
549.779	7380.37
550.143	7324.33
550.507	7349.64
550.871	7357.55
551.235	7367.04
551.599	7468.28
551.962	7489.75
552.326	7477.77
552.689	7521.38
553.053	7497.43
553.417	7508.96
553.78	7557.32
554.143	7591.21
554.507	7576.75
554.87	7664.21
555.234	7743.75
555.597	7674.83
555.96	7673.02
556.323	7706.24
556.686	7697.88
557.05	7766.35
557.413	7856.74
557.776	7830.75
558.139	7891.54
558.502	7909.62
558.865	7849.51
559.228	7953.01
559.59	7912.33
559.953	7949.85
560.316	8077.08
560.679	8117.53
561.041	8133.57
561.404	8145.77
561.767	8123.4
562.129	8183.51
562.492	8237.07
562.854	8164.53
563.217	8201.59
563.579	8272.78
563.941	8287.47
564.304	8305.32
564.666	8460.79
565.028	8399.1
565.39	8403.39
565.753	8503.73
566.115	8434.58
566.477	8459.89
566.839	8471.42
567.201	8558.87
567.563	8618.98
567.925	8614.46
568.287	8656.72
568.648	8674.12
569.01	8726.78
569.372	8766.78
569.734	8747.79
570.095	8825.3
570.457	8840.45
570.819	8868.02
571.18	8915.02
571.542	8995.92
571.903	8945.3
572.265	9089.7
572.626	9121.12
572.987	9131.06
573.349	9117.95
573.71	9214.22
574.071	9261
574.432	9328.12
574.794	9411.5
575.155	9502.12
575.516	9459.19
575.877	9569.69
576.238	9665.96
576.599	9685.17
576.96	9767.65
577.32	9844.49
577.681	9969.91
578.042	9982.56
578.403	10069.79
578.763	10147.08
579.124	10235.89
579.485	10370.8
579.845	10459.84
580.206	10546.39
580.566	10702.54
580.927	10766.72
581.287	10948.64
581.648	11013.95
582.008	11175.53
582.368	11312.24
582.728	11482.86
583.089	11594.95
583.449	11711.78
583.809	11921.49
584.169	12062.73
584.529	12217.53
584.889	12529.39
585.249	12612.55
585.609	12793.34
585.969	13030.84
586.329	13207.56
586.688	13455.92
587.048	13596.7
587.408	13810.26
587.768	14077.82
588.127	14247.31
588.487	14452.95
588.846	14754.41
589.206	14926.16
589.565	15197.34
589.925	15533.38
590.284	15670.32
590.643	16040.48
591.003	16288.39
591.362	16598.43
591.721	16812.44
592.08	17074.81
592.44	17357.28
592.799	17711.62
593.158	17965.86
593.517	18098.51
593.876	18539.4
594.235	18876.11
594.593	19038.14
594.952	19295.76
595.311	19560.39
595.67	19956.09
596.029	20284.44
596.387	20634.94
596.746	20904.31
597.104	21089.61
597.463	21391.08
597.822	21702.25
598.18	21858.18
598.538	22165.97
598.897	22552.4
599.255	22840.76
599.613	23263.12
599.972	23497.69
600.33	23728.64
600.688	23919.6
601.046	24305.12
601.404	24625.79
601.762	24841.61
602.12	25267.58
602.478	25425.77
602.836	25738.76
603.194	25922.93
603.552	26208.58
603.91	26423.49
604.268	26789.13
604.625	26900.54
604.983	27196.35
605.341	27268.44
605.698	27649.67
606.056	28104.35
606.413	28311.8
606.771	28512.24
607.128	28800.6
607.485	28842.41
607.843	29163.3
608.2	29407.36
608.557	29688.48
608.914	29755.38
609.272	30150.62
609.629	30322.82
609.986	30696.82
610.343	30756.71
610.7	31207.77
611.057	31263.81
611.414	31446.4
611.771	31582.9
612.127	31971.36
612.484	32143.79
612.841	32353.95
613.198	32300.39
613.554	32603.21
613.911	32911.68
614.267	33016.31
614.624	33000.04
614.98	33309.18
615.337	33598.21
615.693	33712.33
616.05	33868.71
616.406	34029.39
616.762	34105.77
617.118	34250.17
617.475	34374.92
617.831	34751.18
618.187	34748.46
618.543	34967.67
618.899	35180.32
619.255	35355
619.611	35293.99
619.967	35383.7
620.323	35693.52
620.678	35699.85
621.034	35735.11
621.39	35814.88
621.746	35898.27
622.101	36371.02
622.457	36188.43
622.812	36306.62
623.168	36485.59
623.523	36573.95
623.879	36711.8
624.234	36705.02
624.589	36848.52
624.945	37067.95
625.3	37017.56
625.655	36966.26
626.01	37136.42
626.365	37180.27
626.72	37277.89
627.075	37422.74
627.43	37357.21
627.785	37392.46
628.14	37477.88
628.495	37667.71
628.85	37554.94
629.205	37556.75
629.559	37835.39
629.914	37680.37
630.269	37793.58
630.623	37628.62
630.978	37694.6
631.332	37940.25
631.687	37978.89
632.041	37989.74
632.396	37943.64
632.75	38033.8
633.104	37964.43
633.459	37913.35
633.813	37869.06
634.167	37864.77
634.521	37973.01
634.875	38097.76
635.229	38178.21
635.583	37902.05
635.937	37989.51
636.291	37940.25
636.645	37963.07
636.999	37956.29
637.352	38166.68
637.706	37956.29
638.06	38035.61
638.413	38062.05
638.767	37973.92
639.121	38045.78
639.474	37856.63
639.828	37982.28
640.181	38037.19
640.534	37997.42
640.888	37984.54
641.241	37900.92
641.594	37918.33
641.947	38049.85
642.301	37961.04
642.654	37860.25
643.007	38029.96
643.36	37839.46
643.713	37959.91
644.066	37911.09
644.419	37771.21
644.771	37686.92
645.124	37356.76
645.477	37203.54
645.83	37127.84
646.182	36991.8
646.535	36752.03
646.888	36903.66
647.24	36729.66
647.593	36902.76
647.945	36742.08
648.298	36755.42
648.65	36697.79
649.002	36617.57
649.355	36730.33
649.707	36646.95
650.059	36656.66
650.411	37270.66
650.763	37166.93
651.115	37520.37
651.467	37413.93
651.819	37402.41
652.171	37478.34
652.523	37419.13
652.875	37408.51
653.227	37157.44
653.578	37509.52
653.93	37529.18
654.282	37292.58
654.633	37303.43
654.985	37294.39
655.337	37234.05
655.688	37341.17
656.039	37378.45
656.391	37059.59
656.742	37212.35
657.094	37291.45
657.445	37411.22
657.796	37232.69
658.147	37209.64
658.498	37163.09
658.849	37171.45
659.2	37164.67
659.551	37135.75
659.902	37193.6
660.253	37095.3
660.604	37307.27
660.955	37118.57
661.306	37098.69
661.656	37112.7
662.007	37182.75
662.358	36988.86
662.708	37121.51
663.059	37051.91
663.409	36942.08
663.76	37232.92
664.11	37184.11
664.461	37059.82
664.811	37027.05
665.161	37058.01
665.511	37032.25
665.862	37120.83
666.212	37153.37
666.562	37075.41
666.912	37084.9
667.262	36978.24
667.612	37009.2
667.962	37010.78
668.312	36802.87
668.662	37122.64
669.011	37028.86
669.361	36923.1
669.711	36897.11
670.06	36996.54
670.41	36863.89
670.76	36795.64
671.109	36985.02
671.459	36988.18
671.808	36864.34
672.157	36784.8
672.507	36740.05
672.856	36820.73
673.205	36833.38
673.554	36810.56
673.904	36808.98
674.253	36969.65
674.602	36753.16
674.951	36322.43
675.3	36104.59
675.649	36813.95
675.998	36662.09
676.346	36700.96
676.695	36733.05
677.044	36503.45
677.393	36526.5
677.741	36676.78
678.09	36555.42
678.438	36488.76
678.787	36547.51
679.135	36486.72
679.484	36333.96
679.832	36408.53
680.181	36364.24
680.529	36270.46
680.877	36179.16
681.225	36118.82
681.573	36535.99
681.922	36209.44
682.27	36112.04
682.618	36128.09
682.966	36063.68
683.314	35999.73
683.661	35964.48
684.009	35729.91
684.357	35661.89
684.705	35703.47
685.053	35752.28
685.4	35559.97
685.748	35427.32
686.095	35473.19
686.443	35441.78
686.79	35322.91
687.138	35295.12
687.485	35438.39
687.832	35237.49
688.18	35236.36
688.527	34989.59
688.874	34992.98
689.221	35017.16
689.568	34776.49
689.915	34828.46
690.262	34709.82
690.609	34790.72
690.956	34596.83
691.303	34579.43
691.65	34465.31
691.997	34435.03
692.344	34192.77
692.69	34149.38
693.037	34273.68
693.383	33932.67
693.73	34268.25
694.077	34007.02
694.423	33918.66
694.769	33845.44
695.116	33729.96
695.462	33737.87
695.808	33618.55
696.155	33622.17
696.501	33427.37
696.847	33327.94
697.193	33208.39
697.539	33330.2
697.885	32999.81
698.231	32971.11
698.577	32938.12
698.923	32813.83
699.269	32804.11
699.614	32621.97
699.96	32486.6
700.306	32545.13
700.651	32391.92
700.997	32406.15
701.342	32273.5
701.688	32287.96
702.033	32265.82
702.379	32162.09
702.724	32071.93
703.069	32137.46
703.415	31814.3
703.76	31807.3
704.105	31769.11
704.45	31802.1
704.795	31448.44
705.14	31414.77
705.485	31431.94
705.83	31253.42
706.175	31366.63
706.52	31197.15
706.865	31215.68
707.209	31106.75
707.554	31116.02
707.899	31013.87
708.243	30966.87
708.588	30844.39
708.932	30659.08
709.277	30605.75
709.621	30749.25
709.966	30462.25
710.31	30562.81
710.654	30185.87
710.998	30390.84
711.342	30266.1
711.687	30257.74
712.031	30142.03
712.375	30116.27
712.719	29992.43
713.063	29885.77
713.407	30068.59
713.75	29834.92
714.094	29813.68
714.438	29664.53
714.782	29620.01
715.125	29586.34
715.469	29693.91
715.812	29396.52
716.156	29339.34
716.499	29285.11
716.843	29356.97
717.186	29147.03
717.53	29250.98
717.873	29336.63
718.216	29185.9
718.559	29145
718.902	28880.82
719.246	29031.55
719.589	28895.74
719.932	28840.6
720.275	28774.38
720.617	28765.8
720.96	28694.16
721.303	28678.79
721.646	28730.32
721.989	28507.72
722.331	28630.89
722.674	28552.92
723.016	28459.36
723.359	28545.92
723.701	28395.41
724.044	28245.81
724.386	28077.68
724.729	28295.53
725.071	28247.17
725.413	28186.38
725.755	28153.38
726.097	28010.34
726.439	27830
726.782	27863.45
727.124	28056.89
727.465	27926.05
727.807	27788.65
728.149	27811.92
728.491	27743.45
728.833	27621.19
729.175	27569.67
729.516	27578.71
729.858	27526.51
730.199	27613.06
730.541	27496.23
730.882	27425.72
731.224	27557.02
731.565	27338.26
731.906	27191.6
732.248	27239.96
732.589	27116.12
732.93	27095.11
733.271	27156.57
733.612	27074.54
733.953	27040.87
734.294	26938.27
734.635	27004.04
734.976	26991.15
735.317	26829.35
735.658	26838.16
735.999	26967.88
736.339	26744.38
736.68	26853.98
737.021	26719.98
737.361	26705.51
737.702	26743.7
738.042	26676.13
738.383	26504.16
738.723	26638.4
739.063	26480.43
739.404	26630.26
739.744	26441.56
740.084	26363.83
740.424	26522.47
740.764	26315.01
741.104	26454.45
741.444	26189.59
741.784	26195.92
742.124	26239.76
742.464	26200.44
742.804	26051.74
743.143	26176.49
743.483	26131.06
743.823	25898.98
744.162	25985.31
744.502	25925.42
744.841	25875.93
745.181	25899.43
745.52	25744.41
745.86	25770.4
746.199	25755.26
746.538	25706.89
746.877	25769.72
747.216	25711.19
747.556	25634.58
747.895	25591.87
748.234	25501.7
748.573	25444.08
748.911	25518.2
749.25	25438.2
749.589	25262.61
749.928	25435.72
750.267	25343.51
750.605	25302.39
750.944	25200.47
751.283	25135.16
751.621	25169.51
751.96	25088.15
752.298	25020.81
752.636	24986.01
752.975	24905.33
753.313	24890.42
753.651	24906.01
753.989	24891.55
754.327	24810.42
754.666	24574.95
755.004	24666.02
755.342	24665.79
755.679	24614.27
756.017	24366.14
756.355	24480.26
756.693	24491.79
757.031	24301.96
757.368	24304.22
757.706	24304.67
758.044	24070.78
758.381	24063.77
758.719	24026.94
759.056	23986.26
759.394	23941.74
