Data from hue_34_FLMS001491_00022.txt Node
Date: Tue Feb 07 17:25:23 GMT 2017
User: dcchb
Spectrometer: FLMS00149
Trigger mode: 0
Integration Time (sec): 2.000000E-2
Scans to average: 10
Electric dark correction enabled: true
Nonlinearity correction enabled: false
Boxcar width: 0
XAxis mode: Wavelengths
Number of Pixels in Spectrum: 2048
>>>>>Begin Spectral Data<<<<<
341.393	-12.73
341.776	-12.73
342.16	-12.73
342.543	-53.18
342.927	-69.9
343.31	-68.77
343.693	-75.1
344.077	-60.63
344.46	-60.18
344.843	-64.7
345.226	-46.17
345.61	-21.99
345.993	-5.72
346.376	6.26
346.759	1.74
347.142	27.5
347.525	44.45
347.908	46.03
348.291	91.45
348.674	80.61
349.057	105.24
349.44	121.73
349.823	146.59
350.206	154.95
350.588	193.6
350.971	217.55
351.354	208.96
351.737	226.82
352.119	253.26
352.502	279.47
352.884	279.7
353.267	289.19
353.65	269.3
354.032	312.01
354.414	303.42
354.797	320.82
355.179	333.71
355.562	335.06
355.944	335.97
356.326	348.85
356.709	340.49
357.091	347.94
357.473	360.6
357.855	347.49
358.238	356.08
358.62	350.65
359.002	352.91
359.384	333.93
359.766	347.26
360.148	335.51
360.53	326.25
360.912	358.34
361.294	338
361.676	353.59
362.057	342.29
362.439	358.56
362.821	347.26
363.203	320.82
363.584	349.3
363.966	313.59
364.348	322.86
364.729	313.37
365.111	332.58
365.493	319.69
365.874	326.25
366.256	331.45
366.637	319.47
367.019	319.92
367.4	317.66
367.781	319.02
368.163	317.44
368.544	327.38
368.925	328.06
369.306	320.6
369.688	317.44
370.069	318.34
370.45	308.4
370.831	317.89
371.212	298.68
371.593	312.46
371.974	309.3
372.355	288.06
372.736	307.04
373.117	306.59
373.498	289.64
373.879	313.59
374.26	325.12
374.641	319.24
375.021	325.12
375.402	328.06
375.783	311.11
376.163	348.85
376.544	336.87
376.925	330.09
377.305	323.54
377.686	328.51
378.066	352.01
378.447	322.86
378.827	312.69
379.208	323.54
379.588	328.73
379.968	338
380.349	330.77
380.729	323.76
381.109	347.94
381.489	332.12
381.87	345.91
382.25	328.73
382.63	337.55
383.01	349.07
383.39	344.55
383.77	320.6
384.15	353.37
384.53	354.5
384.91	341.84
385.29	343.88
385.67	347.04
386.049	349.98
386.429	335.97
386.809	356.76
387.189	348.39
387.568	356.98
387.948	352.91
388.328	358.34
388.707	347.94
389.087	345.68
389.466	376.42
389.846	363.76
390.225	381.84
390.605	366.7
390.984	361.5
391.363	365.57
391.743	381.39
392.122	387.94
392.501	349.52
392.881	368.73
393.26	368.73
393.639	370.99
394.018	387.94
394.397	377.32
394.776	360.82
395.155	364.89
395.534	379.81
395.913	378.9
396.292	367.6
396.671	384.55
397.05	382.74
397.429	385.46
397.808	391.33
398.186	381.39
398.565	395.85
398.944	386.13
399.323	378.22
399.701	386.36
400.08	397.43
400.458	406.02
400.837	395.63
401.215	396.76
401.594	410.99
401.972	425
402.351	406.02
402.729	405.79
403.107	392.01
403.486	422.97
403.864	406.92
404.242	413.93
404.62	418
404.999	418.22
405.377	423.65
405.755	413.25
406.133	413.03
406.511	423.87
406.889	423.87
407.267	423.2
407.645	455.51
408.023	419.81
408.401	441.5
408.779	439.92
409.156	439.92
409.534	453.02
409.912	446.47
410.29	459.13
410.667	441.73
411.045	440.82
411.422	460.48
411.8	458.9
412.178	449.86
412.555	452.57
412.933	428.39
413.31	454.15
413.687	466.13
414.065	476.98
414.442	487.83
414.819	453.48
415.197	476.53
415.574	495.96
415.951	497.09
416.328	466.36
416.705	489.18
417.082	506.36
417.46	493.7
417.837	520.82
418.214	495.06
418.591	486.47
418.967	504.32
419.344	510.88
419.721	521.5
420.098	496.19
420.475	490.31
420.852	522.63
421.228	528.5
421.605	541.16
421.982	523.76
422.358	531.21
422.735	518.11
423.111	553.59
423.488	535.06
423.864	533.25
424.241	550.65
424.617	541.16
424.994	543.64
425.37	538.45
425.746	558.33
426.123	560.82
426.499	567.15
426.875	568.05
427.251	573.25
427.627	567.15
428.003	575.51
428.379	580.71
428.756	593.59
429.132	593.13
429.507	614.83
429.883	607.15
430.259	593.59
430.635	617.77
431.011	596.98
431.387	606.02
431.763	630.2
432.138	616.18
432.514	624.77
432.89	650.99
433.265	629.52
433.641	634.04
434.016	630.42
434.392	657.09
434.767	645.56
435.143	654.15
435.518	652.79
435.894	659.8
436.269	679.46
436.644	679.46
437.02	669.52
437.395	678.78
437.77	709.74
438.145	723.07
438.52	719.01
438.895	725.56
439.271	726.92
439.646	701.61
440.021	719.68
440.395	717.88
440.77	719.68
441.145	741.15
441.52	751.32
441.895	728.72
442.27	730.53
442.645	761.49
443.019	754.94
443.394	754.49
443.769	763.53
444.143	748.16
444.518	750.19
444.892	759.23
445.267	770.76
445.641	772.11
446.016	785.9
446.39	780.25
446.764	789.51
447.139	809.85
447.513	800.13
447.887	799.68
448.262	832
448.636	817.54
449.01	814.37
449.384	824.54
449.758	840.59
450.132	823.41
450.506	824.54
450.88	843.97
451.254	846.01
451.628	863.18
452.002	868.83
452.376	883.07
452.75	884.65
453.123	877.87
453.497	893.92
453.871	876.97
454.244	928.72
454.618	915.61
454.992	933.01
455.365	920.58
455.739	955.84
456.112	942.5
456.486	948.61
456.859	957.87
457.232	970.98
457.606	987.25
457.979	977.08
458.352	1008.72
458.725	1017.76
459.099	998.1
459.472	1016.85
459.845	1025.67
460.218	1060.24
460.591	1064.76
460.964	1074.48
461.337	1091.88
461.71	1088.71
462.083	1104.99
462.456	1090.3
462.829	1150.18
463.201	1121.26
463.574	1148.83
463.947	1161.03
464.32	1172.78
464.692	1186.34
465.065	1197.41
465.438	1203.06
465.81	1218.2
466.183	1258.43
466.555	1281.48
466.928	1286.9
467.3	1288.71
467.672	1326.9
468.045	1342.94
468.417	1356.96
468.789	1353.11
469.161	1368.48
469.534	1420.46
469.906	1407.8
470.278	1423.85
470.65	1490.29
471.022	1495.48
471.394	1489.16
471.766	1548.14
472.138	1542.49
472.51	1583.16
472.882	1591.75
473.253	1657.51
473.625	1659.09
473.997	1697.74
474.369	1704.29
474.74	1759.66
475.112	1802.37
475.484	1811.41
475.855	1878.07
476.227	1900.9
476.598	1922.14
476.97	1971.85
477.341	2056.6
477.713	2105.86
478.084	2109.25
478.455	2178.63
478.827	2190.83
479.198	2275.12
479.569	2255.01
479.94	2366.87
480.311	2438.74
480.682	2486.19
481.053	2526.19
481.424	2628.33
481.795	2648.9
482.166	2730.48
482.537	2782.91
482.908	2832.62
483.279	2918.04
483.65	2958.5
484.021	3094.54
484.391	3119.4
484.762	3188.55
485.133	3228.55
485.503	3356.45
485.874	3430.12
486.244	3490.91
486.615	3623.34
486.985	3683.45
487.356	3787.85
487.726	3812.71
488.097	3941.29
488.467	3983.55
488.837	4106.71
489.207	4171.35
489.578	4257.22
489.948	4335.18
490.318	4445.46
490.688	4498.34
491.058	4593.93
491.428	4706.7
491.798	4763.87
492.168	4896.3
492.538	4977.65
492.908	5090.87
493.278	5172.45
493.648	5237.98
494.017	5296.29
494.387	5386.23
494.757	5466.23
495.126	5553
495.496	5597.52
495.866	5658.99
496.235	5767.24
496.605	5831.64
496.974	5959.32
497.344	6021.92
497.713	6109.83
498.082	6193.89
498.452	6224.17
498.821	6329.03
499.19	6395.92
499.559	6446.77
499.928	6511.62
500.298	6522.24
500.667	6631.39
501.036	6737.61
501.405	6825.96
501.774	6873.87
502.143	6871.84
502.512	6998.16
502.88	7001.33
503.249	7015.79
503.618	7149.35
503.987	7164.71
504.356	7326.29
504.724	7331.26
505.093	7347.76
505.462	7453.97
505.83	7477.92
506.199	7520.64
506.567	7719.27
506.936	7717.69
507.304	7846.05
507.672	7835.43
508.041	7879.04
508.409	7949.78
508.777	7987.74
509.145	8004.24
509.514	8056.21
509.882	8187.51
510.25	8190.9
510.618	8253.72
510.986	8288.53
511.354	8337.11
511.722	8473.6
512.09	8460.05
512.458	8521.74
512.826	8578.91
513.193	8614.84
513.561	8639.93
513.929	8712.24
514.297	8778.23
514.664	8860.26
515.032	8848.74
515.4	8922.18
515.767	9039.24
516.135	9019.81
516.502	9043.99
516.869	9209.63
517.237	9196.07
517.604	9153.81
517.972	9239.91
518.339	9305.45
518.706	9295.96
519.073	9406.01
519.44	9536.18
519.808	9581.37
520.175	9500.02
520.542	9689.39
520.909	9640.35
521.276	9720.58
521.643	9696.62
522.009	9808.03
522.376	9904.98
522.743	9927.58
523.11	9992.44
523.477	10142.26
523.843	10124.86
524.21	10263.84
524.577	10325.31
524.943	10356.72
525.31	10426.32
525.676	10462.03
526.043	10507.68
526.409	10571.85
526.776	10658.86
527.142	10725.3
527.508	10750.16
527.874	10796.71
528.241	10900.43
528.607	10836.25
528.973	11047.55
529.339	10940.21
529.705	11159.86
530.071	11175.23
530.437	11321.21
530.803	11285.51
531.169	11360.99
531.535	11241.22
531.901	11408.22
532.267	11418.61
532.632	11521.43
532.998	11569.79
533.364	11630.58
533.73	11655.89
534.095	11793.07
534.461	11876.23
534.826	11906.73
535.192	11843.46
535.557	11939.73
535.923	11977.02
536.288	12097.92
536.653	12135.88
537.019	12140.63
537.384	12137.01
537.749	12193.51
538.114	12223.56
538.479	12275.76
538.845	12368.42
539.21	12379.26
539.575	12425.37
539.94	12460.84
540.305	12581.52
540.67	12547.85
541.034	12638.47
541.399	12717.34
541.764	12741.97
542.129	12789.2
542.494	12842.76
542.858	12858.35
543.223	12864.45
543.587	12969.31
543.952	12977.89
544.316	13002.07
544.681	13010.21
545.045	13167.49
545.41	13184.89
545.774	13287.49
546.138	13318.22
546.503	13389.86
546.867	13340.6
547.231	13493.59
547.595	13449.97
547.959	13575.84
548.324	13508.95
548.688	13609.06
549.052	13583.3
549.416	13729.51
549.779	13719.57
550.143	13777.87
550.507	13896.74
550.871	13888.15
551.235	13865.55
551.599	13936.74
551.962	14024.19
552.326	14096.96
552.689	14163.4
553.053	14082.95
553.417	14147.13
553.78	14421.92
554.143	14309.38
554.507	14360
554.87	14428.7
555.234	14471.87
555.597	14411.3
555.96	14487.01
556.323	14592.09
556.686	14593.44
557.05	14780.33
557.413	14685.64
557.776	14785.3
558.139	14918.63
558.502	14893.1
558.865	14896.26
559.228	15080.21
559.59	15154.11
559.953	15167.44
560.316	15263.71
560.679	15199.3
561.041	15336.02
561.404	15412.41
561.767	15511.39
562.129	15364.95
562.492	15596.81
562.854	15563.81
563.217	15646.75
563.579	15654.88
563.941	15752.74
564.304	15675
564.666	15943.46
565.028	15885.16
565.39	15938.95
565.753	16024.59
566.115	15978.72
566.477	16091.71
566.839	16190.46
567.201	16270.01
567.563	16227.53
567.925	16389.1
568.287	16438.37
568.648	16433.85
569.01	16404.92
569.372	16657.12
569.734	16625.25
570.095	16769.66
570.457	16821.63
570.819	16898.92
571.18	16894.17
571.542	17077.67
571.903	17129.87
572.265	17230.89
572.626	17275.63
572.987	17295.75
573.349	17402.86
573.71	17447.38
574.071	17546.59
574.432	17688.96
574.794	17697.54
575.155	17932.79
575.516	17837.88
575.877	17919.23
576.238	18096.85
576.599	18229.73
576.96	18242.61
577.32	18381.37
577.681	18480.57
578.042	18716.27
578.403	18765.09
578.763	18793.33
579.124	18920.34
579.485	19088.92
579.845	19317.84
580.206	19350.38
580.566	19528.46
580.927	19762.12
581.287	19921.44
581.648	19928.44
582.008	20195.56
582.368	20391.26
582.728	20590.35
583.089	20639.61
583.449	20931.13
583.809	21021.07
584.169	21240.5
584.529	21417.22
584.889	21769.07
585.249	21805.68
585.609	22068.05
585.969	22354.6
586.329	22383.52
586.688	22778.99
587.048	22922.94
587.408	23117.74
587.768	23258.3
588.127	23579.2
588.487	23744.16
588.846	24169.69
589.206	24122.91
589.565	24348.67
589.925	24802.44
590.284	24915.21
590.643	25202.66
591.003	25565.13
591.362	25810.1
591.721	25871.34
592.08	26230.88
592.44	26538.67
592.799	26694.82
593.158	26994.7
593.517	27262.94
593.876	27535.25
594.235	27664.96
594.593	27901.12
594.952	28228.57
595.311	28364.61
595.67	28716.69
596.029	29010.69
596.387	29259.27
596.746	29547.4
597.104	29629.88
597.463	29826.72
597.822	30229.64
598.18	30424.44
598.538	30554.83
598.897	31108.04
599.255	30915.73
599.613	31650.4
599.972	31526.33
600.33	31851.3
600.688	31940.33
601.046	32214.68
601.404	32531.73
601.762	32556.59
602.12	32998.84
602.478	33129
602.836	33239.28
603.194	33293.97
603.552	33497.58
603.91	33631.36
604.268	33928.75
604.625	34137.79
604.983	34427.5
605.341	34430.44
605.698	34668.62
606.056	35048.05
606.413	35170.98
606.771	35408.94
607.128	35537.98
607.485	35500.46
607.843	35695.04
608.2	36061.35
608.557	36311.97
608.914	36408.46
609.272	36645.07
609.629	36724.16
609.986	37048.9
610.343	37031.5
610.7	37330.7
611.057	37417.7
611.414	37497.47
611.771	37561.65
612.127	37915.09
612.484	37900.63
612.841	38262.65
613.198	38061.3
613.554	38343.55
613.911	38531.8
614.267	38604.79
614.624	38783.09
614.98	38893.37
615.337	39116.19
615.693	39167.26
616.05	39241.38
616.406	39383.07
616.762	39488.83
617.118	39515.5
617.475	39636.85
617.831	39876.4
618.187	40033.23
618.543	40040.01
618.899	40247.46
619.255	40225.31
619.611	40390.73
619.967	40397.74
620.323	40691.74
620.678	40643.38
621.034	40472.31
621.39	40688.58
621.746	40827.56
622.101	41289.92
622.457	40957.27
622.812	41111.16
623.168	41123.59
623.523	41183.48
623.879	41290.14
624.234	41212.18
624.589	41429.57
624.945	41448.56
625.3	41529.91
625.655	41575.11
626.01	41652.85
626.365	41703.24
626.72	41636.8
627.075	41615.11
627.43	41692.39
627.785	41684.48
628.14	41878.6
628.495	41937.81
628.85	41813.07
629.205	41771.03
629.559	41891.03
629.914	41926.06
630.269	41992.72
630.623	41902.78
630.978	41749.34
631.332	41904.59
631.687	42172.38
632.041	42069.33
632.396	42225.03
632.75	41839.96
633.104	42034.53
633.459	41908.43
633.813	41962.22
634.167	41934.42
634.521	41896.45
634.875	42060.97
635.229	42033.63
635.583	41853.07
635.937	41829.34
636.291	41889
636.645	41820.07
636.999	41832.5
637.352	41856.68
637.706	41767.42
638.06	41920.86
638.413	41780.98
638.767	41667.08
639.121	41824.82
639.474	41529.01
639.828	41672.05
640.181	41683.35
640.534	41687.19
640.888	41620.98
641.241	41398.84
641.594	41688.55
641.947	41663.69
642.301	41532.17
642.654	41524.04
643.007	41499.18
643.36	41587.08
643.713	41499.63
644.066	41776.46
644.419	41392.74
644.771	41181.22
645.124	40938.29
645.477	40843.38
645.83	40469.6
646.182	40277.97
646.535	40360
646.888	40361.58
647.24	40130.17
647.593	40314.8
647.945	40277.29
648.298	40228.48
648.65	40056.73
649.002	39958.43
649.355	40176.05
649.707	40177.63
650.059	40294.01
650.411	40689.48
650.763	40784.85
651.115	41193.2
651.467	41033.88
651.819	40957.27
652.171	40935.35
652.523	40953.65
652.875	40902.13
653.227	40754.34
653.578	40943.26
653.93	40796.14
654.282	40723.15
654.633	40759.08
654.985	40720.67
655.337	40831.85
655.688	40779.65
656.039	40994.78
656.391	40508.69
656.742	40707.33
657.094	40750.04
657.445	40785.07
657.796	40740.33
658.147	40695.81
658.498	40693.32
658.849	40691.51
659.2	40593.21
659.551	40527
659.902	40673.44
660.253	40550.5
660.604	40613.55
660.955	40379.21
661.306	40650.61
661.656	40518.86
662.007	40483.38
662.358	40558.18
662.708	40451.3
663.059	40496.72
663.409	40242.26
663.76	40659.43
664.11	40554.8
664.461	40801.12
664.811	40534.68
665.161	40550.05
665.511	40435.93
665.862	40398.42
666.212	40572.87
666.562	40614
666.912	40481.12
667.262	40394.8
667.612	40305.76
667.962	40343.05
668.312	40305.54
668.662	40646.54
669.011	40362.94
669.361	40425.76
669.711	40275.71
670.06	40286.55
670.41	40300.11
670.76	40233.22
671.109	40317.06
671.459	40302.37
671.808	40244.07
672.157	40329.04
672.507	40020.12
672.856	40011.31
673.205	40169.27
673.554	40271.19
673.904	39984.19
674.253	40297.17
674.602	40193.67
674.951	39612
675.3	39371.55
675.649	40006.34
675.998	40004.53
676.346	40068.93
676.695	40306.21
677.044	39896.28
677.393	39950.29
677.741	39993
678.09	39809.5
678.438	39811.76
678.787	39894.7
679.135	39975.83
679.484	39604.31
679.832	39774.02
680.181	39494.26
680.529	39640.47
680.877	39466.24
681.225	39540.81
681.573	39757.08
681.922	39366.58
682.27	39274.6
682.618	39441.83
682.966	39338.56
683.314	39380.36
683.661	39271.89
684.009	38929.98
684.357	39009.75
684.705	39008.85
685.053	39077.09
685.4	38849.98
685.748	38807.95
686.095	38851.56
686.443	38674.39
686.79	38652.92
687.138	38566.6
687.485	38683.21
687.832	38355.76
688.18	38498.35
688.527	38200.96
688.874	38268.75
689.221	38179.72
689.568	38079.61
689.915	37990.34
690.262	38024.92
690.609	37840.74
690.956	37733.17
691.303	37792.38
691.65	37530.69
691.997	37556.46
692.344	37374.77
692.69	37280.98
693.037	37309
693.383	37144.04
693.73	37176.35
694.077	36970.93
694.423	37052.97
694.769	36935.23
695.116	36822.69
695.462	36853.42
695.808	36822.46
696.155	36751.96
696.501	36434
696.847	36412.08
697.193	36330.05
697.539	36409.82
697.885	36175.02
698.231	36050.73
698.577	35945.2
698.923	35860.46
699.269	35787.91
699.614	35655.94
699.96	35657.3
700.306	35551.76
700.651	35416.63
700.997	35250.75
701.342	35281.04
701.688	35064.77
702.033	35110.64
702.379	34975.51
702.724	34841.95
703.069	34920.82
703.415	34623.88
703.76	34790.2
704.105	34610.09
704.45	34650.32
704.795	34459.36
705.14	34264.11
705.485	34235.19
705.83	34089.88
706.175	34216.43
706.52	33990
706.865	33908.42
707.209	33895.54
707.554	33695.09
707.899	33699.16
708.243	33663
708.588	33550.01
708.932	33414.19
709.277	33439.73
709.621	33494.19
709.966	33159.28
710.31	33248.77
710.654	32998.38
710.998	32977.14
711.342	33034.77
711.687	32998.16
712.031	32802
712.375	32746.64
712.719	32725.17
713.063	32830.48
713.407	32881.55
713.75	32447.66
714.094	32517.27
714.438	32437.27
714.782	32412.18
715.125	32157.95
715.469	32416.7
715.812	32129.48
716.156	31984.63
716.499	32056.71
716.843	31974.68
717.186	31820.79
717.53	32004.96
717.873	31950.5
718.216	31822.82
718.559	31672.77
718.902	31429.84
719.246	31557.74
719.589	31474.13
719.932	31407.24
720.275	31408.37
720.617	31375.38
720.96	31446.11
721.303	31390.74
721.646	31305.32
721.989	30953.24
722.331	31103.52
722.674	31116.85
723.016	31133.35
723.359	31123.4
723.701	31000.47
724.044	30784.88
724.386	30666.02
724.729	30872.11
725.071	30718.9
725.413	30741.95
725.755	30765.45
726.097	30537.88
726.439	30425.8
726.782	30490.2
727.124	30572.01
727.465	30399.58
727.807	30401.16
728.149	30235.74
728.491	30180.83
728.833	30316.87
729.175	30121.62
729.516	30089.31
729.858	30046.82
730.199	30050.66
730.541	30035.52
730.882	29924.11
731.224	30055.41
731.565	29882.99
731.906	29863.1
732.248	29891.12
732.589	29699.04
732.93	29619.04
733.271	29548.53
733.612	29640.05
733.953	29591.24
734.294	29513.28
734.635	29405.03
734.976	29416.56
735.317	29400.29
735.658	29324.36
735.999	29276.9
736.339	29278.48
736.68	29271.7
737.021	29203.91
737.361	29039.39
737.702	29206.39
738.042	29177.02
738.383	29040.3
738.723	29138.82
739.063	28990.58
739.404	29125.94
739.744	28817.48
740.084	28815.44
740.424	28795.1
740.764	28840.75
741.104	28906.06
741.444	28666.52
741.784	28663.58
742.124	28563.25
742.464	28552.17
742.804	28514.89
743.143	28582
743.483	28553.3
743.823	28344.27
744.162	28363.7
744.502	28323.03
744.841	28181.79
745.181	28353.76
745.52	28163.93
745.86	28276.7
746.199	28141.34
746.538	28180.21
746.877	28150.83
747.216	28134.78
747.556	27966.43
747.895	27983.37
748.234	27855.69
748.573	27822.25
748.911	27902.7
749.25	27754.68
749.589	27683.95
749.928	27653.89
750.267	27659.77
750.605	27681.69
750.944	27666.77
751.283	27439.43
751.621	27518.3
751.96	27362.6
752.298	27431.75
752.636	27394.46
752.975	27240.34
753.313	27170.29
753.651	27258.87
753.989	27077.64
754.327	27142.04
754.666	27077.86
755.004	27019.33
755.342	27056.17
755.679	26988.82
756.017	26796.51
756.355	26893.01
756.693	26783.63
757.031	26699.34
757.368	26681.49
757.706	26524.43
758.044	26503.19
758.381	26583.86
