Data from hue_190_FLMS001491_00061.txt Node
Date: Tue Feb 07 16:45:36 GMT 2017
User: dcchb
Spectrometer: FLMS00149
Trigger mode: 0
Integration Time (sec): 2.000000E-2
Scans to average: 10
Electric dark correction enabled: true
Nonlinearity correction enabled: false
Boxcar width: 0
XAxis mode: Wavelengths
Number of Pixels in Spectrum: 2048
>>>>>Begin Spectral Data<<<<<
341.393	-12.58
341.776	-12.58
342.16	-12.58
342.543	-76.09
342.927	-64.56
343.31	-68.85
343.693	-62.75
344.077	-51.91
344.46	-66.59
344.843	-51.68
345.226	-61.17
345.61	-19.82
345.993	-22.53
346.376	4.82
346.759	3.46
347.142	31.93
347.525	45.04
347.908	47.75
348.291	59.5
348.674	107.64
349.057	105.15
349.44	116.45
349.823	132.72
350.206	156.45
350.588	187.64
350.971	204.59
351.354	216.79
351.737	205.26
352.119	233.96
352.502	250.91
352.884	283.45
353.267	279.16
353.65	282.78
354.032	278.71
354.414	285.94
354.797	320.51
355.179	325.71
355.562	295.43
355.944	316.45
356.326	322.32
356.709	328.65
357.091	334.3
357.473	324.13
357.855	333.62
358.238	343.79
358.62	312.6
359.002	312.6
359.384	333.17
359.766	346.95
360.148	340.85
360.53	323.68
360.912	337.01
361.294	326.84
361.676	341.76
362.057	332.04
362.439	323.9
362.821	311.47
363.203	324.36
363.584	337.24
363.966	326.39
364.348	326.84
364.729	313.96
365.111	333.85
365.493	305.83
365.874	301.98
366.256	310.57
366.637	325.49
367.019	324.36
367.4	327.52
367.781	294.98
368.163	308.76
368.544	317.12
368.925	320.06
369.306	318.71
369.688	297.01
370.069	288.88
370.45	292.94
370.831	318.93
371.212	305.6
371.593	317.8
371.974	294.98
372.355	275.32
372.736	284.13
373.117	306.73
373.498	332.04
373.879	313.96
374.26	300.85
374.641	294.07
375.021	304.02
375.402	308.09
375.783	314.86
376.163	301.76
376.544	313.51
376.925	315.54
377.305	319.38
377.686	343.11
378.066	329.33
378.447	298.37
378.827	303.34
379.208	326.16
379.588	315.09
379.968	322.32
380.349	336.78
380.729	340.85
381.109	337.91
381.489	324.13
381.87	334.3
382.25	314.19
382.63	327.29
383.01	329.55
383.39	319.61
383.77	352.6
384.15	335.88
384.53	332.72
384.91	349.44
385.29	341.08
385.67	347.18
386.049	343.79
386.429	352.83
386.809	340.63
387.189	332.27
387.568	367.52
387.948	358.93
388.328	344.92
388.707	358.71
389.087	345.82
389.466	343.79
389.846	339.04
390.225	347.41
390.605	354.64
390.984	358.93
391.363	368.65
391.743	378.37
392.122	335.43
392.501	372.04
392.881	363.45
393.26	373.85
393.639	364.58
394.018	377.91
394.397	383.56
394.776	367.07
395.155	381.76
395.534	363.22
395.913	367.74
396.292	385.82
396.671	387.41
397.05	392.15
397.429	379.27
397.808	395.77
398.186	415.2
398.565	396.67
398.944	346.73
399.323	408.65
399.701	400.51
400.08	399.83
400.458	422.66
400.837	387.18
401.215	396.9
401.594	429.89
401.972	414.3
402.351	394.18
402.729	404.81
403.107	367.29
403.486	407.07
403.864	412.72
404.242	443.67
404.62	424.01
404.999	414.3
405.377	429.89
405.755	445.03
406.133	435.54
406.511	450.68
406.889	445.93
407.267	440.06
407.645	469.44
408.023	443.22
408.401	471.24
408.779	461.98
409.156	483.45
409.534	493.39
409.912	503.56
410.29	516.22
410.667	516.22
411.045	532.26
411.422	511.24
411.8	521.86
412.178	544.92
412.555	551.02
412.933	564.8
413.31	567.06
413.687	566.61
414.065	572.03
414.442	556.89
414.819	585.37
415.197	601.18
415.574	606.61
415.951	619.49
416.328	639.6
416.705	615.65
417.082	631.69
417.46	636.44
417.837	680.73
418.214	664.01
418.591	662.43
418.967	686.83
419.344	665.14
419.721	729.09
420.098	719.37
420.475	709.66
420.852	734.06
421.228	744.01
421.605	744.91
421.982	758.69
422.358	768.41
422.735	789.88
423.111	789.43
423.488	817.9
423.864	831.69
424.241	850.44
424.617	854.29
424.994	883.66
425.37	872.82
425.746	873.72
426.123	897.67
426.499	901.06
426.875	934.51
427.251	937.22
427.627	964.79
428.003	971.12
428.379	957.79
428.756	995.52
429.132	992.59
429.507	1037.11
429.883	1025.58
430.259	1045.24
430.635	1063.09
431.011	1068.29
431.387	1084.34
431.763	1095.41
432.138	1101.28
432.514	1129.08
432.89	1139.25
433.265	1190.1
433.641	1213.82
434.016	1205.01
434.392	1256.99
434.767	1268.51
435.143	1271.22
435.518	1316.87
435.894	1310.77
436.269	1336.53
436.644	1379.24
437.02	1401.16
437.395	1384.67
437.77	1438.9
438.145	1450.65
438.52	1499.92
438.895	1484.1
439.271	1545.57
439.646	1559.58
440.021	1564.1
440.395	1580.14
440.77	1578.33
441.145	1600.03
441.52	1646.81
441.895	1663.53
442.27	1677.99
442.645	1687.71
443.019	1697.2
443.394	1738.56
443.769	1745.34
444.143	1759.35
444.518	1762.96
444.892	1778.1
445.267	1828.27
445.641	1826.69
446.016	1867.14
446.39	1851.1
446.764	1893.35
447.139	1870.76
447.513	1906.46
447.887	1928.61
448.262	1918.21
448.636	1932
449.01	1969.51
449.384	2007.48
449.758	1980.36
450.132	2053.58
450.506	2053.58
450.88	2047.25
451.254	2053.58
451.628	2107.59
452.002	2151.65
452.376	2134.48
452.75	2157.3
453.123	2166.57
453.497	2224.87
453.871	2213.35
454.244	2279.33
454.618	2298.09
454.992	2312.55
455.365	2333.12
455.739	2404.3
456.112	2419.89
456.486	2437.97
456.859	2435.94
457.232	2491.53
457.606	2483.85
457.979	2511.19
458.352	2599.32
458.725	2616.05
459.099	2636.39
459.472	2668.93
459.845	2688.14
460.218	2730.85
460.591	2743.5
460.964	2778.3
461.337	2824.4
461.71	2893.1
462.083	2925.64
462.456	2908.24
462.829	2929.26
463.201	2992.76
463.574	2997.96
463.947	3055.81
464.32	3115.24
464.692	3127.22
465.065	3136.26
465.438	3258.97
465.81	3249.93
466.183	3290.61
466.555	3369.25
466.928	3379.19
467.3	3403.37
467.672	3462.58
468.045	3557.72
468.417	3535.34
468.789	3578.73
469.161	3626.42
469.534	3709.35
469.906	3772.63
470.278	3792.51
470.65	3829.8
471.022	3922.23
471.394	3969.46
471.766	3981.21
472.138	4053.3
472.51	4142.79
472.882	4202.45
473.253	4291.94
473.625	4388.66
473.997	4408.77
474.369	4420.07
474.74	4487.18
475.112	4569.44
475.484	4637.01
475.855	4764.01
476.227	4805.82
476.598	4924.23
476.97	4933.73
477.341	5065.25
477.713	5183.66
478.084	5148.41
478.455	5312.25
478.827	5349.31
479.198	5540.72
479.569	5520.6
479.94	5721.5
480.311	5709.3
480.682	5857.32
481.053	5991.55
481.424	6070.87
481.795	6134.6
482.166	6230.64
482.537	6341.37
482.908	6479
483.279	6515.83
483.65	6634.47
484.021	6768.48
484.391	6796.28
484.762	6924.86
485.133	6951.98
485.503	7005.99
485.874	7217.51
486.244	7285.3
486.615	7408.01
486.985	7446.43
487.356	7610.27
487.726	7791.05
488.097	7833.76
488.467	7879.19
488.837	8065.85
489.207	8110.37
489.578	8215
489.948	8321.89
490.318	8470.81
490.688	8467.42
491.058	8550.35
491.428	8714.42
491.798	8754.87
492.168	8944.69
492.538	8986.28
492.908	9075.76
493.278	9115.31
493.648	9072.37
494.017	9263.78
494.387	9280.05
494.757	9384.91
495.126	9424.68
495.496	9415.42
495.866	9558.01
496.235	9566.82
496.605	9722.3
496.974	9680.72
497.344	9840.72
497.713	9847.95
498.082	9925.91
498.452	9940.37
498.821	10038.9
499.19	10008.17
499.559	10120.93
499.928	10118.67
500.298	10182.63
500.667	10325.9
501.036	10233.02
501.405	10341.27
501.774	10342.62
502.143	10421.49
502.512	10404.99
502.88	10498.55
503.249	10525.9
503.618	10533.35
503.987	10598.66
504.356	10620.13
504.724	10684.54
505.093	10588.49
505.462	10692.22
505.83	10699.9
506.199	10825.32
506.567	10833.46
506.936	10837.53
507.304	10867.58
507.672	10984.87
508.041	10952.33
508.409	10977.41
508.777	11099.67
509.145	11081.36
509.514	11033.9
509.882	11097.18
510.25	11114.81
510.618	11130.63
510.986	11080.01
511.354	11176.73
511.722	11170.4
512.09	11388.92
512.458	11262.37
512.826	11283.16
513.193	11276.84
513.561	11219.89
513.929	11390.96
514.297	11377.85
514.664	11421.47
515.032	11435.93
515.4	11496.04
515.767	11446.55
516.135	11468.7
516.502	11294.69
516.869	11498.07
517.237	11488.81
517.604	11356.16
517.972	11495.14
518.339	11484.97
518.706	11431.63
519.073	11442.48
519.44	11489.03
519.808	11559.54
520.175	11509.6
520.542	11544.4
520.909	11572.42
521.276	11538.75
521.643	11475.02
522.009	11590.95
522.376	11608.13
522.743	11585.75
523.11	11647.9
523.477	11651.06
523.843	11628.01
524.21	11627.11
524.577	11758.18
524.943	11661.23
525.31	11760.44
525.676	11707.33
526.043	11636.6
526.409	11704.85
526.776	11735.36
527.142	11661.01
527.508	11666.66
527.874	11758.86
528.241	11684.96
528.607	11604.51
528.973	11737.39
529.339	11665.07
529.705	11658.3
530.071	11694.23
530.437	11609.03
530.803	11603.83
531.169	11635.47
531.535	11517.51
531.901	11545.3
532.267	11471.86
532.632	11462.82
532.998	11458.07
533.364	11472.31
533.73	11421.01
534.095	11395.25
534.461	11389.15
534.826	11343.5
535.192	11230.51
535.557	11309.38
535.923	11221.47
536.288	11150.06
536.653	11111.42
537.019	11062.6
537.384	11062.83
537.749	11043.85
538.114	10979.44
538.479	10893.34
538.845	10900.8
539.21	10806.57
539.575	10779.67
539.94	10698.77
540.305	10712.56
540.67	10683.18
541.034	10599.11
541.399	10539.45
541.764	10510.3
542.129	10471.66
542.494	10453.13
542.858	10389.63
543.223	10368.39
543.587	10309.63
543.952	10219.46
544.316	10217.66
544.681	10114.61
545.045	10105.34
545.41	10120.93
545.774	9998.23
546.138	9946.02
546.503	9924.33
546.867	9855.4
547.231	9812.92
547.595	9774.05
547.959	9727.27
548.324	9722.3
548.688	9708.97
549.052	9651.12
549.416	9573.6
549.779	9501.06
550.143	9459.71
550.507	9493.61
550.871	9429.43
551.235	9270.56
551.599	9341.97
551.962	9263.78
552.326	9172.48
552.689	9220.85
553.053	9112.83
553.417	9090.91
553.78	9114.63
554.143	8951.47
554.507	9021.3
554.87	8996.44
555.234	9023.34
555.597	8851.59
555.96	8817.69
556.323	8908.54
556.686	8810.69
557.05	8759.39
557.413	8760.52
557.776	8708.54
558.139	8747.64
558.502	8669.22
558.865	8587.64
559.228	8665.38
559.59	8654.53
559.953	8584.03
560.316	8600.07
560.679	8587.42
561.041	8559.85
561.404	8529.79
561.767	8531.37
562.129	8509.68
562.492	8518.26
562.854	8492.28
563.217	8465.84
563.579	8443.46
563.941	8470.58
564.304	8435.1
564.666	8439.85
565.028	8391.71
565.39	8446.18
565.753	8425.16
566.115	8374.99
566.477	8448.66
566.839	8431.71
567.201	8440.07
567.563	8362.11
567.925	8398.04
568.287	8406.86
568.648	8415.44
569.01	8425.84
569.372	8390.13
569.734	8378.16
570.095	8377.25
570.457	8432.17
570.819	8365.27
571.18	8412.05
571.542	8374.31
571.903	8393.52
572.265	8332.05
572.626	8350.59
572.987	8294.32
573.349	8330.02
573.71	8405.95
574.071	8350.13
574.432	8353.98
574.794	8427.19
575.155	8395.33
575.516	8299.29
575.877	8316.01
576.238	8293.86
576.599	8376.8
576.96	8340.42
577.32	8398.49
577.681	8363.01
578.042	8283.92
578.403	8326.63
578.763	8330.47
579.124	8290.93
579.485	8311.26
579.845	8317.82
580.206	8254.77
580.566	8307.87
580.927	8276.69
581.287	8283.47
581.648	8323.69
582.008	8279.4
582.368	8248.89
582.728	8249.35
583.089	8239.85
583.449	8252.51
583.809	8268.78
584.169	8223.36
584.529	8184.04
584.889	8252.51
585.249	8207.99
585.609	8158.27
585.969	8182.45
586.329	8144.04
586.688	8157.14
587.048	8171.83
587.408	8092.51
587.768	8139.07
588.127	8092.06
588.487	8091.84
588.846	8232.17
589.206	8043.02
589.565	8021.1
589.925	8116.92
590.284	8089.58
590.643	8068.79
591.003	8087.77
591.362	8101.55
591.721	8043.7
592.08	8088.67
592.44	8064.27
592.799	8044.15
593.158	8021.55
593.517	8017.03
593.876	8046.86
594.235	8005.96
594.593	7986.53
594.952	7980.2
595.311	7960.54
595.67	7973.19
596.029	8018.16
596.387	7954.89
596.746	7944.72
597.104	7947.21
597.463	7918.73
597.822	7963.7
598.18	7921.67
598.538	7916.47
598.897	7936.36
599.255	7813.42
599.613	7973.87
599.972	7927.09
600.33	7859.52
600.688	7899.98
601.046	7904.72
601.404	7917.38
601.762	7922.12
602.12	7920.54
602.478	7914.21
602.836	7899.75
603.194	7840.09
603.552	7859.07
603.91	7850.71
604.268	7925.51
604.625	7816.36
604.983	7864.27
605.341	7799.19
605.698	7849.81
606.056	7826.53
606.413	7841.67
606.771	7859.07
607.128	7797.61
607.485	7801.45
607.843	7877.6
608.2	7867.43
608.557	7894.78
608.914	7842.35
609.272	7901.78
609.629	7871.05
609.986	7876.93
610.343	7895.46
610.7	7860.43
611.057	7945.62
611.414	7933.42
611.771	7943.14
612.127	7986.75
612.484	7920.54
612.841	7950.14
613.198	7859.98
613.554	7892.29
613.911	7946.75
614.267	7934.33
614.624	7954.89
614.98	7936.59
615.337	7970.03
615.693	7993.98
616.05	7922.35
616.406	7959.41
616.762	7946.98
617.118	7949.24
617.475	7906.98
617.831	7953.08
618.187	7928.9
618.543	7950.82
618.899	7991.72
619.255	8023.36
619.611	7966.87
619.967	7991.72
620.323	7997.83
620.678	7991.95
621.034	7971.61
621.39	7933.65
621.746	7928.68
622.101	8050.25
622.457	7973.42
622.812	8022.68
623.168	7966.41
623.523	7996.02
623.879	8010.93
624.234	7950.82
624.589	7975.91
624.945	7997.83
625.3	8003.48
625.655	7963.03
626.01	8011.61
626.365	8000.76
626.72	7970.26
627.075	7996.7
627.43	7886.19
627.785	7987.21
628.14	7991.95
628.495	7947.21
628.85	7902.46
629.205	7929.81
629.559	7944.72
629.914	7928
630.269	7946.08
630.623	7899.98
630.978	7911.5
631.332	7905.4
631.687	7879.19
632.041	7882.58
632.396	7898.85
632.75	7877.38
633.104	7806.19
633.459	7869.02
633.813	7800.32
634.167	7827.21
634.521	7759.41
634.875	7859.3
635.229	7674.67
635.583	7749.25
635.937	7798.06
636.291	7735.01
636.645	7745.63
636.999	7695.01
637.352	7704.05
637.706	7713.54
638.06	7707.89
638.413	7731.39
638.767	7680.09
639.121	7633.32
639.474	7676.7
639.828	7654.56
640.181	7659.76
640.534	7613.43
640.888	7614.79
641.241	7642.81
641.594	7613.66
641.947	7651.62
642.301	7688.68
642.654	7571.62
643.007	7638.51
643.36	7640.77
643.713	7563.94
644.066	7638.51
644.419	7560.1
644.771	7551.06
645.124	7433.32
645.477	7425.41
645.83	7378.18
646.182	7370.05
646.535	7340.44
646.888	7368.01
647.24	7341.8
647.593	7388.58
647.945	7361.46
648.298	7343.15
648.65	7326.88
649.002	7284.17
649.355	7295.47
649.707	7314
650.059	7361.01
650.411	7456.6
650.763	7422.7
651.115	7499.99
651.467	7571.85
651.819	7526.2
652.171	7522.81
652.523	7529.59
652.875	7520.78
653.227	7425.86
653.578	7494.79
653.93	7465.64
654.282	7469.25
654.633	7464.51
654.985	7469.93
655.337	7528.23
655.688	7526.88
656.039	7602.58
656.391	7477.16
656.742	7518.52
657.094	7533.21
657.445	7523.26
657.796	7511.29
658.147	7461.8
658.498	7492.98
658.849	7604.62
659.2	7514.45
659.551	7510.83
659.902	7519.65
660.253	7513.77
660.604	7586.76
660.955	7540.89
661.306	7616.59
661.656	7567.33
662.007	7568.69
662.358	7599.42
662.708	7535.01
663.059	7564.84
663.409	7497.73
663.76	7605.97
664.11	7572.75
664.461	7603.26
664.811	7654.33
665.161	7619.76
665.511	7567.33
665.862	7605.29
666.212	7650.49
666.562	7631.28
666.912	7621.79
667.262	7624.95
667.612	7643.26
667.962	7608.23
668.312	7605.75
668.662	7672.64
669.011	7592.87
669.361	7578.63
669.711	7602.36
670.06	7580.89
670.41	7580.66
670.76	7557.61
671.109	7615.24
671.459	7611.62
671.808	7576.59
672.157	7599.19
672.507	7553.77
672.856	7523.94
673.205	7624.95
673.554	7527.78
673.904	7514.9
674.253	7542.25
674.602	7481.23
674.951	7423.83
675.3	7363.72
675.649	7491.85
675.998	7456.82
676.346	7471.96
676.695	7537.95
677.044	7490.95
677.393	7444.62
677.741	7462.7
678.09	7471.29
678.438	7452.53
678.787	7451.17
679.135	7468.57
679.484	7449.82
679.832	7446.43
680.181	7362.14
680.529	7412.98
680.877	7375.7
681.225	7309.48
681.573	7377.05
681.922	7306.55
682.27	7268.58
682.618	7296.38
682.966	7266.32
683.314	7327.56
683.661	7258.64
684.009	7222.25
684.357	7226.55
684.705	7257.51
685.053	7186.1
685.4	7170.73
685.748	7157.17
686.095	7183.84
686.443	7085.76
686.79	7114.46
687.138	7042.6
687.485	7135.48
687.832	7078.53
688.18	7110.17
688.527	6978.19
688.874	6989.94
689.221	7008.93
689.568	6938.19
689.915	6969.6
690.262	6970.06
690.609	6905.2
690.956	6848.93
691.303	6828.14
691.65	6787.01
691.997	6835.82
692.344	6790.63
692.69	6790.85
693.037	6808.25
693.383	6686.9
693.73	6682.83
694.077	6655.71
694.423	6649.61
694.769	6653.23
695.116	6657.07
695.462	6572.33
695.808	6528.03
696.155	6545.89
696.501	6526
696.847	6501.59
697.193	6404.65
697.539	6497.53
697.885	6417.08
698.231	6417.53
698.577	6448.26
698.923	6354.71
699.269	6307.48
699.614	6246.23
699.96	6301.37
700.306	6297.08
700.651	6199.23
700.997	6220.25
701.342	6194.26
701.688	6170.08
702.033	6145.22
702.379	6172.34
702.724	6090.76
703.069	6156.29
703.415	6051.89
703.76	5974.6
704.105	6036.75
704.45	5994.26
704.795	5986.13
705.14	5941.16
705.485	5939.8
705.83	5930.99
706.175	5912.23
706.52	5937.99
706.865	5841.5
707.209	5878.33
707.554	5826.36
707.899	5804.66
708.243	5768.51
708.588	5787.72
708.932	5773.7
709.277	5741.61
709.621	5743.65
709.966	5700.94
710.31	5715.85
710.654	5648.51
710.998	5645.35
711.342	5683.54
711.687	5623.65
712.031	5659.81
712.375	5638.57
712.719	5659.81
713.063	5658.9
713.407	5637.89
713.75	5570.55
714.094	5535.29
714.438	5545.24
714.782	5566.48
715.125	5553.82
715.469	5579.36
715.812	5532.13
716.156	5507.95
716.499	5493.94
716.843	5554.05
717.186	5495.29
717.53	5472.47
717.873	5546.14
718.216	5465.46
718.559	5467.5
718.902	5372.81
719.246	5459.36
719.589	5411.45
719.932	5390.44
720.275	5392.02
720.617	5439.93
720.96	5399.48
721.303	5429.76
721.646	5433.37
721.989	5393.38
722.331	5387.95
722.674	5354.51
723.016	5395.86
723.359	5354.51
723.701	5383.21
724.044	5372.58
724.386	5341.63
724.729	5346.37
725.071	5372.36
725.413	5322.64
725.755	5368.97
726.097	5292.13
726.439	5300.95
726.782	5304.56
727.124	5320.16
727.465	5317.44
727.807	5335.98
728.149	5278.58
728.491	5308.86
728.833	5308.18
729.175	5298.24
729.516	5255.3
729.858	5303.21
730.199	5309.99
730.541	5298.69
730.882	5266.37
731.224	5351.57
731.565	5319.48
731.906	5345.69
732.248	5286.03
732.589	5235.41
732.93	5255.98
733.271	5278.58
733.612	5322.19
733.953	5341.85
734.294	5288.75
734.635	5314.28
734.976	5318.57
735.317	5327.16
735.658	5372.58
735.999	5342.75
736.339	5328.07
736.68	5377.78
737.021	5392.7
737.361	5368.52
737.702	5383.43
738.042	5416.88
738.383	5381.85
738.723	5395.63
739.063	5384.79
739.404	5413.94
739.744	5458.46
740.084	5412.81
740.424	5478.12
740.764	5442.87
741.104	5506.37
741.444	5412.36
741.784	5439.25
742.124	5498.01
742.464	5496.2
742.804	5518.57
743.143	5553.82
743.483	5595.18
743.823	5630.21
744.162	5561.28
744.502	5682.86
744.841	5640.83
745.181	5721.28
745.52	5772.35
745.86	5706.36
746.199	5792.01
746.538	5793.36
746.877	5887.37
747.216	5919.91
747.556	5920.37
747.895	6046.01
748.234	5988.39
748.573	6060.48
748.911	6183.64
749.25	6201.94
749.589	6270.87
749.928	6336.4
750.267	6434.93
750.605	6426.79
750.944	6569.84
751.283	6579.78
751.621	6694.81
751.96	6735.71
752.298	6820
752.636	6954.01
752.975	7041.69
753.313	7041.69
753.651	7237.62
753.989	7301.35
754.327	7425.64
754.666	7519.42
755.004	7631.96
755.342	7849.81
755.679	7958.96
756.017	8033.76
756.355	8234.2
756.693	8291.6
757.031	8538.38
757.368	8599.62
757.706	8747.19
758.044	8872.15
758.381	9066.27
758.719	9199.15
759.056	9370.22
759.394	9524.34
759.731	9651.12
760.068	9813.82
760.405	9945.12
760.743	10111.67
761.08	10300.59
761.417	10472.34
761.754	10719.11
762.091	10921.14
762.428	11041.36
762.765	11146.22
763.102	11452.2
763.438	11552.31
763.775	11684.51
764.112	11931.96
764.449	12132.86
764.785	12323.14
765.122	12431.83
765.458	12620.98
765.795	12801.32
766.131	12943.91
