Data from hue_170_FLMS001491_00014.txt Node
Date: Tue Feb 07 16:48:19 GMT 2017
User: dcchb
Spectrometer: FLMS00149
Trigger mode: 0
Integration Time (sec): 2.000000E-2
Scans to average: 10
Electric dark correction enabled: true
Nonlinearity correction enabled: false
Boxcar width: 0
XAxis mode: Wavelengths
Number of Pixels in Spectrum: 2048
>>>>>Begin Spectral Data<<<<<
341.393	-26.03
341.776	-26.03
342.16	-26.03
342.543	-64
342.927	-84.33
343.31	-61.96
343.693	-61.28
344.077	-53.37
344.46	-57.67
344.843	-61.96
345.226	-31.45
345.61	-35.3
345.993	-11.12
346.376	-11.34
346.759	1.77
347.142	47.87
347.525	31.82
347.908	55.55
348.291	65.72
348.674	76.34
349.057	106.4
349.44	104.59
349.823	140.07
350.206	166.96
350.588	202.21
350.971	188.65
351.354	225.71
351.737	230.91
352.119	255.54
352.502	276.11
352.884	275.2
353.267	273.85
353.65	301.42
354.032	280.63
354.414	297.35
354.797	298.25
355.179	321.53
355.562	315.43
355.944	324.92
356.326	319.72
356.709	351.13
357.091	342.1
357.473	324.92
357.855	354.07
358.238	340.97
358.62	342.32
359.002	335.54
359.384	320.85
359.766	345.03
360.148	322.21
360.53	322.89
360.912	338.03
361.294	345.03
361.676	324.92
362.057	321.53
362.439	349.1
362.821	347.29
363.203	335.09
363.584	331.25
363.966	331.47
364.348	318.82
364.729	336.45
365.111	307.52
365.493	325.15
365.874	323.56
366.256	328.54
366.637	329.89
367.019	326.28
367.4	289.44
367.781	283.34
368.163	307.97
368.544	314.53
368.925	285.6
369.306	322.66
369.688	294.19
370.069	321.76
370.45	302.77
370.831	321.08
371.212	305.94
371.593	304.81
371.974	331.7
372.355	309.33
372.736	316.56
373.117	305.03
373.498	329.21
373.879	314.75
374.26	335.77
374.641	303.23
375.021	318.14
375.402	333.73
375.783	311.36
376.163	326.05
376.544	333.06
376.925	350.68
377.305	331.02
377.686	313.17
378.066	324.69
378.447	337.35
378.827	340.97
379.208	315.88
379.588	330.12
379.968	338.48
380.349	335.77
380.729	327.18
381.109	327.86
381.489	335.99
381.87	330.12
382.25	322.89
382.63	330.57
383.01	343.45
383.39	338.03
383.77	345.71
384.15	328.76
384.53	340.74
384.91	360.17
385.29	335.09
385.67	360.4
386.049	346.39
386.429	341.19
386.809	360.4
387.189	353.39
387.568	343.9
387.948	367.63
388.328	370.57
388.707	362.66
389.087	357.91
389.466	380.06
389.846	367.41
390.225	362.43
390.605	367.18
390.984	371.7
391.363	352.49
391.743	370.12
392.122	361.98
392.501	375.54
392.881	373.51
393.26	368.08
393.639	371.7
394.018	366.5
394.397	366.95
394.776	381.42
395.155	368.99
395.534	376.9
395.913	372.6
396.292	385.26
396.671	387.97
397.05	384.13
397.429	390.46
397.808	376.22
398.186	397.69
398.565	397.91
398.944	403.11
399.323	392.26
399.701	403.79
400.08	403.11
400.458	408.08
400.837	418.25
401.215	424.35
401.594	424.81
401.972	396.33
402.351	434.75
402.729	414.86
403.107	411.25
403.486	413.96
403.864	426.39
404.242	421.64
404.62	444.01
404.999	430.68
405.377	438.82
405.755	433.39
406.133	456.67
406.511	439.95
406.889	438.82
407.267	462.32
407.645	453.51
408.023	488.76
408.401	457.57
408.779	459.38
409.156	457.57
409.534	467.97
409.912	469.78
410.29	486.27
410.667	484.24
411.045	502.77
411.422	492.83
411.8	519.04
412.178	499.83
412.555	500.06
412.933	526.05
413.31	512.03
413.687	516.78
414.065	541.41
414.442	528.31
414.819	540.51
415.197	533.95
415.574	548.19
415.951	550.23
416.328	570.34
416.705	582.09
417.082	580.06
417.46	569.66
417.837	573.28
418.214	567.85
418.591	590.68
418.967	600.85
419.344	609.43
419.721	600.62
420.098	599.94
420.475	612.37
420.852	627.06
421.228	643.1
421.605	616.66
421.982	661.86
422.358	666.38
422.735	656.89
423.111	645.36
423.488	670.22
423.864	683.56
424.241	689.21
424.617	675.19
424.994	701.63
425.37	698.02
425.746	731.69
426.123	725.36
426.499	731.92
426.875	732.59
427.251	734.63
427.627	749.54
428.003	781.18
428.379	738.24
428.756	778.69
429.132	780.5
429.507	813.5
429.883	808.07
430.259	786.6
430.635	799.03
431.011	830.44
431.387	824.34
431.763	839.26
432.138	846.26
432.514	854.85
432.89	886.94
433.265	874.74
433.641	872.7
434.016	905.47
434.392	915.19
434.767	935.75
435.143	930.78
435.518	968.52
435.894	971.46
436.269	975.75
436.644	999.93
437.02	1003.77
437.395	1008.29
437.77	1003.77
438.145	1010.33
438.52	1040.83
438.895	1040.16
439.271	1065.69
439.646	1072.47
440.021	1070.44
440.395	1076.77
440.77	1070.66
441.145	1105.01
441.52	1122.41
441.895	1112.7
442.27	1140.94
442.645	1106.37
443.019	1164.67
443.394	1180.27
443.769	1171.23
444.143	1176.2
444.518	1184.11
444.892	1175.97
445.267	1201.73
445.641	1232.69
446.016	1252.81
446.39	1248.74
446.764	1284.22
447.139	1262.75
447.513	1270.88
447.887	1270.21
448.262	1285.12
448.636	1257.33
449.01	1301.39
449.384	1306.59
449.758	1322.63
450.132	1372.35
450.506	1365.35
450.88	1373.93
451.254	1353.82
451.628	1397.66
452.002	1410.09
452.376	1422.29
452.75	1415.97
453.123	1450.77
453.497	1486.02
453.871	1457.09
454.244	1486.25
454.618	1506.58
454.992	1515.62
455.365	1545.45
455.739	1596.53
456.112	1618.22
456.486	1600.82
456.859	1599.69
457.232	1639.46
457.606	1664.09
457.979	1679.46
458.352	1716.75
458.725	1752.91
459.099	1740.48
459.472	1757.88
459.845	1815.05
460.218	1824.77
460.591	1827.25
460.964	1825.45
461.337	1842.85
461.71	1924.2
462.083	1959.45
462.456	1969.62
462.829	1970.08
463.201	1996.29
463.574	2010.53
463.947	2053.91
464.32	2109.96
464.692	2119.22
465.065	2128.49
465.438	2191.31
465.81	2199.45
466.183	2218.2
466.555	2288.49
466.928	2304.08
467.3	2287.13
467.672	2336.85
468.045	2425.66
468.417	2440.57
468.789	2464.07
469.161	2500
469.534	2537.07
469.906	2628.59
470.278	2624.07
470.65	2694.58
471.022	2742.94
471.394	2799.43
471.766	2848.24
472.138	2851.86
472.51	2906.1
472.882	3001.46
473.253	3033.78
473.625	3126.88
473.997	3178.63
474.369	3215.24
474.74	3309.48
475.112	3344.95
475.484	3422.69
475.855	3535.01
476.227	3506.08
476.598	3638.73
476.97	3759.41
477.341	3805.96
477.713	3932.51
478.084	3912.4
478.455	4070.81
478.827	4132.28
479.198	4294.76
479.569	4305.16
479.94	4481.87
480.311	4515.77
480.682	4636.45
481.053	4772.04
481.424	4906.95
481.795	4998.7
482.166	5081.63
482.537	5193.04
482.908	5315.3
483.279	5445.01
483.65	5545.8
484.021	5724.33
484.391	5763.87
484.762	5918.67
485.133	5972.23
485.503	6136.75
485.874	6282.5
486.244	6327.47
486.615	6520.24
486.985	6667.58
487.356	6765.66
487.726	6902.83
488.097	7120.67
488.467	7118.19
488.837	7343.72
489.207	7519.53
489.578	7600.66
489.948	7697.38
490.318	7866.64
490.688	7992.74
491.058	8164.26
491.428	8243.13
491.798	8355.44
492.168	8526.06
492.538	8683.12
492.908	8815.77
493.278	8885.6
493.648	8993.39
494.017	9122.66
494.387	9207.63
494.757	9333.95
495.126	9509.54
495.496	9544.57
495.866	9662.08
496.235	9765.12
496.605	9952.46
496.974	9959.47
497.344	10054.38
497.713	10194.94
498.082	10274.94
498.452	10390.87
498.821	10464.77
499.19	10526.91
499.559	10648.49
499.928	10747.25
500.298	10749.05
500.667	10947.47
501.036	10951.08
501.405	11153.11
501.774	11050.06
502.143	11225.65
502.512	11245.76
502.88	11385.87
503.249	11381.58
503.618	11461.8
503.987	11527.11
504.356	11599.2
504.724	11684.62
505.093	11715.58
505.462	11655.92
505.83	11823.83
506.199	11959.64
506.567	12010.49
506.936	12047.78
507.304	12240.54
507.672	12200.54
508.041	12222.69
508.409	12323.7
508.777	12465.17
509.145	12444.15
509.514	12475.34
509.882	12597.37
510.25	12529.35
510.618	12627.2
510.986	12583.36
511.354	12708.55
511.722	12807.08
512.09	12925.27
512.458	12782.9
512.826	12945.83
513.193	12953.52
513.561	13031.03
513.929	13039.39
514.297	13143.79
514.664	13176.56
515.032	13149.89
515.4	13200.97
515.767	13269.67
516.135	13334.07
516.502	13187.18
516.869	13345.6
517.237	13412.26
517.604	13277.8
517.972	13459.04
518.339	13473.5
518.706	13463.33
519.073	13501.75
519.44	13451.36
519.808	13540.62
520.175	13574.74
520.542	13744.68
520.909	13742.65
521.276	13716.66
521.643	13760.27
522.009	13829.42
522.376	13856.99
522.743	13872.81
523.11	13997.33
523.477	13917.78
523.843	14000.27
524.21	14037.55
524.577	14154.61
524.943	14122.75
525.31	14111.45
525.676	14155.97
526.043	14168.85
526.409	14185.8
526.776	14280.71
527.142	14199.36
527.508	14293.59
527.874	14366.36
528.241	14337.66
528.607	14319.36
528.973	14352.8
529.339	14247.49
529.705	14293.82
530.071	14424.21
530.437	14361.61
530.803	14385.79
531.169	14392.35
531.535	14304.67
531.901	14318
532.267	14309.86
532.632	14382.18
532.998	14364.55
533.364	14342.63
533.73	14303.99
534.095	14369.98
534.461	14263.09
534.826	14400.26
535.192	14314.61
535.557	14329.98
535.923	14153.71
536.288	14200.94
536.653	14167.95
537.019	14142.18
537.384	14052.02
537.749	14048.4
538.114	14045.46
538.479	14064.22
538.845	14056.54
539.21	13986.48
539.575	13960.04
539.94	13898.12
540.305	13988.74
540.67	13864
541.034	13809.99
541.399	13797.56
541.764	13717.79
542.129	13739.03
542.494	13723.66
542.858	13659.94
543.223	13575.19
543.587	13740.84
543.952	13505.14
544.316	13594.63
544.681	13443.67
545.045	13429.21
545.41	13529.09
545.774	13396.67
546.138	13373.39
546.503	13342.66
546.867	13245.03
547.231	13319.83
547.595	13230.8
547.959	13287.29
548.324	13170.46
548.688	13135.88
549.052	13057.92
549.416	13054.76
549.779	13040.07
550.143	13074.19
550.507	12950.58
550.871	12985.6
551.235	12933.4
551.599	12941.31
551.962	12867.87
552.326	12785.84
552.689	12900.41
553.053	12699.51
553.417	12676.91
553.78	12794.88
554.143	12637.37
554.507	12674.43
554.87	12669.46
555.234	12699.74
555.597	12619.29
555.96	12561.89
556.323	12633.75
556.686	12601.89
557.05	12645.05
557.413	12585.16
557.776	12579.29
558.139	12544.49
558.502	12497.71
558.865	12498.16
559.228	12616.58
559.59	12508.56
559.953	12541.1
560.316	12497.71
560.679	12536.58
561.041	12527.09
561.404	12477.6
561.767	12547.88
562.129	12522.57
562.492	12499.52
562.854	12483.7
563.217	12412.51
563.579	12445.51
563.941	12504.71
564.304	12543.13
564.666	12567.31
565.028	12592.39
565.39	12582.23
565.753	12533.64
566.115	12639.17
566.477	12574.99
566.839	12564.6
567.201	12705.16
567.563	12612.73
567.925	12644.82
568.287	12668.33
568.648	12539.97
569.01	12729.34
569.372	12714.2
569.734	12584.26
570.095	12755.1
570.457	12734.54
570.819	12710.81
571.18	12651.38
571.542	12777.93
571.903	12756.23
572.265	12676.01
572.626	12761.2
572.987	12759.17
573.349	12767.98
573.71	12727.76
574.071	12838.49
574.432	12804.82
574.794	12814.54
575.155	12807.98
575.516	12761.2
575.877	12799.62
576.238	12806.4
576.599	12847.76
576.96	12868.55
577.32	12854.76
577.681	12875.33
578.042	12836
578.403	12809.34
578.763	12873.52
579.124	12884.59
579.485	12911.03
579.845	12909.9
580.206	12883.23
580.566	12848.21
580.927	12816.34
581.287	12856.57
581.648	12826.96
582.008	12822.67
582.368	12788.77
582.728	12838.26
583.089	12723.24
583.449	12796.46
583.809	12817.47
584.169	12793.29
584.529	12788.32
584.889	12865.16
585.249	12745.61
585.609	12618.61
585.969	12796.23
586.329	12752.62
586.688	12765.95
587.048	12701.09
587.408	12573.41
587.768	12689.34
588.127	12615.45
588.487	12602.34
588.846	12647.53
589.206	12552.62
589.565	12652.05
589.925	12624.03
590.284	12579.74
590.643	12648.89
591.003	12623.58
591.362	12624.03
591.721	12700.87
592.08	12616.8
592.44	12599.63
592.799	12643.69
593.158	12610.7
593.517	12556.92
593.876	12613.86
594.235	12523.92
594.593	12553.98
594.952	12518.5
595.311	12498.16
595.67	12512.62
596.029	12577.71
596.387	12548.55
596.746	12565.95
597.104	12510.14
597.463	12543.58
597.822	12559.85
598.18	12524.6
598.538	12486.63
598.897	12514.66
599.255	12457.71
599.613	12635.78
599.972	12511.95
600.33	12562.11
600.688	12471.49
601.046	12545.16
601.404	12538.39
601.762	12477.14
602.12	12579.74
602.478	12488.67
602.836	12513.75
603.194	12495.67
603.552	12452.96
603.91	12462.68
604.268	12516.24
604.625	12437.37
604.983	12477.82
605.341	12407.09
605.698	12496.8
606.056	12542.68
606.413	12440.99
606.771	12519.63
607.128	12539.97
607.485	12535
607.843	12517.82
608.2	12588.78
608.557	12578.61
608.914	12511.27
609.272	12571.83
609.629	12549.68
609.986	12620.64
610.343	12539.97
610.7	12600.98
611.057	12541.32
611.414	12575.22
611.771	12574.32
612.127	12557.82
612.484	12601.66
612.841	12612.51
613.198	12703.8
613.554	12642.34
613.911	12696.12
614.267	12654.77
614.624	12638.27
614.98	12793.07
615.337	12748.77
615.693	12708.55
616.05	12724.37
616.406	12757.14
616.762	12720.53
617.118	12748.1
617.475	12735.22
617.831	12791.71
618.187	12750.36
618.543	12726.85
618.899	12846.63
619.255	12846.4
619.611	12764.14
619.967	12909.9
620.323	12861.99
620.678	12854.31
621.034	12745.16
621.39	12846.4
621.746	12821.54
622.101	12936.57
622.457	12873.07
622.812	12853.86
623.168	12862.22
623.523	12795.55
623.879	12972.05
624.234	12804.59
624.589	12864.25
624.945	12829.45
625.3	12946.51
625.655	12810.47
626.01	12795.78
626.365	12879.62
626.72	12809.56
627.075	12907.19
627.43	12764.37
627.785	12743.35
628.14	12875.1
628.495	12772.5
628.85	12818.15
629.205	12799.17
629.559	12824.48
629.914	12800.07
630.269	12807.08
630.623	12707.42
630.978	12762.11
631.332	12808.66
631.687	12722.79
632.041	12653.18
632.396	12737.02
632.75	12661.32
633.104	12608.21
633.459	12613.19
633.813	12577.71
634.167	12573.41
634.521	12575.22
634.875	12647.31
635.229	12528.67
635.583	12550.59
635.937	12442.34
636.291	12461.78
636.645	12428.56
636.999	12440.53
637.352	12521.44
637.706	12384.94
638.06	12494.54
638.413	12464.94
638.767	12469.91
639.121	12403.25
639.474	12304.04
639.828	12371.84
640.181	12386.98
640.534	12400.31
640.888	12404.6
641.241	12302.23
641.594	12357.37
641.947	12360.99
642.301	12356.47
642.654	12362.34
643.007	12399.41
643.36	12316.92
643.713	12253.19
644.066	12290.48
644.419	12269.24
644.771	12170.26
645.124	12036.48
645.477	12007.33
645.83	11927.33
646.182	11921.68
646.535	11888.23
646.888	11895.46
647.24	11887.78
647.593	11909.47
647.945	11886.42
648.298	11834
648.65	11731.63
649.002	11737.5
649.355	11810.95
649.707	11803.04
650.059	11909.47
650.411	12108.34
650.763	12045.52
651.115	12122.58
651.467	12142.01
651.819	12110.15
652.171	12075.57
652.523	11980.66
652.875	12046.42
653.227	12062.01
653.578	12188.56
653.93	12119.64
654.282	11996.48
654.633	12001.45
654.985	12014.78
655.337	12059.98
655.688	12111.5
656.039	12097.94
656.391	12114.44
656.742	12010.04
657.094	12078.96
657.445	12209.58
657.796	12116.7
658.147	12110.15
658.498	12056.59
658.849	12115.8
659.2	12081.45
659.551	12098.85
659.902	12128.23
660.253	11984.95
660.604	12150.82
660.955	12104.72
661.306	12102.46
661.656	12137.27
662.007	12141.79
662.358	12150.37
662.708	12178.39
663.059	12186.3
663.409	12133.88
663.76	12193.31
664.11	12140.66
664.461	12197.6
664.811	12230.37
665.161	12225.17
665.511	12192.41
665.862	12164.38
666.212	12231.5
666.562	12086.65
666.912	12212.07
667.262	12174.1
667.612	12227.88
667.962	12215.68
668.312	12182.46
668.662	12162.58
669.011	12193.76
669.361	12142.69
669.711	12088
670.06	12186.98
670.41	12142.24
670.76	12115.35
671.109	12134.33
671.459	12111.5
671.808	12134.55
672.157	12173.87
672.507	12034.67
672.856	12016.14
673.205	12099.98
673.554	12139.07
673.904	12092.07
674.253	12162.12
674.602	12063.37
674.951	11862.02
675.3	11801.23
675.649	12127.32
675.998	12013.65
676.346	12086.87
676.695	12080.09
677.044	11976.37
677.393	11905.41
677.741	11997.61
678.09	11904.5
678.438	11890.72
678.787	11893.88
679.135	11885.52
679.484	11810.27
679.832	11850.95
680.181	11762.59
680.529	11814.11
680.877	11761.91
681.225	11689.82
681.573	11785.18
681.922	11684.62
682.27	11657.96
682.618	11723.27
682.966	11652.08
683.314	11700.44
683.661	11687.33
684.009	11519.88
684.357	11622.25
684.705	11500.67
685.053	11553.1
685.4	11549.03
685.748	11423.61
686.095	11449.15
686.443	11437.85
686.79	11392.88
687.138	11352.65
687.485	11391.97
687.832	11342.71
688.18	11370.51
688.527	11292.09
688.874	11292.99
689.221	11165.99
689.568	11161.02
689.915	11155.37
690.262	11080.57
690.609	11135.71
690.956	11092.77
691.303	11066.33
691.65	10917.18
691.997	10918.77
692.344	10894.36
692.69	10893.68
693.037	10902.5
693.383	10731.43
693.73	10860.01
694.077	10753.8
694.423	10758.77
694.769	10693.01
695.116	10662.73
695.462	10632.67
695.808	10587.7
696.155	10651.65
696.501	10518.78
696.847	10538.44
697.193	10358.78
697.539	10416.86
697.885	10343.87
698.231	10282.4
698.577	10326.47
698.923	10315.62
699.269	10211.21
699.614	10174.83
699.96	10140.26
700.306	10107.94
700.651	10041.95
700.997	10070.65
701.342	10012.35
701.688	9997.21
702.033	9917.44
702.379	9932.35
702.724	9886.25
703.069	9913.14
703.415	9738.23
703.76	9737.1
704.105	9775.29
704.45	9768.97
704.795	9636.54
705.14	9644
705.485	9618.24
705.83	9539.82
706.175	9566.94
706.52	9510.22
706.865	9423.89
707.209	9483.55
707.554	9445.81
707.899	9419.37
708.243	9352.25
708.588	9380.73
708.932	9377.79
709.277	9233.39
709.621	9298.02
709.966	9229.32
710.31	9253.95
710.654	9145.93
710.998	9164.46
711.342	9149.77
711.687	9173.73
712.031	9126.72
712.375	9057.8
712.719	9050.57
713.063	9083.11
713.407	9105.03
713.75	8991.81
714.094	9004.24
714.438	8968.31
714.782	8990.46
715.125	8916.79
715.469	8926.95
715.812	8857.58
716.156	8865.94
716.499	8898.03
716.843	8804.47
717.186	8866.39
717.53	8911.81
717.873	8785.72
718.216	8786.17
718.559	8763.57
718.902	8705.27
719.246	8776.68
719.589	8696.23
719.932	8670.01
720.275	8741.87
720.617	8710.24
720.96	8688.09
721.303	8692.38
721.646	8684.48
721.989	8610.35
722.331	8644.48
722.674	8623.01
723.016	8638.37
723.359	8594.76
723.701	8623.91
724.044	8573.07
724.386	8518.6
724.729	8506.17
725.071	8539.85
725.413	8592.27
725.755	8522.22
726.097	8518.83
726.439	8437.93
726.782	8459.62
727.124	8567.19
727.465	8486.74
727.807	8463.69
728.149	8486.29
728.491	8404.03
728.833	8492.39
729.175	8467.31
729.516	8491.26
729.858	8456.46
730.199	8473.63
730.541	8415.78
730.882	8462.33
731.224	8467.31
731.565	8443.58
731.906	8443.13
732.248	8383.01
732.589	8383.92
732.93	8406.29
733.271	8404.71
733.612	8435.89
733.953	8466.18
734.294	8391.6
734.635	8373.75
734.976	8522.45
735.317	8460.98
735.658	8369.68
735.999	8438.83
736.339	8444.03
736.68	8480.86
737.021	8463.24
737.361	8427.31
737.702	8504.82
738.042	8404.48
738.383	8530.13
738.723	8540.52
739.063	8502.33
739.404	8548.43
739.744	8580.97
740.084	8507.08
740.424	8580.07
740.764	8529.68
741.104	8600.18
741.444	8540.3
741.784	8553.18
742.124	8623.91
742.464	8624.82
742.804	8611.71
743.143	8611.03
743.483	8661.2
743.823	8669.56
744.162	8665.27
744.502	8739.84
744.841	8784.59
745.181	8804.02
745.52	8809.9
745.86	8871.59
746.199	8897.12
746.538	8926.73
746.877	9018.48
747.216	9075.43
747.556	9050.57
747.895	9148.42
748.234	9107.51
748.573	9198.13
748.911	9217.12
749.25	9242.88
749.589	9385.93
749.928	9405.13
750.267	9508.86
750.605	9583.89
750.944	9643.09
751.283	9633.83
751.621	9858.46
751.96	9869.3
752.298	9988.4
752.636	10096.64
752.975	10147.71
753.313	10222.51
753.651	10359.69
753.989	10434.03
754.327	10511.09
754.666	10631.09
755.004	10772.78
755.342	10973.23
755.679	11125.31
756.017	11176.16
756.355	11325.54
756.693	11458.64
757.031	11632.19
757.368	11759.87
757.706	11846.43
