Data from hue_70_FLMS001491_78.txt Node
Date: Mon Feb 06 15:21:25 GMT 2017
User: dcchb
Spectrometer: FLMS00149
Trigger mode: 0
Integration Time (sec): 2.000000E-2
Scans to average: 10
Electric dark correction enabled: true
Nonlinearity correction enabled: false
Boxcar width: 0
XAxis mode: Wavelengths
Number of Pixels in Spectrum: 2048
>>>>>Begin Spectral Data<<<<<
341.393	-14.39
341.776	-14.39
342.16	-14.39
342.543	-31.57
342.927	-33.83
343.31	-86.93
343.693	-63.43
344.077	-70.21
344.46	-60.94
344.843	-50.32
345.226	-50.55
345.61	-30.44
345.993	-20.72
346.376	-1.96
346.759	12.5
347.142	26.06
347.525	40.75
347.908	61.54
348.291	87.53
348.674	86.85
349.057	120.29
349.44	126.17
349.823	159.84
350.206	160.74
350.588	194.64
350.971	202.1
351.354	240.97
351.737	270.8
352.119	254.3
352.502	271.93
352.884	295.88
353.267	297.92
353.65	286.84
354.032	303.11
354.414	315.77
354.797	323.9
355.179	330.46
355.562	328.88
355.944	306.73
356.326	339.72
356.709	358.03
357.091	317.8
357.473	352.6
357.855	346.95
358.238	339.72
358.62	327.52
359.002	360.06
359.384	354.19
359.766	370
360.148	347.41
360.53	355.09
360.912	348.31
361.294	333.4
361.676	323
362.057	339.5
362.439	341.3
362.821	332.04
363.203	345.37
363.584	322.55
363.966	360.29
364.348	327.75
364.729	324.81
365.111	348.31
365.493	335.2
365.874	326.16
366.256	310.34
366.637	328.42
367.019	307.63
367.4	308.76
367.781	325.94
368.163	311.02
368.544	308.76
368.925	316.45
369.306	317.35
369.688	318.71
370.069	314.64
370.45	307.63
370.831	315.32
371.212	320.51
371.593	342.66
371.974	342.43
372.355	309.44
372.736	325.03
373.117	311.02
373.498	328.42
373.879	338.37
374.26	327.29
374.641	330.46
375.021	320.97
375.402	313.28
375.783	322.55
376.163	315.77
376.544	345.15
376.925	343.56
377.305	342.21
377.686	331.36
378.066	330.91
378.447	326.84
378.827	327.97
379.208	331.14
379.588	346.28
379.968	324.36
380.349	336.78
380.729	365.94
381.109	331.81
381.489	338.37
381.87	332.27
382.25	337.46
382.63	357.58
383.01	347.86
383.39	329.33
383.77	351.25
384.15	345.15
384.53	347.86
384.91	339.27
385.29	339.27
385.67	322.55
386.049	365.94
386.429	344.92
386.809	368.87
387.189	360.51
387.568	348.76
387.948	360.29
388.328	359.38
388.707	368.65
389.087	359.16
389.466	374.07
389.846	365.48
390.225	367.74
390.605	376.78
390.984	368.65
391.363	360.97
391.743	366.61
392.122	370.68
392.501	363
392.881	391.02
393.26	363.68
393.639	378.82
394.018	364.81
394.397	371.13
394.776	394.41
395.155	367.74
395.534	363.45
395.913	371.36
396.292	375.65
396.671	383.11
397.05	395.09
397.429	393.05
397.808	367.74
398.186	376.11
398.565	381.08
398.944	405.48
399.323	381.08
399.701	385.15
400.08	365.94
400.458	389.44
400.837	407.07
401.215	403.22
401.594	417.01
401.972	388.31
402.351	382.43
402.729	388.53
403.107	421.08
403.486	409.78
403.864	401.87
404.242	395.99
404.62	394.86
404.999	394.41
405.377	411.59
405.755	416.1
406.133	414.07
406.511	410.91
406.889	410.68
407.267	422.43
407.645	420.4
408.023	426.73
408.401	417.01
408.779	436.9
409.156	435.09
409.534	439.61
409.912	453.39
410.29	433.73
410.667	441.64
411.045	464.24
411.422	446.84
411.8	461.3
412.178	455.43
412.555	470.34
412.933	463.34
413.31	463.56
413.687	453.17
414.065	464.24
414.442	459.04
414.819	451.81
415.197	466.95
415.574	481.19
415.951	465.14
416.328	487.52
416.705	483.67
417.082	482.54
417.46	485.26
417.837	501.3
418.214	491.58
418.591	512.6
418.967	489.32
419.344	489.1
419.721	506.27
420.098	493.84
420.475	495.65
420.852	511.24
421.228	525.48
421.605	493.16
421.982	503.56
422.358	520.73
422.735	514.86
423.111	503.56
423.488	527.06
423.864	536.1
424.241	501.98
424.617	554.86
424.994	552.6
425.37	549.43
425.746	524.8
426.123	549.21
426.499	559.6
426.875	560.73
427.251	557.57
427.627	556.67
428.003	563.22
428.379	559.15
428.756	571.58
429.132	564.58
429.507	576.33
429.883	581.98
430.259	614.29
430.635	583.78
431.011	573.61
431.387	617.46
431.763	623.78
432.138	611.58
432.514	628.08
432.89	625.82
433.265	648.87
433.641	604.35
434.016	640.73
434.392	646.16
434.767	638.92
435.143	638.92
435.518	646.16
435.894	652.93
436.269	663.33
436.644	667.4
437.02	665.82
437.395	680.28
437.77	667.17
438.145	671.69
438.52	709.2
438.895	694.06
439.271	686.83
439.646	717.79
440.021	675.08
440.395	715.98
440.77	694.06
441.145	729.32
441.52	716.66
441.895	731.12
442.27	726.38
442.645	727.28
443.019	727.96
443.394	717.34
443.769	752.14
444.143	739.94
444.518	754.85
444.892	739.03
445.267	751.92
445.641	756.89
446.016	755.53
446.39	753.5
446.764	757.56
447.139	773.61
447.513	781.29
447.887	789.65
448.262	774.29
448.636	786.72
449.01	790.33
449.384	785.13
449.758	811.12
450.132	826.26
450.506	819.26
450.88	839.14
451.254	798.69
451.628	846.15
452.002	833.5
452.376	861.29
452.75	869.65
453.123	858.81
453.497	859.48
453.871	868.07
454.244	885.25
454.618	914.62
454.992	895.64
455.365	902.65
455.739	904.68
456.112	933.83
456.486	931.35
456.859	942.87
457.232	951.68
457.606	961.4
457.979	966.37
458.352	961.63
458.725	982.87
459.099	1003.89
459.472	1004.79
459.845	1021.74
460.218	1028.07
460.591	1041.17
460.964	1040.04
461.337	1061.74
461.71	1085.69
462.083	1072.81
462.456	1099.93
462.829	1098.8
463.201	1114.17
463.574	1129.76
463.947	1126.82
464.32	1181.73
464.692	1193.94
465.065	1174.5
465.438	1211.11
465.81	1223.77
466.183	1252.02
466.555	1247.04
466.928	1281.62
467.3	1272.81
467.672	1282.97
468.045	1331.11
468.417	1313.71
468.789	1350.77
469.161	1387.83
469.534	1380.15
469.906	1417.66
470.278	1439.35
470.65	1458.79
471.022	1513.25
471.394	1526.13
471.766	1557.09
472.138	1604.55
472.51	1630.99
472.882	1630.31
473.253	1670.76
473.625	1689.52
473.997	1778.1
474.369	1790.08
474.74	1821.27
475.112	1855.84
475.484	1914.14
475.855	1939.68
476.227	1990.3
476.598	2005.67
476.97	2071.88
477.341	2155.72
477.713	2195.72
478.084	2213.8
478.455	2293.8
478.827	2369.27
479.198	2480.68
479.569	2484.98
479.94	2585.54
480.311	2606.56
480.682	2714.12
481.053	2771.52
481.424	2870.28
481.795	2942.14
482.166	3021.01
482.537	3081.12
482.908	3230.49
483.279	3299.87
483.65	3375.58
484.021	3513.2
484.391	3571.28
484.762	3649.01
485.133	3733.53
485.503	3830.03
485.874	3950.48
486.244	4055.11
486.615	4213.52
486.985	4246.29
487.356	4432.72
487.726	4489.44
488.097	4649.67
488.467	4729.21
488.837	4935.99
489.207	5014.4
489.578	5196.09
489.948	5300.5
490.318	5417.33
490.688	5545.46
491.058	5645.57
491.428	5795.62
491.798	5946.81
492.168	6146.58
492.538	6203.07
492.908	6376.85
493.278	6477.41
493.648	6614.81
494.017	6747.46
494.387	6890.96
494.757	7048.25
495.126	7187.45
495.496	7246.21
495.866	7364.17
496.235	7545.86
496.605	7709.25
496.974	7841.22
497.344	8004.38
497.713	8068.56
498.082	8229.23
498.452	8378.83
498.821	8500.19
499.19	8647.3
499.559	8746.96
499.928	8882.1
500.298	9021.53
500.667	9121.86
501.036	9225.36
501.405	9442.53
501.774	9478.69
502.143	9596.2
502.512	9812.69
502.88	9860.6
503.249	9952.13
503.618	10117.32
503.987	10220.82
504.356	10341.04
504.724	10400.93
505.093	10623.29
505.462	10646.34
505.83	10840.01
506.199	10931.99
506.567	11143.96
506.936	11077.29
507.304	11249.94
507.672	11353.22
508.041	11450.17
508.409	11583.49
508.777	11768.12
509.145	11785.75
509.514	11864.84
509.882	11952.52
510.25	12049.25
510.618	12166.08
510.986	12326.53
511.354	12467.31
511.722	12572.4
512.09	12763.12
512.458	12696.01
512.826	12875.44
513.193	12918.83
513.561	12969.45
513.929	13075.21
514.297	13267.07
514.664	13296.44
515.032	13385.48
515.4	13561.07
515.767	13615.53
516.135	13754.74
516.502	13699.6
516.869	13952.7
517.237	14096.65
517.604	13966.94
517.972	14095.07
518.339	14253.26
518.706	14294.16
519.073	14346.59
519.44	14593.59
519.808	14641.04
520.175	14589.52
520.542	14745.45
520.909	14813.47
521.276	14904.76
521.643	15054.59
522.009	15150.41
522.376	15221.14
522.743	15305.66
523.11	15439.89
523.477	15551.07
523.843	15636.27
524.21	15789.49
524.577	15819.09
524.943	15957.62
525.31	15945.64
525.676	16257.5
526.043	16222.47
526.409	16369.13
526.776	16361.67
527.142	16491.61
527.508	16619.29
527.874	16631.72
528.241	16746.97
528.607	16685.73
528.973	16928.21
529.339	16866.29
529.705	16971.83
530.071	17180.86
530.437	17207.3
530.803	17307.41
531.169	17358.03
531.535	17302.67
531.901	17325.49
532.267	17494.98
532.632	17491.14
532.998	17550.34
533.364	17584.47
533.73	17707.18
534.095	17804.35
534.461	17764.12
534.826	17899.49
535.192	17879.15
535.557	18053.16
535.923	17981.74
536.288	17984.23
536.653	18032.14
537.019	18021.29
537.384	18010.9
537.749	18146.03
538.114	18148.75
538.479	18177.45
538.845	18191
539.21	18177.67
539.575	18286.14
539.94	18287.05
540.305	18308.29
540.67	18228.74
541.034	18400.26
541.399	18484.1
541.764	18366.59
542.129	18514.39
542.494	18481.17
542.858	18449.53
543.223	18556.19
543.587	18641.61
543.952	18478.23
544.316	18540.37
544.681	18464.9
545.045	18646.13
545.41	18692.46
545.774	18607.94
546.138	18725
546.503	18670.09
546.867	18702.63
547.231	18822.17
547.595	18711.67
547.959	18849.97
548.324	18885.45
548.688	18818.11
549.052	18912.34
549.416	18883.64
549.779	18841.61
550.143	18859.46
550.507	18950.76
550.871	19026.69
551.235	18914.15
551.599	19119.12
551.962	19118.44
552.326	19079.79
552.689	19201.83
553.053	18938.1
553.417	19064.2
553.78	19385.55
554.143	19183.52
554.507	19328.15
554.87	19282.95
555.234	19529.5
555.597	19241.6
555.96	19275.95
556.323	19407.92
556.686	19310.52
557.05	19445.89
557.413	19567.92
557.776	19609.05
558.139	19596.84
558.502	19720
558.865	19702.83
559.228	19779.44
559.59	19861.02
559.953	19802.49
560.316	19989.38
560.679	19978.3
561.041	20077.73
561.404	20153.89
561.767	20206.77
562.129	20143.27
562.492	20265.75
562.854	20291.06
563.217	20254.23
563.579	20286.77
563.941	20511.4
564.304	20599.75
564.666	20572.86
565.028	20624.16
565.39	20653.09
565.753	20764.95
566.115	20766.98
566.477	20789.81
566.839	20891.05
567.201	21016.02
567.563	21037.71
567.925	21196.12
568.287	21049.23
568.648	21075.9
569.01	21279.51
569.372	21444.93
569.734	21269.34
570.095	21451.26
570.457	21511.14
570.819	21512.05
571.18	21456.46
571.542	21578.03
571.903	21635.43
572.265	21771.48
572.626	21685.38
572.987	21769.67
573.349	21788.42
573.71	21871.13
574.071	21853.51
574.432	21987.97
574.794	22155.42
575.155	22004.46
575.516	22012.37
575.877	22020.73
576.238	22107.74
576.599	22114.52
576.96	22144.8
577.32	22252.37
577.681	22281.97
578.042	22329.88
578.403	22396.09
578.763	22361.52
579.124	22406.04
579.485	22384.11
579.845	22594.73
580.206	22437.9
580.566	22491.91
580.927	22486.26
581.287	22513.15
581.648	22547.73
582.008	22549.76
582.368	22514.96
582.728	22493.49
583.089	22528.29
583.449	22605.13
583.809	22564.45
584.169	22545.69
584.529	22521.06
584.889	22680.38
585.249	22507.95
585.609	22465.24
585.969	22640.61
586.329	22455.53
586.688	22590.66
587.048	22546.6
587.408	22417.33
587.768	22573.94
588.127	22561.96
588.487	22467.5
588.846	22623.2
589.206	22447.16
589.565	22488.29
589.925	22672.24
590.284	22475.41
590.643	22582.08
591.003	22645.12
591.362	22678.57
591.721	22648.06
592.08	22575.07
592.44	22646.71
592.799	22691.68
593.158	22516.77
593.517	22598.12
593.876	22668.4
594.235	22544.11
594.593	22636.54
594.952	22582.08
595.311	22535.75
595.67	22605.58
596.029	22745.24
596.387	22725.8
596.746	22774.61
597.104	22670.66
597.463	22607.39
597.822	22732.81
598.18	22606.26
598.538	22653.71
598.897	22774.61
599.255	22511.34
599.613	22922.86
599.972	22822.97
600.33	22745.46
600.688	22661.85
601.046	22789.08
601.404	22810.54
601.762	22815.97
602.12	22989.97
602.478	22908.39
602.836	22871.33
603.194	22754.5
603.552	22813.26
603.91	22756.08
604.268	22875.18
604.625	22799.92
604.983	22930.54
605.341	22836.08
605.698	22890.54
606.056	22970.54
606.413	22969.64
606.771	23047.83
607.128	23127.6
607.485	22881.05
607.843	23034.04
608.2	23172.79
608.557	23202.85
608.914	23093.25
609.272	23132.12
609.629	23229.29
609.986	23311.32
610.343	23139.58
610.7	23449.17
611.057	23324.66
611.414	23281.04
611.771	23291.66
612.127	23547.47
612.484	23420.25
612.841	23510.86
613.198	23507.93
613.554	23431.09
613.911	23582.05
614.267	23570.75
614.624	23615.72
614.98	23600.58
615.337	23767.13
615.693	23703.63
616.05	23712.44
616.406	23791.54
616.762	23774.36
617.118	23788.82
617.475	23866.79
617.831	23921.93
618.187	23795.83
618.543	23902.04
618.899	23991.08
619.255	23950.18
619.611	23928.71
619.967	24102.04
620.323	24063.17
620.678	24002.6
621.034	23857.3
621.39	23869.27
621.746	23983.39
622.101	24302.26
622.457	24098.19
622.812	24074.47
623.168	24211.64
623.523	24172.77
623.879	24244.18
624.234	24087.57
624.589	24244.63
624.945	24212.77
625.3	24237.85
625.655	24244.18
626.01	24297.96
626.365	24270.17
626.72	24210.51
627.075	24241.02
627.43	24165.76
627.785	24152.43
628.14	24137.74
628.495	24245.53
628.85	24177.29
629.205	24043.73
629.559	24078.76
629.914	24130.74
630.269	24254.57
630.623	24094.13
630.978	24060.68
631.332	24093.9
631.687	24280.79
632.041	24135.71
632.396	24130.96
632.75	24049.38
633.104	24134.35
633.459	24048.25
633.813	23864.08
634.167	23940.01
634.521	23990.63
634.875	24030.17
635.229	23900.46
635.583	23772.78
635.937	23750.18
636.291	23807.13
636.645	23798.31
636.999	23786.56
637.352	23841.25
637.706	23651.88
638.06	23896.17
638.413	23660.92
638.767	23560.13
639.121	23710.41
639.474	23628.38
639.828	23677.19
640.181	23686.23
640.534	23609.85
640.888	23663.63
641.241	23420.92
641.594	23575.5
641.947	23509.96
642.301	23433.35
642.654	23520.13
643.007	23537.76
643.36	23519.45
643.713	23429.29
644.066	23616.4
644.419	23398.55
644.771	23244.43
645.124	23042.4
645.477	22986.58
645.83	22935.29
646.182	22734.39
646.535	22723.09
646.888	22692.36
647.24	22643.09
647.593	22884.44
647.945	22717.44
648.298	22670.21
648.65	22577.56
649.002	22554.05
649.355	22554.51
649.707	22540.04
650.059	22562.42
650.411	22900.03
650.763	22993.14
651.115	23234.04
651.467	23076.07
651.819	23119.91
652.171	23114.72
652.523	23068.39
652.875	23131.67
653.227	23015.74
653.578	23194.94
653.93	23151.78
654.282	22974.38
654.633	22967.38
654.985	23018.22
655.337	23060.26
655.688	23035.62
656.039	23083.76
656.391	22894.84
656.742	22993.59
657.094	23042.18
657.445	23164.21
657.796	23031.56
658.147	22997.66
658.498	22896.87
658.849	23081.95
659.2	22976.42
659.551	22912.24
659.902	22926.93
660.253	23089.63
660.604	22996.08
660.955	22860.03
661.306	23018.22
661.656	23016.19
662.007	23012.12
662.358	22962.86
662.708	22940.26
663.059	23089.18
663.409	22795.86
663.76	23172.34
664.11	22935.51
664.461	23020.48
664.811	22964.44
665.161	22955.4
665.511	22998.34
665.862	22942.07
666.212	23007.15
666.562	23088.96
666.912	23039.01
667.262	22957.21
667.612	22974.83
667.962	22894.16
668.312	22997.21
668.662	23058.9
669.011	22970.31
669.361	22943.87
669.711	22900.49
670.06	22852.13
670.41	22803.54
670.76	22867.94
671.109	22873.82
671.459	22933.03
671.808	22778.23
672.157	22902.07
672.507	22750.66
672.856	22799.47
673.205	22843.31
673.554	22861.62
673.904	22835.85
674.253	22867.49
674.602	22735.97
674.951	22523.55
675.3	22412.81
675.649	22812.8
675.998	22670.89
676.346	22677.89
676.695	22749.53
677.044	22544.11
677.393	22664.11
677.741	22698.91
678.09	22563.32
678.438	22545.92
678.787	22579.36
679.135	22561.96
679.484	22456.2
679.832	22572.81
680.181	22345.47
680.529	22471.34
680.877	22380.95
681.225	22319.71
681.573	22498.69
681.922	22221.18
682.27	22154.52
682.618	22140.96
682.966	22187.51
683.314	22224.57
683.661	22204.23
684.009	22087.4
684.357	21990
684.705	21879.5
685.053	21938.25
685.4	21866.16
685.748	21803.11
686.095	21790.01
686.443	21765.15
686.79	21778.03
687.138	21733.51
687.485	21721.31
687.832	21592.72
688.18	21677.47
688.527	21536
688.874	21450.81
689.221	21404.93
689.568	21392.73
689.915	21369.68
690.262	21362.45
690.609	21189.8
690.956	21150.7
691.303	21161.55
691.65	20991.84
691.997	21059.86
692.344	20873.42
692.69	20962.23
693.037	20872.74
693.383	20737.6
693.73	20749.81
694.077	20600.43
694.423	20675.46
694.769	20500.77
695.116	20512.98
695.462	20467.78
695.808	20387.33
696.155	20374.68
696.501	20280.67
696.847	20250.84
697.193	20073.67
697.539	20113.21
697.885	19943.95
698.231	19985.99
698.577	19895.37
698.923	19846.55
699.269	19828.7
699.614	19675.03
699.96	19627.8
700.306	19606.11
700.651	19526.34
700.997	19409.96
701.342	19449.05
701.688	19381.48
702.033	19312.78
702.379	19291.77
702.724	19252.67
703.069	19266.68
703.415	19033.69
703.76	19102.39
704.105	19057.2
704.45	18969.52
704.795	18845.22
705.14	18717.09
705.485	18739.92
705.83	18668.96
706.175	18719.58
706.52	18551.67
706.865	18595.74
707.209	18534.95
707.554	18465.12
707.899	18512.35
708.243	18348.97
708.588	18320.49
708.932	18222.19
709.277	18253.38
709.621	18237.78
709.966	18088.18
710.31	18090.89
710.654	17954.4
710.998	17986.94
711.342	18000.73
711.687	17963.21
712.031	17861.75
712.375	17847.28
712.719	17849.77
713.063	17773.61
713.407	17853.16
713.75	17771.13
714.094	17769.32
714.438	17613.17
714.782	17589.44
715.125	17600.74
715.469	17596.22
715.812	17490.46
716.156	17415.66
716.499	17304.47
716.843	17388.31
717.186	17240.75
717.53	17395.55
717.873	17402.32
718.216	17312.61
718.559	17247.07
718.902	17122.56
719.246	17136.57
719.589	17075.78
719.932	17079.62
720.275	16980.87
720.617	17064.93
720.96	16920.76
721.303	16966.4
721.646	17019.51
721.989	16869.23
722.331	16992.62
722.674	16862.9
723.016	16857.71
723.359	16876.01
723.701	16826.07
724.044	16803.92
724.386	16682.12
724.729	16736.35
725.071	16615.9
725.413	16706.98
725.755	16670.37
726.097	16642.12
726.439	16520.31
726.782	16591.95
727.124	16694.32
727.465	16546.98
727.807	16526.87
728.149	16605.74
728.491	16480.32
728.833	16559.18
729.175	16479.41
729.516	16420.88
729.858	16470.15
730.199	16470.82
730.541	16423.37
730.882	16444.38
731.224	16444.16
731.565	16339.08
731.906	16363.48
732.248	16344.27
732.589	16354.44
732.93	16181.34
733.271	16324.61
733.612	16291.17
733.953	16249.13
734.294	16277.38
734.635	16250.72
734.976	16275.8
735.317	16310.15
735.658	16163.71
735.999	16269.25
736.339	16173.43
736.68	16177.05
737.021	16221.34
737.361	16073.32
737.702	16251.85
738.042	16165.75
738.383	16131.17
738.723	16175.46
739.063	16132.75
739.404	16170.94
739.744	16104.96
740.084	16050.27
740.424	16106.31
740.764	16211.4
741.104	16154.22
741.444	16087.33
741.784	16086.2
742.124	16119.19
742.464	16108.12
742.804	16070.38
743.143	16063.6
743.483	16257.5
743.823	16193.77
744.162	16190.15
744.502	16123.04
744.841	16145.41
745.181	16199.19
745.52	16157.39
745.86	16192.64
746.199	16273.09
746.538	16266.31
746.877	16285.29
747.216	16312.86
747.556	16306.31
747.895	16468.79
748.234	16349.25
748.573	16434.44
748.911	16391.5
749.25	16547.88
749.589	16416.59
749.928	16523.93
750.267	16545.62
750.605	16628.79
750.944	16641.21
751.283	16657.71
751.621	16750.36
751.96	16726.64
752.298	16777.93
752.636	16894.54
752.975	16980.87
753.313	16865.39
753.651	17093.18
753.989	17135.44
754.327	17113.29
754.666	17151.71
755.004	17264.48
755.342	17266.51
755.679	17413.62
756.017	17368.43
756.355	17505.15
