Data from hue_70_FLMS001491_19.txt Node
Date: Mon Feb 06 15:20:12 GMT 2017
User: dcchb
Spectrometer: FLMS00149
Trigger mode: 0
Integration Time (sec): 2.000000E-2
Scans to average: 10
Electric dark correction enabled: true
Nonlinearity correction enabled: false
Boxcar width: 0
XAxis mode: Wavelengths
Number of Pixels in Spectrum: 2048
>>>>>Begin Spectral Data<<<<<
341.393	-16.33
341.776	-16.33
342.16	-16.33
342.543	-71.47
342.927	-58.59
343.31	-72.37
343.693	-40.96
344.077	-75.08
344.46	-49.77
344.843	-60.17
345.226	-40.73
345.61	-2.09
345.993	-13.39
346.376	-1.64
346.759	-6.84
347.142	30.68
347.525	31.36
347.908	53.5
348.291	63.9
348.674	100.51
349.057	83.11
349.44	124.69
349.823	141.41
350.206	167.62
350.588	195.87
350.971	204.23
351.354	218.47
351.737	239.71
352.119	254.63
352.502	269.09
352.884	272.48
353.267	280.39
353.65	293.72
354.032	287.17
354.414	317
354.797	315.19
355.179	335.53
355.562	325.58
355.944	326.26
356.326	322.87
356.709	336.88
357.091	328.97
357.473	344.12
357.855	331.91
358.238	342.76
358.62	356.09
359.002	332.36
359.384	332.14
359.766	341.86
360.148	344.79
360.53	364.91
360.912	314.51
361.294	344.57
361.676	322.65
362.057	318.35
362.439	339.6
362.821	336.66
363.203	329.65
363.584	309.54
363.966	335.3
364.348	331.91
364.729	319.48
365.111	296.43
365.493	309.99
365.874	281.97
366.256	304.57
366.637	303.44
367.019	309.77
367.4	328.97
367.781	315.19
368.163	315.64
368.544	323.78
368.925	313.83
369.306	305.7
369.688	303.89
370.069	310.22
370.45	311.57
370.831	299.14
371.212	303.66
371.593	300.95
371.974	302.99
372.355	295.53
372.736	302.31
373.117	302.76
373.498	302.76
373.879	327.84
374.26	321.29
374.641	309.99
375.021	333.72
375.402	322.42
375.783	318.13
376.163	342.53
376.544	328.07
376.925	333.27
377.305	298.69
377.686	308.18
378.066	324.45
378.447	333.04
378.827	321.29
379.208	321.97
379.588	317
379.968	327.39
380.349	311.57
380.729	337.11
381.109	315.42
381.489	309.77
381.87	320.84
382.25	330.1
382.63	333.95
383.01	308.18
383.39	314.06
383.77	326.04
384.15	346.6
384.53	339.14
384.91	319.26
385.29	337.34
385.67	324.45
386.049	322.65
386.429	347.28
386.809	342.08
387.189	360.16
387.568	353.15
387.948	326.94
388.328	359.93
388.707	344.79
389.087	355.87
389.466	336.43
389.846	335.3
390.225	355.19
390.605	340.95
390.984	364.45
391.363	349.31
391.743	351.35
392.122	348.18
392.501	346.15
392.881	365.81
393.26	360.16
393.639	354.51
394.018	371.69
394.397	372.59
394.776	344.79
395.155	361.52
395.534	364.23
395.913	372.82
396.292	373.04
396.671	348.18
397.05	371.69
397.429	375.98
397.808	375.53
398.186	363.32
398.565	361.74
398.944	368.3
399.323	360.84
399.701	373.27
400.08	379.59
400.458	385.92
400.837	381.85
401.215	363.78
401.594	386.6
401.972	379.37
402.351	391.35
402.729	375.3
403.107	390.67
403.486	365.36
403.864	374.4
404.242	381.85
404.62	412.36
404.999	386.6
405.377	380.72
405.755	390.22
406.133	394.28
406.511	389.76
406.889	417.79
407.267	400.38
407.645	406.03
408.023	408.29
408.401	405.81
408.779	409.2
409.156	412.59
409.534	408.52
409.912	405.58
410.29	408.75
410.667	433.83
411.045	418.01
411.422	408.52
411.8	439.03
412.178	448.75
412.555	452.14
412.933	432.02
413.31	437.45
413.687	444.45
414.065	445.13
414.442	459.14
414.819	444.23
415.197	453.26
415.574	441.74
415.951	469.54
416.328	451.91
416.705	444.68
417.082	437.9
417.46	462.98
417.837	450.1
418.214	490.78
418.591	476.09
418.967	458.69
419.344	448.97
419.721	462.98
420.098	469.76
420.475	490.33
420.852	471.12
421.228	460.27
421.605	478.57
421.982	483.55
422.358	498.46
422.735	493.94
423.111	481.96
423.488	503.89
423.864	507.73
424.241	505.24
424.617	507.5
424.994	486.48
425.37	519.7
425.746	524.9
426.123	538.69
426.499	528.74
426.875	533.71
427.251	532.81
427.627	534.39
428.003	527.84
428.379	536.2
428.756	524.9
429.132	534.17
429.507	543.21
429.883	548.63
430.259	552.02
430.635	565.58
431.011	556.77
431.387	546.14
431.763	557.22
432.138	573.26
432.514	585.01
432.89	574.39
433.265	596.09
433.641	570.78
434.016	582.3
434.392	598.57
434.767	598.8
435.143	600.38
435.518	609.64
435.894	608.97
436.269	606.48
436.644	630.21
437.02	628.18
437.395	621.4
437.77	620.27
438.145	628.4
438.52	632.47
438.895	660.94
439.271	639.93
439.646	650.32
440.021	655.97
440.395	683.54
440.77	661.62
441.145	680.6
441.52	685.35
441.895	654.16
442.27	690.32
442.645	660.49
443.019	696.87
443.394	689.64
443.769	694.39
444.143	695.74
444.518	702.07
444.892	721.96
445.267	707.5
445.641	700.04
446.016	723.99
446.39	707.95
446.764	716.08
447.139	704.56
447.513	730.09
447.887	738.68
448.262	748.4
448.636	753.6
449.01	767.83
449.384	744.1
449.758	750.66
450.132	746.36
450.506	765.8
450.88	771.45
451.254	782.97
451.628	785.23
452.002	775.52
452.376	765.8
452.75	802.41
453.123	809.87
453.497	815.74
453.871	803.31
454.244	815.97
454.618	819.81
454.992	825.01
455.365	833.82
455.739	859.13
456.112	841.05
456.486	887.15
456.859	859.13
457.232	865.23
457.606	884.21
457.979	899.58
458.352	912.69
458.725	899.35
459.099	921.95
459.472	962.18
459.845	939.13
460.218	965.79
460.591	966.7
460.964	969.86
461.337	963.99
461.71	1003.98
462.083	987.04
462.456	1020.71
462.829	1037.66
463.201	1029.52
463.574	1065.45
463.947	1056.19
464.32	1101.16
464.692	1081.05
465.065	1118.11
465.438	1097.99
465.81	1116.52
466.183	1158.56
466.555	1161.95
466.928	1173.47
467.3	1165.34
467.672	1225.9
468.045	1206.24
468.417	1273.58
468.789	1248.27
469.161	1278.55
469.534	1292.56
469.906	1330.76
470.278	1340.02
470.65	1359.68
471.022	1409.85
471.394	1440.36
471.766	1420.92
472.138	1458.44
472.51	1481.71
472.882	1524.2
473.253	1553.35
473.625	1615.72
473.997	1591.54
474.369	1654.82
474.74	1688.71
475.112	1716.51
475.484	1751.76
475.855	1808.03
476.227	1852.32
476.598	1913.79
476.97	1904.75
477.341	1989.5
477.713	2061.81
478.084	2076.5
478.455	2147.23
478.827	2220.68
479.198	2269.71
479.569	2313.1
479.94	2411.86
480.311	2481.01
480.682	2544.74
481.053	2610.72
481.424	2682.81
481.795	2712.41
482.166	2809.36
482.537	2899.53
482.908	3016.14
483.279	3053.2
483.65	3181.55
484.021	3287.99
484.391	3362.79
484.762	3420.19
485.133	3533.86
485.503	3616.35
485.874	3755.55
486.244	3833.06
486.615	3952.83
486.985	4055.66
487.356	4169.1
487.726	4245.71
488.097	4465.36
488.467	4528.41
488.837	4640.95
489.207	4737.45
489.578	4918.46
489.948	5015.4
490.318	5137.21
490.688	5198.22
491.058	5346.24
491.428	5539.46
491.798	5656.74
492.168	5806.12
492.538	5868.72
492.908	6011.54
493.278	6138.54
493.648	6295.82
494.017	6438.19
494.387	6594.12
494.757	6707.34
495.126	6849.03
495.496	6985.75
495.866	7079.98
496.235	7212.64
496.605	7384.61
496.974	7515.45
497.344	7606.07
497.713	7761.55
498.082	7882.9
498.452	8001.77
498.821	8181.42
499.19	8257.35
499.559	8378.03
499.928	8511.13
500.298	8615.54
500.667	8789.54
501.036	8867.96
501.405	8979.82
501.774	9041.51
502.143	9277.89
502.512	9341.62
502.88	9504.55
503.249	9532.8
503.618	9707.48
503.987	9787.48
504.356	9937.99
504.724	9993.13
505.093	10090.75
505.462	10278.32
505.83	10311.54
506.199	10443.06
506.567	10582.49
506.936	10642.38
507.304	10806.21
507.672	10920.11
508.041	10952.2
508.409	11116.71
508.777	11256.82
509.145	11364.39
509.514	11439.19
509.882	11524.84
510.25	11687.32
510.618	11773.87
510.986	11822.23
511.354	11942.23
511.722	12034.2
512.09	12248.21
512.458	12217.25
512.826	12337.25
513.193	12422.22
513.561	12515.77
513.929	12716.67
514.297	12781.75
514.664	12810.45
515.032	12917.57
515.4	13028.53
515.767	13066.27
516.135	13129.32
516.502	13087.06
516.869	13412.02
517.237	13367.73
517.604	13454.28
517.972	13600.04
518.339	13689.75
518.706	13705.57
519.073	13821.05
519.44	13886.58
519.808	14052.91
520.175	13932.01
520.542	14281.38
520.909	14358.66
521.276	14312.34
521.643	14444.99
522.009	14553.01
522.376	14653.34
522.743	14663.51
523.11	14832.32
523.477	14953.22
523.843	15004.29
524.21	15130.17
524.577	15262.59
524.943	15290.39
525.31	15288.36
525.676	15582.13
526.043	15581
526.409	15684.73
526.776	15756.82
527.142	15915.91
527.508	15842.01
527.874	15950.94
528.241	16076.13
528.607	16024.61
528.973	16263.24
529.339	16308.44
529.705	16413.07
530.071	16442.9
530.437	16418.72
530.803	16546.18
531.169	16670.69
531.535	16688.54
531.901	16610.58
532.267	16672.5
532.632	16793.4
532.998	16786.39
533.364	16918.37
533.73	16948.2
534.095	17038.14
534.461	17071.13
534.826	17151.81
535.192	17135.76
535.557	17231.58
535.923	17101.64
536.288	17273.84
536.653	17309.32
537.019	17293.05
537.384	17365.81
537.749	17318.58
538.114	17324.91
538.479	17435.87
538.845	17376.44
539.21	17379.83
539.575	17554.74
539.94	17512.48
540.305	17625.69
540.67	17533.95
541.034	17616.66
541.399	17572.36
541.764	17682.87
542.129	17768.52
542.494	17687.16
542.858	17726.26
543.223	17699.37
543.587	17753.15
543.952	17775.3
544.316	17780.04
544.681	17789.31
545.045	17818.46
545.41	17919.25
545.774	17894.84
546.138	17860.94
546.503	17886.48
546.867	17892.35
547.231	18052.12
547.595	18076.3
547.959	17979.58
548.324	17991.33
548.688	18031.56
549.052	18045.8
549.416	18050.09
549.779	18102.29
550.143	18116.08
550.507	18196.08
550.871	18210.99
551.235	18210.54
551.599	18368.73
551.962	18191.78
552.326	18256.41
552.689	18397.2
553.053	18275.85
553.417	18383.64
553.78	18493.24
554.143	18461.38
554.507	18504.99
554.87	18492.79
555.234	18558.55
555.597	18559
555.96	18547.25
556.323	18630.19
556.686	18607.36
557.05	18709.73
557.413	18716.74
557.776	18789.73
558.139	18812.33
558.502	18819.79
558.865	18865.21
559.228	18958.54
559.59	18920.58
559.953	18905.44
560.316	19118.31
560.679	19179.1
561.041	19256.84
561.404	19209.16
561.767	19335.71
562.129	19262.94
562.492	19413.44
562.854	19374.35
563.217	19415.48
563.579	19481.69
563.941	19581.58
564.304	19673.78
564.666	19647.79
565.028	19753.77
565.39	19667.45
565.753	19849.14
566.115	19876.93
566.477	19936.59
566.839	19919.87
567.201	19978.4
567.563	20069.47
567.925	20158.51
568.287	20114.89
568.648	20181.56
569.01	20263.59
569.372	20487.09
569.734	20302.91
570.095	20462.46
570.457	20546.3
570.819	20578.16
571.18	20542.91
571.542	20704.48
571.903	20723.69
572.265	20687.99
572.626	20807.31
572.987	20778.61
573.349	20840.98
573.71	20859.73
574.071	20901.77
574.432	21009.33
574.794	21278.71
575.155	21086.62
575.516	21058.82
575.877	21156
576.238	21199.39
576.599	21226.96
576.96	21206.84
577.32	21290.46
577.681	21288.65
578.042	21336.33
578.403	21394.18
578.763	21362.55
579.124	21314.64
579.485	21459.27
579.845	21512.6
580.206	21461.98
580.566	21468.08
580.927	21444.58
581.287	21497.91
581.648	21497.68
582.008	21536.78
582.368	21502.43
582.728	21560.05
583.089	21621.07
583.449	21603.22
583.809	21636.66
584.169	21545.82
584.529	21531.58
584.889	21697.68
585.249	21581.52
585.609	21500.62
585.969	21647.06
586.329	21611.8
586.688	21616.32
587.048	21597.57
587.408	21536.55
587.768	21594.86
588.127	21574.07
588.487	21410.68
588.846	21770.9
589.206	21508.3
589.565	21584.23
589.925	21622.88
590.284	21526.16
590.643	21628.3
591.003	21666.94
591.362	21666.72
591.721	21639.83
592.08	21693.61
592.44	21742.42
592.799	21654.52
593.158	21643.67
593.517	21671.46
593.876	21708.3
594.235	21646.38
594.593	21617
594.952	21661.07
595.311	21651.58
595.67	21707.17
596.029	21788.3
596.387	21817.9
596.746	21879.37
597.104	21687.73
597.463	21624.69
597.822	21734.29
598.18	21721.63
598.538	21723.44
598.897	21837.34
599.255	21572.26
599.613	21955.75
599.972	21715.98
600.33	21730.22
600.688	21753.27
601.046	21779.48
601.404	21880.95
601.762	21836.21
602.12	21984
602.478	21880.27
602.836	21913.27
603.194	21836.43
603.552	21873.49
603.91	21847.73
604.268	21992.59
604.625	21857.9
604.983	21986.03
605.341	21866.26
605.698	22019.25
606.056	22021.51
606.413	22067.39
606.771	22064.45
607.128	22137.89
607.485	22048.63
607.843	22093.15
608.2	22254.5
608.557	22295.4
608.914	22046.6
609.272	22212.92
609.629	22320.03
609.986	22397.77
610.343	22263.54
610.7	22513.02
611.057	22434.38
611.414	22449.07
611.771	22284.1
612.127	22513.48
612.484	22474.15
612.841	22536.3
613.198	22425.79
613.554	22524.55
613.911	22648.61
614.267	22624.43
614.624	22650.65
614.98	22635.96
615.337	22731.78
615.693	22772
616.05	22701.72
616.406	22918.21
616.762	22783.53
617.118	22778.55
617.475	22855.16
617.831	22928.61
618.187	22902.84
618.543	22953.92
618.899	23011.77
619.255	23000.69
619.611	22962.73
619.967	23043.86
620.323	23082.95
620.678	22982.84
621.034	22991.88
621.39	23016.97
621.746	22988.94
622.101	23240.69
622.457	23152.78
622.812	23145.1
623.168	23205.44
623.523	23214.93
623.879	23216.28
624.234	23145.32
624.589	23219.45
624.945	23339.44
625.3	23278.2
625.655	23249.95
626.01	23374.7
626.365	23280.91
626.72	23289.27
627.075	23232.1
627.43	23271.87
627.785	23127.02
628.14	23330.86
628.495	23177.87
628.85	23212.89
629.205	23181.71
629.559	23367.24
629.914	23226.23
630.269	23228.49
630.623	23139.9
630.978	23135.61
631.332	23283.63
631.687	23222.16
632.041	23221.93
632.396	23200.24
632.75	23009.28
633.104	23142.84
633.459	22971.77
633.813	23050.18
634.167	23136.06
634.521	23038.43
634.875	23021.94
635.229	23021.26
635.583	22813.35
635.937	22922.05
636.291	22932.67
636.645	22755.05
636.999	22974.25
637.352	22942.62
637.706	22780.14
638.06	22876.4
638.413	22901.49
638.767	22815.39
639.121	22784.88
639.474	22723.41
639.828	22668.73
640.181	22823.07
640.534	22686.35
640.888	22790.76
641.241	22491.78
641.594	22661.72
641.947	22718.44
642.301	22677.09
642.654	22591.67
643.007	22679.12
643.36	22607.26
643.713	22520.93
644.066	22633.47
644.419	22581.95
644.771	22327.72
645.124	22175.18
645.477	22184.9
645.83	22175.86
646.182	21906.26
646.535	21820.84
646.888	21946.26
647.24	21840.27
647.593	21957.56
647.945	21892.93
648.298	21730.45
648.65	21729.99
649.002	21661.75
649.355	21822.42
649.707	21795.08
650.059	21830.33
650.411	22092.47
650.763	22176.54
651.115	22353.93
651.467	22360.71
651.819	22259.25
652.171	22358.23
652.523	22184.44
652.875	22226.25
653.227	22164.11
653.578	22387.6
653.93	22225.35
654.282	22207.04
654.633	22153.49
654.985	22278.23
655.337	22198.46
655.688	22143.54
656.039	22258.34
656.391	22249.08
656.742	22111.68
657.094	22209.76
657.445	22265.12
657.796	22266.48
658.147	22234.61
658.498	22150.32
658.849	22212.47
659.2	22196.2
659.551	22112.81
659.902	22217.89
660.253	22180.6
660.604	22049.53
660.955	22057.44
661.306	22266.7
661.656	22177.44
662.007	22193.71
662.358	22202.3
662.708	22236.65
663.059	22240.26
663.409	22046.37
663.76	22261.05
664.11	22233.48
664.461	22217.44
664.811	22212.47
665.161	22196.2
665.511	22103.54
665.862	22122.75
666.212	22150.32
666.562	22240.04
666.912	22270.54
667.262	22134.05
667.612	22151.68
667.962	22212.47
668.312	22119.59
668.662	22324.33
669.011	22112.13
669.361	22200.49
669.711	22169.53
670.06	22104.45
670.41	22075.75
670.76	22031.91
671.109	22114.16
671.459	22018.35
671.808	22041.4
672.157	22169.98
672.507	21950.78
672.856	21919.14
673.205	22005.69
673.554	21990.55
673.904	21928.63
674.253	22061.74
674.602	21976.77
674.951	21651.8
675.3	21595.99
675.649	21880.72
675.998	21873.27
676.346	21885.92
676.695	21949.65
677.044	21860.61
677.393	21770.9
677.741	21843.44
678.09	21737.68
678.438	21689.54
678.787	21771.8
679.135	21791.91
679.484	21581.3
679.832	21731.12
680.181	21664.68
680.529	21627.62
680.877	21533.16
681.225	21580.84
681.573	21716.89
681.922	21560.05
682.27	21441.87
682.618	21396.22
682.966	21403.9
683.314	21319.38
683.661	21332.72
684.009	21294.07
684.357	21177.47
684.705	21156.45
685.053	21113.29
685.4	21210.23
685.748	20942.22
686.095	20918.26
686.443	20884.59
686.79	20914.65
687.138	20948.77
687.485	21073.29
687.832	20758.49
688.18	20854.31
688.527	20737.93
688.874	20752.62
689.221	20682.11
689.568	20631.04
689.915	20563.7
690.262	20576.35
690.609	20574.54
690.956	20269.24
691.303	20345.85
691.65	20219.52
691.997	20320.77
692.344	20139.98
692.69	20176.59
693.037	20156.93
693.383	20009.81
693.73	19973.43
694.077	19970.72
694.423	19898.18
694.769	19968.01
695.116	19807.56
695.462	19829.25
695.808	19727.33
696.155	19630.16
696.501	19550.16
696.847	19490.5
697.193	19312.2
697.539	19508.13
697.885	19292.54
698.231	19254.58
698.577	19229.49
698.923	19101.36
699.269	19100.68
699.614	18972.1
699.96	19036.05
700.306	18915.15
700.651	18850.3
700.997	18821.6
701.342	18793.35
701.688	18734.37
702.033	18740.24
702.379	18626.8
702.724	18517.87
703.069	18545.67
703.415	18359.46
703.76	18301.61
704.105	18348.61
704.45	18325.79
704.795	18195.85
705.14	18164.89
705.485	18069.98
705.83	18053.48
706.175	18059.81
706.52	17937.1
706.865	17772.81
707.209	17866.37
707.554	17822.53
707.899	17763.32
708.243	17772.81
708.588	17743.43
708.932	17660.72
709.277	17614.17
709.621	17620.27
709.966	17431.58
710.31	17514.51
710.654	17335.76
710.998	17413.04
711.342	17361.97
711.687	17371.69
712.031	17141.87
712.375	17231.13
712.719	17206.95
713.063	17043.11
713.407	17193.16
713.75	17175.31
714.094	17160.17
714.438	16958.59
714.782	17012.38
715.125	16895.09
715.469	16921.08
715.812	16922.89
716.156	16846.51
716.499	16762.44
716.843	16805.83
717.186	16762.67
717.53	16756.57
717.873	16709.33
718.216	16695.32
718.559	16578.94
718.902	16449.91
719.246	16535.78
719.589	16531.49
719.932	16404.26
720.275	16445.84
720.617	16437.7
720.96	16430.25
721.303	16400.87
721.646	16413.98
721.989	16241.78
722.331	16429.57
722.674	16337.37
723.016	16360.19
723.359	16295.11
723.701	16313.41
724.044	16198.39
724.386	16065.06
724.729	16226.64
725.071	16133.3
725.413	16147.99
725.755	16152.29
726.097	16077.71
726.439	15968.34
726.782	15987.32
727.124	16076.81
727.465	15954.78
727.807	15961.56
728.149	16087.43
728.491	15928.79
728.833	15945.51
729.175	15984.83
729.516	15843.14
729.858	15894.44
730.199	15908
730.541	15848.11
730.882	15856.93
731.224	15861.22
731.565	15793.43
731.906	15817.83
732.248	15802.01
732.589	15690.83
732.93	15755.24
733.271	15710.04
733.612	15668.68
733.953	15781
734.294	15745.52
734.635	15687.21
734.976	15659.19
735.317	15609.48
735.658	15723.6
735.999	15669.81
736.339	15602.02
736.68	15668.23
737.021	15569.93
737.361	15486.09
737.702	15658.29
738.042	15623.94
738.383	15568.8
738.723	15639.53
739.063	15572.42
739.404	15670.72
739.744	15599.99
740.084	15610.83
740.424	15584.84
740.764	15563.15
741.104	15654.22
741.444	15564.73
741.784	15554.56
742.124	15680.44
742.464	15568.12
742.804	15641.11
743.143	15546.43
743.483	15692.86
743.823	15615.13
744.162	15607.44
744.502	15619.87
744.841	15551.4
745.181	15621.23
745.52	15671.17
745.86	15666.88
746.199	15639.98
746.538	15741
746.877	15808.12
747.216	15766.53
747.556	15838.62
747.895	15877.04
748.234	15809.47
748.573	15892.41
748.911	15872.75
749.25	15907.32
749.589	15864.84
749.928	16020.99
750.267	16070.71
750.605	16076.13
750.944	16098.5
751.283	16105.51
751.621	16238.16
751.96	16276.8
752.298	16308.67
752.636	16303.92
752.975	16325.16
753.313	16343.69
753.651	16585.95
753.989	16448.1
754.327	16496.01
754.666	16630.01
755.004	16661.65
755.342	16811.93
755.679	16835.66
756.017	16795.43
756.355	16937.13
756.693	17011.7
757.031	17108.19
