Data from hue_270_FLMS001491_00007.txt Node
Date: Tue Feb 07 15:56:42 GMT 2017
User: dcchb
Spectrometer: FLMS00149
Trigger mode: 0
Integration Time (sec): 2.000000E-2
Scans to average: 10
Electric dark correction enabled: true
Nonlinearity correction enabled: false
Boxcar width: 0
XAxis mode: Wavelengths
Number of Pixels in Spectrum: 2048
>>>>>Begin Spectral Data<<<<<
341.393	-4.45
341.776	-4.45
342.16	-4.45
342.543	-74.96
342.927	-31.57
343.31	-53.04
343.693	-53.49
344.077	-44.45
344.46	-60.49
344.843	-72.7
345.226	-38.12
345.61	-27.95
345.993	-5.13
346.376	-17.78
346.759	13.18
347.142	35.55
347.525	22.89
347.908	45.72
348.291	60.86
348.674	83.91
349.057	111.03
349.44	114.19
349.823	133.63
350.206	153.06
350.588	199.39
350.971	177.24
351.354	205.49
351.737	218.6
352.119	241.65
352.502	238.03
352.884	259.72
353.267	260.18
353.65	268.54
354.032	291.59
354.414	312.6
354.797	298.82
355.179	317.8
355.562	297.92
355.944	315.09
356.326	322.32
356.709	338.59
357.091	315.09
357.473	327.07
357.855	361.19
358.238	322.77
358.62	310.12
359.002	337.91
359.384	310.34
359.766	312.38
360.148	322.55
360.53	328.88
360.912	327.29
361.294	322.32
361.676	330.91
362.057	325.26
362.439	307.63
362.821	311.02
363.203	322.32
363.584	305.15
363.966	339.27
364.348	298.82
364.729	312.83
365.111	316.45
365.493	304.7
365.874	299.95
366.256	291.59
366.637	306.96
367.019	308.54
367.4	300.4
367.781	297.24
368.163	310.12
368.544	313.73
368.925	290.68
369.306	285.71
369.688	307.18
370.069	298.14
370.45	282.78
370.831	297.69
371.212	311.02
371.593	294.53
371.974	284.13
372.355	305.83
372.736	315.99
373.117	300.63
373.498	317.58
373.879	319.16
374.26	305.83
374.641	291.14
375.021	308.76
375.402	309.67
375.783	306.28
376.163	308.99
376.544	305.83
376.925	310.8
377.305	297.69
377.686	309.67
378.066	310.34
378.447	321.19
378.827	313.96
379.208	335.88
379.588	327.52
379.968	337.69
380.349	325.03
380.729	334.3
381.109	321.64
381.489	320.29
381.87	342.66
382.25	337.69
382.63	331.14
383.01	309.89
383.39	337.24
383.77	332.04
384.15	351.47
384.53	331.59
384.91	345.15
385.29	331.36
385.67	331.36
386.049	323.9
386.429	329.55
386.809	361.64
387.189	357.35
387.568	359.61
387.948	355.32
388.328	345.6
388.707	351.7
389.087	372.04
389.466	384.92
389.846	357.35
390.225	353.73
390.605	343.34
390.984	370.23
391.363	346.95
391.743	372.94
392.122	362.55
392.501	361.19
392.881	358.25
393.26	376.11
393.639	370.91
394.018	409.33
394.397	372.49
394.776	390.57
395.155	358.93
395.534	378.37
395.913	390.79
396.292	395.09
396.671	391.47
397.05	392.6
397.429	383.34
397.808	410.46
398.186	405.26
398.565	406.16
398.944	407.29
399.323	414.3
399.701	404.13
400.08	398.03
400.458	426.27
400.837	427.4
401.215	421.53
401.594	444.8
401.972	421.98
402.351	438.03
402.729	421.3
403.107	447.74
403.486	450.45
403.864	435.31
404.242	448.65
404.62	436.22
404.999	445.26
405.377	487.29
405.755	443.9
406.133	461.08
406.511	450.23
406.889	469.89
407.267	460.62
407.645	470.11
408.023	473.96
408.401	469.44
408.779	478.48
409.156	488.42
409.534	508.98
409.912	491.81
410.29	507.63
410.667	510.57
411.045	519.38
411.422	537.91
411.8	529.55
412.178	549.21
412.555	544.24
412.933	547.63
413.31	537.46
413.687	553.05
414.065	571.81
414.442	580.85
414.819	574.07
415.197	596.89
415.574	598.92
415.951	603.9
416.328	601.18
416.705	627.62
417.082	599.6
417.46	626.49
417.837	628.53
418.214	637.12
418.591	633.05
418.967	664.69
419.344	662.2
419.721	653.61
420.098	661.3
420.475	664.46
420.852	696.1
421.228	673.05
421.605	703.33
421.982	702.65
422.358	720.28
422.735	736.32
423.111	718.02
423.488	735.64
423.864	731.8
424.241	758.92
424.617	789.88
424.994	755.53
425.37	795.3
425.746	814.51
426.123	852.93
426.499	834.85
426.875	821.07
427.251	855.64
427.627	841.86
428.003	872.14
428.379	892.02
428.756	895.87
429.132	893.61
429.507	895.87
429.883	932.02
430.259	929.09
430.635	941.29
431.011	937
431.387	965.92
431.763	995.3
432.138	994.85
432.514	1022.64
432.89	1022.87
433.265	1055.64
433.641	1043.88
434.016	1081.4
434.392	1070.55
434.767	1101.74
435.143	1120.72
435.518	1167.05
435.894	1148.29
436.269	1172.02
436.644	1150.55
437.02	1191.23
437.395	1186.71
437.77	1199.81
438.145	1250.66
438.52	1244.56
438.895	1270.77
439.271	1290.43
439.646	1310.09
440.021	1334.95
440.395	1325.23
440.77	1292.01
441.145	1346.48
441.52	1400.03
441.895	1383.09
442.27	1414.5
442.645	1410.2
443.019	1440.03
443.394	1435.97
443.769	1439.81
444.143	1430.54
444.518	1446.59
444.892	1433.48
445.267	1474.38
445.641	1475.06
446.016	1487.49
446.39	1502.63
446.764	1534.95
447.139	1497.88
447.513	1525
447.887	1521.84
448.262	1527.71
448.636	1540.37
449.01	1543.98
449.384	1577.66
449.758	1584.44
450.132	1590.31
450.506	1630.08
450.88	1631.44
451.254	1614.49
451.628	1638.67
452.002	1649.52
452.376	1667.82
452.75	1660.82
453.123	1681.38
453.497	1741.04
453.871	1722.06
454.244	1743.08
454.618	1798.67
454.992	1785.11
455.365	1789.85
455.739	1815.84
456.112	1811.1
456.486	1828.27
456.859	1841.83
457.232	1874.37
457.606	1902.62
457.979	1887.7
458.352	1966.35
458.725	1938.55
459.099	1979.68
459.472	1977.65
459.845	2012.67
460.218	2037.98
460.591	2046.57
460.964	2023.07
461.337	2083.86
461.71	2117.08
462.083	2143.97
462.456	2160.24
462.829	2163.4
463.201	2176.96
463.574	2203.63
463.947	2204.76
464.32	2259.67
464.692	2270.29
465.065	2322.04
465.438	2273.46
465.81	2378.54
466.183	2367.69
466.555	2418.76
466.928	2417.86
467.3	2405.66
467.672	2415.37
468.045	2491.3
468.417	2516.61
468.789	2505.09
469.161	2577.63
469.534	2575.6
469.906	2635.03
470.278	2629.38
470.65	2689.72
471.022	2716.16
471.394	2745.76
471.766	2739.43
472.138	2754.12
472.51	2848.36
472.882	2822.37
473.253	2911.41
473.625	2919.54
473.997	2990.95
474.369	3010.61
474.74	2991.4
475.112	3022.36
475.484	3120.44
475.855	3147.78
476.227	3165.41
476.598	3205.18
476.97	3293.32
477.341	3308.01
477.713	3388.23
478.084	3366.08
478.455	3478.62
478.827	3478.62
479.198	3583.48
479.569	3547.32
479.94	3641.56
480.311	3621.67
480.682	3765.4
481.053	3791.84
481.424	3858.05
481.795	3846.98
482.166	3879.29
482.537	3915.22
482.908	4027.54
483.279	4053.52
483.65	4087.65
484.021	4160.87
484.391	4193.18
484.762	4191.82
485.133	4236.8
485.503	4272.73
485.874	4385.94
486.244	4388.66
486.615	4416.9
486.985	4494.87
487.356	4591.59
487.726	4568.09
488.097	4679.95
488.467	4711.59
488.837	4805.59
489.207	4787.97
489.578	4852.37
489.948	4906.38
490.318	4961.97
490.688	4942.09
491.058	4985.48
491.428	5099.82
491.798	5117
492.168	5213.04
492.538	5206.26
492.908	5247.16
493.278	5352.7
493.648	5285.81
494.017	5325.81
494.387	5427.27
494.757	5477.89
495.126	5466.59
495.496	5494.62
495.866	5515.18
496.235	5548.63
496.605	5607.83
496.974	5623.65
497.344	5686.7
497.713	5720.82
498.082	5726.02
498.452	5755.85
498.821	5760.15
499.19	5798.34
499.559	5838.11
499.928	5862.06
500.298	5842.4
500.667	5936.86
501.036	5937.99
501.405	5966.92
501.774	5910.88
502.143	5997.2
502.512	6010.76
502.88	6097.54
503.249	6081.94
503.618	6114.26
503.987	6112.23
504.356	6128.05
504.724	6086.46
505.093	6148.61
505.462	6150.64
505.83	6176.18
506.199	6315.16
506.567	6310.87
506.936	6231.32
507.304	6342.5
507.672	6368.72
508.041	6378.89
508.409	6363.52
508.777	6448.94
509.145	6472.22
509.514	6479.22
509.882	6514.02
510.25	6459.56
510.618	6518.32
510.986	6518.77
511.354	6583.17
511.722	6580.69
512.09	6624.3
512.458	6607.81
512.826	6660.91
513.193	6697.97
513.561	6687.8
513.929	6717.86
514.297	6716.05
514.664	6750.4
515.032	6744.75
515.4	6742.72
515.767	6751.98
516.135	6799.67
516.502	6756.73
516.869	6876.05
517.237	6880.57
517.604	6849.61
517.972	6869.49
518.339	6903.39
518.706	6903.62
519.073	6919.89
519.44	6950.62
519.808	6977.51
520.175	6931.64
520.542	7021.13
520.909	7046.89
521.276	7024.97
521.643	7117.62
522.009	7086.89
522.376	7104.97
522.743	7189.71
523.11	7173.89
523.477	7259.54
523.843	7217.73
524.21	7294.57
524.577	7244.63
524.943	7314
525.31	7349.03
525.676	7416.15
526.043	7412.08
526.409	7400.78
526.776	7463.6
527.142	7526.43
527.508	7507.44
527.874	7593.32
528.241	7554.22
528.607	7626.54
528.973	7643.03
529.339	7614.56
529.705	7703.14
530.071	7695.01
530.437	7650.49
530.803	7769.58
531.169	7737.04
531.535	7733.65
531.901	7738.17
532.267	7793.76
532.632	7848
532.998	7795.12
533.364	7820.2
533.73	7855.01
534.095	7898.17
534.461	7864.5
534.826	7864.72
535.192	7962.35
535.557	7956.02
535.923	7907.21
536.288	7951.73
536.653	7963.93
537.019	7959.18
537.384	7979.75
537.749	8020.88
538.114	8001.67
538.479	7980.65
538.845	8016.13
539.21	7981.33
539.575	8020.65
539.94	8031.72
540.305	8008.22
540.67	8022.01
541.034	7999.41
541.399	8099.97
541.764	8066.53
542.129	8122.79
542.494	8105.62
542.858	8147.88
543.223	8147.2
543.587	8152.4
543.952	8193.3
544.316	8180.87
544.681	8175.9
545.045	8252.51
545.41	8223.13
545.774	8208.67
546.138	8187.88
546.503	8233.98
546.867	8189.91
547.231	8284.6
547.595	8320.08
547.959	8302.9
548.324	8311.04
548.688	8275.56
549.052	8325.5
549.416	8285.95
549.779	8327.76
550.143	8324.37
550.507	8349
550.871	8367.76
551.235	8314.88
551.599	8333.18
551.962	8367.08
552.326	8388.32
552.689	8468.55
553.053	8412.5
553.417	8445.27
553.78	8438.49
554.143	8436.46
554.507	8432.39
554.87	8482.33
555.234	8495.21
555.597	8470.58
555.96	8492.5
556.323	8546.51
556.686	8551.94
557.05	8578.38
557.413	8588.55
557.776	8661.76
558.139	8684.81
558.502	8668.09
558.865	8700.18
559.228	8698.15
559.59	8779.95
559.953	8767.07
560.316	8835.32
560.679	8757.58
561.041	8914.86
561.404	8886.62
561.767	8935.65
562.129	8910.57
562.492	8982.66
562.854	8951.25
563.217	8981.98
563.579	9002.09
563.941	9069.44
564.304	9084.35
564.666	9108.98
565.028	9105.37
565.39	9155.99
565.753	9192.6
566.115	9244.35
566.477	9210.68
566.839	9241.41
567.201	9377.23
567.563	9247.96
567.925	9331.8
568.287	9386.26
568.648	9411.12
569.01	9468.75
569.372	9525.02
569.734	9471.01
570.095	9557.56
570.457	9557.11
570.819	9575.64
571.18	9574.96
571.542	9713.71
571.903	9663.77
572.265	9724.33
572.626	9714.84
572.987	9665.13
573.349	9791.23
573.71	9866.93
574.071	9870.32
574.432	9920.71
574.794	10015.17
575.155	9926.14
575.516	9938.57
575.877	9974.95
576.238	10021.05
576.599	10104.21
576.96	10078.9
577.32	10055.4
577.681	10164.55
578.042	10219.69
578.403	10214.49
578.763	10218.33
579.124	10226.92
579.485	10241.84
579.845	10308.5
580.206	10394.6
580.566	10280.25
580.927	10407.48
581.287	10421.04
581.648	10373.81
582.008	10526.35
582.368	10479.12
582.728	10539.91
583.089	10508.95
583.449	10571.77
583.809	10594.14
584.169	10600.02
584.529	10574.48
584.889	10783.52
585.249	10696.29
585.609	10703.74
585.969	10784.65
586.329	10724.76
586.688	10816.06
587.048	10879.33
587.408	10789.17
587.768	10803.18
588.127	10835.49
588.487	10801.59
588.846	10973.34
589.206	10889.05
589.565	10967.92
589.925	11039.33
590.284	10988.03
590.643	10994.36
591.003	11077.07
591.362	11114.81
591.721	11145.99
592.08	11127.69
592.44	11194.35
592.799	11174.01
593.158	11176.73
593.517	11249.94
593.876	11298.98
594.235	11245.88
594.593	11257.4
594.952	11263.73
595.311	11233
595.67	11251.07
596.029	11352.09
596.387	11350.96
596.746	11341.92
597.104	11378.53
597.463	11383.27
597.822	11443.39
598.18	11396.38
598.538	11379.43
598.897	11491.52
599.255	11405.65
599.613	11622.14
599.972	11528.36
600.33	11484.97
600.688	11459.66
601.046	11557.05
601.404	11622.36
601.762	11569.26
602.12	11674.79
602.478	11663.27
602.836	11633.21
603.194	11605.42
603.552	11564.96
603.91	11638.41
604.268	11699.65
604.625	11649.48
604.983	11655.58
605.341	11684.96
605.698	11649.71
606.056	11746.88
606.413	11689.03
606.771	11711.63
607.128	11812.42
607.485	11807.67
607.843	11708.92
608.2	11797.95
608.557	11701.23
608.914	11738.75
609.272	11828.46
609.629	11839.53
609.986	11890.61
610.343	11783.49
610.7	11910.04
611.057	11903.71
611.414	11931.28
611.771	11933.09
612.127	11963.82
612.484	11999.76
612.841	11945.97
613.198	12018.96
613.554	11928.12
613.911	12003.82
614.267	12054.89
614.624	12013.31
614.98	12085.18
615.337	12098.96
615.693	12069.81
616.05	12074.33
616.406	12018.51
616.762	12121.33
617.118	12051.05
617.475	12080.2
617.831	12093.76
618.187	12148.23
618.543	12096.02
618.899	12222.12
619.255	12276.81
619.611	12103.26
619.967	12195.91
620.323	12135.57
620.678	12172.63
621.034	12145.29
621.39	12203.82
621.746	12093.76
622.101	12328.56
622.457	12183.93
622.812	12230.71
623.168	12216.92
623.523	12216.7
623.879	12242.46
624.234	12202.69
624.589	12181.45
624.945	12218.73
625.3	12220.99
625.655	12185.96
626.01	12218.96
626.365	12275.91
626.72	12275.45
627.075	12170.37
627.43	12166.08
627.785	12183.25
628.14	12157.27
628.495	12173.08
628.85	12100.54
629.205	12091.96
629.559	12203.82
629.914	12145.51
630.269	12156.14
630.623	12139.41
630.978	12036.36
631.332	12114.78
631.687	12188.22
632.041	12041.11
632.396	12060.32
632.75	12053.76
633.104	12195.68
633.459	12040.43
633.813	11973.32
634.167	12001.34
634.521	11984.84
634.875	11984.16
635.229	11963.6
635.583	11893.54
635.937	11888.12
636.291	11822.36
636.645	11955.46
636.999	11907.78
637.352	11896.71
637.706	11844.96
638.06	11827.1
638.413	11864.84
638.767	11830.95
639.121	11832.3
639.474	11744.85
639.828	11743.26
640.181	11742.36
640.534	11820.55
640.888	11698.75
641.241	11710.05
641.594	11710.95
641.947	11752.08
642.301	11691.51
642.654	11727.22
643.007	11732.87
643.36	11651.74
643.713	11589.6
644.066	11726.54
644.419	11551.86
644.771	11574.23
645.124	11494.23
645.477	11398.41
645.83	11383.05
646.182	11336.5
646.535	11296.5
646.888	11315.71
647.24	11277.74
647.593	11296.95
647.945	11238.19
648.298	11188.25
648.65	11159.33
649.002	11148.48
649.355	11263.73
649.707	11196.61
650.059	11261.24
650.411	11424.85
650.763	11491.52
651.115	11542.82
651.467	11526.32
651.819	11540.56
652.171	11514.34
652.523	11479.54
652.875	11470.96
653.227	11403.84
653.578	11530.16
653.93	11437.96
654.282	11439.54
654.633	11389.6
654.985	11385.99
655.337	11421.69
655.688	11439.54
656.039	11481.35
656.391	11348.25
656.742	11399.77
657.094	11392.77
657.445	11399.77
657.796	11375.82
658.147	11395.25
658.498	11387.57
658.849	11367
659.2	11449.04
659.551	11376.72
659.902	11404.97
660.253	11435.93
660.604	11388.25
660.955	11409.26
661.306	11451.97
661.656	11373.78
662.007	11425.31
662.358	11431.18
662.708	11441.58
663.059	11499.66
663.409	11398.41
663.76	11461.46
664.11	11460.33
664.461	11446.1
664.811	11498.98
665.161	11430.28
665.511	11466.44
665.862	11448.58
666.212	11459.66
666.562	11439.54
666.912	11394.12
667.262	11424.85
667.612	11376.95
667.962	11456.04
668.312	11419.21
668.662	11408.81
669.011	11416.95
669.361	11389.15
669.711	11442.26
670.06	11420.34
670.41	11396.83
670.76	11398.41
671.109	11384.4
671.459	11332.2
671.808	11307.34
672.157	11412.88
672.507	11309.15
672.856	11332.43
673.205	11304.63
673.554	11307.57
673.904	11213.34
674.253	11329.26
674.602	11260.57
674.951	11097.63
675.3	11104.64
675.649	11261.24
675.998	11227.12
676.346	11262.83
676.695	11324.74
677.044	11206.78
677.393	11182.6
677.741	11171.53
678.09	11183.51
678.438	11069.61
678.787	11160.23
679.135	11088.14
679.484	11123.17
679.832	11146.44
680.181	11033.45
680.529	11082.04
680.877	10964.98
681.225	11006.56
681.573	11036.84
681.922	10957.75
682.27	10944.42
682.618	10966.56
682.966	10891.54
683.314	10951.87
683.661	10890.41
684.009	10868.94
684.357	10909.84
684.705	10821.03
685.053	10797.3
685.4	10867.13
685.748	10751.2
686.095	10746.45
686.443	10684.99
686.79	10720.69
687.138	10732.67
687.485	10661.26
687.832	10633.92
688.18	10615.84
688.527	10557.31
688.874	10568.15
689.221	10474.82
689.568	10539.91
689.915	10548.27
690.262	10465.11
690.609	10409.97
690.956	10401.38
691.303	10292.91
691.65	10269.18
691.997	10359.12
692.344	10165
692.69	10197.99
693.037	10209.29
693.383	10112.12
693.73	10131.56
694.077	10063.08
694.423	10080.03
694.769	10037.55
695.116	9943.09
695.462	9987.6
695.808	9932.69
696.155	9976.31
696.501	9904.22
696.847	9784.22
697.193	9772.24
697.539	9776.99
697.885	9720.27
698.231	9730.66
698.577	9740.83
698.923	9704.67
699.269	9655.64
699.614	9614.51
699.96	9581.29
700.306	9545.81
700.651	9454.06
700.997	9489.99
701.342	9406.83
701.688	9457.22
702.033	9329.09
702.379	9453.38
702.724	9345.14
703.069	9323.89
703.415	9198.47
703.76	9248.87
704.105	9248.42
704.45	9253.39
704.795	9123.22
705.14	9098.36
705.485	9087.97
705.83	9109.44
706.175	9088.19
706.52	9006.16
706.865	8992.83
707.209	8949.21
707.554	8940.4
707.899	9018.59
708.243	8903.34
708.588	8867.18
708.932	8839.39
709.277	8844.13
709.621	8826.96
709.966	8776.79
710.31	8752.38
710.654	8653.63
710.998	8711.71
711.342	8740.63
711.687	8700.41
712.031	8671.71
712.375	8698.15
712.719	8597.36
713.063	8539.06
713.407	8670.8
713.75	8596.68
714.094	8551.71
714.438	8503.8
714.782	8517.59
715.125	8499.96
715.469	8497.02
715.812	8486.4
716.156	8437.36
716.499	8425.84
716.843	8456.35
717.186	8384.03
717.53	8446.18
717.873	8439.17
718.216	8416.35
718.559	8281.89
718.902	8361.88
719.246	8349.91
719.589	8297.93
719.932	8301.77
720.275	8229.91
720.617	8232.4
720.96	8275.79
721.303	8261.32
721.646	8331.15
721.989	8307.42
722.331	8261.1
722.674	8229.23
723.016	8254.32
723.359	8164.38
723.701	8291.15
724.044	8203.92
724.386	8125.28
724.729	8179.74
725.071	8131.38
725.413	8092.06
725.755	8151.95
726.097	8123.92
726.439	8061.33
726.782	8103.36
727.124	8170.48
727.465	8141.78
727.807	8057.03
728.149	8036.47
728.491	8041.22
728.833	8017.71
729.175	8011.84
729.516	8008
729.858	8051.61
730.199	8043.47
730.541	8007.77
730.882	8010.26
731.224	8048.22
731.565	7930.48
731.906	8045.73
732.248	8018.62
732.589	8003.7
732.93	8050.71
733.271	8015.45
733.612	8041.67
733.953	7984.49
734.294	7912.86
734.635	8004.38
734.976	7989.47
735.317	7883.48
735.658	7970.26
735.999	7940.43
736.339	7936.59
736.68	7956.25
737.021	7990.14
737.361	7968.67
737.702	7970.48
738.042	7920.09
738.383	7928.22
738.723	7948.11
739.063	7953.31
739.404	7922.35
739.744	7978.39
740.084	7965.96
740.424	7997.6
740.764	7969.13
741.104	8079.41
741.444	7985.62
741.784	7986.3
742.124	8016.81
742.464	8012.52
742.804	8025.17
743.143	8040.76
743.483	8012.29
743.823	8048.9
744.162	8037.37
744.502	8115.11
744.841	8099.29
745.181	8065.62
745.52	8189.23
745.86	8191.27
746.199	8251.83
746.538	8286.63
746.877	8305.39
747.216	8351.49
747.556	8339.29
747.895	8401.43
748.234	8346.29
748.573	8471.26
748.911	8522.56
749.25	8536.8
749.589	8613.4
749.928	8612.95
750.267	8679.16
750.605	8731.59
750.944	8745.38
751.283	8857.46
751.621	8910.8
751.96	8928.42
752.298	9045.03
752.636	9141.3
752.975	9199.38
753.313	9264.23
753.651	9367.51
753.989	9417.9
754.327	9485.7
754.666	9650.21
755.004	9708.52
755.342	9833.26
755.679	9998.23
756.017	10012.91
756.355	10231.21
756.693	10230.54
757.031	10427.14
757.368	10445.45
757.706	10675.04
758.044	10698.32
758.381	10831.88
758.719	10978.99
759.056	11128.14
759.394	11259.44
759.731	11357.96
760.068	11503.5
760.405	11569.26
760.743	11781.91
761.08	11942.13
761.417	11963.37
761.754	12201.33
762.091	12359.29
762.428	12489.69
