Data from hue_36_FLMS001491_00078.txt Node
Date: Tue Feb 07 17:30:17 GMT 2017
User: dcchb
Spectrometer: FLMS00149
Trigger mode: 0
Integration Time (sec): 2.000000E-2
Scans to average: 10
Electric dark correction enabled: true
Nonlinearity correction enabled: false
Boxcar width: 0
XAxis mode: Wavelengths
Number of Pixels in Spectrum: 2048
>>>>>Begin Spectral Data<<<<<
341.393	-2.99
341.776	-2.99
342.16	-2.99
342.543	-52.26
342.927	-63.56
343.31	-92.26
343.693	-77.79
344.077	-74.63
344.46	-56.78
344.843	-66.5
345.226	-48.42
345.61	-40.51
345.993	-7.51
346.376	6.95
346.759	19.83
347.142	30.23
347.525	60.73
347.908	54.63
348.291	85.59
348.674	95.76
349.057	110.68
349.44	109.77
349.823	167.4
350.206	163.56
350.588	183.89
350.971	205.36
351.354	232.03
351.737	219.15
352.119	256.21
352.502	289.65
352.884	272.48
353.267	276.77
353.65	293.5
354.032	302.53
354.414	311.8
354.797	318.13
355.179	328.52
355.562	307.28
355.944	308.86
356.326	332.36
356.709	328.07
357.091	325.36
357.473	349.99
357.855	366.49
358.238	334.4
358.62	354.96
359.002	337.79
359.384	329.2
359.766	335.3
360.148	329.2
360.53	341.63
360.912	349.31
361.294	344.12
361.676	339.37
362.057	340.27
362.439	343.44
362.821	333.95
363.203	317.68
363.584	322.65
363.966	340.5
364.348	314.96
364.729	324.91
365.111	313.83
365.493	312.25
365.874	319.26
366.256	331.46
366.637	330.1
367.019	322.87
367.4	331.23
367.781	290.56
368.163	318.13
368.544	338.69
368.925	314.96
369.306	343.21
369.688	315.64
370.069	317
370.45	292.59
370.831	298.24
371.212	318.81
371.593	320.61
371.974	310.22
372.355	319.48
372.736	326.04
373.117	318.35
373.498	331.01
373.879	313.38
374.26	335.75
374.641	310.22
375.021	324.45
375.402	320.61
375.783	336.21
376.163	330.78
376.544	336.21
376.925	338.92
377.305	327.39
377.686	337.11
378.066	334.17
378.447	307.73
378.827	319.26
379.208	336.66
379.588	327.39
379.968	346.38
380.349	355.19
380.729	340.73
381.109	320.16
381.489	340.5
381.87	343.44
382.25	348.18
382.63	339.82
383.01	334.17
383.39	342.53
383.77	361.52
384.15	327.62
384.53	362.19
384.91	352.02
385.29	343.21
385.67	351.12
386.049	358.58
386.429	320.39
386.809	359.71
387.189	373.72
387.568	352.48
387.948	359.26
388.328	365.36
388.707	372.14
389.087	337.11
389.466	370.78
389.846	384.57
390.225	354.96
390.605	370.78
390.984	356.54
391.363	372.36
391.743	360.61
392.122	355.87
392.501	371.01
392.881	365.58
393.26	389.76
393.639	379.14
394.018	355.19
394.397	365.13
394.776	375.98
395.155	394.28
395.534	399.93
395.913	391.57
396.292	371.69
396.671	378.69
397.05	393.61
397.429	397
397.808	382.98
398.186	404.9
398.565	394.51
398.944	401.97
399.323	411.01
399.701	389.99
400.08	394.51
400.458	390.44
400.837	398.35
401.215	409.65
401.594	404.23
401.972	397.9
402.351	403.32
402.729	404
403.107	413.27
403.486	408.07
403.864	401.06
404.242	409.88
404.62	412.36
404.999	394.28
405.377	399.03
405.755	434.96
406.133	429.31
406.511	431.34
406.889	416.66
407.267	445.36
407.645	419.37
408.023	424.57
408.401	435.64
408.779	422.98
409.156	422.53
409.534	427.95
409.912	437.45
410.29	431.8
410.667	444.45
411.045	455.07
411.422	456.65
411.8	448.29
412.178	462.76
412.555	498.46
412.933	464.56
413.31	472.02
413.687	463.89
414.065	476.09
414.442	474.06
414.819	475.86
415.197	495.75
415.574	489.87
415.951	502.98
416.328	502.98
416.705	489.42
417.082	503.21
417.46	494.85
417.837	523.55
418.214	520.38
418.591	526.94
418.967	512.92
419.344	511.79
419.721	495.07
420.098	511.57
420.475	558.35
420.852	528.74
421.228	540.27
421.605	522.42
421.982	524.68
422.358	538.69
422.735	540.04
423.111	523.77
423.488	550.89
423.864	536.2
424.241	556.54
424.617	566.48
424.994	543.43
425.37	582.53
425.746	576.88
426.123	557.22
426.499	560.61
426.875	554.73
427.251	605.58
427.627	589.08
428.003	596.09
428.379	583.66
428.756	587.27
429.132	614.16
429.507	601.51
429.883	589.31
430.259	606.71
430.635	619.59
431.011	618.91
431.387	642.86
431.763	628.4
432.138	633.15
432.514	645.8
432.89	654.39
433.265	684.9
433.641	639.47
434.016	674.95
434.392	673.82
434.767	678.8
435.143	673.6
435.518	702.52
435.894	705.24
436.269	695.07
436.644	697.33
437.02	698.91
437.395	702.07
437.77	704.11
438.145	711.79
438.52	731.68
438.895	698
439.271	742.52
439.646	743.2
440.021	753.82
440.395	740.71
440.77	723.09
441.145	753.82
441.52	737.1
441.895	774.84
442.27	752.47
442.645	757.89
443.019	775.29
443.394	753.14
443.769	773.71
444.143	785.91
444.518	796.76
444.892	771
445.267	780.71
445.641	805.35
446.016	801.05
446.39	804.89
446.764	813.48
447.139	810.32
447.513	815.97
447.887	825.23
448.262	812.13
448.636	823.65
449.01	852.35
449.384	845.35
449.758	842.63
450.132	866.36
450.506	873.37
450.88	856.64
451.254	868.85
451.628	879.92
452.002	872.01
452.376	895.29
452.75	892.12
453.123	881.5
453.497	910.65
453.871	921.28
454.244	934.61
454.618	927.83
454.992	927.15
455.365	956.3
455.739	963.53
456.112	967.38
456.486	989.97
456.859	972.35
457.232	981.84
457.606	990.2
457.979	997.21
458.352	1014.38
458.725	1028.39
459.099	1027.04
459.472	1046.24
459.845	1065.68
460.218	1092.12
460.591	1076.07
460.964	1062.74
461.337	1105.23
461.71	1116.07
462.083	1127.15
462.456	1156.07
462.829	1128.73
463.201	1169.4
463.574	1187.03
463.947	1181.61
464.32	1217.76
464.692	1204.88
465.065	1219.8
465.438	1253.92
465.81	1259.12
466.183	1275.62
466.555	1279.68
466.928	1302.51
467.3	1323.07
467.672	1324.65
468.045	1372.11
468.417	1393.13
468.789	1357.42
469.161	1410.53
469.534	1417.08
469.906	1456.18
470.278	1453.46
470.65	1472.45
471.022	1514.71
471.394	1543.86
471.766	1547.02
472.138	1615.95
472.51	1674.25
472.882	1636.96
473.253	1689.39
473.625	1708.15
473.997	1769.61
474.369	1785.66
474.74	1808.48
475.112	1854.58
475.484	1849.61
475.855	1922.6
476.227	1964.86
476.598	2012.77
476.97	2027.46
477.341	2105.88
477.713	2136.61
478.084	2140
478.455	2239.21
478.827	2238.53
479.198	2349.26
479.569	2385.64
479.94	2443.04
480.311	2473.78
480.682	2572.53
481.053	2622.47
481.424	2662.47
481.795	2761.68
482.166	2785.86
482.537	2848.91
482.908	2970.03
483.279	3027.43
483.65	3096.36
484.021	3190.82
484.391	3264.26
484.762	3287.77
485.133	3370.02
485.503	3446.41
485.874	3624.93
486.244	3644.82
486.615	3754.65
486.985	3790.13
487.356	3941.31
487.726	4035.32
488.097	4113.73
488.467	4162.55
488.837	4320.28
489.207	4418.13
489.578	4469.43
489.948	4572.93
490.318	4667.39
490.688	4752.36
491.058	4827.61
491.428	5000.49
491.798	5072.8
492.168	5160.94
492.538	5262.86
492.908	5335.85
493.278	5444.32
493.648	5534.94
494.017	5656.52
494.387	5770.41
494.757	5834.59
495.126	5958.66
495.496	6018.54
495.866	6094.02
496.235	6203.4
496.605	6275.48
496.974	6390.74
497.344	6489.26
497.713	6584.4
498.082	6607
498.452	6756.38
498.821	6817.17
499.19	6905.52
499.559	6956.37
499.928	7018.29
500.298	7100.77
500.667	7244.95
501.036	7207.66
501.405	7441.33
501.774	7380.77
502.143	7531.95
502.512	7614.66
502.88	7662.79
503.249	7731.27
503.618	7825.5
503.987	7896.91
504.356	8029.56
504.724	8065.72
505.093	8119.96
505.462	8191.37
505.83	8252.83
506.199	8398.37
506.567	8478.59
506.936	8465.03
507.304	8582.32
507.672	8687.17
508.041	8716.78
508.409	8799.03
508.777	8881.97
509.145	8965.81
509.514	8949.76
509.882	9080.38
510.25	9105.24
510.618	9222.3
510.986	9259.59
511.354	9283.09
511.722	9382.75
512.09	9488.73
512.458	9445.34
512.826	9605.11
513.193	9674.27
513.561	9743.19
513.929	9794.71
514.297	9870.19
514.664	9962.62
515.032	9990.64
515.4	10054.14
515.767	10141.15
516.135	10188.83
516.502	10095.5
516.869	10398.54
517.237	10322.61
517.604	10408.26
517.972	10525.09
518.339	10527.58
518.706	10553.11
519.073	10644.64
519.44	10699.32
519.808	10787.23
520.175	10781.81
520.542	10951.29
520.909	11011.86
521.276	11007.56
521.643	11192.64
522.009	11215.02
522.376	11236.71
522.743	11257.5
523.11	11343.37
523.477	11531.62
523.843	11602.12
524.21	11657.04
524.577	11723.03
524.943	11749.24
525.31	11875.56
525.676	11976.8
526.043	12042.34
526.409	12025.39
526.776	12143.8
527.142	12193.97
527.508	12376.34
527.874	12375.44
528.241	12494.98
528.607	12575.43
528.973	12604.58
529.339	12600.74
529.705	12791.25
530.071	12809.55
530.437	12940.85
530.803	12988.53
531.169	13080.5
531.535	13022.88
531.901	13092.03
532.267	13255.87
532.632	13253.38
532.998	13276.43
533.364	13414.73
533.73	13423.77
534.095	13579.7
534.461	13597.78
534.826	13709.41
535.192	13637.55
535.557	13789.86
535.923	13745.12
536.288	13889.07
536.653	13959.8
537.019	13996.64
537.384	13945.57
537.749	14085.45
538.114	14117.09
538.479	14175.84
538.845	14194.82
539.21	14240.92
539.575	14240.47
539.94	14406.57
540.305	14519.56
540.67	14431.88
541.034	14530.41
541.399	14549.17
541.764	14731.53
542.129	14774.47
542.494	14736.51
542.858	14811.98
543.223	14887.46
543.587	14975.59
543.952	15004.52
544.316	15053.11
544.681	15096.72
545.045	15176.95
545.41	15223.72
545.774	15238.19
546.138	15292.2
546.503	15334.23
546.867	15304.17
547.231	15528.8
547.595	15529.25
547.959	15601.79
548.324	15585.52
548.688	15621.68
549.052	15746.2
549.416	15741.9
549.779	15794.56
550.143	15896.25
550.507	16035.23
550.871	15939.19
551.235	15997.49
551.599	16137.15
551.962	16186.86
552.326	16249.01
552.689	16332.4
553.053	16264.83
553.417	16309.57
553.78	16494.65
554.143	16379.4
554.507	16584.37
554.87	16635.66
555.234	16784.13
555.597	16667.08
555.96	16804.47
556.323	16787.75
556.686	16898.93
557.05	16936
557.413	16972.38
557.776	17050.79
558.139	17157.68
558.502	17194.75
558.865	17119.27
559.228	17357.91
559.59	17331.92
559.953	17376.44
560.316	17548.41
560.679	17564
561.041	17717.44
561.404	17788.63
561.767	17901.17
562.129	17937.55
562.492	18051.22
562.854	17988.85
563.217	17923.54
563.579	18065.68
563.941	18150.43
564.304	18227.94
564.666	18407.82
565.028	18420.48
565.39	18506.12
565.753	18574.14
566.115	18612.79
566.477	18725.1
566.839	18707.7
567.201	18816.4
567.563	18777.3
567.925	19008.94
568.287	19051.65
568.648	19020.46
569.01	19177.74
569.372	19288.93
569.734	19300
570.095	19342.94
570.457	19524.18
570.819	19519.2
571.18	19536.83
571.542	19702.7
571.903	19815.02
572.265	19814.56
572.626	19881.23
572.987	19980.44
573.349	20106.99
573.71	20169.13
574.071	20216.36
574.432	20398.96
574.794	20463.13
575.155	20602.79
575.516	20630.36
575.877	20716.23
576.238	20830.58
576.599	20963.69
576.96	21092.27
577.32	21158.03
577.681	21280.74
578.042	21370.23
578.403	21535.65
578.763	21574.74
579.124	21836.88
579.485	21857.22
579.845	22095.18
580.206	22201.39
580.566	22297.89
580.927	22455.62
581.287	22640.93
581.648	22700.14
582.008	23014.25
582.368	23000.69
582.728	23159.11
583.089	23301.7
583.449	23505.99
583.809	23789.83
584.169	23973.32
584.529	24085.19
584.889	24489.02
585.249	24444.5
585.609	24662.35
585.969	25041.32
586.329	25031.15
586.688	25401.31
587.048	25554.07
587.408	25641.76
587.768	25796.78
588.127	26058.92
588.487	26357.89
588.846	26635.18
589.206	26575.06
589.565	26991.55
589.925	27224.31
590.284	27316.06
590.643	27616.39
591.003	27873.79
591.362	28143.61
591.721	28332.76
592.08	28596.93
592.44	28906.75
592.799	29006.41
593.158	29203.7
593.517	29423.58
593.876	29720.97
594.235	29891.81
594.593	30239.83
594.952	30367.96
595.311	30577.44
595.67	30793.03
596.029	31260.82
596.387	31354.15
596.746	31608.38
597.104	31653.12
597.463	31913.91
597.822	32236.38
598.18	32233.22
598.538	32295.59
598.897	32804.73
599.255	32742.81
599.613	33371.95
599.972	33397.71
600.33	33558.84
600.688	33704.82
601.046	34018.94
601.404	34247.63
601.762	34540.73
602.12	34629.54
602.478	34762.19
602.836	35083.77
603.194	34912.7
603.552	35348.39
603.91	35427.26
604.268	35699.8
604.625	35803.97
604.983	36029.96
605.341	35928.04
605.698	36188.37
606.056	36462.26
606.413	36475.82
606.771	36802.59
607.128	36932.31
607.485	36975.24
607.843	37190.15
608.2	37460.2
608.557	37767.09
608.914	37716.92
609.272	37779.52
609.629	38110.58
609.986	38256.79
610.343	38304.47
610.7	38546.27
611.057	38592.38
611.414	38713.28
611.771	38965.92
612.127	39107.62
612.484	39058.58
612.841	39330.43
613.198	39367.72
613.554	39469.19
613.911	39732.68
614.267	39758.22
614.624	39840.48
614.98	39961.6
615.337	40243.18
615.693	40365.44
616.05	40279.34
616.406	40540.12
616.762	40561.14
617.118	40710.29
617.475	40683.39
617.831	40930.84
618.187	41114.34
618.543	41112.31
618.899	41381.45
619.255	41243.15
619.611	41272.98
619.967	41520.89
620.323	41798.39
620.678	41586.19
621.034	41566.76
621.39	41648.11
621.746	41709.81
622.101	42121.1
622.457	41918.39
622.812	42033.19
623.168	42166.29
623.523	42077.48
623.879	42265.72
624.234	42078.61
624.589	42312.73
624.945	42450.8
625.3	42420.75
625.655	42474.98
626.01	42518.83
626.365	42570.35
626.72	42579.84
627.075	42568.09
627.43	42589.56
627.785	42548.43
628.14	42641.08
628.495	42762.43
628.85	42644.25
629.205	42694.41
629.559	42983.22
629.914	42761.76
630.269	42814.86
630.623	42777.58
630.978	42688.31
631.332	42854.18
631.687	42945.25
632.041	42682.44
632.396	42889.66
632.75	42674.98
633.104	42877.69
633.459	42850.57
633.813	42782.1
634.167	42731.25
634.521	42792.26
634.875	42839.27
635.229	42757.69
635.583	42636.11
635.937	42651.93
636.291	42783
636.645	42673.4
636.999	42556.79
637.352	42823.68
637.706	42407.64
638.06	42738.71
638.413	42584.81
638.767	42490.58
639.121	42656.68
639.474	42478.15
639.828	42518.83
640.181	42571.48
640.534	42552.27
640.888	42344.37
641.241	42282.22
641.594	42475.44
641.947	42552.27
642.301	42352.05
642.654	42416.91
643.007	42487.41
643.36	42387.53
643.713	42269.11
644.066	42525.61
644.419	42136.24
644.771	41763.37
645.124	41728.34
645.477	41529.02
645.83	41334.9
646.182	41177.62
646.535	41067.79
646.888	41235.47
647.24	40894.01
647.593	41195.7
647.945	41131.52
648.298	41010.62
648.65	40916.16
649.002	40756.61
649.355	40950.05
649.707	40973.1
650.059	41098.52
650.411	41567.21
650.763	41616.48
651.115	41919.75
651.467	41766.75
651.819	41824.83
652.171	41612.63
652.523	41644.27
652.875	41650.15
653.227	41454.67
653.578	41675.01
653.93	41694.21
654.282	41446.09
654.633	41311.17
654.985	41505.74
655.337	41515.91
655.688	41559.3
656.039	41744.16
656.391	41385.97
656.742	41427.55
657.094	41515.91
657.445	41652.41
657.796	41348.91
658.147	41480.89
658.498	41496.71
658.849	41559.75
659.2	41380.55
659.551	41557.49
659.902	41430.72
660.253	41460.77
660.604	41545.97
660.955	41428.46
661.306	41411.51
661.656	41271.17
662.007	41343.72
662.358	41421
662.708	41265.98
663.059	41289.25
663.409	41014.68
663.76	41474.56
664.11	41267.56
664.461	41329.03
664.811	41348.69
665.161	41227.33
665.511	41112.76
665.862	41207.45
666.212	41239.99
666.562	41335.35
666.912	41088.81
667.262	41103.04
667.612	41066.43
667.962	41260.33
668.312	41098.52
668.662	41256.94
669.011	41189.14
669.361	41099.65
669.711	41213.78
670.06	40974.01
670.41	40954.35
670.76	40900.56
671.109	41083.38
671.459	41111.63
671.808	40929.71
672.157	41061.46
672.507	40716.61
672.856	40868.25
673.205	40978.75
673.554	41060.11
673.904	40910.28
674.253	41028.47
674.602	41033.89
674.951	40357.07
675.3	40234.59
675.649	40817.85
675.998	40778.76
676.346	40919.55
676.695	40962.93
677.044	40520.01
677.393	40700.79
677.741	40906.21
678.09	40672.32
678.438	40609.27
678.787	40640
679.135	40692.43
679.484	40342.84
679.832	40581.02
680.181	40275.27
680.529	40491.76
680.877	40385.1
681.225	40254.03
681.573	40499.9
681.922	40274.82
682.27	40098.1
682.618	40209.73
682.966	40098.78
683.314	40081.83
683.661	39994.6
684.009	39860.14
684.357	39699.46
684.705	39710.09
685.053	39898.33
685.4	39705.57
685.748	39595.51
686.095	39483.65
686.443	39450.88
686.79	39408.17
687.138	39571.78
687.485	39419.92
687.832	39221.29
688.18	39321.4
688.527	39072.81
688.874	39105.13
689.221	38935.64
689.568	38888.64
689.915	38864.68
690.262	38956.43
690.609	38730.68
690.956	38514.41
691.303	38518.03
691.65	38341.76
691.997	38468.31
692.344	38045.95
692.69	38180.18
693.037	38128.21
693.383	37945.61
693.73	37895.9
694.077	37755.33
694.423	37801.89
694.769	37673.3
695.116	37678.05
695.462	37482.8
695.808	37509.69
696.155	37554.44
696.501	37229.02
696.847	37187.67
697.193	37060.66
697.539	37084.84
697.885	36800.56
698.231	36793.55
698.577	36676.72
698.923	36662.26
699.269	36608.25
699.614	36395.6
699.96	36421.58
700.306	36396.73
700.651	36327.12
700.997	35956.74
701.342	35996.51
701.688	36067.47
702.033	35907.47
702.379	35882.39
702.724	35751.55
703.069	35722.17
703.415	35412.12
703.76	35602.17
704.105	35508.16
704.45	35328.73
704.795	35142.97
705.14	35113.82
705.485	34951.34
705.83	34768.97
706.175	34934.39
706.52	34769.88
706.865	34712.93
707.209	34715.64
707.554	34550
707.899	34642.87
708.243	34397.23
708.588	34368.76
708.932	34153.62
709.277	34156.79
709.621	34190.46
709.966	33888.32
710.31	34072.95
710.654	33651.71
710.998	33839.51
711.342	33799.28
711.687	33710.7
712.031	33622.11
712.375	33479.52
712.719	33485.16
713.063	33486.75
713.407	33467.09
713.75	33338.05
714.094	33246.98
714.438	33126.08
714.782	33209.24
715.125	32991.62
715.469	33143.7
715.812	32950.04
716.156	32924.95
716.499	32879.08
716.843	32914.56
717.186	32581.69
717.53	32855.35
717.873	32751.17
718.216	32623.04
718.559	32551.63
718.902	32317.29
719.246	32388.24
719.589	32345.53
719.932	32056.95
720.275	32157.06
720.617	32164.52
720.96	32074.13
721.303	32008.14
721.646	32019.89
721.989	31839.11
722.331	32015.6
722.674	31739.45
723.016	31989.38
723.359	31838.65
723.701	31759.11
724.044	31565.22
724.386	31406.12
724.729	31589.62
725.071	31593.69
725.413	31534.93
725.755	31466.69
726.097	31390.08
726.439	31193.02
726.782	31209.52
727.124	31270.76
727.465	31089.52
727.807	31036.87
728.149	30963.65
728.491	30887.04
728.833	30936.08
729.175	30942.63
729.516	30833.71
729.858	30928.85
730.199	30671.23
730.541	30580.83
730.882	30736.76
731.224	30764.33
731.565	30429.88
731.906	30528.18
732.248	30608.18
732.589	30327.51
732.93	30334.29
733.271	30328.86
733.612	30332.71
733.953	30419.93
734.294	30258.81
734.635	30126.83
734.976	30175.65
735.317	30073.5
735.658	30059.72
735.999	30076.67
736.339	30090.23
736.68	29957.12
737.021	29925.26
737.361	29707.86
737.702	29858.59
738.042	29823.34
738.383	29781.99
738.723	29844.81
739.063	29628.32
739.404	29772.27
739.744	29628.54
740.084	29469.9
740.424	29518.94
740.764	29532.95
741.104	29591.48
741.444	29296.8
741.784	29316.46
742.124	29282.79
742.464	29336.12
742.804	29190.81
743.143	29123.7
743.483	29138.39
743.823	28939.97
744.162	29013.64
744.502	28952.18
744.841	28885.29
745.181	28881.22
745.52	28868.79
745.86	28897.49
746.199	28831.73
746.538	28622.47
746.877	28772.97
747.216	28732.3
747.556	28669.92
747.895	28683.94
748.234	28480.1
748.573	28528.68
748.911	28393.32
749.25	28434.68
749.589	28275.13
749.928	28379.08
750.267	28376.82
750.605	28276.94
750.944	28153.78
751.283	28139.09
751.621	28172.76
751.96	27968.7
752.298	28041.47
752.636	27997.63
752.975	27818.42
753.313	27866.1
753.651	27946.78
753.989	27742.72
754.327	27750.17
754.666	27613
755.004	27688.48
755.342	27621.59
755.679	27561.48
756.017	27410.3
756.355	27452.56
756.693	27259.34
757.031	27308.83
757.368	27022.06
