Data from hue_250_FLMS001491_00052.txt Node
Date: Tue Feb 07 16:01:09 GMT 2017
User: dcchb
Spectrometer: FLMS00149
Trigger mode: 0
Integration Time (sec): 2.000000E-2
Scans to average: 10
Electric dark correction enabled: true
Nonlinearity correction enabled: false
Boxcar width: 0
XAxis mode: Wavelengths
Number of Pixels in Spectrum: 2048
>>>>>Begin Spectral Data<<<<<
341.393	-17.44
341.776	-17.44
342.16	-17.44
342.543	-47.95
342.927	-54.05
343.31	-55.86
343.693	-73.94
344.077	-62.87
344.46	-41.17
344.843	-64.67
345.226	-41.4
345.61	-32.81
345.993	-6.14
346.376	-11.34
346.759	8.09
347.142	13.52
347.525	30.24
347.908	78.15
348.291	65.49
348.674	93.97
349.057	100.75
349.44	126.51
349.823	139.16
350.206	150.46
350.588	197.47
350.971	209.44
351.354	216.68
351.737	217.35
352.119	251.02
352.502	265.04
352.884	263.23
353.267	284.47
353.65	272.27
354.032	270.46
354.414	277.69
354.797	295.32
355.179	293.06
355.562	315.2
355.944	300.97
356.326	309.55
356.709	319.05
357.091	308.2
357.473	330.34
357.855	333.96
358.238	347.97
358.62	308.2
359.002	344.36
359.384	329.67
359.766	319.27
360.148	326.73
360.53	341.64
360.912	319.95
361.294	325.15
361.676	316.33
362.057	319.95
362.439	342.1
362.821	331.25
363.203	325.82
363.584	319.05
363.966	337.12
364.348	307.07
364.729	312.49
365.111	302.55
365.493	310.01
365.874	304.13
366.256	301.42
366.637	324.92
367.019	274.3
367.4	312.27
367.781	299.38
368.163	307.52
368.544	305.49
368.925	307.97
369.306	314.3
369.688	316.56
370.069	299.16
370.45	291.02
370.831	299.84
371.212	318.59
371.593	317.69
371.974	313.62
372.355	315.88
372.736	303.45
373.117	297.58
373.498	298.03
373.879	288.99
374.26	314.75
374.641	317.92
375.021	316.79
375.402	317.24
375.783	334.86
376.163	308.88
376.544	331.47
376.925	316.33
377.305	331.25
377.686	321.76
378.066	320.18
378.447	327.86
378.827	335.09
379.208	323.11
379.588	313.62
379.968	315.88
380.349	327.41
380.729	319.95
381.109	313.4
381.489	319.27
381.87	335.54
382.25	338.93
382.63	343
383.01	333.96
383.39	317.46
383.77	338.71
384.15	323.79
384.53	340.06
384.91	328.31
385.29	321.31
385.67	331.47
386.049	339.16
386.429	354.52
386.809	350
387.189	351.36
387.568	365.37
387.948	364.92
388.328	334.64
388.707	359.5
389.087	362.43
389.466	358.59
389.846	335.77
390.225	364.02
390.605	350.46
390.984	372.6
391.363	373.51
391.743	364.92
392.122	373.96
392.501	385.26
392.881	357.01
393.26	369.67
393.639	383.45
394.018	372.38
394.397	363.79
394.776	368.54
395.155	379.61
395.534	393.17
395.913	394.52
396.292	386.84
396.671	392.26
397.05	381.42
397.429	402.88
397.808	395.88
398.186	394.75
398.565	393.85
398.944	404.47
399.323	420.96
399.701	408.53
400.08	410.79
400.458	402.66
400.837	431.58
401.215	415.54
401.594	416.9
401.972	423.45
402.351	421.19
402.729	431.13
403.107	437.91
403.486	424.81
403.864	449.21
404.242	437.23
404.62	453.28
404.999	434.75
405.377	449.66
405.755	447.63
406.133	430.23
406.511	459.38
406.889	467.29
407.267	464.58
407.645	462.77
408.023	464.35
408.401	486.72
408.779	492.83
409.156	511.58
409.534	501.41
409.912	506.38
410.29	517.46
410.667	500.51
411.045	516.33
411.422	513.84
411.8	507.51
412.178	529.66
412.555	563.33
412.933	553.16
413.31	553.16
413.687	567.85
414.065	572.37
414.442	573.05
414.819	592.71
415.197	589.55
415.574	608.76
415.951	597.23
416.328	614.4
416.705	641.3
417.082	593.16
417.46	629.32
417.837	626.61
418.214	634.52
418.591	631.35
418.967	626.83
419.344	663.44
419.721	658.02
420.098	655.99
420.475	667.74
420.852	692.59
421.228	699.15
421.605	706.38
421.982	703.67
422.358	707.51
422.735	743.44
423.111	740.73
423.488	748.41
423.864	755.19
424.241	781.41
424.617	785.02
424.994	803.55
425.37	773.72
425.746	818.02
426.123	818.69
426.499	820.5
426.875	835.87
427.251	883.32
427.627	884.45
428.003	867.28
428.379	874.74
428.756	880.16
429.132	888.75
429.507	909.54
429.883	905.47
430.259	929.42
430.635	922.65
431.011	946.37
431.387	952.25
431.763	993.6
432.138	996.54
432.514	999.25
432.89	988.41
433.265	1025.92
433.641	1037.67
434.016	1058.01
434.392	1077.22
434.767	1078.12
435.143	1098.01
435.518	1126.71
435.894	1138.68
436.269	1134.62
436.644	1164.22
437.02	1209.64
437.395	1178.46
437.77	1215.29
438.145	1261.85
438.52	1241.51
438.895	1287.16
439.271	1288.29
439.646	1310.88
440.021	1315.18
440.395	1331
440.77	1291.68
441.145	1326.25
441.52	1378
441.895	1372.12
442.27	1363.54
442.645	1396.76
443.019	1433.82
443.394	1378.68
443.769	1415.29
444.143	1392.01
444.518	1458.45
444.892	1418.68
445.267	1458
445.641	1469.75
446.016	1497.32
446.39	1499.81
446.764	1526.02
447.139	1482.86
447.513	1535.51
447.887	1550.43
448.262	1547.04
448.636	1534.15
449.01	1603.76
449.384	1585.68
449.758	1586.81
450.132	1588.62
450.506	1620.03
450.88	1614.15
451.254	1629.07
451.628	1662.96
452.002	1674.49
452.376	1668.39
452.75	1712.23
453.123	1697.77
453.497	1755.39
453.871	1731.89
454.244	1778.89
454.618	1753.36
454.992	1793.13
455.365	1844.43
455.739	1845.78
456.112	1859.34
456.486	1900.47
456.859	1928.04
457.232	1938.44
457.606	1950.41
457.979	1952.22
458.352	1982.96
458.725	2016.18
459.099	2032.67
459.472	2057.53
459.845	2076.74
460.218	2105.89
460.591	2133.69
460.964	2100.69
461.337	2154.25
461.71	2210.29
462.083	2220.24
462.456	2228.37
462.829	2190.41
463.201	2226.57
463.574	2268.82
463.947	2278.09
464.32	2343.62
464.692	2369.16
465.065	2363.29
465.438	2402.61
465.81	2446.67
466.183	2454.81
466.555	2514.47
466.928	2519.89
467.3	2522.38
467.672	2557.63
468.045	2612.32
468.417	2657.06
468.789	2615.26
469.161	2670.17
469.534	2708.59
469.906	2768.47
470.278	2780.22
470.65	2750.17
471.022	2851.41
471.394	2939.09
471.766	2938.41
472.138	2960.78
472.51	3000.56
472.882	3021.35
473.253	3024.74
473.625	3122.81
473.997	3176.15
474.369	3165.75
474.74	3187.44
475.112	3259.53
475.484	3316.71
475.855	3361
476.227	3357.84
476.598	3453.88
476.97	3510.15
477.341	3553.31
477.713	3605.29
478.084	3600.31
478.455	3728.9
478.827	3719.63
479.198	3838.73
479.569	3824.26
479.94	3899.29
480.311	3951.94
480.682	4012.51
481.053	4096.35
481.424	4135.67
481.795	4190.81
482.166	4241.88
482.537	4302.67
482.908	4358.26
483.279	4439.39
483.65	4507.41
484.021	4571.59
484.391	4623.34
484.762	4612.04
485.133	4671.02
485.503	4695.2
485.874	4798.02
486.244	4794.18
486.615	4974.06
486.985	4981.07
487.356	5091.12
487.726	5114.85
488.097	5167.51
488.467	5216.77
488.837	5298.58
489.207	5312.81
489.578	5374.05
489.948	5406.14
490.318	5560.49
490.688	5480.27
491.058	5601.39
491.428	5601.62
491.798	5694.72
492.168	5791.44
492.538	5833.48
492.908	5844.1
493.278	5939.24
493.648	5936.98
494.017	5948.95
494.387	6052.91
494.757	6075.73
495.126	6132.23
495.496	6175.61
495.866	6196.18
496.235	6279.79
496.605	6305.33
496.974	6313.24
497.344	6411.31
497.713	6450.41
498.082	6463.97
498.452	6501.03
498.821	6486.57
499.19	6507.81
499.559	6562.04
499.928	6614.7
500.298	6623.29
500.667	6703.06
501.036	6668.93
501.405	6771.76
501.774	6780.8
502.143	6764.53
502.512	6776.95
502.88	6858.08
503.249	6854.69
503.618	6911.19
503.987	6874.58
504.356	6993.9
504.724	6980.57
505.093	7016.27
505.462	7016.72
505.83	7021.24
506.199	7134.01
506.567	7128.13
506.936	7198.86
507.304	7203.84
507.672	7218.3
508.041	7273.21
508.409	7340.56
508.777	7359.31
509.145	7357.5
509.514	7359.09
509.882	7428.91
510.25	7345.53
510.618	7381.23
510.986	7405.86
511.354	7494.22
511.722	7540.1
512.09	7600.89
512.458	7555.92
512.826	7623.49
513.193	7601.34
513.561	7585.07
513.929	7680.21
514.297	7700.77
514.664	7691.28
515.032	7737.61
515.4	7799.3
515.767	7745.06
516.135	7844.5
516.502	7752.75
516.869	7795.91
517.237	7893.31
517.604	7825.29
517.972	7905.74
518.339	7924.95
518.706	7926.53
519.073	7926.98
519.44	7979.86
519.808	8013.53
520.175	7975.12
520.542	8093.98
520.909	8017.6
521.276	8081.55
521.643	8092.63
522.009	8177.14
522.376	8146.18
522.743	8100.08
523.11	8201.78
523.477	8262.79
523.843	8331.49
524.21	8354.77
524.577	8299.4
524.943	8365.16
525.31	8403.8
525.676	8473.63
526.043	8453.52
526.409	8493.75
526.776	8518.6
527.142	8479.28
527.508	8502.56
527.874	8626.4
528.241	8613.74
528.607	8582.1
528.973	8577.81
529.339	8581.65
529.705	8619.39
530.071	8712.95
530.437	8629.34
530.803	8707.75
531.169	8687.86
531.535	8708.88
531.901	8684.02
532.267	8743.91
532.632	8742.78
532.998	8795.43
533.364	8796.79
533.73	8790.91
534.095	8771.03
534.461	8796.11
534.826	8769.22
535.192	8799.73
535.557	8935.09
535.923	8776
536.288	8805.38
536.653	8804.7
537.019	8822.1
537.384	8731.93
537.749	8756.56
538.114	8800.63
538.479	8751.14
538.845	8765.6
539.21	8721.76
539.575	8816
539.94	8771.03
540.305	8787.98
540.67	8733.74
541.034	8746.62
541.399	8771.25
541.764	8780.97
542.129	8815.55
542.494	8719.05
542.858	8819.16
543.223	8868.65
543.587	8846.96
543.952	8739.61
544.316	8795.88
544.681	8766.05
545.045	8747.75
545.41	8766.51
545.774	8755.21
546.138	8724.47
546.503	8734.87
546.867	8735.1
547.231	8765.6
547.595	8769.67
547.959	8747.75
548.324	8815.77
548.688	8753.17
549.052	8732.84
549.416	8774.42
549.779	8724.47
550.143	8737.13
550.507	8740.29
550.871	8755.21
551.235	8741.65
551.599	8734.19
551.962	8752.27
552.326	8769.9
552.689	8785.26
553.053	8657.36
553.417	8704.81
553.78	8772.16
554.143	8769.67
554.507	8718.82
554.87	8790.46
555.234	8856.67
555.597	8838.14
555.96	8793.4
556.323	8772.16
556.686	8804.02
557.05	8823.68
557.413	8828.88
557.776	8795.88
558.139	8828.88
558.502	8854.64
558.865	8894.64
559.228	8898.25
559.59	8869.55
559.953	8917.92
560.316	8955.88
560.679	8921.76
561.041	8951.13
561.404	9022.55
561.767	8989.1
562.129	9001.08
562.492	9121.98
562.854	9113.62
563.217	9093.73
563.579	9104.35
563.941	9164.69
564.304	9118.81
564.666	9154.29
565.028	9194.74
565.39	9161.98
565.753	9229.09
566.115	9239.26
566.477	9266.61
566.839	9237.45
567.201	9344.12
567.563	9346.6
567.925	9393.38
568.287	9356.77
568.648	9445.36
569.01	9452.59
569.372	9578.24
569.734	9432.93
570.095	9480.61
570.457	9519.26
570.819	9558.35
571.18	9548.18
571.542	9622.76
571.903	9645.81
572.265	9652.36
572.626	9635.64
572.987	9654.17
573.349	9689.87
573.71	9768.51
574.071	9795.18
574.432	9790.21
574.794	9841.73
575.155	9848.29
575.516	9778.23
575.877	9898
576.238	9951.79
576.599	9914.95
576.96	9880.83
577.32	9900.71
577.681	9991.79
578.042	9916.08
578.403	10064.55
578.763	10054.16
579.124	10036.98
579.485	10083.31
579.845	10087.15
580.206	10071.33
580.566	10054.61
580.927	10118.34
581.287	10126.7
581.648	10130.31
582.008	10235.17
582.368	10238.78
582.728	10226.58
583.089	10226.81
583.449	10274.26
583.809	10284.66
584.169	10326.92
584.529	10312.23
584.889	10372.11
585.249	10256.41
585.609	10311.1
585.969	10340.48
586.329	10343.41
586.688	10382.96
587.048	10407.14
587.408	10363.75
587.768	10352.23
588.127	10410.53
588.487	10375.05
588.846	10481.94
589.206	10410.76
589.565	10517.42
589.925	10563.97
590.284	10415.5
590.643	10500.92
591.003	10552.22
591.362	10537.31
591.721	10496.18
592.08	10528.27
592.44	10580.92
592.799	10596.52
593.158	10544.77
593.517	10592
593.876	10623.86
594.235	10530.53
594.593	10574.59
594.952	10638.55
595.311	10543.86
595.67	10651.43
596.029	10731.2
596.387	10665.89
596.746	10650.07
597.104	10593.8
597.463	10625.67
597.822	10664.76
598.18	10680.13
598.538	10623.18
598.897	10711.99
599.255	10666.12
599.613	10733.46
599.972	10675.38
600.33	10768.71
600.688	10725.1
601.046	10712.22
601.404	10718.55
601.762	10759.67
602.12	10818.43
602.478	10795.83
602.836	10756.51
603.194	10680.13
603.552	10724.2
603.91	10697.53
604.268	10766.23
604.625	10795.15
604.983	10776.17
605.341	10784.76
605.698	10840.12
606.056	10873.34
606.413	10887.13
606.771	10838.77
607.128	10891.42
607.485	10880.58
607.843	10848.03
608.2	10926.22
608.557	10947.69
608.914	10891.2
609.272	10936.17
609.629	10920.12
609.986	10977.75
610.343	10854.36
610.7	11048.25
611.057	10999.44
611.414	10976.62
611.771	10987.92
612.127	11072.43
612.484	10953.34
612.841	11130.51
613.198	11006.67
613.554	11084.19
613.911	11087.12
614.267	11095.03
614.624	11163.96
614.98	11049.16
615.337	11153.79
615.693	11034.92
616.05	11113.79
616.406	11221.13
616.762	11159.66
617.118	11085.77
617.475	11116.5
617.831	11134.81
618.187	11129.16
618.543	11151.98
618.899	11237.18
619.255	11134.35
619.611	11100.91
619.967	11227.01
620.323	11279.89
620.678	11221.58
621.034	11208.02
621.39	11228.36
621.746	11192.43
622.101	11282.6
622.457	11225.65
622.812	11268.36
623.168	11288.7
623.523	11279.44
623.879	11297.29
624.234	11132.32
624.589	11306.33
624.945	11254.35
625.3	11183.62
625.655	11222.26
626.01	11271.07
626.365	11219.78
626.72	11288.93
627.075	11269.94
627.43	11210.06
627.785	11207.12
628.14	11198.76
628.495	11206.89
628.85	11249.83
629.205	11205.09
629.559	11201.25
629.914	11115.6
630.269	11163.51
630.623	11119.21
630.978	11104.07
631.332	11146.33
631.687	11127.8
632.041	11058.2
632.396	11126.22
632.75	11072.66
633.104	11020.46
633.459	11032.44
633.813	11036.5
634.167	10956.51
634.521	11061.59
634.875	11063.85
635.229	11044.41
635.583	10957.86
635.937	10959.9
636.291	10957.41
636.645	10931.42
636.999	10902.27
637.352	10943.62
637.706	10935.26
638.06	10917.18
638.413	10868.15
638.767	10815.72
639.121	10878.32
639.474	10815.49
639.828	10875.83
640.181	10849.62
640.534	10814.59
640.888	10772.78
641.241	10782.72
641.594	10768.94
641.947	10825.66
642.301	10751.99
642.654	10806.23
643.007	10738.88
643.36	10751.54
643.713	10679
644.066	10760.13
644.419	10695.5
644.771	10600.13
645.124	10522.39
645.477	10537.31
645.83	10401.94
646.182	10377.09
646.535	10364.66
646.888	10418.67
647.24	10260.7
647.593	10362.62
647.945	10307.26
648.298	10302.06
648.65	10306.58
649.002	10269.52
649.355	10349.52
649.707	10250.54
650.059	10268.16
650.411	10526.01
650.763	10480.13
651.115	10581.83
651.467	10526.46
651.819	10500.47
652.171	10486.46
652.523	10474.94
652.875	10481.04
653.227	10533.01
653.578	10500.25
653.93	10490.76
654.282	10447.59
654.633	10454.37
654.985	10549.96
655.337	10502.51
655.688	10479.46
656.039	10518.78
656.391	10454.82
656.742	10504.31
657.094	10488.27
657.445	10455.28
657.796	10450.3
658.147	10483.52
658.498	10437.2
658.849	10549.28
659.2	10485.56
659.551	10507.7
659.902	10429.97
660.253	10429.51
660.604	10433.13
660.955	10409.63
661.306	10420.47
661.656	10427.48
662.007	10465.67
662.358	10470.42
662.708	10466.58
663.059	10447.37
663.409	10437.42
663.76	10532.56
664.11	10516.52
664.461	10518.1
664.811	10559
665.161	10467.48
665.511	10464.54
665.862	10523.3
666.212	10523.97
666.562	10517.2
666.912	10544.54
667.262	10412.79
667.612	10476.52
667.962	10466.58
668.312	10436.75
668.662	10490.08
669.011	10500.92
669.361	10472.22
669.711	10472
670.06	10451.43
670.41	10457.31
670.76	10385.9
671.109	10429.97
671.459	10431.32
671.808	10435.84
672.157	10516.97
672.507	10434.71
672.856	10401.72
673.205	10344.77
673.554	10440.81
673.904	10326.47
674.253	10383.19
674.602	10325.11
674.951	10297.99
675.3	10189.52
675.649	10341.61
675.998	10318.78
676.346	10369.85
676.695	10316.52
677.044	10239.91
677.393	10298.9
677.741	10236.3
678.09	10296.18
678.438	10236.3
678.787	10230.42
679.135	10282.85
679.484	10172.57
679.832	10145.45
680.181	10142.74
680.529	10175.74
680.877	10151.56
681.225	10204.21
681.573	10147.71
681.922	10063.87
682.27	10034.95
682.618	10053.93
682.966	10081.73
683.314	10082.18
683.661	10044.89
684.009	9975.29
684.357	10000.37
684.705	9932.58
685.053	9976.19
685.4	9945.68
685.748	9846.25
686.095	9925.35
686.443	9799.02
686.79	9796.99
687.138	9799.93
687.485	9781.85
687.832	9759.7
688.18	9711.34
688.527	9702.98
688.874	9695.52
689.221	9709.53
689.568	9634.96
689.915	9547.05
690.262	9646.03
690.609	9592.7
690.956	9580.04
691.303	9521.52
691.65	9477
691.997	9455.53
692.344	9401.97
692.69	9338.02
693.037	9457.79
693.383	9276.55
693.73	9397.45
694.077	9330.56
694.423	9271.58
694.769	9241.97
695.116	9147.74
695.462	9186.83
695.808	9154.07
696.155	9165.59
696.501	9060.51
696.847	9072.71
697.193	8982.55
697.539	9064.35
697.885	8931.93
698.231	8926.05
698.577	8843.11
698.923	8933.73
699.269	8854.87
699.614	8862.78
699.96	8788.65
700.306	8744.36
700.651	8775.32
700.997	8735.32
701.342	8649.45
701.688	8664.36
702.033	8634.76
702.379	8712.5
702.724	8659.39
703.069	8570.81
703.415	8489.45
703.76	8517.93
704.105	8491.26
704.45	8496.01
704.795	8445.84
705.14	8398.15
705.485	8402.67
705.83	8377.14
706.175	8341.66
706.52	8249.23
706.865	8312.28
707.209	8276.12
707.554	8292.62
707.899	8220.53
708.243	8209.23
708.588	8176.01
708.932	8115.9
709.277	8121.55
709.621	8182.57
709.966	8086.3
710.31	8053.98
710.654	7974.21
710.998	8070.48
711.342	8008.79
711.687	7985.74
712.031	7955.68
712.375	8004.49
712.719	7924.27
713.063	7945.74
713.407	7921.56
713.75	7872.29
714.094	7868.9
714.438	7855.8
714.782	7844.27
715.125	7811.73
715.469	7843.82
715.812	7810.83
716.156	7751.62
716.499	7749.58
716.843	7729.47
717.186	7738.74
717.53	7759.53
717.873	7739.19
718.216	7803.14
718.559	7747.1
718.902	7628.23
719.246	7736.93
719.589	7645.41
719.932	7628.91
720.275	7635.01
720.617	7608.35
720.96	7678.63
721.303	7675.24
721.646	7624.62
721.989	7543.94
722.331	7588.01
722.674	7551.62
723.016	7531.74
723.359	7489.93
723.701	7495.35
724.044	7534
724.386	7455.58
724.729	7501
725.071	7470.04
725.413	7473.43
725.755	7462.59
726.097	7463.04
726.439	7380.33
726.782	7449.48
727.124	7442.47
727.465	7397.5
727.807	7431.85
728.149	7420.78
728.491	7406.32
728.833	7464.17
729.175	7367
729.516	7368.35
729.858	7362.02
730.199	7437.73
730.541	7382.36
730.882	7385.07
731.224	7398.41
731.565	7334.91
731.906	7355.7
732.248	7313.44
732.589	7342.82
732.93	7308.47
733.271	7370.61
733.612	7280.44
733.953	7393.21
734.294	7352.53
734.635	7271.4
734.976	7375.13
735.317	7286.09
735.658	7244.51
735.999	7360.89
736.339	7301.69
736.68	7293.33
737.021	7317.28
737.361	7308.24
737.702	7305.75
738.042	7317.28
738.383	7288.35
738.723	7306.88
739.063	7348.46
739.404	7291.97
739.744	7313.21
740.084	7297.17
740.424	7326.09
740.764	7294
741.104	7341.23
741.444	7343.72
741.784	7296.94
742.124	7382.81
742.464	7330.84
742.804	7374.23
743.143	7304.4
743.483	7402.02
743.823	7330.61
744.162	7363.38
744.502	7406.54
744.841	7427.78
745.181	7508.69
745.52	7470.95
745.86	7488.57
746.199	7490.16
746.538	7593.43
746.877	7536.48
747.216	7568.12
747.556	7595.92
747.895	7619.42
748.234	7663.26
748.573	7714.33
748.911	7742.58
749.25	7780.77
749.589	7708.23
749.928	7828.23
750.267	7918.85
750.605	7896.47
750.944	7940.31
751.283	8008.11
751.621	8096.69
751.96	8029.13
752.298	8145.28
752.636	8215.11
752.975	8279.29
753.313	8267.08
753.651	8370.81
753.989	8456.68
754.327	8499.17
754.666	8601.99
755.004	8692.84
755.342	8778.26
755.679	8860.97
756.017	8924.47
756.355	8952.72
756.693	9091.7
757.031	9140.28
757.368	9276.32
757.706	9378.92
758.044	9511.8
758.381	9570.33
758.719	9628.86
759.056	9704.11
759.394	9911.79
759.731	9907.72
760.068	9959.92
760.405	10182.97
760.743	10162.63
761.08	10342.51
761.417	10508.83
761.754	10574.82
762.091	10646.68
762.428	10710.41
762.765	10740.24
763.102	10933.46
763.438	11047.12
