Data from hue_210_FLMS001491_00026.txt Node
Date: Tue Feb 07 16:40:57 GMT 2017
User: dcchb
Spectrometer: FLMS00149
Trigger mode: 0
Integration Time (sec): 2.000000E-2
Scans to average: 10
Electric dark correction enabled: true
Nonlinearity correction enabled: false
Boxcar width: 0
XAxis mode: Wavelengths
Number of Pixels in Spectrum: 2048
>>>>>Begin Spectral Data<<<<<
341.393	-13.9
341.776	-13.9
342.16	-13.9
342.543	-51.64
342.927	-47.57
343.31	-58.42
343.693	-52.32
344.077	-63.61
344.46	-67.46
344.843	-52.09
345.226	-37.17
345.61	-44.41
345.993	-22.49
346.376	-16.61
346.759	15.25
347.142	22.71
347.525	34.69
347.908	60.68
348.291	83.95
348.674	95.93
349.057	101.35
349.44	128.02
349.823	142.48
350.206	168.24
350.588	203.95
350.971	203.27
351.354	213.21
351.737	219.99
352.119	243.95
352.502	260.22
352.884	256.83
353.267	266.09
353.65	295.02
354.032	302.48
354.414	302.7
354.797	295.47
355.179	334.12
355.562	325.08
355.944	315.81
356.326	336.15
356.709	349.71
357.091	338.41
357.473	328.24
357.855	324.85
358.238	371.63
358.62	329.14
359.002	338.18
359.384	327.56
359.766	329.82
360.148	333.89
360.53	352.19
360.912	346.32
361.294	317.17
361.676	327.34
362.057	330.95
362.439	346.32
362.821	307
363.203	333.21
363.584	318.3
363.966	307.68
364.348	324.62
364.729	319.43
365.111	314.91
365.493	325.98
365.874	320.78
366.256	306.55
366.637	303.16
367.019	303.83
367.4	303.16
367.781	309.03
368.163	293.66
368.544	303.61
368.925	324.85
369.306	335.7
369.688	303.83
370.069	312.87
370.45	311.52
370.831	309.48
371.212	327.79
371.593	308.35
371.974	307.9
372.355	311.74
372.736	323.27
373.117	309.03
373.498	332.31
373.879	309.26
374.26	273.55
374.641	302.25
375.021	322.14
375.402	321.23
375.783	318.52
376.163	325.08
376.544	321.69
376.925	328.69
377.305	325.98
377.686	304.29
378.066	338.41
378.447	318.97
378.827	337.96
379.208	318.52
379.588	344.96
379.968	336.83
380.349	357.39
380.729	332.99
381.109	339.54
381.489	309.94
381.87	335.25
382.25	359.88
382.63	334.34
383.01	347.45
383.39	334.79
383.77	344.74
384.15	326.43
384.53	335.25
384.91	345.87
385.29	363.27
385.67	339.54
386.049	356.94
386.429	324.85
386.809	339.77
387.189	356.49
387.568	353.55
387.948	331.63
388.328	373.21
388.707	372.98
389.087	353.32
389.466	353.55
389.846	354.45
390.225	368.92
390.605	333.66
390.984	371.63
391.363	363.95
391.743	377.73
392.122	360.33
392.501	376.37
392.881	364.85
393.26	373.66
393.639	371.4
394.018	399.42
394.397	370.5
394.776	379.31
395.155	382.25
395.534	387
395.913	397.62
396.292	377.5
396.671	397.84
397.05	406.43
397.429	395.58
397.808	382.7
398.186	393.77
398.565	385.87
398.944	412.76
399.323	395.58
399.701	405.53
400.08	392.19
400.458	404.17
400.837	427.9
401.215	417.5
401.594	402.59
401.972	424.96
402.351	399.42
402.729	408.24
403.107	436.03
403.486	429.48
403.864	428.35
404.242	440.55
404.62	451.85
404.999	437.62
405.377	436.49
405.755	442.59
406.133	426.09
406.511	447.11
406.889	456.37
407.267	464.51
407.645	499.08
408.023	491.63
408.401	480.33
408.779	482.81
409.156	511.96
409.534	498.18
409.912	497.95
410.29	506.99
410.667	512.64
411.045	543.6
411.422	553.09
411.8	565.3
412.178	561.68
412.555	557.39
412.933	562.58
413.31	566.2
413.687	573.66
414.065	599.19
414.442	600.1
414.819	601.45
415.197	638.06
415.574	625.18
415.951	680.77
416.328	632.41
416.705	644.16
417.082	669.02
417.46	675.35
417.837	668.8
418.214	693.2
418.591	692.07
418.967	712.86
419.344	723.71
419.721	718.29
420.098	742.92
420.475	748.12
420.852	759.19
421.228	767.55
421.605	764.39
421.982	796.02
422.358	790.15
422.735	824.05
423.111	831.96
423.488	808.23
423.864	851.84
424.241	874.89
424.617	849.58
424.994	885.97
425.37	919.86
425.746	909.02
426.123	925.06
426.499	961.22
426.875	977.26
427.251	968.9
427.627	996.47
428.003	1020.65
428.379	1033.53
428.756	1027.88
429.132	1040.31
429.507	1060.2
429.883	1048.22
430.259	1072.85
430.635	1080.76
431.011	1107.88
431.387	1130.25
431.763	1124.15
432.138	1141.55
432.514	1175.68
432.89	1191.27
433.265	1203.92
433.641	1221.55
434.016	1255.9
434.392	1294.77
434.767	1317.82
435.143	1280.08
435.518	1299.06
435.894	1346.97
436.269	1361.43
436.644	1389
437.02	1412.73
437.395	1462.9
437.77	1476.68
438.145	1489.79
438.52	1501.09
438.895	1542.45
439.271	1551.26
439.646	1592.39
440.021	1606.85
440.395	1643.69
440.77	1616.57
441.145	1645.49
441.52	1708.54
441.895	1714.64
442.27	1719.84
442.645	1741.08
443.019	1770.01
443.394	1800.07
443.769	1804.59
444.143	1775.21
444.518	1844.13
444.892	1862.66
445.267	1865.15
445.641	1881.87
446.016	1862.66
446.39	1913.51
446.764	1924.81
447.139	1891.36
447.513	1943.11
447.887	1958.48
448.262	1962.32
448.636	1965.03
449.01	1990.34
449.384	2037.8
449.758	2000.74
450.132	2069.21
450.506	2079.83
450.88	2089.1
451.254	2097.01
451.628	2144.01
452.002	2150.79
452.376	2165.25
452.75	2202.31
453.123	2162.99
453.497	2238.7
453.871	2267.85
454.244	2280.73
454.618	2344.46
454.992	2340.39
455.365	2330.22
455.739	2378.13
456.112	2442.76
456.486	2414.06
456.859	2435.53
457.232	2488.41
457.606	2465.58
457.979	2518.46
458.352	2559.82
458.725	2606.6
459.099	2616.32
459.472	2687.27
459.845	2693.38
460.218	2698.12
460.591	2731.79
460.964	2727.27
461.337	2786.93
461.71	2801.62
462.083	2899.02
462.456	2864.9
462.829	2862.41
463.201	2964.33
463.574	2954.84
463.947	2978.79
464.32	3045.68
464.692	3084.1
465.065	3093.36
465.438	3132.69
465.81	3168.39
466.183	3193.48
466.555	3254.26
466.928	3267.37
467.3	3300.14
467.672	3326.58
468.045	3404.32
468.417	3436.41
468.789	3441.6
469.161	3441.83
469.534	3517.08
469.906	3615.16
470.278	3621.26
470.65	3651.32
471.022	3714.59
471.394	3786.45
471.766	3791.65
472.138	3849.28
472.51	3932.21
472.882	3953
473.253	4003.4
473.625	4059.89
473.997	4157.52
474.369	4156.16
474.74	4201.13
475.112	4264.86
475.484	4339.43
475.855	4394.57
476.227	4441.13
476.598	4565.19
476.97	4597.73
477.341	4650.84
477.713	4731.51
478.084	4743.49
478.455	4843.38
478.827	4885.41
479.198	4993.43
479.569	5040.21
479.94	5132.86
480.311	5160.66
480.682	5241.33
481.053	5381.21
481.424	5485.62
481.795	5463.7
482.166	5577.14
482.537	5648.78
482.908	5696.46
483.279	5754.76
483.65	5841.09
484.021	5990.92
484.391	6039.28
484.762	6077.47
485.133	6103.68
485.503	6172.61
485.874	6319.95
486.244	6293.05
486.615	6456.44
486.985	6529.43
487.356	6589.77
487.726	6634.74
488.097	6762.65
488.467	6841.97
488.837	6889.42
489.207	6921.74
489.578	7042.19
489.948	7065.69
490.318	7187.49
490.688	7138.91
491.058	7302.97
491.428	7360.37
491.798	7421.16
492.168	7553.59
492.538	7538.67
492.908	7703.41
493.278	7723.98
493.648	7678.56
494.017	7764.65
494.387	7845.33
494.757	7908.15
495.126	8053.91
495.496	7993.35
495.866	8075.15
496.235	8111.54
496.605	8163.06
496.974	8217.07
497.344	8245.77
497.713	8315.37
498.082	8325.32
498.452	8383.17
498.821	8447.35
499.19	8369.16
499.559	8470.17
499.928	8516.27
500.298	8579.55
500.667	8629.72
501.036	8531.19
501.405	8608.7
501.774	8664.52
502.143	8669.49
502.512	8716.95
502.88	8778.64
503.249	8733.89
503.618	8791.97
503.987	8843.04
504.356	8827.23
504.724	8876.94
505.093	8900.22
505.462	8953.55
505.83	8973.89
506.199	8994.9
506.567	9121.23
506.936	9055.69
507.304	9150.61
507.672	9159.87
508.041	9186.09
508.409	9203.26
508.777	9266.31
509.145	9271.28
509.514	9227.22
509.882	9284.39
510.25	9297.5
510.618	9332.52
510.986	9345.63
511.354	9360.54
511.722	9404.16
512.09	9450.03
512.458	9391.28
512.826	9474.21
513.193	9473.54
513.561	9497.94
513.929	9500.65
514.297	9580.2
514.664	9587.21
515.032	9561.9
515.4	9599.63
515.767	9607.32
516.135	9631.27
516.502	9547.66
516.869	9674.66
517.237	9690.03
517.604	9568.22
517.972	9751.27
518.339	9749.46
518.706	9698.39
519.073	9704.04
519.44	9709.91
519.808	9775.45
520.175	9731.38
520.542	9778.84
520.909	9705.62
521.276	9734.09
521.643	9800.99
522.009	9884.82
522.376	9766.64
522.743	9858.61
523.11	9872.17
523.477	9884.15
523.843	9834.66
524.21	9941.32
524.577	10011.6
524.943	9956.91
525.31	9993.52
525.676	10017.7
526.043	9975.67
526.409	9964.37
526.776	10069.9
527.142	10055.67
527.508	10033.97
527.874	10054.31
528.241	10075.55
528.607	9971.15
528.973	10086.85
529.339	10081.2
529.705	10097.02
530.071	10138.38
530.437	10077.59
530.803	10127.53
531.169	10113.29
531.535	10050.92
531.901	9984.03
532.267	10011.15
532.632	10032.84
532.998	9963.47
533.364	10014.09
533.73	9958.5
534.095	10015.89
534.461	9948.55
534.826	9892.96
535.192	9980.87
535.557	9934.77
535.923	9865.84
536.288	9852.51
536.653	9924.82
537.019	9778.39
537.384	9826.97
537.749	9818.39
538.114	9802.34
538.479	9714.21
538.845	9749.24
539.21	9723.93
539.575	9667.2
539.94	9735.22
540.305	9635.11
540.67	9582.23
541.034	9637.15
541.399	9586.53
541.764	9586.53
542.129	9598.96
542.494	9524.83
542.858	9485.51
543.223	9456.36
543.587	9514.67
543.952	9427.66
544.316	9372.97
544.681	9356.7
545.045	9324.39
545.41	9372.75
545.774	9318.06
546.138	9245.07
546.503	9230.38
546.867	9185.86
547.231	9217.72
547.595	9188.57
547.959	9189.02
548.324	9119.2
548.688	9087.33
549.052	9030.84
549.416	9041.01
549.779	9034.68
550.143	9031.06
550.507	9044.62
550.871	9019.31
551.235	8968.69
551.599	8937.96
551.962	8850.05
552.326	8872.87
552.689	8803.27
553.053	8779.77
553.417	8787.45
553.78	8807.79
554.143	8783.38
554.507	8784.51
554.87	8730.96
555.234	8783.38
555.597	8706.1
555.96	8724.86
556.323	8712.2
556.686	8688.7
557.05	8660.68
557.413	8596.95
557.776	8650.51
558.139	8628.81
558.502	8635.82
558.865	8593.79
559.228	8623.16
559.59	8548.59
559.953	8569.15
560.316	8692.31
560.679	8625.87
561.041	8595.37
561.404	8625.87
561.767	8578.87
562.129	8563.05
562.492	8594.92
562.854	8607.34
563.217	8638.53
563.579	8688.02
563.941	8535.26
564.304	8588.14
564.666	8624.29
565.028	8579.32
565.39	8608.25
565.753	8660.45
566.115	8683.5
566.477	8699.09
566.839	8624.29
567.201	8697.51
567.563	8655.25
567.925	8677.62
568.287	8653.9
568.648	8638.53
569.01	8682.82
569.372	8709.49
569.734	8696.83
570.095	8754.91
570.457	8754.91
570.819	8695.93
571.18	8757.85
571.542	8772.76
571.903	8810.05
572.265	8851.63
572.626	8803.05
572.987	8851.18
573.349	8780.22
573.71	8770.5
574.071	8873.33
574.432	8869.94
574.794	8881.69
575.155	8892.53
575.516	8820.22
575.877	8862.25
576.238	8913.55
576.599	8883.95
576.96	8855.7
577.32	8928.24
577.681	8991.06
578.042	8989.93
578.403	8938.86
578.763	8878.07
579.124	8984.51
579.485	8984.06
579.845	8952.42
580.206	9009.82
580.566	9042.14
580.927	9026.32
581.287	9014.57
581.648	9069.25
582.008	9062.47
582.368	9029.71
582.728	9092.3
583.089	9077.16
583.449	9083.72
583.809	9111.29
584.169	9096.6
584.529	9040.78
584.889	9147.67
585.249	9056.82
585.609	9104.05
585.969	9144.73
586.329	9095.24
586.688	9112.19
587.048	9128.91
587.408	9072.87
587.768	9098.86
588.127	9101.34
588.487	9054.11
588.846	9145.41
589.206	9084.39
589.565	9167.33
589.925	9153.77
590.284	9138.18
590.643	9182.24
591.003	9164.84
591.362	9244.39
591.721	9106.77
592.08	9199.87
592.44	9278.06
592.799	9169.82
593.158	9209.36
593.517	9219.31
593.876	9258.85
594.235	9246.88
594.593	9237.84
594.952	9303.82
595.311	9233.54
595.67	9213.2
596.029	9248.68
596.387	9277.84
596.746	9260.89
597.104	9234.45
597.463	9249.36
597.822	9293.2
598.18	9208.46
598.538	9203.94
598.897	9271.51
599.255	9241
599.613	9375.23
599.972	9215.01
600.33	9276.03
600.688	9292.3
601.046	9261.34
601.404	9350.38
601.762	9280.77
602.12	9335.46
602.478	9315.12
602.836	9379.53
603.194	9232.19
603.552	9252.07
603.91	9254.56
604.268	9279.42
604.625	9231.28
604.983	9362.35
605.341	9245.07
605.698	9296.82
606.056	9333.43
606.413	9336.59
606.771	9339.98
607.128	9370.26
607.485	9399.64
607.843	9335.01
608.2	9394.44
608.557	9358.29
608.914	9366.87
609.272	9423.37
609.629	9377.27
609.986	9433.99
610.343	9350.38
610.7	9478.06
611.057	9446.87
611.414	9398.06
611.771	9465.4
612.127	9482.12
612.484	9425.4
612.841	9480.32
613.198	9399.19
613.554	9459.3
613.911	9525.74
614.267	9527.32
614.624	9475.34
614.98	9566.64
615.337	9565.29
615.693	9595.79
616.05	9565.29
616.406	9606.41
616.762	9549.01
617.118	9574.55
617.475	9547.43
617.831	9577.04
618.187	9522.35
618.543	9529.35
618.899	9680.54
619.255	9547.66
619.611	9533.87
619.967	9622.46
620.323	9663.36
620.678	9575
621.034	9518.73
621.39	9568.67
621.746	9517.83
622.101	9609.13
622.457	9546.75
622.812	9593.76
623.168	9636.47
623.523	9629.46
623.879	9637.37
624.234	9627.88
624.589	9666.07
624.945	9591.5
625.3	9615
625.655	9603.02
626.01	9611.39
626.365	9570.03
626.72	9586.75
627.075	9628.33
627.43	9639.63
627.785	9631.27
628.14	9581.78
628.495	9603.93
628.85	9582.01
629.205	9558.51
629.559	9624.94
629.914	9519.41
630.269	9608.67
630.623	9509.92
630.978	9499.75
631.332	9509.02
631.687	9537.26
632.041	9527.09
632.396	9504.5
632.75	9461.33
633.104	9455.91
633.459	9472.18
633.813	9480.09
634.167	9385.4
634.521	9358.51
634.875	9486.19
635.229	9403.71
635.583	9390.37
635.937	9383.82
636.291	9354.9
636.645	9384.72
636.999	9365.52
637.352	9358.29
637.706	9256.59
638.06	9297.04
638.413	9248.46
638.767	9250.27
639.121	9277.38
639.474	9230.38
639.828	9210.04
640.181	9214.79
640.534	9213.43
640.888	9242.13
641.241	9200.55
641.594	9191.96
641.947	9230.15
642.301	9208.68
642.654	9278.29
643.007	9164.39
643.36	9172.98
643.713	9109.25
644.066	9186.31
644.419	9164.39
644.771	9081.23
645.124	9001.23
645.477	8957.84
645.83	8964.62
646.182	8887.11
646.535	8816.15
646.888	8884.17
647.24	8817.51
647.593	8874.46
647.945	8793.78
648.298	8800.56
648.65	8755.59
649.002	8786.1
649.355	8862.48
649.707	8838.98
650.059	8913.32
650.411	8967.11
650.763	9016.6
651.115	8983.38
651.467	9062.47
651.819	9034.23
652.171	9055.69
652.523	8976.15
652.875	9035.58
653.227	8996.94
653.578	9066.54
653.93	9052.76
654.282	8968.69
654.633	9014.11
654.985	9078.29
655.337	9027.67
655.688	9065.64
656.039	9030.61
656.391	9003.27
656.742	9046.65
657.094	9004.62
657.445	9092.08
657.796	9053.66
658.147	9028.8
658.498	9013.21
658.849	9073.32
659.2	9006.43
659.551	9071.06
659.902	9056.6
660.253	9077.39
660.604	9160.1
660.955	9078.29
661.306	9059.76
661.656	9062.47
662.007	9111.06
662.358	9088.69
662.708	9070.38
663.059	9043.72
663.409	9079.2
663.76	9099.76
664.11	9136.14
664.461	9105.41
664.811	9123.26
665.161	9148.12
665.511	9108.35
665.862	9154.9
666.212	9126.43
666.562	9193.77
666.912	9164.84
667.262	9054.79
667.612	9070.16
667.962	9100.44
668.312	9124.39
668.662	9189.93
669.011	9156.48
669.361	9180.89
669.711	9104.28
670.06	9113.09
670.41	9087.56
670.76	9075.13
671.109	9126.2
671.459	9049.82
671.808	9083.49
672.157	9103.15
672.507	9062.93
672.856	9009.82
673.205	9076.26
673.554	9053.43
673.904	8947.22
674.253	9075.13
674.602	9038.07
674.951	8925.3
675.3	8878.3
675.649	8972.76
675.998	8943.61
676.346	8980.67
676.695	8946.77
677.044	8892.08
677.393	9002.59
677.741	8882.59
678.09	8957.39
678.438	8922.59
678.787	8883.95
679.135	8925.75
679.484	8843.04
679.832	8906.55
680.181	8836.94
680.529	8856.38
680.877	8795.59
681.225	8807.11
681.573	8758.98
681.922	8744.06
682.27	8743.84
682.618	8775.7
682.966	8754.91
683.314	8721.47
683.661	8697.06
684.009	8633.78
684.357	8666.33
684.705	8652.99
685.053	8706.55
685.4	8603.28
685.748	8509.04
686.095	8540.45
686.443	8551.3
686.79	8555.82
687.138	8521.47
687.485	8478.08
687.832	8502.26
688.18	8509.95
688.527	8397.86
688.874	8373.68
689.221	8410.97
689.568	8397.18
689.915	8318.54
690.262	8334.36
690.609	8353.34
690.956	8251.87
691.303	8262.04
691.65	8229.95
691.997	8173.01
692.344	8142.05
692.69	8147.7
693.037	8095.49
693.383	8023.63
693.73	8023.63
694.077	7963.29
694.423	8010.52
694.769	8053.23
695.116	7952.45
695.462	7974.37
695.808	7867.25
696.155	7876.74
696.501	7840.13
696.847	7777.99
697.193	7746.12
697.539	7754.03
697.885	7718.1
698.231	7603.08
698.577	7698.22
698.923	7611.66
699.269	7570.99
699.614	7581.61
699.96	7574.38
700.306	7521.27
700.651	7479.92
700.997	7499.12
701.342	7430.2
701.688	7441.05
702.033	7382.07
702.379	7390.43
702.724	7351.33
703.069	7310.2
703.415	7295.51
703.76	7306.36
704.105	7246.02
704.45	7236.76
704.795	7181.85
705.14	7156.76
705.485	7178.91
705.83	7109.76
706.175	7130.55
706.52	7073.15
706.865	7044.9
707.209	7021.4
707.554	7043.77
707.899	6996.54
708.243	6989.31
708.588	6981.4
708.932	6912.7
709.277	6948.18
709.621	6960.38
709.966	6869.54
710.31	6890.1
710.654	6809.43
710.998	6806.26
711.342	6758.58
711.687	6804.91
712.031	6777.34
712.375	6726.04
712.719	6733.72
713.063	6761.07
713.407	6762.2
713.75	6643.55
714.094	6691.91
714.438	6674.06
714.782	6627.06
715.125	6613.27
715.469	6682.88
715.812	6608.75
716.156	6643.55
716.499	6581.86
716.843	6584.35
717.186	6528.08
717.53	6588.19
717.873	6568.3
718.216	6508.87
718.559	6561.3
718.902	6506.61
719.246	6548.64
719.589	6505.7
719.932	6451.92
720.275	6468.87
720.617	6475.87
720.96	6517
721.303	6525.37
721.646	6481.3
721.989	6461.86
722.331	6462.09
722.674	6515.65
723.016	6470.68
723.359	6467.51
723.701	6409.44
724.044	6444.92
724.386	6446.05
724.729	6415.54
725.071	6437.91
725.413	6446.72
725.755	6428.19
726.097	6336.44
726.439	6387.97
726.782	6338.93
727.124	6387.29
727.465	6350.23
727.807	6352.26
728.149	6353.84
728.491	6290.57
728.833	6373.73
729.175	6341.64
729.516	6327.18
729.858	6325.37
730.199	6280.63
730.541	6298.48
730.882	6311.36
731.224	6379.15
731.565	6329.44
731.906	6307.07
732.248	6349.1
732.589	6286.28
732.93	6304.81
733.271	6261.19
733.612	6346.39
733.953	6367.4
734.294	6336.44
734.635	6354.52
734.976	6309.33
735.317	6300.74
735.658	6235.88
735.999	6283.34
736.339	6351.36
736.68	6390.45
737.021	6348.42
737.361	6338.48
737.702	6354.3
738.042	6383.9
738.383	6349.78
738.723	6382.32
739.063	6381.64
739.404	6350.45
739.744	6468.87
740.084	6410.57
740.424	6422.99
740.764	6450.34
741.104	6461.86
741.444	6421.87
741.784	6485.59
742.124	6533.73
742.464	6472.94
742.804	6513.84
743.143	6564.69
743.483	6558.81
743.823	6607.85
744.162	6601.52
744.502	6618.7
744.841	6639.71
745.181	6658.47
745.52	6675.87
745.86	6767.84
746.199	6785.02
746.538	6783.21
746.877	6836.77
747.216	6903.66
747.556	6918.8
747.895	7046.93
748.234	7019.14
748.573	7046.93
748.911	7049.19
749.25	7167.38
749.589	7184.56
749.928	7245.57
750.267	7349.3
750.605	7366.02
750.944	7503.64
751.283	7496.41
751.621	7545.45
751.96	7651.66
752.298	7686.92
752.636	7872
752.975	7931.43
753.313	7980.69
753.651	8083.06
753.989	8182.72
754.327	8299.33
754.666	8320.12
755.004	8476.27
755.342	8659.32
755.679	8743.61
756.017	8794.68
756.355	8937.73
756.693	9081.91
757.031	9220.89
757.368	9302.24
757.706	9498.39
758.044	9658.39
758.381	9747.2
758.719	9911.94
759.056	10116.46
759.394	10219.28
759.731	10323.68
760.068	10537.92
760.405	10610
760.743	10783.56
761.08	10983.78
761.417	11085.02
761.754	11303.77
762.091	11478.91
762.428	11565.68
762.765	11792.12
763.102	12027.82
763.438	12100.81
763.775	12350.07
764.112	12450.18
764.449	12615.37
764.785	12760.23
765.122	12908.02
765.458	13061.01
765.795	13253.32
766.131	13354.79
766.467	13441.34
766.804	13555.24
767.14	13722.24
767.476	13899.63
767.812	14018.05
768.148	14299.17
