Data from hue_00_FLMS001491_53.txt Node
Date: Mon Feb 06 15:29:54 GMT 2017
User: dcchb
Spectrometer: FLMS00149
Trigger mode: 0
Integration Time (sec): 2.000000E-2
Scans to average: 10
Electric dark correction enabled: true
Nonlinearity correction enabled: false
Boxcar width: 0
XAxis mode: Wavelengths
Number of Pixels in Spectrum: 2048
>>>>>Begin Spectral Data<<<<<
341.393	-12.26
341.776	-12.26
342.16	-12.26
342.543	-47.74
342.927	-82.77
343.31	-75.99
343.693	-59.94
344.077	-57.91
344.46	-66.72
344.843	-48.87
345.226	-52.26
345.61	-34.18
345.993	-19.49
346.376	2.88
346.759	17.8
347.142	12.37
347.525	52.37
347.908	53.5
348.291	68.42
348.674	101.86
349.057	106.16
349.44	127.62
349.823	137.12
350.206	153.16
350.588	196.32
350.971	212.59
351.354	246.72
351.737	242.65
352.119	258.47
352.502	268.41
352.884	265.47
353.267	263.67
353.65	289.88
354.032	306.38
354.414	289.65
354.797	314.06
355.179	326.26
355.562	326.94
355.944	333.72
356.326	337.56
356.709	345.25
357.091	354.51
357.473	351.8
357.855	309.99
358.238	333.95
358.62	361.06
359.002	337.56
359.384	340.73
359.766	334.85
360.148	346.38
360.53	329.2
360.912	322.65
361.294	355.41
361.676	328.75
362.057	345.92
362.439	329.2
362.821	321.07
363.203	324.68
363.584	322.65
363.966	343.66
364.348	331.46
364.729	324.91
365.111	316.55
365.493	307.28
365.874	335.53
366.256	319.03
366.637	317.45
367.019	326.04
367.4	325.81
367.781	298.24
368.163	302.76
368.544	294.4
368.925	305.25
369.306	321.29
369.688	312.25
370.069	287.85
370.45	317
370.831	313.16
371.212	333.95
371.593	319.94
371.974	310.67
372.355	310.44
372.736	310.9
373.117	309.54
373.498	308.18
373.879	302.99
374.26	284
374.641	305.7
375.021	324.68
375.402	313.16
375.783	333.95
376.163	321.07
376.544	305.7
376.925	328.3
377.305	331.46
377.686	322.65
378.066	319.71
378.447	344.12
378.827	332.36
379.208	329.43
379.588	322.65
379.968	328.75
380.349	312.48
380.729	314.51
381.109	328.52
381.489	331.91
381.87	326.71
382.25	329.2
382.63	323.78
383.01	354.96
383.39	337.11
383.77	342.76
384.15	321.52
384.53	352.48
384.91	340.5
385.29	347.73
385.67	347.5
386.049	327.39
386.429	366.49
386.809	331.69
387.189	333.27
387.568	349.54
387.948	340.5
388.328	341.63
388.707	351.35
389.087	324.91
389.466	366.26
389.846	358.8
390.225	364.23
390.605	328.3
390.984	324
391.363	358.13
391.743	357.22
392.122	358.35
392.501	351.12
392.881	354.28
393.26	363.78
393.639	366.49
394.018	369.65
394.397	344.79
394.776	357.67
395.155	369.2
395.534	360.61
395.913	362.65
396.292	371.69
396.671	377.11
397.05	339.82
397.429	374.85
397.808	364
398.186	387.96
398.565	378.69
398.944	386.83
399.323	371.01
399.701	396.54
400.08	379.14
400.458	371.01
400.837	387.05
401.215	390.67
401.594	363.32
401.972	371.91
402.351	401.74
402.729	380.95
403.107	410.1
403.486	377.79
403.864	388.18
404.242	390.89
404.62	396.09
404.999	387.5
405.377	407.39
405.755	385.02
406.133	396.32
406.511	401.06
406.889	414.17
407.267	402.42
407.645	411.46
408.023	406.03
408.401	421.63
408.779	424.34
409.156	400.38
409.534	443.1
409.912	415.75
410.29	419.59
410.667	427.73
411.045	440.61
411.422	417.79
411.8	425.24
412.178	430.67
412.555	441.74
412.933	434.96
413.31	444.45
413.687	452.14
414.065	457.56
414.442	462.98
414.819	460.04
415.197	462.53
415.574	452.14
415.951	455.98
416.328	456.43
416.705	466.6
417.082	465.24
417.46	461.17
417.837	469.76
418.214	471.34
418.591	461.63
418.967	465.47
419.344	496.2
419.721	491.23
420.098	513.6
420.475	513.83
420.852	502.53
421.228	473.38
421.605	486.94
421.982	504.79
422.358	509.31
422.735	513.38
423.111	504.56
423.488	522.42
423.864	536.88
424.241	527.84
424.617	512.7
424.994	549.99
425.37	521.74
425.746	540.72
426.123	549.08
426.499	549.76
426.875	526.03
427.251	541.17
427.627	569.42
428.003	554.73
428.379	572.81
428.756	568.97
429.132	564.45
429.507	559.02
429.883	573.26
430.259	588.4
430.635	578.69
431.011	585.01
431.387	593.6
431.763	588.4
432.138	604.22
432.514	624.79
432.89	612.58
433.265	628.63
433.641	626.14
434.016	613.26
434.392	617.33
434.767	652.58
435.143	668.17
435.518	645.12
435.894	646.48
436.269	656.42
436.644	653.94
437.02	654.39
437.395	652.36
437.77	666.37
438.145	663.2
438.52	663.88
438.895	658.68
439.271	671.56
439.646	686.71
440.021	713.37
440.395	693.94
440.77	688.29
441.145	685.35
441.52	685.12
441.895	705.01
442.27	716.53
442.645	708.63
443.019	720.6
443.394	728.29
443.769	703.88
444.143	734.61
444.518	717.66
444.892	729.64
445.267	722.41
445.641	746.59
446.016	740.49
446.39	746.82
446.764	764.44
447.139	757.44
447.513	778
447.887	743.65
448.262	767.38
448.636	735.52
449.01	759.02
449.384	766.48
449.758	775.29
450.132	798.11
450.506	792.24
450.88	808.06
451.254	808.28
451.628	807.61
452.002	823.2
452.376	834.27
452.75	791.11
453.123	813.48
453.497	821.16
453.871	829.75
454.244	837.44
454.618	830.2
454.992	854.84
455.365	840.37
455.739	859.58
456.112	864.1
456.486	871.33
456.859	862.75
457.232	902.52
457.606	902.97
457.979	896.19
458.352	917.66
458.725	913.82
459.099	918.11
459.472	933.03
459.845	944.55
460.218	965.57
460.591	957.88
460.964	970.54
461.337	991.33
461.71	983.87
462.083	994.04
462.456	993.82
462.829	1021.84
463.201	1010.31
463.574	1026.13
463.947	1045.34
464.32	1074.49
464.692	1072.68
465.065	1051.67
465.438	1062.06
465.81	1115.85
466.183	1124.43
466.555	1103.42
466.928	1105.45
467.3	1130.08
467.672	1129.41
468.045	1160.59
468.417	1213.47
468.789	1187.26
469.161	1197.88
469.534	1221.61
469.906	1215.96
470.278	1258.67
470.65	1262.51
471.022	1272.68
471.394	1275.84
471.766	1267.93
472.138	1302.06
472.51	1340.93
472.882	1341.38
473.253	1333.69
473.625	1423.86
473.997	1424.31
474.369	1418.66
474.74	1442.84
475.112	1456.18
475.484	1501.15
475.855	1515.16
476.227	1540.24
476.598	1563.07
476.97	1564.2
477.341	1588.38
477.713	1629.28
478.084	1637.19
478.455	1695.94
478.827	1679.22
479.198	1705.44
479.569	1735.49
479.94	1783.4
480.311	1826.34
480.682	1834.02
481.053	1884.41
481.424	1912.21
481.795	1979.78
482.166	1954.02
482.537	2028.82
482.908	2044.64
483.279	2075.14
483.65	2112.66
484.021	2165.76
484.391	2198.76
484.762	2193.78
485.133	2213.44
485.503	2245.53
485.874	2327.34
486.244	2337.28
486.615	2374.57
486.985	2390.62
487.356	2427
487.726	2449.82
488.097	2527.11
488.467	2542.93
488.837	2593.77
489.207	2614.79
489.578	2659.31
489.948	2673.55
490.318	2715.35
490.688	2742.02
491.058	2761.23
491.428	2814.78
491.798	2839.87
492.168	2902.01
492.538	2907.21
492.908	2936.14
493.278	2969.13
493.648	2994.44
494.017	3061.33
494.387	3058.39
494.757	3106.53
495.126	3133.87
495.496	3183.36
495.866	3171.16
496.235	3203.02
496.605	3240.76
496.974	3239.86
497.344	3287.99
497.713	3307.2
498.082	3334.77
498.452	3347.43
498.821	3376.13
499.19	3386.07
499.559	3414.54
499.928	3448.67
500.298	3492.51
500.667	3491.6
501.036	3526.63
501.405	3586.97
501.774	3530.25
502.143	3532.05
502.512	3615.44
502.88	3639.17
503.249	3612.28
503.618	3660.64
503.987	3701.99
504.356	3672.16
504.724	3701.09
505.093	3687.98
505.462	3749
505.83	3756.23
506.199	3800.52
506.567	3851.37
506.936	3836.45
507.304	3874.42
507.672	3883.01
508.041	3890.69
508.409	3904.7
508.777	3936.34
509.145	3929.11
509.514	3976.34
509.882	3974.75
510.25	3972.72
510.618	4036.45
510.986	4017.46
511.354	4068.31
511.722	4066.73
512.09	4102.43
512.458	4090.46
512.826	4090.46
513.193	4111.47
513.561	4095.66
513.929	4125.48
514.297	4199.61
514.664	4189.89
515.032	4207.97
515.4	4212.49
515.767	4316.67
516.135	4265.59
516.502	4242.54
516.869	4312.15
517.237	4276.89
517.604	4351.69
517.972	4355.08
518.339	4387.4
518.706	4373.16
519.073	4361.64
519.44	4417.23
519.808	4417.91
520.175	4419.26
520.542	4466.72
520.909	4448.87
521.276	4450.9
521.643	4552.82
522.009	4543.33
522.376	4523.21
522.743	4548.75
523.11	4581.74
523.477	4616.09
523.843	4616.55
524.21	4718.24
524.577	4664.91
524.943	4746.03
525.31	4732.02
525.676	4815.41
526.043	4805.24
526.409	4833.94
526.776	4847.95
527.142	4849.76
527.508	4915.52
527.874	4896.99
528.241	4965.01
528.607	4976.31
528.973	4965.01
529.339	4971.56
529.705	5022.41
530.071	5087.72
530.437	5089.53
530.803	5115.74
531.169	5148.28
531.535	5081.17
531.901	5164.55
532.267	5182.63
532.632	5181.73
532.998	5203.2
533.364	5223.08
533.73	5247.26
534.095	5335.85
534.461	5318
534.826	5372.46
535.192	5356.41
535.557	5357.32
535.923	5407.48
536.288	5415.39
536.653	5462.62
537.019	5440.93
537.384	5525
537.749	5503.08
538.114	5496.07
538.479	5538.33
538.845	5538.55
539.21	5547.37
539.575	5551.66
539.94	5604.77
540.305	5624.65
540.67	5636.63
541.034	5694.03
541.399	5697.65
541.764	5701.49
542.129	5727.93
542.494	5777.42
542.858	5806.34
543.223	5817.42
543.587	5878.21
543.952	5848.15
544.316	5908.71
544.681	5920.69
545.045	5917.53
545.41	5976.96
545.774	5986.45
546.138	5934.25
546.503	6023.97
546.867	6004.53
547.231	6054.25
547.595	6107.13
547.959	6115.26
548.324	6128.14
548.688	6118.2
549.052	6143.74
549.416	6226.9
549.779	6164.98
550.143	6220.34
550.507	6231.42
550.871	6330.17
551.235	6265.54
551.599	6296.73
551.962	6335.82
552.326	6385.76
552.689	6413.33
553.053	6359.78
553.417	6381.24
553.78	6418.98
554.143	6459.89
554.507	6475.71
554.87	6507.34
555.234	6560.45
555.597	6505.54
555.96	6527.68
556.323	6560.9
556.686	6600.67
557.05	6619.88
557.413	6609.26
557.776	6672.54
558.139	6719.99
558.502	6693.1
558.865	6723.16
559.228	6783.04
559.59	6772.42
559.953	6797.28
560.316	6817.39
560.679	6837.28
561.041	6852.19
561.404	6886.09
561.767	6924.73
562.129	6961.79
562.492	6992.3
562.854	6997.05
563.217	7009.25
563.579	6986.43
563.941	7006.76
564.304	7062.36
564.666	7116.82
565.028	7105.29
565.39	7155.46
565.753	7179.42
566.115	7167.89
566.477	7194.56
566.839	7222.35
567.201	7322.46
567.563	7255.12
567.925	7370.6
568.287	7343.03
568.648	7371.28
569.01	7402.91
569.372	7421.22
569.734	7452.18
570.095	7521.78
570.457	7512.97
570.819	7537.82
571.18	7581.21
571.542	7634.09
571.903	7671.83
572.265	7666.86
572.626	7715.22
572.987	7805.39
573.349	7790.47
573.71	7884.71
574.071	7920.87
574.432	7924.93
574.794	8001.54
575.155	8061.2
575.516	8092.39
575.877	8168.77
576.238	8180.75
576.599	8303.91
576.96	8371.93
577.32	8441.3
577.681	8487.86
578.042	8552.04
578.403	8561.07
578.763	8713.61
579.124	8755.65
579.485	8798.36
579.845	8982.53
580.206	9025.92
580.566	9101.4
580.927	9234.73
581.287	9361.28
581.648	9363.77
582.008	9563.76
582.368	9616.19
582.728	9816.41
583.089	9942.96
583.449	9975.5
583.809	10214.82
584.169	10377.3
584.529	10453
584.889	10705.42
585.249	10886.21
585.609	10966.89
585.969	11242.36
586.329	11379.98
586.688	11505.4
587.048	11720.09
587.408	11896.13
587.768	12085.95
588.127	12265.84
588.487	12528.65
588.846	12814.07
589.206	12971.35
589.565	13173.16
589.925	13369.08
590.284	13651.56
590.643	13889.97
591.003	14199.8
591.362	14447.93
591.721	14600.46
592.08	14826.22
592.44	15149.15
592.799	15471.4
593.158	15522.25
593.517	15947.55
593.876	16096.7
594.235	16397.48
594.593	16771.25
594.952	17003.79
595.311	17315.65
595.67	17538.69
596.029	17913.37
596.387	18249.63
596.746	18469.51
597.104	18726.23
597.463	18863.63
597.822	19322.83
598.18	19590.39
598.538	19752.19
598.897	20173.88
599.255	20276.47
599.613	20837.81
599.972	20904.25
600.33	21250.68
600.688	21419.95
601.046	21823.1
601.404	22066.48
601.762	22300.6
602.12	22775.62
602.478	22858.33
602.836	23119.34
603.194	23342.38
603.552	23668.93
603.91	23884.74
604.268	24218.29
604.625	24375.57
604.983	24656.7
605.341	24809.46
605.698	25143.69
606.056	25405.38
606.413	25530.57
606.771	25879.49
607.128	26068.86
607.485	26335.07
607.843	26589.53
608.2	26982.96
608.557	27099.34
608.914	27203.3
609.272	27604.64
609.629	27768.93
609.986	27999.43
610.343	28168.24
610.7	28430.16
611.057	28657.27
611.414	28824.27
611.771	29002.34
612.127	29323.01
612.484	29370.24
612.841	29625.83
613.198	29747.41
613.554	29960.06
613.911	30331.12
614.267	30250.22
614.624	30469.2
614.98	30670.78
615.337	30950.99
615.693	31063.53
616.05	31122.52
616.406	31567.48
616.762	31201.38
617.118	31477.31
617.475	31692.44
617.831	31877.3
618.187	32176.72
618.543	32138.76
618.899	32477.51
619.255	32550.27
619.611	32590.72
619.967	32857.84
620.323	33016.93
620.678	32888.34
621.034	32867.78
621.39	33205.4
621.746	33217.83
622.101	33548.21
622.457	33446.97
622.812	33658.04
623.168	33728.1
623.523	33863.91
623.879	33942.78
624.234	33896.45
624.589	34015.32
624.945	34168.08
625.3	34219.38
625.655	34328.31
626.01	34458.02
626.365	34405.59
626.72	34515.19
627.075	34534.85
627.43	34586.6
627.785	34607.62
628.14	34682.65
628.495	34876.54
628.85	34928.29
629.205	34917.44
629.559	35056.65
629.914	34876.09
630.269	34943.88
630.623	34918.8
630.978	34862.3
631.332	35175.74
631.687	35215.29
632.041	35008.06
632.396	35274.04
632.75	34959.7
633.104	35173.93
633.459	35059.13
633.813	35148.17
634.167	35183.65
634.521	35204.22
634.875	35312.01
635.229	35222.29
635.583	35163.99
635.937	35180.49
636.291	35116.99
636.645	35171.67
636.999	35132.81
637.352	35382.74
637.706	35124.67
638.06	35318.56
638.413	35285.8
638.767	35142.75
639.121	35208.96
639.474	35040.83
639.828	35143.2
640.181	35173.03
640.534	35206.48
640.888	35145.69
641.241	34963.32
641.594	35187.72
641.947	35198.79
642.301	35057.55
642.654	35160.83
643.007	35073.15
643.36	35179.13
643.713	35057.1
644.066	35179.13
644.419	34957.22
644.771	34753.15
645.124	34548.64
645.477	34462.77
645.83	34310.91
646.182	34056.68
646.535	34067.3
646.888	34123.11
647.24	34111.14
647.593	34066.39
647.945	34190.91
648.298	33964.47
648.65	33898.49
649.002	33757.25
649.355	33870.92
649.707	33884.02
650.059	34146.62
650.411	34456.66
650.763	34516.1
651.115	34921.96
651.467	34582.76
651.819	34844
652.171	34561.75
652.523	34580.96
652.875	34544.57
653.227	34453.73
653.578	34842.64
653.93	34741.85
654.282	34429.77
654.633	34431.81
654.985	34578.24
655.337	34553.16
655.688	34593.84
656.039	34632.48
656.391	34330.57
656.742	34561.52
657.094	34486.72
657.445	34625.47
657.796	34526.27
658.147	34349.32
658.498	34418.25
658.849	34444.01
659.2	34465.93
659.551	34318.36
659.902	34448.76
660.253	34389.1
660.604	34476.1
660.955	34367.85
661.306	34470
661.656	34466.61
662.007	34425.25
662.358	34329.89
662.708	34406.27
663.059	34224.13
663.409	34096
663.76	34465.03
664.11	34336.44
664.461	34288.53
664.811	34346.84
665.161	34314.75
665.511	34259.38
665.862	34252.6
666.212	34335.09
666.562	34443.78
666.912	34118.82
667.262	34246.27
667.612	34213.06
667.962	34238.14
668.312	34133.74
668.662	34282.43
669.011	34228.65
669.361	34252.15
669.711	34238.14
670.06	34131.02
670.41	34181.42
670.76	34082.21
671.109	34243.79
671.459	34192.49
671.808	34154.75
672.157	34191.59
672.507	33925.61
672.856	33979.16
673.205	34048.99
673.554	34179.16
673.904	33980.52
674.253	34275.2
674.602	34056
674.951	33630.92
675.3	33371.04
675.649	33931.25
675.998	33934.42
676.346	33925.61
676.695	34077.24
677.044	33784.82
677.393	33870.24
677.741	33882.89
678.09	33677.02
678.438	33657.36
678.787	33662.11
679.135	33764.25
679.484	33484.49
679.832	33601.55
680.181	33597.48
680.529	33629.12
680.877	33444.26
681.225	33468.44
681.573	33700.75
681.922	33305.96
682.27	33246.3
682.618	33192.07
682.966	33184.38
683.314	33257.37
683.661	33266.64
684.009	33065.74
684.357	33036.81
684.705	33045.4
685.053	32974.67
685.4	32971.73
685.748	32802.47
686.095	32816.71
686.443	32641.57
686.79	32610.16
687.138	32698.07
687.485	32792.3
687.832	32641.8
688.18	32515.25
688.527	32369.71
688.874	32351.86
689.221	32294.91
689.568	32179.44
689.915	32228.93
690.262	32250.62
690.609	32044.3
690.956	31961.36
691.303	31920.91
691.65	31885.88
691.997	31817.86
692.344	31547.81
692.69	31621.48
693.037	31713.46
693.383	31315.5
693.73	31589.4
694.077	31363.86
694.423	31299.69
694.769	31255.84
695.116	31110.76
695.462	31080.26
695.808	30981.95
696.155	31110.54
696.501	30748.74
696.847	30808.85
697.193	30583.55
697.539	30622.87
697.885	30606.14
698.231	30405.92
698.577	30391.46
698.923	30271.46
699.269	30273.72
699.614	29984.92
699.96	30031.47
700.306	29930.91
700.651	29818.82
700.997	29816.11
701.342	29784.47
701.688	29663.57
702.033	29527.3
702.379	29458.6
702.724	29421.09
703.069	29519.39
703.415	29199.18
703.76	29199.85
704.105	29095
704.45	29194.66
704.795	28999.86
705.14	28831.05
705.485	28907.88
705.83	28797.38
706.175	28895.45
706.52	28729.81
706.865	28722.13
707.209	28558.97
707.554	28426.31
707.899	28484.84
708.243	28450.04
708.588	28375.47
708.932	28160.56
709.277	28102.93
709.621	28274.91
709.966	28005.53
710.31	28104.29
710.654	27908.14
710.998	27964.86
711.342	27836.73
711.687	27928.25
712.031	27711.76
712.375	27591.76
712.719	27657.97
713.063	27659.56
713.407	27525.1
713.75	27517.64
714.094	27424.76
714.438	27299.34
714.782	27305.21
715.125	27168.27
715.469	27248.04
715.812	27133.69
716.156	27077.88
716.499	26970.31
716.843	27026.58
717.186	26840.59
717.53	26928.5
717.873	26962.85
718.216	26796.75
718.559	26718.34
718.902	26586.36
719.246	26753.82
719.589	26477.89
719.932	26492.35
720.275	26499.13
720.617	26371.91
720.96	26415.75
721.303	26392.24
721.646	26432.02
721.989	26154.06
722.331	26249.2
722.674	26161.29
723.016	26137.79
723.359	26074.51
723.701	26204.45
724.044	25958.81
724.386	25896.21
724.729	25888.98
725.071	25971.46
725.413	25860.96
725.755	25735.76
726.097	25667.07
726.439	25615.54
726.782	25620.51
727.124	25757.46
727.465	25626.39
727.807	25526.73
728.149	25455.32
728.491	25462.1
728.833	25401.08
729.175	25380.97
729.516	25266.62
729.858	25303.01
730.199	25367.86
730.541	25321.31
730.882	25169.23
731.224	25284.02
731.565	25170.81
731.906	25096.91
732.248	25056.01
732.589	24989.12
732.93	24895.11
733.271	24986.86
733.612	24928.33
733.953	24854.43
734.294	24884.71
734.635	24846.3
734.976	24813.3
735.317	24677.03
735.658	24678.84
735.999	24702.8
736.339	24624.38
736.68	24641.78
737.021	24640.43
737.361	24317.5
737.702	24606.3
738.042	24548.45
738.383	24576.92
738.723	24393.2
739.063	24404.27
739.404	24431.84
739.744	24407.66
740.084	24304.39
740.424	24280.21
740.764	24301.68
741.104	24332.19
741.444	24077.05
741.784	24085.64
742.124	24122.47
742.464	24134.45
742.804	24045.64
743.143	24055.13
743.483	24031.63
743.823	23859.88
744.162	23797.28
744.502	23879.99
744.841	23681.13
745.181	23872.08
745.52	23787.11
745.86	23746.21
746.199	23758.19
746.538	23655.82
746.877	23706.89
747.216	23629.15
747.556	23634.12
747.895	23656.04
748.234	23576.05
748.573	23556.61
748.911	23413.34
749.25	23405.43
749.589	23306.9
749.928	23340.8
750.267	23414.24
750.605	23355.71
750.944	23241.14
751.283	23187.13
751.621	23177.41
751.96	23074.37
752.298	23124.53
752.636	23020.58
752.975	22971.32
753.313	22871.21
753.651	22988.27
753.989	22880.47
754.327	22791.66
754.666	22862.39
755.004	22838.21
755.342	22785.11
755.679	22685.22
756.017	22562.29
756.355	22609.52
756.693	22623.3
757.031	22455.17
757.368	22325.46
757.706	22482.29
758.044	22362.75
758.381	22293.37
758.719	22268.06
759.056	22311
759.394	22164.33
759.731	22042.08
760.068	22080.27
760.405	21950.1
760.743	21839.14
761.08	21838.24
761.417	21692.03
