Data from hue_30_FLMS001491_33.txt Node
Date: Mon Feb 06 15:05:11 GMT 2017
User: dcchb
Spectrometer: FLMS00149
Trigger mode: 0
Integration Time (sec): 2.000000E-2
Scans to average: 10
Electric dark correction enabled: true
Nonlinearity correction enabled: false
Boxcar width: 0
XAxis mode: Wavelengths
Number of Pixels in Spectrum: 2048
>>>>>Begin Spectral Data<<<<<
341.393	-0.27
341.776	-0.27
342.16	-0.27
342.543	-61.74
342.927	-64
343.31	-63.32
343.693	-65.58
344.077	-64
344.46	-63.32
344.843	-63.77
345.226	-62.19
345.61	-33.26
345.993	-22.64
346.376	6.74
346.759	4.03
347.142	26.85
347.525	30.47
347.908	63.91
348.291	87.86
348.674	100.97
349.057	117.24
349.44	114.53
349.823	150.69
350.206	155.43
350.588	171.25
350.971	215.77
351.354	220.97
351.737	264.13
352.119	241.76
352.502	240.18
352.884	258.71
353.267	258.71
353.65	287.18
354.032	301.87
354.414	294.41
354.797	313.62
355.179	322.66
355.562	325.82
355.944	309.1
356.326	313.62
356.709	373.51
357.091	352.26
357.473	346.84
357.855	327.41
358.238	350
358.62	332.6
359.002	338.03
359.384	334.19
359.766	330.57
360.148	345.71
360.53	334.86
360.912	344.36
361.294	321.08
361.676	321.31
362.057	325.6
362.439	336.22
362.821	339.61
363.203	333.51
363.584	312.94
363.966	308.65
364.348	326.95
364.729	335.99
365.111	321.76
365.493	304.58
365.874	305.94
366.256	313.85
366.637	336.9
367.019	299.16
367.4	315.88
367.781	331.47
368.163	311.81
368.544	309.78
368.925	310.01
369.306	309.1
369.688	305.03
370.069	310.23
370.45	326.28
370.831	304.13
371.212	300.06
371.593	337.12
371.974	301.42
372.355	298.71
372.736	340.74
373.117	312.04
373.498	304.81
373.879	305.94
374.26	332.15
374.641	310.46
375.021	311.81
375.402	324.69
375.783	323.11
376.163	338.25
376.544	336.45
376.925	311.36
377.305	319.95
377.686	321.53
378.066	325.37
378.447	343.45
378.827	312.49
379.208	309.78
379.588	337.12
379.968	333.28
380.349	333.73
380.729	331.02
381.109	340.51
381.489	311.36
381.87	347.52
382.25	341.42
382.63	335.32
383.01	323.11
383.39	333.73
383.77	338.03
384.15	347.29
384.53	343.9
384.91	361.76
385.29	356.78
385.67	349.78
386.049	332.38
386.429	365.37
386.809	347.29
387.189	353.17
387.568	333.51
387.948	362.66
388.328	335.99
388.707	363.56
389.087	342.1
389.466	364.92
389.846	352.94
390.225	350.68
390.605	357.24
390.984	331.47
391.363	360.4
391.743	365.82
392.122	373.06
392.501	364.69
392.881	345.71
393.26	366.95
393.639	369.44
394.018	374.41
394.397	379.38
394.776	378.48
395.155	363.79
395.534	351.81
395.913	375.54
396.292	386.16
396.671	367.63
397.05	366.95
397.429	380.06
397.808	361.3
398.186	370.12
398.565	387.07
398.944	390.23
399.323	386.84
399.701	373.28
400.08	386.61
400.458	382.55
400.837	397.69
401.215	397.69
401.594	406.27
401.972	406.73
402.351	388.65
402.729	392.26
403.107	392.94
403.486	408.08
403.864	384.81
404.242	408.53
404.62	400.4
404.999	407.4
405.377	406.95
405.755	407.63
406.133	406.95
406.511	422.32
406.889	436.56
407.267	437.23
407.645	422.32
408.023	431.58
408.401	436.78
408.779	431.13
409.156	419.61
409.534	425.71
409.912	432.49
410.29	423.22
410.667	431.81
411.045	433.62
411.422	426.61
411.8	442.66
412.178	427.07
412.555	465.03
412.933	451.25
413.31	441.3
413.687	461.87
414.065	462.09
414.442	453.51
414.819	476.56
415.197	435.43
415.574	454.41
415.951	490.57
416.328	478.82
416.705	480.17
417.082	475.88
417.46	487.18
417.837	470.91
418.214	481.53
418.591	510
418.967	495.31
419.344	487.18
419.721	504.35
420.098	497.35
420.475	490.79
420.852	509.55
421.228	504.13
421.605	503.9
421.982	498.25
422.358	498.7
422.735	519.94
423.111	526.95
423.488	514.52
423.864	514.07
424.241	510.45
424.617	535.76
424.994	527.18
425.37	532.82
425.746	550.9
426.123	529.66
426.499	535.08
426.875	535.08
427.251	565.14
427.627	552.26
428.003	548.19
428.379	557.23
428.756	571.92
429.132	567.63
429.507	589.55
429.883	554.75
430.259	579.15
430.635	584.12
431.011	576.21
431.387	576.21
431.763	585.03
432.138	604.91
432.514	601.98
432.89	608.53
433.265	629.77
433.641	635.42
434.016	603.78
434.392	661.18
434.767	649.21
435.143	632.03
435.518	631.81
435.894	633.39
436.269	642.88
436.644	654.86
437.02	655.76
437.395	672.71
437.77	677.91
438.145	677.23
438.52	696.44
438.895	708.41
439.271	691.46
439.646	720.84
440.021	710.22
440.395	711.35
440.77	697.11
441.145	705.25
441.52	726.94
441.895	720.16
442.27	731.69
442.645	694.63
443.019	721.75
443.394	727.17
443.769	721.07
444.143	724.68
444.518	738.7
444.892	742.76
445.267	747.51
445.641	729.66
446.016	773.5
446.39	756.1
446.764	789.54
447.139	766.04
447.513	761.52
447.887	783.44
448.262	776.66
448.636	793.84
449.01	781.41
449.384	787.51
449.758	786.83
450.132	789.77
450.506	801.29
450.88	810.78
451.254	810.78
451.628	814.17
452.002	854.62
452.376	809.43
452.75	824.34
453.123	831.35
453.497	863.66
453.871	859.37
454.244	868.86
454.618	878.8
454.992	884.91
455.365	884.91
455.739	903.66
456.112	900.27
456.486	893.95
456.859	902.08
457.232	928.75
457.606	931.23
457.979	945.47
458.352	945.92
458.725	967.62
459.099	962.42
459.472	984.34
459.845	971.23
460.218	1008.97
460.591	982.76
460.964	1009.65
461.337	1045.81
461.71	1037.9
462.083	1060.72
462.456	1066.82
462.829	1055.75
463.201	1064.79
463.574	1083.32
463.947	1074.05
464.32	1118.8
464.692	1135.97
465.065	1114.96
465.438	1136.88
465.81	1166.03
466.183	1182.98
466.555	1189.76
466.928	1195.41
467.3	1210.77
467.672	1235.41
468.045	1235.86
468.417	1242.64
468.789	1274.05
469.161	1277.89
469.534	1315.63
469.906	1336.65
470.278	1345.68
470.65	1342.3
471.022	1368.96
471.394	1413.93
471.766	1410.99
472.138	1402.86
472.51	1468.39
472.882	1472.01
473.253	1504.55
473.625	1549.07
473.997	1569.63
474.369	1568.73
474.74	1575.28
475.112	1612.34
475.484	1641.95
475.855	1695.05
476.227	1729.63
476.598	1757.65
476.97	1752.68
477.341	1813.02
477.713	1876.07
478.084	1898.21
478.455	1910.19
478.827	1954.03
479.198	1989.51
479.569	1998.78
479.94	2043.52
480.311	2118.55
480.682	2139.11
481.053	2146.57
481.424	2256.85
481.795	2266.56
482.166	2317.41
482.537	2354.92
482.908	2425.88
483.279	2450.97
483.65	2526.22
484.021	2559.21
484.391	2605.54
484.762	2623.39
485.133	2658.42
485.503	2731.64
485.874	2795.14
486.244	2833.56
486.615	2890.05
486.985	2962.14
487.356	2998.07
487.726	3022.48
488.097	3107.9
488.467	3138.86
488.837	3240.55
489.207	3328.91
489.578	3366.87
489.948	3374.56
490.318	3427.44
490.688	3486.65
491.058	3593.08
491.428	3626.53
491.798	3709.92
492.168	3723.93
492.538	3820.2
492.908	3823.36
493.278	3925.73
493.648	3934.09
494.017	4026.29
494.387	4063.13
494.757	4072.17
495.126	4146.74
495.496	4188.55
495.866	4221.54
496.235	4295.44
496.605	4309.9
496.974	4370.92
497.344	4449.33
497.713	4481.2
498.082	4500.18
498.452	4565.49
498.821	4609.33
499.19	4600.06
499.559	4689.1
499.928	4735.88
500.298	4731.58
500.667	4769.1
501.036	4830.34
501.405	4882.99
501.774	4882.77
502.143	4914.86
502.512	4925.25
502.88	5030.79
503.249	5021.29
503.618	5121.63
503.987	5131.12
504.356	5173.38
504.724	5205.7
505.093	5243.66
505.462	5221.06
505.83	5260.16
506.199	5334.73
506.567	5355.97
506.936	5373.83
507.304	5473.03
507.672	5467.84
508.041	5510.55
508.409	5534.05
508.777	5555.29
509.145	5640.71
509.514	5680.49
509.882	5685.23
510.25	5686.36
510.618	5693.82
510.986	5765.23
511.354	5811.33
511.722	5855.17
512.09	5913.25
512.458	5906.69
512.826	5873.93
513.193	5942.17
513.561	5976.3
513.929	6100.14
514.297	6030.99
514.664	6059.01
515.032	6109.63
515.4	6137.42
515.767	6166.58
516.135	6216.29
516.502	6206.57
516.869	6324.76
517.237	6326.8
517.604	6235.95
517.972	6349.17
518.339	6378.77
518.706	6389.85
519.073	6373.8
519.44	6441.82
519.808	6435.72
520.175	6422.39
520.542	6583.06
520.909	6537.64
521.276	6523.85
521.643	6667.13
522.009	6689.05
522.376	6714.36
522.743	6751.19
523.11	6877.29
523.477	6869.38
523.843	6907.57
524.21	6932.88
524.577	7012.88
524.943	7033.22
525.31	7025.76
525.676	7070.73
526.043	7141.24
526.409	7173.33
526.776	7230.5
527.142	7188.92
527.508	7254
527.874	7332.19
528.241	7311.86
528.607	7364.74
528.973	7512.98
529.339	7469.14
529.705	7547.56
530.071	7566.09
530.437	7597.05
530.803	7673.65
531.169	7639.08
531.535	7669.13
531.901	7684.05
532.267	7770.37
532.632	7769.24
532.998	7859.86
533.364	7893.54
533.73	7908.68
534.095	7949.81
534.461	8008.33
534.826	8004.72
535.192	8030.03
535.557	8051.72
535.923	8070.03
536.288	8190.25
536.653	8174.88
537.019	8151.38
537.384	8231.38
537.749	8248.78
538.114	8312.96
538.479	8293.3
538.845	8339.85
539.21	8329.23
539.575	8442.22
539.94	8431.6
540.305	8480.19
540.67	8437.25
541.034	8516.57
541.399	8510.02
541.764	8552.95
542.129	8678.37
542.494	8680.63
542.858	8654.65
543.223	8729.67
543.587	8724.47
543.952	8785.26
544.316	8846.73
544.681	8834.53
545.045	8883.57
545.41	8894.86
545.774	8960.17
546.138	8988.65
546.503	9079.72
546.867	8999.04
547.231	9103.22
547.595	9118.81
547.959	9081.07
548.324	9214.4
548.688	9224.8
549.052	9203.11
549.416	9238.36
549.779	9295.31
550.143	9375.76
550.507	9418.02
550.871	9318.81
551.235	9392.71
551.599	9506.37
551.962	9508.18
552.326	9449.43
552.689	9634.51
553.053	9532.36
553.417	9584.79
553.78	9732.36
554.143	9672.92
554.507	9725.13
554.87	9702.98
555.234	9817.55
555.597	9769.64
555.96	9799.02
556.323	9872.01
556.686	9903.88
557.05	9964.22
557.413	9927.61
557.776	9961.5
558.139	10041.05
558.502	10010.09
558.865	10061.39
559.228	10146.13
559.59	10088.28
559.953	10124.66
560.316	10264.09
560.679	10297.09
561.041	10321.95
561.404	10385.67
561.767	10434.03
562.129	10388.61
562.492	10522.62
562.854	10497.53
563.217	10461.38
563.579	10580.47
563.941	10620.24
564.304	10677.64
564.666	10719.45
565.028	10735.49
565.39	10759.67
565.753	10786.57
566.115	10845.1
566.477	10890.52
566.839	10920.57
567.201	10902.27
567.563	10987.47
567.925	11038.09
568.287	11138.42
568.648	11059.78
569.01	11135.03
569.372	11217.06
569.734	11170.51
570.095	11249.83
570.457	11327.34
570.819	11356.5
571.18	11291.64
571.542	11471.97
571.903	11587
572.265	11533.21
572.626	11598.3
572.987	11663.61
573.349	11764.62
573.71	11796.71
574.071	11804.39
574.432	11836.03
574.794	12031.28
575.155	12058.4
575.516	12074.22
575.877	12153.54
576.238	12148.34
576.599	12307.66
576.96	12383.81
577.32	12450.03
577.681	12630.36
578.042	12732.96
578.403	12697.25
578.763	12805.04
579.124	12931.14
579.485	13099.95
579.845	13233.73
580.206	13289.55
580.566	13397.57
580.927	13554.86
581.287	13655.87
581.648	13764.34
582.008	14042.07
582.368	14037.78
582.728	14159.81
583.089	14335.63
583.449	14557.54
583.809	14655.39
584.169	14840.92
584.529	15025.1
584.889	15306.22
585.249	15391.19
585.609	15537.85
585.969	15833.21
586.329	15898.97
586.688	16215.58
587.048	16349.36
587.408	16504.16
587.768	16715.45
588.127	16956.57
588.487	17152.95
588.846	17503.68
589.206	17591.36
589.565	17766.72
589.925	18138.46
590.284	18312.47
590.643	18538
591.003	18847.82
591.362	19082.62
591.721	19169.62
592.08	19483.51
592.44	19789.27
592.799	20093.21
593.158	20344.28
593.517	20554.9
593.876	20840.77
594.235	20990.59
594.593	21333.18
594.952	21607.75
595.311	21804.81
595.67	22050.68
596.029	22452.7
596.387	22654.28
596.746	22903.08
597.104	23117.09
597.463	23292.23
597.822	23586.68
598.18	23750.29
598.538	23857.41
598.897	24325.19
599.255	24346.66
599.613	24997.72
599.972	24998.62
600.33	25208.33
600.688	25362.45
601.046	25737.59
601.404	25958.37
601.762	26325.82
602.12	26595.19
602.478	26802.19
602.836	26975.75
603.194	27065.01
603.552	27331.67
603.91	27441.5
604.268	27841.03
604.625	27872.45
604.983	28151.31
605.341	28381.13
605.698	28693.44
606.056	28769.14
606.413	28941.57
606.771	29238.28
607.128	29535.45
607.485	29437.15
607.843	29636.01
608.2	30013.18
608.557	30295.88
608.914	30236.22
609.272	30545.14
609.629	30779.71
609.986	30984.45
610.343	31114.39
610.7	31356.2
611.057	31497.43
611.414	31529.98
611.771	31699.92
612.127	31990.3
612.484	32002.73
612.841	32300.58
613.198	32378.99
613.554	32527.46
613.911	32803.84
614.267	32965.19
614.624	32951.41
614.98	33168.8
615.337	33485.18
615.693	33380.1
616.05	33432.07
616.406	33757.04
616.762	33790.48
617.118	34029.57
617.475	34005.84
617.831	34161.32
618.187	34379.17
618.543	34333.07
618.899	34644.24
619.255	34640.85
619.611	34762.43
619.967	34865.48
620.323	35084.01
620.678	35039.71
621.034	34990.9
621.39	35138.24
621.746	35188.18
622.101	35556.76
622.457	35399.03
622.812	35531.23
623.168	35740.03
623.523	35708.85
623.879	35828.17
624.234	35627.95
624.589	35874.04
624.945	35982.06
625.3	36142.28
625.655	36205.11
626.01	36149.52
626.365	36189.97
626.72	36270.64
627.075	36309.74
627.43	36324.2
627.785	36351.09
628.14	36467.25
628.495	36567.13
628.85	36507.47
629.205	36516.74
629.559	36841.47
629.914	36561.93
630.269	36589.96
630.623	36594.48
630.978	36555.38
631.332	36661.14
631.687	36797.41
632.041	36623.85
632.396	36723.96
632.75	36701.37
633.104	36623.85
633.459	36655.72
633.813	36530.07
634.167	36619.56
634.521	36619.33
634.875	36706.34
635.229	36585.89
635.583	36504.99
635.937	36633.12
636.291	36626.79
636.645	36520.81
636.999	36626.34
637.352	36840.8
637.706	36487.13
638.06	36612.55
638.413	36629.05
638.767	36559.9
639.121	36659.33
639.474	36587.7
639.828	36461.37
640.181	36472.9
640.534	36488.04
640.888	36520.35
641.241	36280.36
641.594	36501.37
641.947	36559
642.301	36287.82
642.654	36476.51
643.007	36607.81
643.36	36455.27
643.713	36380.24
644.066	36609.62
644.419	36292.11
644.771	36000.59
645.124	35880.6
645.477	35581.39
645.83	35429.99
646.182	35298.92
646.535	35291.91
646.888	35305.24
647.24	35129.43
647.593	35391.34
647.945	35114.06
648.298	35187.73
648.65	34929.66
649.002	34947.51
649.355	35094.63
649.707	35136.21
650.059	35208.07
650.411	35649.87
650.763	35709.08
651.115	36069.07
651.467	35927.83
651.819	35907.04
652.171	35917.88
652.523	35853.25
652.875	35850.99
653.227	35648.74
653.578	35982.74
653.93	35919.69
654.282	35699.36
654.633	35516.54
654.985	35775.06
655.337	35759.7
655.688	35755.18
656.039	35909.3
656.391	35464.34
656.742	35589.08
657.094	35647.16
657.445	35705.91
657.796	35501.85
658.147	35670.88
658.498	35470.21
658.849	35701.84
659.2	35465.47
659.551	35410.78
659.902	35750.88
660.253	35541.85
660.604	35625.46
660.955	35414.17
661.306	35557.89
661.656	35465.47
662.007	35574.84
662.358	35419.14
662.708	35532.36
663.059	35431.79
663.409	35336.2
663.76	35561.73
664.11	35474.28
664.461	35513.6
664.811	35492.58
665.161	35471.57
665.511	35458.23
665.862	35435.41
666.212	35484.22
666.562	35589.08
666.912	35544.33
667.262	35335.98
667.612	35411
667.962	35494.84
668.312	35286.94
668.662	35455.07
669.011	35384.79
669.361	35317.67
669.711	35288.07
670.06	35248.97
670.41	35137.79
670.76	35161.97
671.109	35253.27
671.459	35212.82
671.808	35081.75
672.157	35304.79
672.507	35018.47
672.856	35158.58
673.205	35164.68
673.554	35230.67
673.904	35067.28
674.253	35327.84
674.602	35191.57
674.951	34757.69
675.3	34348.21
675.649	35081.52
675.998	34973.5
676.346	35091.46
676.695	35054.4
677.044	34839.95
677.393	34965.82
677.741	35005.14
678.09	34884.24
678.438	34800.17
678.787	34865.48
679.135	35021.64
679.484	34489.9
679.832	34897.35
680.181	34643.79
680.529	34757.69
680.877	34440.41
681.225	34518.82
681.573	34863.9
681.922	34552.95
682.27	34404.93
682.618	34379.39
682.966	34390.47
683.314	34347.53
683.661	34293.75
684.009	34140.53
684.357	33995.67
684.705	34002.23
685.053	34020.08
685.4	33987.99
685.748	33846.53
686.095	33859.41
686.443	33682.91
686.79	33631.84
687.138	33830.93
687.485	33679.52
687.832	33732.18
688.18	33548.45
688.527	33408.57
688.874	33386.65
689.221	33349.36
689.568	33262.13
689.915	33127.9
690.262	33173.1
690.609	33070.27
690.956	32929.94
691.303	33058.52
691.65	32863.05
691.997	32747.57
692.344	32616.73
692.69	32648.59
693.037	32661.02
693.383	32408.6
693.73	32601.13
694.077	32200.47
694.423	32376.73
694.769	32181.03
695.116	32082.28
695.462	32099.23
695.808	32044.09
696.155	32014.03
696.501	31823.75
696.847	31843.19
697.193	31579.01
697.539	31594.61
697.885	31375.63
698.231	31394.84
698.577	31256.76
698.923	31297.67
699.269	31283.2
699.614	30929.77
699.96	31018.8
700.306	31000.27
700.651	30850.67
700.997	30654.07
701.342	30719.83
701.688	30697.68
702.033	30568.19
702.379	30569.1
702.724	30427.63
703.069	30507.86
703.415	30200.97
703.76	30091.14
704.105	30179.05
704.45	30056.57
704.795	29859.96
705.14	29756.24
705.485	29780.42
705.83	29687.76
706.175	29693.19
706.52	29685.96
706.865	29469.69
707.209	29567.99
707.554	29474.21
707.899	29509.92
708.243	29229.7
708.588	29221.56
708.932	29030.15
709.277	29054.11
709.621	29114.45
709.966	28944.28
710.31	29003.49
710.654	28830.84
710.998	28678.07
711.342	28732.76
711.687	28682.14
712.031	28611.63
712.375	28429.04
712.719	28432.2
713.063	28422.94
713.407	28465.42
713.75	28302.04
714.094	28194.24
714.438	28201.25
714.782	28166.67
715.125	28128.03
715.469	28075.83
715.812	27879
716.156	27817.31
716.499	27842.39
716.843	27927.36
717.186	27698.44
717.53	27878.32
717.873	27925.78
718.216	27760.58
718.559	27489.63
718.902	27379.8
719.246	27477.88
719.589	27369.86
719.932	27257.77
720.275	27259.58
720.617	27215.51
720.96	27175.29
721.303	27220.26
721.646	27207.15
721.989	27072.24
722.331	27159.92
722.674	27041.51
723.016	26986.82
723.359	27011.22
723.701	26962.86
724.044	26825.47
724.386	26748.41
724.729	26799.48
725.071	26754.51
725.413	26684.45
725.755	26655.98
726.097	26490.33
726.439	26341.64
726.782	26431.81
727.124	26591.57
727.465	26395.42
727.807	26363.33
728.149	26289.89
728.491	26301.19
728.833	26333.95
729.175	26166.05
729.516	26269.78
729.858	26120.85
730.199	26151.59
730.541	25994.08
730.882	26010.8
731.224	26061.42
731.565	25871.14
731.906	25855.1
732.248	25898.94
732.589	25753.63
732.93	25736.23
733.271	25648.1
733.612	25881.31
733.953	25795.89
734.294	25593.63
734.635	25512.73
734.976	25727.87
735.317	25497.14
735.658	25493.07
735.999	25435.22
736.339	25450.81
736.68	25468.89
737.021	25489.91
737.361	25211.05
737.702	25368.1
738.042	25318.84
738.383	25300.08
738.723	25262.57
739.063	25109.58
739.404	25217.83
739.744	25084.5
740.084	24998.85
740.424	25093.31
740.764	25016.47
741.104	24998.62
741.444	24861.45
741.784	24825.07
742.124	24874.33
742.464	24741.91
742.804	24771.74
743.143	24736.03
743.483	24663.72
743.823	24667.78
744.162	24614.9
744.502	24654.45
744.841	24607.67
745.181	24731.74
745.52	24565.19
745.86	24541.01
746.199	24391.18
746.538	24505.3
746.877	24485.87
747.216	24463.27
747.556	24319.09
747.895	24450.39
748.234	24289.49
748.573	24272.31
748.911	24249.49
749.25	24327.91
749.589	24169.94
749.928	24091.98
750.267	24128.36
750.605	24082.26
750.944	23980.12
751.283	23854.47
751.621	24017.63
751.96	23887.24
752.298	23855.38
752.636	23782.84
752.975	23680.24
753.313	23599.79
753.651	23754.81
753.989	23675.72
754.327	23553.01
754.666	23500.81
755.004	23546.23
755.342	23530.64
755.679	23491.32
756.017	23276.18
756.355	23431.66
756.693	23363.19
757.031	23403.18
757.368	23193.47
757.706	23236.41
758.044	23123.19
758.381	23253.58
758.719	23059.92
759.056	23108.73
759.394	22994.61
