Data from hue_220_FLMS001491_00080.txt Node
Date: Tue Feb 07 16:39:56 GMT 2017
User: dcchb
Spectrometer: FLMS00149
Trigger mode: 0
Integration Time (sec): 2.000000E-2
Scans to average: 10
Electric dark correction enabled: true
Nonlinearity correction enabled: false
Boxcar width: 0
XAxis mode: Wavelengths
Number of Pixels in Spectrum: 2048
>>>>>Begin Spectral Data<<<<<
341.393	-13.71
341.776	-13.71
342.16	-13.71
342.543	-67.27
342.927	-66.14
343.31	-50.55
343.693	-53.26
344.077	-59.36
344.46	-67.72
344.843	-71.79
345.226	-47.39
345.61	-51.23
345.993	-7.16
346.376	6.4
346.759	8.88
347.142	44.59
347.525	37.58
347.908	60.63
348.291	65.83
348.674	72.16
349.057	112.38
349.44	138.6
349.823	144.93
350.206	153.74
350.588	191.25
350.971	207.3
351.354	223.57
351.737	225.6
352.119	245.94
352.502	250.46
352.884	264.47
353.267	270.8
353.65	287.29
354.032	284.58
354.414	301.53
354.797	316.45
355.179	320.06
355.562	321.19
355.944	334.98
356.326	337.46
356.709	333.62
357.091	332.94
357.473	329.33
357.855	339.95
358.238	338.14
358.62	337.46
359.002	341.98
359.384	343.56
359.766	338.37
360.148	338.59
360.53	332.94
360.912	327.52
361.294	323.23
361.676	327.29
362.057	342.43
362.439	337.01
362.821	322.77
363.203	340.17
363.584	324.81
363.966	311.25
364.348	304.7
364.729	318.48
365.111	333.4
365.493	334.3
365.874	305.15
366.256	306.5
366.637	321.19
367.019	301.08
367.4	307.63
367.781	311.93
368.163	309.22
368.544	306.28
368.925	298.59
369.306	306.5
369.688	328.65
370.069	311.25
370.45	310.12
370.831	311.25
371.212	321.42
371.593	309.67
371.974	317.8
372.355	321.19
372.736	303.57
373.117	299.27
373.498	321.87
373.879	318.93
374.26	314.41
374.641	276.45
375.021	314.64
375.402	329.55
375.783	323.9
376.163	334.3
376.544	311.47
376.925	338.14
377.305	327.07
377.686	319.61
378.066	322.1
378.447	319.61
378.827	336.78
379.208	340.63
379.588	338.37
379.968	348.99
380.349	325.71
380.729	329.33
381.109	331.59
381.489	326.84
381.87	341.08
382.25	332.27
382.63	350.12
383.01	338.37
383.39	321.64
383.77	329.33
384.15	348.54
384.53	339.72
384.91	322.77
385.29	351.47
385.67	336.33
386.049	338.59
386.429	339.27
386.809	340.63
387.189	356.67
387.568	350.8
387.948	358.71
388.328	371.59
388.707	367.52
389.087	362.09
389.466	360.51
389.846	353.73
390.225	367.97
390.605	360.97
390.984	379.5
391.363	358.48
391.743	377.24
392.122	366.61
392.501	362.77
392.881	380.17
393.26	379.95
393.639	396.22
394.018	370.91
394.397	381.08
394.776	372.04
395.155	380.85
395.534	381.98
395.913	403.45
396.292	409.1
396.671	414.07
397.05	391.47
397.429	394.86
397.808	400.29
398.186	407.97
398.565	404.58
398.944	412.72
399.323	416.78
399.701	406.39
400.08	403.22
400.458	384.02
400.837	415.65
401.215	394.86
401.594	421.08
401.972	420.85
402.351	419.72
402.729	440.51
403.107	449.1
403.486	438.03
403.864	437.57
404.242	452.71
404.62	451.81
404.999	456.56
405.377	450.45
405.755	469.44
406.133	456.78
406.511	432.83
406.889	478.02
407.267	484.35
407.645	456.33
408.023	502.66
408.401	491.36
408.779	498.36
409.156	478.93
409.534	508.76
409.912	502.2
410.29	535.42
410.667	535.65
411.045	541.98
411.422	543.56
411.8	552.15
412.178	539.04
412.555	580.39
412.933	571.13
413.31	570.45
413.687	595.31
414.065	601.18
414.442	621.3
414.819	593.5
415.197	613.39
415.574	630.11
415.951	621.98
416.328	636.21
416.705	652.03
417.082	654.97
417.46	671.01
417.837	672.37
418.214	681.41
418.591	689.32
418.967	694.06
419.344	715.53
419.721	715.98
420.098	696.32
420.475	732.48
420.852	743.33
421.228	740.84
421.605	777.23
421.982	786.04
422.358	775.42
422.735	803.44
423.111	787.85
423.488	810.44
423.864	841.86
424.241	851.12
424.617	862.19
424.994	889.31
425.37	877.79
425.746	912.59
426.123	926.15
426.499	946.26
426.875	952.59
427.251	940.16
427.627	952.14
428.003	954.62
428.379	990.78
428.756	1033.49
429.132	1000.04
429.507	1026.71
429.883	1020.61
430.259	1053.83
430.635	1044.34
431.011	1061.29
431.387	1098.8
431.763	1089.99
432.138	1106.93
432.514	1150.32
432.89	1129.31
433.265	1162.53
433.641	1215.41
434.016	1208.85
434.392	1210.21
434.767	1257.21
435.143	1261.73
435.518	1274.16
435.894	1330.21
436.269	1312.8
436.644	1331.11
437.02	1362.75
437.395	1383.76
437.77	1401.84
438.145	1433.48
438.52	1441.39
438.895	1479.35
439.271	1502.86
439.646	1559.58
440.021	1551.22
440.395	1560.26
440.77	1569.75
441.145	1578.33
441.52	1595.51
441.895	1623.08
442.27	1641.16
442.645	1645.9
443.019	1711.44
443.394	1668.73
443.769	1696.98
444.143	1695.17
444.518	1726.13
444.892	1751.44
445.267	1769.97
445.641	1783.53
446.016	1777.43
446.39	1786.46
446.764	1812.23
447.139	1783.3
447.513	1800.02
447.887	1817.65
448.262	1839.57
448.636	1859
449.01	1901.26
449.384	1912.34
449.758	1912.79
450.132	1916.86
450.506	1939.91
450.88	1946.46
451.254	1971.77
451.628	1975.16
452.002	2022.16
452.376	2046.57
452.75	2069.62
453.123	2040.02
453.497	2125.44
453.871	2095.83
454.244	2136.29
454.618	2123.18
454.992	2185.55
455.365	2169.96
455.739	2269.39
456.112	2253.57
456.486	2238.88
456.859	2238.88
457.232	2326.79
457.606	2288.82
457.979	2356.17
458.352	2422.83
458.725	2372.44
459.099	2443.62
459.472	2454.47
459.845	2491.76
460.218	2502.83
460.591	2523.62
460.964	2541.47
461.337	2599.1
461.71	2620.79
462.083	2632.77
462.456	2634.13
462.829	2673.45
463.201	2717.06
463.574	2703.05
463.947	2799.32
464.32	2824.18
464.692	2855.36
465.065	2855.36
465.438	2894.91
465.81	2908.24
466.183	2945.3
466.555	2994.57
466.928	3016.94
467.3	3007.68
467.672	3089.71
468.045	3159.31
468.417	3144.85
468.789	3148.46
469.161	3215.35
469.534	3257.39
469.906	3302.13
470.278	3336.48
470.65	3347.55
471.022	3407.21
471.394	3468.68
471.766	3471.39
472.138	3534.21
472.51	3592.74
472.882	3630.71
473.253	3640.2
473.625	3715
473.997	3741.44
474.369	3768.56
474.74	3790.03
475.112	3884.94
475.484	3912.74
475.855	3969.46
476.227	4025.28
476.598	4085.16
476.97	4111.6
477.341	4227.76
477.713	4255.33
478.084	4276.57
478.455	4381.88
478.827	4393.85
479.198	4475.21
479.569	4529.44
479.94	4644.47
480.311	4663
480.682	4750.91
481.053	4804.24
481.424	4871.58
481.795	4944.8
482.166	4986.15
482.537	5048.53
482.908	5126.72
483.279	5151.35
483.65	5293.04
484.021	5333.26
484.391	5394.96
484.762	5410.78
485.133	5469.53
485.503	5547.95
485.874	5659.81
486.244	5676.31
486.615	5735.96
486.985	5838.79
487.356	5912.46
487.726	5963.08
488.097	6046.24
488.467	6073.36
488.837	6183.41
489.207	6227.93
489.578	6274.48
489.948	6333.01
490.318	6432.67
490.688	6398.32
491.058	6499.11
491.428	6560.58
491.798	6554.47
492.168	6723.96
492.538	6734.81
492.908	6840.34
493.278	6923.05
493.648	6861.13
494.017	6990.62
494.387	6945.2
494.757	7023.61
495.126	7108.13
495.496	7113.33
495.866	7135.93
496.235	7185.87
496.605	7192.65
496.974	7317.17
497.344	7348.58
497.713	7349.93
498.082	7429.03
498.452	7531.17
498.821	7453.89
499.19	7481.68
499.559	7559.19
499.928	7586.09
500.298	7605.97
500.667	7680.09
501.036	7654.33
501.405	7718.96
501.774	7694.56
502.143	7727.55
502.512	7697.5
502.88	7793.99
503.249	7772.52
503.618	7866.08
503.987	7841.9
504.356	7874.67
504.724	7924.61
505.093	7914.44
505.462	7956.02
505.83	8017.03
506.199	7962.12
506.567	8098.84
506.936	8052.74
507.304	8138.84
507.672	8139.52
508.041	8164.15
508.409	8166.64
508.777	8213.41
509.145	8230.36
509.514	8194.66
509.882	8301.77
510.25	8256.58
510.618	8316.46
510.986	8229.91
511.354	8297.93
511.722	8308.55
512.09	8382.68
512.458	8374.09
512.826	8425.39
513.193	8416.8
513.561	8438.27
513.929	8423.58
514.297	8473.75
514.664	8580.18
515.032	8573.4
515.4	8543.12
515.767	8537.25
516.135	8569.11
516.502	8460.19
516.869	8607.53
517.237	8554.65
517.604	8596.45
517.972	8585.83
518.339	8583.35
518.706	8568.66
519.073	8607.75
519.44	8615.21
519.808	8663.12
520.175	8615.44
520.542	8672.61
520.909	8742.67
521.276	8608.88
521.643	8683.23
522.009	8664.7
522.376	8728.43
522.743	8789.9
523.11	8780.18
523.477	8795.09
523.843	8759.61
524.21	8803.23
524.577	8877.35
524.943	8849.33
525.31	8879.39
525.676	8967.29
526.043	8898.37
526.409	8943.79
526.776	8953.28
527.142	8990.79
527.508	8979.5
527.874	8936.78
528.241	8980.17
528.607	8962.55
528.973	8991.92
529.339	8987.63
529.705	9016.56
530.071	9050.45
530.437	9010.68
530.803	9013.17
531.169	9097.91
531.535	8983.56
531.901	8967.97
532.267	8966.16
532.632	8942.21
532.998	8997.12
533.364	9048.65
533.73	8978.82
534.095	8984.92
534.461	9076.67
534.826	9042.54
535.192	8959.61
535.557	9001.87
535.923	8965.48
536.288	8960.51
536.653	8927.97
537.019	8902.44
537.384	8871.93
537.749	8821.76
538.114	8892.72
538.479	8819.73
538.845	8815.43
539.21	8798.03
539.575	8785.83
539.94	8770.01
540.305	8750.35
540.67	8757.13
541.034	8725.49
541.399	8716.9
541.764	8716.68
542.129	8696.34
542.494	8691.82
542.858	8657.92
543.223	8645.72
543.587	8638.71
543.952	8660.86
544.316	8610.92
544.681	8588.09
545.045	8563.69
545.41	8635.78
545.774	8579.73
546.138	8503.58
546.503	8548.32
546.867	8516
547.231	8496.34
547.595	8546.74
547.959	8483.69
548.324	8491.37
548.688	8426.74
549.052	8482.79
549.416	8366.86
549.779	8385.61
550.143	8368.89
550.507	8328.67
550.871	8393.97
551.235	8295.45
551.599	8306.52
551.962	8325.95
552.326	8323.92
552.689	8320.3
553.053	8250.7
553.417	8205.5
553.78	8271.27
554.143	8209.57
554.507	8199.86
554.87	8187.88
555.234	8296.35
555.597	8225.17
555.96	8179.52
556.323	8229.91
556.686	8189.91
557.05	8198.73
557.413	8200.31
557.776	8214.09
558.139	8169.35
558.502	8164.6
558.865	8154.21
559.228	8198.05
559.59	8126.41
559.953	8216.13
560.316	8233.98
560.679	8211.61
561.041	8257.71
561.404	8239.4
561.767	8274.43
562.129	8169.8
562.492	8233.75
562.854	8226.07
563.217	8219.06
563.579	8210.02
563.941	8239.18
564.304	8241.21
564.666	8311.72
565.028	8264.49
565.39	8265.84
565.753	8275.79
566.115	8364.6
566.477	8290.93
566.839	8314.65
567.201	8357.59
567.563	8311.94
567.925	8329.34
568.287	8397.36
568.648	8417.7
569.01	8458.61
569.372	8444.14
569.734	8404.82
570.095	8416.35
570.457	8474.65
570.819	8418.83
571.18	8469
571.542	8493.18
571.903	8456.35
572.265	8557.13
572.626	8559.39
572.987	8602.33
573.349	8549.68
573.71	8574.99
574.071	8558.72
574.432	8632.39
574.794	8751.03
575.155	8643.23
575.516	8647.3
575.877	8623.35
576.238	8682.78
576.599	8743.34
576.96	8708.99
577.32	8810.01
577.681	8743.12
578.042	8801.42
578.403	8728.2
578.763	8809.33
579.124	8818.6
579.485	8919.61
579.845	8867.18
580.206	8900.63
580.566	8840.74
580.927	8906.96
581.287	8950.57
581.648	8890.01
582.008	9021.08
582.368	8973.39
582.728	9012.94
583.089	8984.69
583.449	9081.87
583.809	9102.43
584.169	9051.81
584.529	9061.75
584.889	9148.08
585.249	9153.5
585.609	9113.28
585.969	9181.98
586.329	9122.09
586.688	9179.72
587.048	9142.88
587.408	9159.38
587.768	9212.03
588.127	9267.85
588.487	9225.82
588.846	9300.62
589.206	9214.97
589.565	9212.48
589.925	9298.58
590.284	9249.77
590.643	9303.33
591.003	9298.13
591.362	9320.96
591.721	9362.99
592.08	9316.66
592.44	9358.69
592.799	9386.49
593.158	9354.4
593.517	9373.84
593.876	9393.27
594.235	9388.07
594.593	9377
594.952	9373.61
595.311	9402.08
595.67	9459.03
596.029	9498.8
596.387	9466.04
596.746	9466.04
597.104	9475.98
597.463	9463.55
597.822	9426.94
598.18	9418.13
598.538	9442.99
598.897	9522.98
599.255	9385.81
599.613	9571.8
599.972	9579.48
600.33	9536.77
600.688	9536.54
601.046	9569.31
601.404	9576.09
601.762	9524.34
602.12	9649.76
602.478	9593.04
602.836	9640.72
603.194	9571.34
603.552	9611.8
603.91	9510.78
604.268	9575.64
604.625	9554.4
604.983	9590.1
605.341	9534.96
605.698	9614.96
606.056	9620.61
606.413	9651.12
606.771	9731.57
607.128	9687.27
607.485	9593.04
607.843	9595.3
608.2	9733.15
608.557	9781.51
608.914	9724.33
609.272	9668.06
609.629	9757.1
609.986	9716.88
610.343	9696.76
610.7	9748.74
611.057	9786.25
611.414	9735.18
611.771	9783.09
612.127	9802.98
612.484	9787.38
612.841	9736.99
613.198	9762.98
613.554	9810.89
613.911	9833.26
614.267	9861.05
614.624	9856.53
614.98	9890.66
615.337	9866.25
615.693	9923.65
616.05	9822.41
616.406	9975.85
616.762	9869.87
617.118	9937.89
617.475	9866.93
617.831	9958.45
618.187	9964.78
618.543	9930.43
618.899	9946.7
619.255	9915.29
619.611	10032.8
619.967	9968.17
620.323	10110.77
620.678	9976.31
621.034	9928.62
621.39	10005.68
621.746	9926.14
622.101	10074.83
622.457	9988.06
622.812	10006.14
623.168	10004.55
623.523	10012.24
623.879	10031.9
624.234	9987.83
624.589	9990.77
624.945	9961.62
625.3	10013.82
625.655	10001.62
626.01	9967.94
626.365	10026.25
626.72	9960.94
627.075	9978.79
627.43	9939.47
627.785	9973.82
628.14	10017.66
628.495	10052.69
628.85	9957.1
629.205	9979.24
629.559	9935.18
629.914	9919.58
630.269	9958.68
630.623	9917.55
630.978	9888.4
631.332	9939.02
631.687	9969.53
632.041	9897.66
632.396	9953.48
632.75	9813.82
633.104	9882.07
633.459	9863.77
633.813	9878.23
634.167	9808.4
634.521	9801.85
634.875	9890.88
635.229	9815.86
635.583	9827.83
635.937	9775.63
636.291	9783.54
636.645	9762.53
636.999	9678.91
637.352	9705.58
637.706	9732.24
638.06	9741.06
638.413	9662.64
638.767	9686.14
639.121	9768.63
639.474	9720.04
639.828	9624.45
640.181	9685.24
640.534	9614.96
640.888	9611.34
641.241	9588.75
641.594	9583.77
641.947	9548.29
642.301	9582.19
642.654	9559.59
643.007	9568.41
643.36	9573.38
643.713	9570.44
644.066	9564.79
644.419	9555.75
644.771	9517.56
645.124	9379.03
645.477	9383.78
645.83	9274.63
646.182	9272.14
646.535	9236.89
646.888	9298.81
647.24	9240.05
647.593	9313.05
647.945	9264.23
648.298	9263.33
648.65	9202.09
649.002	9132.26
649.355	9230.56
649.707	9259.26
650.059	9282.76
650.411	9372.25
650.763	9377.23
651.115	9475.75
651.467	9438.92
651.819	9416.32
652.171	9462.42
652.523	9450.67
652.875	9445.25
653.227	9341.07
653.578	9439.14
653.93	9518.24
654.282	9337.68
654.633	9418.81
654.985	9435.3
655.337	9386.72
655.688	9430.11
656.039	9430.11
656.391	9382.2
656.742	9426.26
657.094	9476.66
657.445	9459.03
657.796	9499.48
658.147	9441.86
658.498	9334.51
658.849	9452.93
659.2	9464
659.551	9389.43
659.902	9388.98
660.253	9451.57
660.604	9445.7
660.955	9474.85
661.306	9412.93
661.656	9447.73
662.007	9473.49
662.358	9447.96
662.708	9483.89
663.059	9507.39
663.409	9325.02
663.76	9490.22
664.11	9546.49
664.461	9465.36
664.811	9519.37
665.161	9444.34
665.511	9476.88
665.862	9504.45
666.212	9543.1
666.562	9536.99
666.912	9477.79
667.262	9461.74
667.612	9511.46
667.962	9541.74
668.312	9480.73
668.662	9468.3
669.011	9457.68
669.361	9454.06
669.711	9500.84
670.06	9497.45
670.41	9456.55
670.76	9443.89
671.109	9437.11
671.459	9414.06
671.808	9388.07
672.157	9426.04
672.507	9350.11
672.856	9386.04
673.205	9394.4
673.554	9449.77
673.904	9336.55
674.253	9429.88
674.602	9436.21
674.951	9286.61
675.3	9196.89
675.649	9384.91
675.998	9336.77
676.346	9319.83
676.695	9375.64
677.044	9282.99
677.393	9338.13
677.741	9311.92
678.09	9325.25
678.438	9266.72
678.787	9233.05
679.135	9191.69
679.484	9257
679.832	9279.6
680.181	9178.81
680.529	9228.53
680.877	9108.53
681.225	9171.58
681.573	9225.36
681.922	9172.48
682.27	9115.76
682.618	9069.44
682.966	9093.84
683.314	9086.16
683.661	9061.08
684.009	8975.2
684.357	9024.24
684.705	8920.51
685.053	8951.93
685.4	8940.4
685.748	8934.3
686.095	8919.61
686.443	8835.77
686.79	8891.81
687.138	8897.69
687.485	8914.64
687.832	8832.15
688.18	8792.16
688.527	8770.24
688.874	8774.98
689.221	8735.66
689.568	8689.79
689.915	8703.34
690.262	8756.45
690.609	8710.8
690.956	8628.77
691.303	8636.45
691.65	8613.86
691.997	8542.67
692.344	8524.59
692.69	8459.28
693.037	8477.36
693.383	8397.82
693.73	8445.72
694.077	8325.5
694.423	8342
694.769	8227.88
695.116	8258.16
695.462	8275.56
695.808	8234.2
696.155	8272.62
696.501	8181.78
696.847	8079.41
697.193	8116.02
697.539	8122.12
697.885	8088.9
698.231	8038.05
698.577	8040.54
698.923	8012.29
699.269	7937.72
699.614	7940.43
699.96	7848.68
700.306	7882.8
700.651	7845.97
700.997	7816.14
701.342	7798.74
701.688	7820.43
702.033	7792.18
702.379	7736.82
702.724	7673.54
703.069	7678.06
703.415	7521.23
703.76	7590.38
704.105	7630.38
704.45	7535.47
704.795	7482.13
705.14	7511.29
705.485	7489.59
705.83	7406.66
706.175	7432.87
706.52	7405.75
706.865	7351.74
707.209	7361.46
707.554	7263.61
707.899	7361.46
708.243	7273.1
708.588	7275.81
708.932	7198.53
709.277	7210.5
709.621	7188.58
709.966	7184.06
710.31	7240.11
710.654	7118.3
710.998	7118.98
711.342	7103.61
711.687	7082.6
712.031	7100.67
712.375	7106.55
712.719	7075.82
713.063	7005.31
713.407	7066.55
713.75	7023.84
714.094	7008.93
714.438	6931.19
714.782	6967.12
715.125	6942.94
715.469	6947.91
715.812	6945.65
716.156	6887.57
716.499	6952.88
716.843	6936.16
717.186	6892.09
717.53	6886.22
717.873	6870.17
718.216	6835.82
718.559	6879.44
718.902	6811.19
719.246	6849.16
719.589	6855.26
719.932	6801.02
720.275	6802.15
720.617	6733.9
720.96	6805.09
721.303	6762.38
721.646	6743.4
721.989	6744.53
722.331	6726.9
722.674	6657.97
723.016	6811.64
723.359	6719.67
723.701	6692.1
724.044	6747.46
724.386	6706.79
724.729	6742.94
725.071	6671.31
725.413	6688.26
725.755	6734.13
726.097	6676.51
726.439	6686.22
726.782	6652.33
727.124	6660.91
727.465	6600.35
727.807	6690.06
728.149	6641.93
728.491	6640.35
728.833	6622.27
729.175	6606
729.516	6635.38
729.858	6649.16
730.199	6661.14
730.541	6619.33
730.882	6583.4
731.224	6650.97
731.565	6622.72
731.906	6605.32
732.248	6620.24
732.589	6547.47
732.93	6563.06
733.271	6637.41
733.612	6601.25
733.953	6580.91
734.294	6632.21
734.635	6561.93
734.976	6676.05
735.317	6589.5
735.658	6558.99
735.999	6667.24
736.339	6680.57
736.68	6639.67
737.021	6648.94
737.361	6631.08
737.702	6652.1
738.042	6686.22
738.383	6640.12
738.723	6614.36
739.063	6648.26
739.404	6681.7
739.744	6686
740.084	6695.71
740.424	6740.01
740.764	6683.28
741.104	6759.67
741.444	6659.56
741.784	6710.63
742.124	6801.25
742.464	6795.6
742.804	6781.14
743.143	6820.91
743.483	6869.72
743.823	6865.65
744.162	6847.57
744.502	6863.39
744.841	6882.38
745.181	6961.02
745.52	6962.37
745.86	6987.01
746.199	7060.45
746.538	7072.88
746.877	7122.14
747.216	7175.7
747.556	7221.58
747.895	7253.21
748.234	7297.96
748.573	7304.96
748.911	7359.43
749.25	7444.62
749.589	7431.74
749.928	7490.95
750.267	7610.72
750.605	7695.91
750.944	7694.33
751.283	7794.67
751.621	7894.1
751.96	7945.62
752.298	7992.18
752.636	8174.77
752.975	8195.11
753.313	8304.26
753.651	8433.75
753.989	8454.76
754.327	8600.97
754.666	8730.24
755.004	8820.63
755.342	8935.43
755.679	9087.06
756.017	9188.76
756.355	9311.46
756.693	9442.31
757.031	9577.9
757.368	9693.83
757.706	9831.9
758.044	9953.48
758.381	10187.37
758.719	10213.59
759.056	10428.95
759.394	10619
759.731	10710.75
760.068	10868.03
760.405	10987.8
760.743	11127.24
761.08	11379.66
761.417	11561.57
761.754	11640.22
762.091	11838.86
762.428	12002.69
762.765	12260.54
763.102	12423.92
763.438	12588.44
763.775	12639.29
764.112	12882.44
764.449	13052.38
764.785	13234.07
765.122	13326.27
765.458	13451.47
765.795	13620.05
766.131	13829.99
766.467	13986.6
766.804	14133.48
767.14	14281.28
767.476	14437.43
767.812	14477.88
768.148	14701.38
768.485	14776.18
