Data from hue_30_FLMS001491_99.txt Node
Date: Mon Feb 06 15:06:25 GMT 2017
User: dcchb
Spectrometer: FLMS00149
Trigger mode: 0
Integration Time (sec): 2.000000E-2
Scans to average: 10
Electric dark correction enabled: true
Nonlinearity correction enabled: false
Boxcar width: 0
XAxis mode: Wavelengths
Number of Pixels in Spectrum: 2048
>>>>>Begin Spectral Data<<<<<
341.393	-27.02
341.776	-27.02
342.16	-27.02
342.543	-53.23
342.927	-57.75
343.31	-71.99
343.693	-57.3
344.077	-74.25
344.46	-54.81
344.843	-62.72
345.226	-38.54
345.61	-48.49
345.993	-28.15
346.376	-8.71
346.759	13.21
347.142	31.51
347.525	34.45
347.908	61.79
348.291	83.94
348.674	108.57
349.057	111.51
349.44	114.67
349.823	151.51
350.206	156.7
350.588	167.78
350.971	214.78
351.354	217.27
351.737	255.23
352.119	248.23
352.502	263.82
352.884	268.11
353.267	255.01
353.65	279.87
354.032	309.24
354.414	318.06
354.797	312.41
355.179	335.23
355.562	322.35
355.944	324.84
356.326	334.78
356.709	316.02
357.091	346.3
357.473	326.87
357.855	335.46
358.238	346.76
358.62	355.8
359.002	358.73
359.384	338.17
359.766	345.85
360.148	357.38
360.53	328.68
360.912	350.82
361.294	333.42
361.676	327.32
362.057	334.33
362.439	323.71
362.821	336.14
363.203	324.16
363.584	338.4
363.966	338.85
364.348	326.19
364.729	320.09
365.111	334.55
365.493	338.4
365.874	331.62
366.256	305.18
366.637	307.89
367.019	329.13
367.4	312.63
367.781	314.67
368.163	303.82
368.544	319.19
368.925	344.04
369.306	327.32
369.688	328.23
370.069	339.98
370.45	316.25
370.831	329.81
371.212	305.4
371.593	288.68
371.974	315.8
372.355	317.83
372.736	312.63
373.117	318.96
373.498	296.36
373.879	317.38
374.26	320.32
374.641	302.92
375.021	324.84
375.402	318.96
375.783	316.25
376.163	322.35
376.544	310.6
376.925	319.41
377.305	331.39
377.686	315.12
378.066	333.65
378.447	344.04
378.827	314.44
379.208	356.93
379.588	330.71
379.968	329.58
380.349	359.41
380.729	332.97
381.109	336.36
381.489	330.03
381.87	332.97
382.25	342.46
382.63	357.15
383.01	339.75
383.39	340.2
383.77	329.58
384.15	313.08
384.53	325.74
384.91	342.46
385.29	346.76
385.67	335.46
386.049	340.88
386.429	355.57
386.809	347.21
387.189	365.51
387.568	354.21
387.948	361.9
388.328	358.73
388.707	354.67
389.087	346.3
389.466	349.92
389.846	347.21
390.225	351.28
390.605	364.16
390.984	354.89
391.363	363.93
391.743	357.15
392.122	363.48
392.501	364.84
392.881	369.81
393.26	375.91
393.639	369.13
394.018	374.55
394.397	368.22
394.776	377.72
395.155	382.91
395.534	399.41
395.913	371.61
396.292	366.42
396.671	359.41
397.05	377.49
397.429	387.21
397.808	365.96
398.186	382.69
398.565	382.91
398.944	370.48
399.323	391.5
399.701	359.86
400.08	385.4
400.458	385.63
400.837	394.66
401.215	386.08
401.594	386.76
401.972	394.44
402.351	392.18
402.729	396.92
403.107	382.01
403.486	394.44
403.864	389.24
404.242	412.97
404.62	401.67
404.999	418.39
405.377	388.34
405.755	396.92
406.133	425.62
406.511	429.69
406.889	415.23
407.267	419.07
407.645	406.64
408.023	415.46
408.401	449.8
408.779	419.52
409.156	443.03
409.534	426.98
409.912	433.76
410.29	438.28
410.667	436.92
411.045	445.51
411.422	430.6
411.8	428.11
412.178	452.52
412.555	453.65
412.933	448.45
413.31	455.45
413.687	460.88
414.065	464.49
414.442	447.54
414.819	473.98
415.197	485.74
415.574	468.11
415.951	460.65
416.328	470.37
416.705	464.27
417.082	465.4
417.46	480.09
417.837	484.38
418.214	474.44
418.591	507.43
418.967	465.62
419.344	480.09
419.721	502.68
420.098	507.43
420.475	456.36
420.852	495.91
421.228	501.33
421.605	514.21
421.982	510.37
422.358	506.98
422.735	508.33
423.111	518.5
423.488	515.34
423.864	527.77
424.241	522.8
424.617	528.45
424.994	539.97
425.37	541.33
425.746	543.59
426.123	524.6
426.499	512.18
426.875	541.78
427.251	561.67
427.627	565.28
428.003	564.83
428.379	561.21
428.756	545.4
429.132	557.37
429.507	563.93
429.883	588.11
430.259	564.15
430.635	585.17
431.011	576.35
431.387	601.66
431.763	614.55
432.138	576.35
432.514	607.77
432.89	617.94
433.265	613.87
433.641	612.96
434.016	618.16
434.392	629.69
434.767	618.61
435.143	627.43
435.518	620.65
435.894	627.65
436.269	660.42
436.644	667.65
437.02	643.7
437.395	650.25
437.77	659.97
438.145	650.25
438.52	664.04
438.895	636.47
439.271	665.39
439.646	670.36
440.021	657.26
440.395	678.05
440.77	691.38
441.145	686.86
441.52	701.55
441.895	709.46
442.27	695.9
442.645	701.1
443.019	701.78
443.394	696.35
443.769	695.67
444.143	714.2
444.518	723.7
444.892	752.62
445.267	763.24
445.641	746.07
446.016	721.44
446.39	742
446.764	748.78
447.139	758.5
447.513	763.24
447.887	762.56
448.262	781.55
448.636	774.32
449.01	790.81
449.384	784.49
449.758	755.79
450.132	776.58
450.506	785.61
450.88	806.86
451.254	777.93
451.628	788.33
452.002	783.36
452.376	818.83
452.75	831.49
453.123	832.17
453.497	844.6
453.871	846.86
454.244	849.79
454.618	854.77
454.992	847.08
455.365	858.38
455.739	852.96
456.112	869
456.486	878.27
456.859	892.5
457.232	905.16
457.606	908.78
457.979	916.68
458.352	898.38
458.725	937.25
459.099	946.06
459.472	963.69
459.845	982.22
460.218	985.38
460.591	944.93
460.964	979.73
461.337	1017.02
461.71	1008.89
462.083	1017.02
462.456	1012.95
462.829	1038.49
463.201	1045.72
463.574	1060.41
463.947	1072.16
464.32	1078.71
464.692	1096.57
465.065	1090.01
465.438	1116
465.81	1111.26
466.183	1146.06
466.555	1161.2
466.928	1163.01
467.3	1160.29
467.672	1173.18
468.045	1229.22
468.417	1224.02
468.789	1235.55
469.161	1245.04
469.534	1269.22
469.906	1294.3
470.278	1274.87
470.65	1299.05
471.022	1341.76
471.394	1347.18
471.766	1361.42
472.138	1381.53
472.51	1411.59
472.882	1465.37
473.253	1446.61
473.625	1466.5
473.997	1505.82
474.369	1536.78
474.74	1529.55
475.112	1563.22
475.484	1582.66
475.855	1621.07
476.227	1621.07
476.598	1690.45
476.97	1715.76
477.341	1745.14
477.713	1789.88
478.084	1802.09
478.455	1866.72
478.827	1881.63
479.198	1926.38
479.569	1957.11
479.94	2049.31
480.311	2031.23
480.682	2095.64
481.053	2136.09
481.424	2198.46
481.795	2185.13
482.166	2276.42
482.537	2295.86
482.908	2363.65
483.279	2374.73
483.65	2441.39
484.021	2491.56
484.391	2528.39
484.762	2573.82
485.133	2614.04
485.503	2680.48
485.874	2736.75
486.244	2814.49
486.615	2857.88
486.985	2903.07
487.356	2967.25
487.726	2996.63
488.097	3107.36
488.467	3124.54
488.837	3191.65
489.207	3217.64
489.578	3303.06
489.948	3295.38
490.318	3395.04
490.688	3424.87
491.058	3460.35
491.428	3555.94
491.798	3630.74
492.168	3719.32
492.538	3741.02
492.908	3780.79
493.278	3819.66
493.648	3847.91
494.017	3924.74
494.387	4025.98
494.757	4002.48
495.126	4069.6
495.496	4101.69
495.866	4148.69
496.235	4197.05
496.605	4288.8
496.974	4299.42
497.344	4341.68
497.713	4416.71
498.082	4389.81
498.452	4549.36
498.821	4544.84
499.19	4554.56
499.559	4624.61
499.928	4685.4
500.298	4650.37
500.667	4752.74
501.036	4757.49
501.405	4814.89
501.774	4861.67
502.143	4918.16
502.512	4944.83
502.88	4930.59
503.249	4950.7
503.618	5014.43
503.987	5051.04
504.356	5153.86
504.724	5125.39
505.093	5139.17
505.462	5179.17
505.83	5247.87
506.199	5222.11
506.567	5350.24
506.936	5356.57
507.304	5355.66
507.672	5425.27
508.041	5436.34
508.409	5504.59
508.777	5546.85
509.145	5534.19
509.514	5608.09
509.882	5610.8
510.25	5606.05
510.618	5686.05
510.986	5711.36
511.354	5766.27
511.722	5780.29
512.09	5868.65
512.458	5857.8
512.826	5877.68
513.193	5862.09
513.561	5930.79
513.929	5944.8
514.297	5962.65
514.664	6053.05
515.032	6032.71
515.4	6086.94
515.767	6120.16
516.135	6093.72
516.502	6159.26
516.869	6217.34
517.237	6196.77
517.604	6220.95
517.972	6273.61
518.339	6273.38
518.706	6297.56
519.073	6307.05
519.44	6354.06
519.808	6444
520.175	6423.88
520.542	6456.65
520.909	6498.69
521.276	6504.56
521.643	6566.03
522.009	6608.51
522.376	6655.52
522.743	6672.24
523.11	6708.4
523.477	6779.58
523.843	6770.77
524.21	6837.89
524.577	6887.15
524.943	6923.76
525.31	6951.33
525.676	7007.15
526.043	6992.23
526.409	7026.13
526.776	7090.31
527.142	7116.75
527.508	7190.64
527.874	7233.81
528.241	7237.2
528.607	7297.53
528.973	7367.14
529.339	7323.52
529.705	7342.73
530.071	7444.87
530.437	7515.83
530.803	7497.3
531.169	7620.24
531.535	7542.73
531.901	7570.97
532.267	7553.12
532.632	7656.39
532.998	7669.28
533.364	7744.08
533.73	7776.39
534.095	7849.61
534.461	7795.37
534.826	7896.39
535.192	7907.91
535.557	8004.86
535.923	7969.38
536.288	8001.02
536.653	8051.64
537.019	8036.5
537.384	8071.75
537.749	8125.99
538.114	8158.08
538.479	8182.71
538.845	8194.23
539.21	8236.27
539.575	8280.79
539.94	8273.78
540.305	8340.9
540.67	8289.37
541.034	8358.52
541.399	8410.05
541.764	8427.22
542.129	8472.64
542.494	8491.4
542.858	8517.16
543.223	8615.01
543.587	8594.9
543.952	8619.76
544.316	8733.43
544.681	8670.83
545.045	8786.53
545.41	8772.52
545.774	8858.85
546.138	8851.84
546.503	8869.24
546.867	8882.58
547.231	8977.49
547.595	8970.71
547.959	8988.79
548.324	9012.97
548.688	9038.51
549.052	9092.06
549.416	9088.67
549.779	9112.63
550.143	9094.32
550.507	9278.5
550.871	9254.54
551.235	9255.45
551.599	9364.82
551.962	9331.38
552.326	9415.9
552.689	9429.46
553.053	9451.6
553.417	9491.15
553.78	9560.98
554.143	9469
554.507	9560.07
554.87	9610.92
555.234	9683.01
555.597	9596.91
555.96	9676.23
556.323	9791.25
556.686	9737.7
557.05	9867.64
557.413	9839.61
557.776	9923.45
558.139	9903.12
558.502	9894.08
558.865	9967.75
559.228	10017.69
559.59	10000.74
559.953	10007.52
560.316	10083
560.679	10173.39
561.041	10205.48
561.404	10207.06
561.767	10285.03
562.129	10209.77
562.492	10371.58
562.854	10369.32
563.217	10286.16
563.579	10344.01
563.941	10415.87
564.304	10455.19
564.666	10515.3
565.028	10484.12
565.39	10685.02
565.753	10626.71
566.115	10646.37
566.477	10681.17
566.839	10716.65
567.201	10758.46
567.563	10756.88
567.925	10872.58
568.287	10839.81
568.648	10947.16
569.01	10947.61
569.372	11032.8
569.734	11050.2
570.095	11124.55
570.457	11084.55
570.819	11212.23
571.18	11132.01
571.542	11321.38
571.903	11296.53
572.265	11434.83
572.626	11470.08
572.987	11486.35
573.349	11469.4
573.71	11609.51
574.071	11602.51
574.432	11754.14
574.794	11878.2
575.155	11911.2
575.516	11921.82
575.877	11939.67
576.238	12058.99
576.599	12109.61
576.96	12180.12
577.32	12377.17
577.681	12418.76
578.042	12550.5
578.403	12619.65
578.763	12685.19
579.124	12801.34
579.485	12971.96
579.845	13040.89
580.206	13223.71
580.566	13281.56
580.927	13364.27
581.287	13560.65
581.648	13674.09
582.008	13818.94
582.368	13977.58
582.728	14191.59
583.089	14252.38
583.449	14506.84
583.809	14594.97
584.169	14767.62
584.529	14918.35
584.889	15147.72
585.249	15344.33
585.609	15483.53
585.969	15684.43
586.329	15801.94
586.688	16149.96
587.048	16244.19
587.408	16497.07
587.768	16641.02
588.127	16877.17
588.487	17022.48
588.846	17466.98
589.206	17567.32
589.565	17791.5
589.925	18108.55
590.284	18372.72
590.643	18588.54
591.003	18911.69
591.362	19094.74
591.721	19318.23
592.08	19537.21
592.44	19867.83
592.799	20070.98
593.158	20301.49
593.517	20639.33
593.876	20998.64
594.235	21140.11
594.593	21418.97
594.952	21670.72
595.311	21882.91
595.67	22124.49
596.029	22519.96
596.387	22744.59
596.746	22916.33
597.104	23119.94
597.463	23384.12
597.822	23874.95
598.18	23929.87
598.538	24142.97
598.897	24617.3
599.255	24622.95
599.613	25101.13
599.972	25230.62
600.33	25536.38
600.688	25530.95
601.046	26027.89
601.404	26288.22
601.762	26454.77
602.12	26712.39
602.478	26975.66
602.836	27213.39
603.194	27271.02
603.552	27634.17
603.91	27642.31
604.268	27995.97
604.625	28154.39
604.983	28513.02
605.341	28520.48
605.698	28906.91
606.056	28969.28
606.413	29178.54
606.771	29457.18
607.128	29669.15
607.485	29625.08
607.843	29864.17
608.2	30181.9
608.557	30556.58
608.914	30522.23
609.272	30861.43
609.629	30901.43
609.986	31241.09
610.343	31324.02
610.7	31694.41
611.057	31689.21
611.414	31835.65
611.771	32029.99
612.127	32173.72
612.484	32367.61
612.841	32465.91
613.198	32533.25
613.554	32678.56
613.911	32937.76
614.267	33124.2
614.624	33223.86
614.98	33341.82
615.337	33580.68
615.693	33649.61
616.05	33729.61
616.406	34022.71
616.762	33845.99
617.118	34139.09
617.475	34252.31
617.831	34346.09
618.187	34539.53
618.543	34658.85
618.899	34758.28
619.255	34888.67
619.611	34994.66
619.967	35138.61
620.323	35219.51
620.678	35194.43
621.034	35405.04
621.39	35310.81
621.746	35436.91
622.101	35755.32
622.457	35583.57
622.812	35757.35
623.168	35939.49
623.523	35944.46
623.879	36121.18
624.234	35960.74
624.589	36120.51
624.945	36221.52
625.3	36303.78
625.655	36329.31
626.01	36346.26
626.365	36361.4
626.72	36352.14
627.075	36439.14
627.43	36411.8
627.785	36492.02
628.14	36546.03
628.495	36707.83
628.85	36612.7
629.205	36707.38
629.559	36897.89
629.914	36743.54
630.269	36796.65
630.623	36814.95
630.978	36684.56
631.332	36802.97
631.687	37026.47
632.041	36873.71
632.396	36972.01
632.75	36785.12
633.104	36938.79
633.459	36732.24
633.813	36843.42
634.167	36821.96
634.521	36868.51
634.875	36981.95
635.229	36840.03
635.583	36813.37
635.937	36863.54
636.291	36691.56
636.645	36873.71
636.999	36706.93
637.352	36865.8
637.706	36788.06
638.06	36694.05
638.413	36800.71
638.767	36732.47
639.121	36776.98
639.474	36650.43
639.828	36736.08
640.181	36779.24
640.534	36726.82
640.888	36651.34
641.241	36548.97
641.594	36591.23
641.947	36666.48
642.301	36499.7
642.654	36594.62
643.007	36638.68
643.36	36596.65
643.713	36490.44
644.066	36572.02
644.419	36391.23
644.771	36148.53
645.124	35813.62
645.477	35814.52
645.83	35505.38
646.182	35429.22
646.535	35494.31
646.888	35424.03
647.24	35289.34
647.593	35499.73
647.945	35581.08
648.298	35488.43
648.65	35344.48
649.002	35294.31
649.355	35447.75
649.707	35394.65
650.059	35435.55
650.411	35907.18
650.763	35955.09
651.115	36249.32
651.467	36002.99
651.819	36211.8
652.171	35962.77
652.523	35959.61
652.875	36090.9
653.227	35764.58
653.578	36238.69
653.93	35972.71
654.282	35866.95
654.633	35759.61
654.985	35782.89
655.337	35859.04
655.688	35824.02
656.039	36009.77
656.391	35757.12
656.742	35714.64
657.094	35862.66
657.445	36040.28
657.796	35862.88
658.147	35715.54
658.498	35839.16
658.849	35838.48
659.2	35728.42
659.551	35639.39
659.902	35687.3
660.253	35676.45
660.604	35606.62
660.955	35651.82
661.306	35809.55
661.656	35648.2
662.007	35609.78
662.358	35578.82
662.708	35698.14
663.059	35494.53
663.409	35480.97
663.76	35751.48
664.11	35677.13
664.461	35699.5
664.811	35886.39
665.161	35646.85
665.511	35557.58
665.862	35729.1
666.212	35752.83
666.562	35776.33
666.912	35735.88
667.262	35647.07
667.612	35637.81
667.962	35755.09
668.312	35572.27
668.662	35767.07
669.011	35596.68
669.361	35587.86
669.711	35615.43
670.06	35498.15
670.41	35439.84
670.76	35381.77
671.109	35614.3
671.459	35385.38
671.808	35449.56
672.157	35562.33
672.507	35291.15
672.856	35323.92
673.205	35412.05
673.554	35456.79
673.904	35286.63
674.253	35435.1
674.602	35265.16
674.951	34778.85
675.3	34645.29
675.649	35243.24
675.998	35191.26
676.346	35235.78
676.695	35250.02
677.044	35039.86
677.393	35113.98
677.741	35260.64
678.09	35099.97
678.438	34913.08
678.787	35112.4
679.135	35149.68
679.484	34916.24
679.832	34979.97
680.181	34751.95
680.529	34869.24
680.877	34727.55
681.225	34802.57
681.573	34986.52
681.922	34702.92
682.27	34566.42
682.618	34570.26
682.966	34556.7
683.314	34580.21
683.661	34502.47
684.009	34249.82
684.357	34353.55
684.705	34225.64
685.053	34345.18
685.4	34235.81
685.748	34082.82
686.095	34087.56
686.443	33972.54
686.79	33849.15
687.138	34101.8
687.485	33931.86
687.832	33854.12
688.18	33872.2
688.527	33619.33
688.874	33593.79
689.221	33576.39
689.568	33560.12
689.915	33339.56
690.262	33415.27
690.609	33189.51
690.956	33091.88
691.303	33167.59
691.65	32859.35
691.997	32992.9
692.344	32846.01
692.69	32722.4
693.037	32834.26
693.383	32534.84
693.73	32713.81
694.077	32521.96
694.423	32462.07
694.769	32478.11
695.116	32390.21
695.462	32275.41
695.808	32178.24
696.155	32204.68
696.501	31911.12
696.847	32060.5
697.193	31784.12
697.539	31906.38
697.885	31666.84
698.231	31523.79
698.577	31575.31
698.923	31521.53
699.269	31387.52
699.614	31277.02
699.96	31136.23
700.306	31065.95
700.651	30942.56
700.997	30860.08
701.342	30987.31
701.688	30870.7
702.033	30760.87
702.379	30653.08
702.724	30658.05
703.069	30665.06
703.415	30339.87
703.76	30414.89
704.105	30411.05
704.45	30237.72
704.795	30044.28
705.14	29967.9
705.485	29983.49
705.83	29840.22
706.175	29955.24
706.52	29781.69
706.865	29659.21
707.209	29777.85
707.554	29573.78
707.899	29678.64
708.243	29438.42
708.588	29469.61
708.932	29206.11
709.277	29297.86
709.621	29287.24
709.966	29027.36
710.31	29105.55
710.654	28910.98
710.998	29016.29
711.342	28959.34
711.687	28864.42
712.031	28733.35
712.375	28710.3
712.719	28619.23
713.063	28559.12
713.407	28664.43
713.75	28447.71
714.094	28461.5
714.438	28347.6
714.782	28367.49
715.125	28292.69
715.469	28288.62
715.812	28129.08
716.156	27949.42
716.499	27938.57
716.843	28039.59
717.186	27839.59
717.53	27977.89
717.873	27983.32
718.216	27802.53
718.559	27712.59
718.902	27497.91
719.246	27668.52
719.589	27674.4
719.932	27417.68
720.275	27547.17
720.617	27450.9
720.96	27372.26
721.303	27455.42
721.646	27380.17
721.989	27164.13
722.331	27300.85
722.674	27181.53
723.016	27225.37
723.359	27053.62
723.701	27148.09
724.044	26963.68
724.386	26970.69
724.729	27065.6
725.071	26839.17
725.413	26852.5
725.755	26701.32
726.097	26668.78
726.439	26645.27
726.782	26670.81
727.124	26722.33
727.465	26526.63
727.807	26565.5
728.149	26589.91
728.491	26521.66
728.833	26478.05
729.175	26366.19
729.516	26352.63
729.858	26311.27
730.199	26325.06
730.541	26211.61
730.882	26206.87
731.224	26321.21
731.565	26092.52
731.906	26102.69
732.248	25961.68
732.589	26028.57
732.93	25895.24
733.271	25891.85
733.612	25933.88
733.953	25970.26
734.294	25793.09
734.635	25723.94
734.976	25782.25
735.317	25609.37
735.658	25610.27
735.999	25554.68
736.339	25467.68
736.68	25710.16
737.021	25574.12
737.361	25423.61
737.702	25523.95
738.042	25408.7
738.383	25350.39
738.723	25490.28
739.063	25340.22
739.404	25333.9
739.744	25291.86
740.084	25238.53
740.424	25153.79
740.764	25187.91
741.104	25258.42
741.444	25205.76
741.784	24923.51
742.124	25069.5
742.464	24955.37
742.804	24938.88
743.143	24844.42
743.483	24918.09
743.823	24742.73
744.162	24666.12
744.502	24830.63
744.841	24786.11
745.181	24818.43
745.52	24741.6
745.86	24680.58
746.199	24636.97
746.538	24527.59
746.877	24623.41
747.216	24597.87
747.556	24494.82
747.895	24514.48
748.234	24418.89
748.573	24449.17
748.911	24375.05
749.25	24337.99
749.589	24230.87
749.928	24297.31
750.267	24337.99
750.605	24246.24
750.944	24271.33
751.283	24260.25
751.621	24175.06
751.96	23984.78
752.298	24112.91
752.636	24027.94
752.975	23978.23
753.313	23799.02
753.651	23925.57
753.989	23765.58
754.327	23614.62
754.666	23535.53
755.004	23752.02
755.342	23732.36
755.679	23621.17
756.017	23521.29
756.355	23629.53
756.693	23414.17
757.031	23464.79
757.368	23295.31
757.706	23361.29
758.044	23275.42
758.381	23244.46
758.719	23171.02
759.056	23166.27
759.394	23095.54
