Data from hue_350_FLMS001491_67.txt Node
Date: Mon Feb 06 15:38:22 GMT 2017
User: dcchb
Spectrometer: FLMS00149
Trigger mode: 0
Integration Time (sec): 2.000000E-2
Scans to average: 10
Electric dark correction enabled: true
Nonlinearity correction enabled: false
Boxcar width: 0
XAxis mode: Wavelengths
Number of Pixels in Spectrum: 2048
>>>>>Begin Spectral Data<<<<<
341.393	-40.52
341.776	-40.52
342.16	-40.52
342.543	-70.58
342.927	-57.92
343.31	-73.06
343.693	-64.48
344.077	-61.31
344.46	-67.19
344.843	-46.62
345.226	-33.52
345.61	-38.49
345.993	-24.7
346.376	11.23
346.759	-13.4
347.142	26.37
347.525	39.93
347.908	62.07
348.291	84.9
348.674	92.81
349.057	105.46
349.44	109.31
349.823	134.16
350.206	159.02
350.588	198.12
350.971	204.44
351.354	214.61
351.737	267.94
352.119	257.32
352.502	268.62
352.884	310.43
353.267	270.43
353.65	331.9
354.032	297.55
354.414	302.07
354.797	301.84
355.179	328.73
355.562	320.37
355.944	340.03
356.326	328.96
356.709	338.68
357.091	339.81
357.473	336.19
357.855	347.94
358.238	333.71
358.62	349.07
359.002	349.07
359.384	339.58
359.766	325.8
360.148	333.71
360.53	333.93
360.912	334.16
361.294	356.08
361.676	340.71
362.057	329.86
362.439	319.24
362.821	342.52
363.203	317.44
363.584	317.66
363.966	307.04
364.348	329.64
364.729	319.69
365.111	307.49
365.493	331.45
365.874	336.64
366.256	317.44
366.637	323.76
367.019	327.38
367.4	324.21
367.781	327.15
368.163	308.4
368.544	316.31
368.925	296.64
369.306	331.45
369.688	307.04
370.069	315.85
370.45	320.15
370.831	313.37
371.212	312.69
371.593	318.34
371.974	299.36
372.355	322.86
372.736	305.46
373.117	325.12
373.498	314.5
373.879	319.02
374.26	296.19
374.641	325.34
375.021	321.28
375.402	307.49
375.783	323.99
376.163	321.95
376.544	321.73
376.925	314.27
377.305	323.31
377.686	323.99
378.066	312.92
378.447	328.28
378.827	329.41
379.208	330.32
379.588	329.86
379.968	329.41
380.349	337.55
380.729	347.72
381.109	348.62
381.489	322.63
381.87	330.54
382.25	340.71
382.63	324.44
383.01	326.25
383.39	325.8
383.77	343.42
384.15	325.8
384.53	350.88
384.91	340.49
385.29	351.33
385.67	345.23
386.049	347.94
386.429	341.16
386.809	343.42
387.189	335.29
387.568	339.13
387.948	330.54
388.328	341.16
388.707	348.85
389.087	354.5
389.466	351.78
389.846	377.77
390.225	368.28
390.605	366.7
390.984	354.27
391.363	366.7
391.743	374.61
392.122	352.91
392.501	333.48
392.881	354.5
393.26	346.81
393.639	360.37
394.018	371.22
394.397	364.44
394.776	366.7
395.155	334.38
395.534	396.3
395.913	379.81
396.292	373.93
396.671	362.41
397.05	384.33
397.429	362.41
397.808	383.42
398.186	342.07
398.565	372.57
398.944	374.61
399.323	392.24
399.701	395.17
400.08	385.23
400.458	389.52
400.837	407.38
401.215	390.2
401.594	383.87
401.972	394.72
402.351	399.92
402.729	379.58
403.107	381.84
403.486	385.23
403.864	394.27
404.242	398.56
404.62	400.6
404.999	414.83
405.377	394.5
405.755	384.78
406.133	415.06
406.511	414.61
406.889	403.76
407.267	431.78
407.645	428.84
408.023	408.51
408.401	427.26
408.779	419.35
409.156	412.12
409.534	420.71
409.912	424.1
410.29	422.07
410.667	462.97
411.045	447.15
411.422	430.88
411.8	459.8
412.178	439.92
412.555	447.83
412.933	438.34
413.31	456.64
413.687	469.52
414.065	466.81
414.442	469.75
414.819	475.62
415.197	495.74
415.574	486.7
415.951	487.37
416.328	474.72
416.705	468.62
417.082	501.61
417.46	465.91
417.837	499.13
418.214	482.4
418.591	492.57
418.967	511.33
419.344	487.6
419.721	524.44
420.098	516.53
420.475	497.09
420.852	502.74
421.228	512.68
421.605	526.02
421.982	525.57
422.358	521.95
422.735	530.54
423.111	509.97
423.488	552.23
423.864	548.84
424.241	550.42
424.617	535.28
424.994	551.33
425.37	559.69
425.746	544.32
426.123	561.95
426.499	559.69
426.875	545
427.251	573.47
427.627	566.47
428.003	580.03
428.379	565.11
428.756	585.68
429.132	616.41
429.507	604.43
429.883	606.02
430.259	605.79
430.635	618.9
431.011	610.99
431.387	623.87
431.763	615.96
432.138	647.82
432.514	633.36
432.89	647.82
433.265	663.19
433.641	661.38
434.016	651.66
434.392	667.26
434.767	683.75
435.143	674.04
435.518	702.96
435.894	659.8
436.269	704.32
436.644	690.31
437.02	711.1
437.395	718.78
437.77	709.52
438.145	710.42
438.52	717.88
438.895	730.31
439.271	728.95
439.646	716.29
440.021	748.61
440.395	751.32
440.77	743.86
441.145	750.87
441.52	762.4
441.895	748.38
442.27	741.83
442.645	766.01
443.019	777.08
443.394	774.37
443.769	761.49
444.143	754.26
444.518	772.34
444.892	773.69
445.267	783.41
445.641	773.24
446.016	783.86
446.39	797.87
446.764	780.47
447.139	806.69
447.513	781.83
447.887	796.97
448.262	804.2
448.636	812.34
449.01	797.2
449.384	846.46
449.758	829.51
450.132	834.71
450.506	812.56
450.88	846.46
451.254	853.01
451.628	860.47
452.002	858.66
452.376	878.78
452.75	886.91
453.123	887.14
453.497	890.08
453.871	888.04
454.244	888.72
454.618	879
454.992	902.5
455.365	915.39
455.739	947.02
456.112	939.79
456.486	928.49
456.859	934.37
457.232	954.71
457.606	975.95
457.979	974.37
458.352	1003.29
458.725	992.45
459.099	995.84
459.472	1004.42
459.845	1016.4
460.218	1006
460.591	1044.87
460.964	1028.38
461.337	1043.07
461.71	1058.88
462.083	1093.01
462.456	1071.31
462.829	1072.22
463.201	1118.09
463.574	1106.34
463.947	1134.59
464.32	1140.01
464.692	1125.78
465.065	1141.14
465.438	1146.57
465.81	1159.22
466.183	1166.23
466.555	1225.43
466.928	1220.91
467.3	1186.56
467.672	1211.42
468.045	1225.66
468.417	1242.61
468.789	1236.73
469.161	1257.98
469.534	1297.97
469.906	1313.34
470.278	1338.2
470.65	1321.25
471.022	1365.09
471.394	1374.58
471.766	1395.37
472.138	1392.44
472.51	1412.1
472.882	1426.78
473.253	1466.33
473.625	1460.46
473.997	1478.31
474.369	1501.58
474.74	1525.54
475.112	1570.28
475.484	1562.37
475.855	1612.09
476.227	1622.26
476.598	1666.33
476.97	1646.89
477.341	1698.64
477.713	1744.29
478.084	1737.96
478.455	1779.54
478.827	1810.73
479.198	1839.2
479.569	1838.3
479.94	1917.17
480.311	1941.35
480.682	1957.39
481.053	2009.14
481.424	2051.17
481.795	2086.65
482.166	2059.08
482.537	2111.96
482.908	2149.03
483.279	2181.79
483.65	2184.05
484.021	2259.98
484.391	2316.7
484.762	2318.51
485.133	2346.08
485.503	2394.44
485.874	2419.98
486.244	2468.34
486.615	2519.19
486.985	2529.58
487.356	2582.01
487.726	2589.69
488.097	2631.95
488.467	2657.94
488.837	2718.73
489.207	2709.69
489.578	2756.02
489.948	2811.15
490.318	2838.95
490.688	2850.7
491.058	2884.83
491.428	2933.86
491.798	2976.35
492.168	3022
492.538	3058.15
492.908	3080.3
493.278	3102.45
493.648	3151.03
494.017	3171.6
494.387	3216.79
494.757	3200.75
495.126	3253.4
495.496	3284.59
495.866	3299.28
496.235	3339.73
496.605	3325.94
496.974	3370.91
497.344	3396
497.713	3418.14
498.082	3457.24
498.452	3525.26
498.821	3514.19
499.19	3553.73
499.559	3577.24
499.928	3579.95
500.298	3588.31
500.667	3627.86
501.036	3614.3
501.405	3662.21
501.774	3666.5
502.143	3697.91
502.512	3715.09
502.88	3744.46
503.249	3762.54
503.618	3759.38
503.987	3774.75
504.356	3819.04
504.724	3847.29
505.093	3861.75
505.462	3855.87
505.83	3871.01
506.199	3879.6
506.567	3939.71
506.936	3928.64
507.304	3977
507.672	3992.59
508.041	3995.08
508.409	4005.47
508.777	4052.25
509.145	4088.86
509.514	4049.77
509.882	4071.46
510.25	4092.93
510.618	4119.14
510.986	4132.02
511.354	4172.02
511.722	4185.58
512.09	4210.44
512.458	4189.2
512.826	4275.75
513.193	4282.53
513.561	4244.56
513.929	4318.23
514.297	4353.04
514.664	4324.56
515.032	4360.27
515.4	4371.11
515.767	4371.34
516.135	4332.02
516.502	4382.19
516.869	4429.19
517.237	4461.06
517.604	4442.75
517.972	4458.8
518.339	4472.58
518.706	4504.44
519.073	4460.83
519.44	4527.72
519.808	4536.76
520.175	4544.67
520.542	4602.29
520.909	4559.13
521.276	4580.83
521.643	4631.9
522.009	4655.63
522.376	4661.95
522.743	4677.32
523.11	4681.84
523.477	4731.1
523.843	4774.27
524.21	4795.96
524.577	4802.74
524.943	4843.64
525.31	4834.83
525.676	4926.81
526.043	4898.11
526.409	4934.71
526.776	5031.44
527.142	5040.93
527.508	5012.23
527.874	5074.37
528.241	5084.32
528.607	5063.75
528.973	5063.98
529.339	5097.65
529.705	5164.77
530.071	5226.23
530.437	5208.15
530.803	5255.61
531.169	5231.88
531.535	5254.48
531.901	5321.15
532.267	5305.78
532.632	5344.65
532.998	5338.32
533.364	5353.91
533.73	5411.54
534.095	5437.75
534.461	5437.07
534.826	5514.13
535.192	5517.07
535.557	5534.47
535.923	5546.45
536.288	5567.24
536.653	5618.76
537.019	5593
537.384	5622.61
537.749	5630.29
538.114	5668.48
538.479	5676.39
538.845	5700.12
539.21	5739.21
539.575	5735.15
539.94	5731.3
540.305	5813.79
540.67	5793
541.034	5846.56
541.399	5869.83
541.764	5870.96
542.129	5867.8
542.494	5922.03
542.858	5899.89
543.223	5986.89
543.587	6021.24
543.952	6025.76
544.316	6015.14
544.681	6107.57
545.045	6060.34
545.41	6103.95
545.774	6133.33
546.138	6180.56
546.503	6164.29
546.867	6183.95
547.231	6252.19
547.595	6232.53
547.959	6281.35
548.324	6314.34
548.688	6295.81
549.052	6352.3
549.416	6368.12
549.779	6362.93
550.143	6383.04
550.507	6429.36
550.871	6429.59
551.235	6461.91
551.599	6491.28
551.962	6487.22
552.326	6512.07
552.689	6549.36
553.053	6525.63
553.417	6544.62
553.78	6679.98
554.143	6563.37
554.507	6624.16
554.87	6655.12
555.234	6701.45
555.597	6682.69
555.96	6776.02
556.323	6716.81
556.686	6775.8
557.05	6762.24
557.413	6783.03
557.776	6785.97
558.139	6886.08
558.502	6835.23
558.865	6903.48
559.228	6953.64
559.59	6948
559.953	6898.51
560.316	7011.27
560.679	7063.02
561.041	7049.69
561.404	7038.84
561.767	7104.83
562.129	7124.04
562.492	7118.84
562.854	7158.16
563.217	7208.1
563.579	7204.94
563.941	7234.77
564.304	7248.1
564.666	7297.36
565.028	7285.84
565.39	7310.25
565.753	7314.31
566.115	7361.54
566.477	7378.49
566.839	7419.85
567.201	7489.22
567.563	7455.78
567.925	7529.22
568.287	7510.47
568.648	7543.46
569.01	7609.45
569.372	7658.49
569.734	7685.38
570.095	7691.25
570.457	7753.85
570.819	7771.93
571.18	7736.68
571.542	7807.41
571.903	7883.79
572.265	7898.7
572.626	7878.37
572.987	7971.25
573.349	7984.13
573.71	8036.1
574.071	8078.14
574.432	8229.77
574.794	8218.7
575.155	8290.56
575.516	8245.14
575.877	8335.53
576.238	8457.11
576.599	8453.49
576.96	8457.79
577.32	8614.62
577.681	8645.13
578.042	8760.38
578.403	8739.13
578.763	8905.23
579.124	8978
579.485	9067.04
579.845	9206.69
580.206	9244.21
580.566	9361.49
580.927	9394.71
581.287	9647.13
581.648	9664.31
582.008	9782.05
582.368	9893.23
582.728	10062.94
583.089	10118.53
583.449	10299.77
583.809	10487.56
584.169	10619.09
584.529	10768.91
584.889	11001.45
585.249	11064.27
585.609	11253.87
585.969	11508.1
586.329	11613.86
586.688	11877.81
587.048	12066.73
587.408	12202.77
587.768	12441.18
588.127	12668.52
588.487	12877.56
588.846	13166.14
589.206	13374.27
589.565	13521.38
589.925	13881.15
590.284	14045.44
590.643	14301.47
591.003	14662.82
591.362	14894.68
591.721	15068.69
592.08	15384.61
592.44	15673.64
592.799	15851.26
593.158	16137.81
593.517	16488.08
593.876	16741.64
594.235	17017.79
594.593	17276.09
594.952	17672.69
595.311	17877.43
595.67	18128.94
596.029	18580.01
596.387	18900.68
596.746	19063.83
597.104	19210.5
597.463	19635.35
597.822	19993.08
598.18	20129.57
598.538	20391.26
598.897	20840.74
599.255	20927.29
599.613	21425.58
599.972	21593.03
600.33	21931.33
600.688	22248.61
601.046	22539.22
601.404	22847.69
601.762	23092.66
602.12	23426.21
602.478	23741.45
602.836	23973.54
603.194	24180.08
603.552	24448.1
603.91	24639.06
604.268	25064.13
604.625	25160.62
604.983	25685.13
605.341	25640.61
605.698	26066.59
606.056	26309.07
606.413	26499.8
606.771	26931.42
607.128	27080.8
607.485	27142.94
607.843	27567.34
608.2	27856.6
608.557	28094.56
608.914	28243.48
609.272	28523.7
609.629	28719.4
609.986	29127.98
610.343	29170.01
610.7	29536.78
611.057	29675.08
611.414	29852.93
611.771	30086.6
612.127	30330.88
612.484	30543.99
612.841	30783.53
613.198	30939
613.554	31041.15
613.911	31360.23
614.267	31479.33
614.624	31597.06
614.98	31857.4
615.337	32032.53
615.693	32115.24
616.05	32389.36
616.406	32593.2
616.762	32511.62
617.118	32776.02
617.475	32915.45
617.831	33095.56
618.187	33194.54
618.543	33297.81
618.899	33646.28
619.255	33630.68
619.611	33916.1
619.967	34022.09
620.323	34111.12
620.678	34227.73
621.034	34260.05
621.39	34360.61
621.746	34473.15
622.101	34872.46
622.457	34577.1
622.812	34876.3
623.168	35021.38
623.523	35121.94
623.879	35374.82
624.234	35149.06
624.589	35472.44
624.945	35698.65
625.3	35614.81
625.655	35702.04
626.01	35743.17
626.365	35835.37
626.72	35792.21
627.075	35998.08
627.43	35984.07
627.785	35964.86
628.14	36044.18
628.495	36172.76
628.85	36229.26
629.205	36154.01
629.559	36413.89
629.914	36280.56
630.269	36401.68
630.623	36433.77
630.978	36315.58
631.332	36563.26
631.687	36663.37
632.041	36447.56
632.396	36626.99
632.75	36465.64
633.104	36687.1
633.459	36359.2
633.813	36413.21
634.167	36501.57
634.521	36613.88
634.875	36589.25
635.229	36633.54
635.583	36399.42
635.937	36459.54
636.291	36574.11
636.645	36465.41
636.999	36626.31
637.352	36767.55
637.706	36507.22
638.06	36643.49
638.413	36535.01
638.767	36571.4
639.121	36556.03
639.474	36535.47
639.828	36555.8
640.181	36619.08
640.534	36558.29
640.888	36461.8
641.241	36382.48
641.594	36528.69
641.947	36650.49
642.301	36442.14
642.654	36515.35
643.007	36542.7
643.36	36511.74
643.713	36488.46
644.066	36471.96
644.419	36333.44
644.771	36225.42
645.124	35816.39
645.477	35784.07
645.83	35639.67
646.182	35511.99
646.535	35394.25
646.888	35440.13
647.24	35368.04
647.593	35520.13
647.945	35417.08
648.298	35288.27
648.65	35213.92
649.002	35120.14
649.355	35219.12
649.707	35226.8
650.059	35478.32
650.411	35796.28
650.763	35877.63
651.115	36224.06
651.467	36020.45
651.819	36059.77
652.171	36016.84
652.523	36067.23
652.875	36062.48
653.227	35907.46
653.578	36193.33
653.93	36011.41
654.282	35888.48
654.633	35762.38
654.985	35920.57
655.337	35882.6
655.688	36014.8
656.039	36046.21
656.391	35661.59
656.742	35846.67
657.094	35815.48
657.445	35943.62
657.796	35856.84
658.147	35698.88
658.498	35757.18
658.849	35871.98
659.2	35809.16
659.551	35805.54
659.902	35851.42
660.253	35779.1
660.604	35864.3
660.955	35632.89
661.306	35868.36
661.656	35828.14
662.007	35723.74
662.358	35628.15
662.708	35694.36
663.059	35668.6
663.409	35476.74
663.76	35772.1
664.11	35661.82
664.461	35768.93
664.811	35657.97
665.161	35625.21
665.511	35557.19
665.862	35670.86
666.212	35700.91
666.562	35726.67
666.912	35589.05
667.262	35624.76
667.612	35694.13
667.962	35655.26
668.312	35657.3
668.662	35629.5
669.011	35749.72
669.361	35654.59
669.711	35438.09
670.06	35567.58
670.41	35510.86
670.76	35470.18
671.109	35646.45
671.459	35611.65
671.808	35406.46
672.157	35558.99
672.507	35370.52
672.856	35316.51
673.205	35383.18
673.554	35516.06
673.904	35330.75
674.253	35538.88
674.602	35374.37
674.951	34904.1
675.3	34743.87
675.649	35201.94
675.998	35166.91
676.346	35270.87
676.695	35367.59
677.044	35058.44
677.393	35276.97
677.741	35177.31
678.09	35164.2
678.438	35089.18
678.787	35161.72
679.135	35110.87
679.484	35023.64
679.832	35150.87
680.181	34882.85
680.529	34972.12
680.877	34813.93
681.225	34782.74
681.573	34864.32
681.922	34746.81
682.27	34612.13
682.618	34770.09
682.966	34582.07
683.314	34603.54
683.661	34616.19
684.009	34291.46
684.357	34326.48
684.705	34308.63
685.053	34383.88
685.4	34262.53
685.748	34166.71
686.095	34110.9
686.443	33965.82
686.79	33984.12
687.138	33997.68
687.485	33886.5
687.832	33869.55
688.18	33835.88
688.527	33765.6
688.874	33714.07
689.221	33737.57
689.568	33570.8
689.915	33429.78
690.262	33488.09
690.609	33464.13
690.956	33307.08
691.303	33145.5
691.65	33115.44
691.997	33071.6
692.344	32910.48
692.69	32768.56
693.037	32873.42
693.383	32676.58
693.73	32818.95
694.077	32544.38
694.423	32573.54
694.769	32410.6
695.116	32330.15
695.462	32445.4
695.808	32164.96
696.155	32243.83
696.501	32025.3
696.847	31958.64
697.193	31851.75
697.539	31971.07
697.885	31660.11
698.231	31623.96
698.577	31688.81
698.923	31486.11
699.269	31457.41
699.614	31233.01
699.96	31288.15
700.306	31253.57
700.651	31042.5
700.997	30984.2
701.342	30809.29
701.688	30946.01
702.033	30787.82
702.379	30797.09
702.724	30745.79
703.069	30750.08
703.415	30317.1
703.76	30472.35
704.105	30429.64
704.45	30225.8
704.795	30201.85
705.14	29999.59
705.485	29951.46
705.83	29895.19
706.175	29972.7
706.52	29827.39
706.865	29655.87
707.209	29670.79
707.554	29628.08
707.899	29729.77
708.243	29574.52
708.588	29471.02
708.932	29372.72
709.277	29177.24
709.621	29277.58
709.966	29086.62
710.31	29309.89
710.654	28884.82
710.998	28939.28
711.342	29059.05
711.687	28868.32
712.031	28796.91
712.375	28632.17
712.719	28828.78
713.063	28716.46
713.407	28618.16
713.75	28560.76
714.094	28511.5
714.438	28384.49
714.782	28477.82
715.125	28292.97
715.469	28381.78
715.812	28153.31
716.156	28043.26
716.499	28025.86
716.843	28153.77
717.186	27875.81
717.53	28169.13
717.873	28021.57
718.216	27971.17
718.559	27828.8
718.902	27663.38
719.246	27727.79
719.589	27697.73
719.932	27497.29
720.275	27539.32
720.617	27567.57
720.96	27410.73
721.303	27356.05
721.646	27444.86
721.989	27243.51
722.331	27300.23
722.674	27171.42
723.016	27351.07
723.359	27163.51
723.701	27149.27
724.044	26991.54
724.386	26785.21
724.729	26992.89
725.071	26885.1
725.413	26962.61
725.755	26900.47
726.097	26767.59
726.439	26723.97
726.782	26632.22
727.124	26786.12
727.465	26598.33
727.807	26539.34
728.149	26558.33
728.491	26571.66
728.833	26493.92
729.175	26383.64
729.516	26400.59
729.858	26398.11
730.199	26346.81
730.541	26256.41
730.882	26260.26
731.224	26302.06
731.565	26078.57
731.906	26237.88
732.248	26068.4
732.589	25906.37
732.93	25990.88
733.271	25991.79
733.612	25992.01
733.953	26031.79
734.294	25777.1
734.635	25822.53
734.976	25938.23
735.317	25685.81
735.658	25567.17
735.999	25657.11
736.339	25721.06
736.68	25677.67
737.021	25498.24
737.361	25513.38
737.702	25642.42
738.042	25408.07
738.383	25438.81
738.723	25457.34
739.063	25259.15
739.404	25463.89
739.744	25217.8
740.084	25196.56
740.424	25283.56
740.764	25247.85
741.104	25252.37
741.444	25049.44
741.784	25096.67
742.124	25133.73
742.464	25056.45
742.804	24987.75
743.143	24868.88
743.483	25066.84
743.823	24887.41
744.162	24869.56
744.502	24871.82
744.841	24667.53
745.181	24795.21
745.52	24672.05
745.86	24698.49
746.199	24736.68
746.538	24542.33
746.877	24666.63
747.216	24577.36
747.556	24554.54
747.895	24501.88
748.234	24424.37
748.573	24342.57
748.911	24291.27
749.25	24302.79
749.589	24202
749.928	24292.4
750.267	24315.67
750.605	24173.31
750.944	24260.53
751.283	24119.97
751.621	24157.26
751.96	23892.41
752.298	23928.11
752.636	24001.33
752.975	23868.68
753.313	23825.07
753.651	23864.39
753.989	23792.3
754.327	23709.36
754.666	23699.87
755.004	23654.9
755.342	23625.3
755.679	23537.16
756.017	23439.77
756.355	23485.87
756.693	23329.03
757.031	23388.69
757.368	23334.23
757.706	23361.35
758.044	23200
758.381	23157.51
758.719	23150.06
759.056	23137.17
759.394	22996.61
759.731	22745.32
760.068	22853.11
760.405	22806.34
760.743	22723.4
761.08	22830.06
