Data from hue_28_FLMS001491_00064.txt Node
Date: Tue Feb 07 17:17:36 GMT 2017
User: dcchb
Spectrometer: FLMS00149
Trigger mode: 0
Integration Time (sec): 2.000000E-2
Scans to average: 10
Electric dark correction enabled: true
Nonlinearity correction enabled: false
Boxcar width: 0
XAxis mode: Wavelengths
Number of Pixels in Spectrum: 2048
>>>>>Begin Spectral Data<<<<<
341.393	-14.05
341.776	-14.05
342.16	-14.05
342.543	-63.54
342.927	-87.72
343.31	-63.77
343.693	-65.13
344.077	-59.7
344.46	-68.74
344.843	-56.09
345.226	-31.23
345.61	-50.21
345.993	-14.73
346.376	-12.92
346.759	19.39
347.142	14.42
347.525	62.33
347.908	52.16
348.291	62.1
348.674	87.19
349.057	124.93
349.44	114.76
349.823	124.93
350.206	159.5
350.588	200.86
350.971	208.09
351.354	208.31
351.737	234.98
352.119	255.54
352.502	261.19
352.884	280.63
353.267	246.28
353.65	283.34
354.032	299.16
354.414	317.46
354.797	315.2
355.179	331.25
355.562	335.54
355.944	313.85
356.326	329.67
356.709	335.09
357.091	338.03
357.473	353.85
357.855	341.87
358.238	345.94
358.62	335.09
359.002	346.39
359.384	345.71
359.766	363.34
360.148	346.84
360.53	350.68
360.912	340.29
361.294	328.08
361.676	324.24
362.057	347.97
362.439	305.94
362.821	321.08
363.203	328.76
363.584	328.54
363.966	338.03
364.348	326.28
364.729	312.04
365.111	326.28
365.493	312.49
365.874	308.88
366.256	320.85
366.637	320.18
367.019	301.64
367.4	314.07
367.781	315.66
368.163	322.89
368.544	310.01
368.925	314.98
369.306	325.37
369.688	324.69
370.069	309.33
370.45	314.98
370.831	333.51
371.212	328.99
371.593	302.55
371.974	320.4
372.355	306.62
372.736	303.45
373.117	310.23
373.498	333.96
373.879	317.46
374.26	324.92
374.641	305.49
375.021	333.51
375.402	333.96
375.783	332.15
376.163	312.72
376.544	334.41
376.925	357.46
377.305	309.78
377.686	329.67
378.066	299.84
378.447	339.16
378.827	323.56
379.208	332.38
379.588	317.01
379.968	338.25
380.349	343.45
380.729	371.25
381.109	348.88
381.489	333.73
381.87	338.71
382.25	323.56
382.63	335.54
383.01	334.86
383.39	337.35
383.77	346.62
384.15	349.78
384.53	344.81
384.91	347.52
385.29	344.81
385.67	362.21
386.049	351.36
386.429	357.69
386.809	350.23
387.189	369.89
387.568	366.5
387.948	367.41
388.328	359.95
388.707	356.78
389.087	373.73
389.466	361.76
389.846	384.81
390.225	379.16
390.605	383.22
390.984	367.86
391.363	378.48
391.743	373.06
392.122	366.73
392.501	388.65
392.881	360.85
393.26	369.67
393.639	367.41
394.018	358.59
394.397	374.41
394.776	382.55
395.155	387.52
395.534	369.21
395.913	364.92
396.292	379.16
396.671	374.19
397.05	407.4
397.429	378.7
397.808	371.93
398.186	394.52
398.565	405.37
398.944	398.37
399.323	383
399.701	395.2
400.08	383.45
400.458	405.6
400.837	398.37
401.215	403.11
401.594	389.78
401.972	399.95
402.351	413.05
402.729	389.78
403.107	399.27
403.486	441.53
403.864	416.9
404.242	410.34
404.62	411.02
404.999	404.47
405.377	416.22
405.755	430.23
406.133	423
406.511	405.14
406.889	428.87
407.267	425.94
407.645	426.84
408.023	435.88
408.401	426.16
408.779	441.98
409.156	441.08
409.534	448.99
409.912	433.84
410.29	434.07
410.667	450.57
411.045	446.95
411.422	457.57
411.8	439.27
412.178	445.14
412.555	451.7
412.933	468.42
413.31	480.17
413.687	446.5
414.065	482.88
414.442	471.81
414.819	482.43
415.197	460.96
415.574	473.84
415.951	490.34
416.328	494.18
416.705	481.98
417.082	497.8
417.46	475.65
417.837	500.06
418.214	498.48
418.591	501.87
418.967	492.37
419.344	519.72
419.721	495.31
420.098	491.7
420.475	502.09
420.852	535.99
421.228	497.35
421.605	513.16
421.982	513.16
422.358	535.99
422.735	515.42
423.111	538.93
423.488	530.34
423.864	520.4
424.241	537.12
424.617	539.83
424.994	535.08
425.37	528.08
425.746	553.16
426.123	539.6
426.499	548.87
426.875	573.5
427.251	569.89
427.627	568.08
428.003	573.28
428.379	575.54
428.756	575.76
429.132	589.32
429.507	574.63
429.883	590
430.259	606.72
430.635	608.53
431.011	574.41
431.387	600.62
431.763	599.49
432.138	620.51
432.514	619.15
432.89	611.02
433.265	609.89
433.641	646.27
434.016	630.68
434.392	655.76
434.767	672.48
435.143	633.16
435.518	642.2
435.894	673.61
436.269	686.72
436.644	671.35
437.02	666.61
437.395	680.84
437.77	681.52
438.145	695.31
438.52	728.3
438.895	704.57
439.271	688.98
439.646	721.07
440.021	717.68
440.395	735.76
440.77	729.88
441.145	701.63
441.52	724.23
441.895	709.54
442.27	740.5
442.645	720.62
443.019	736.66
443.394	747.73
443.769	757.45
444.143	755.87
444.518	768.52
444.892	754.06
445.267	770.33
445.641	767.85
446.016	767.17
446.39	765.81
446.764	755.64
447.139	792.25
447.513	793.16
447.887	798.13
448.262	804.91
448.636	806.94
449.01	818.24
449.384	809.65
449.758	820.95
450.132	808.98
450.506	822.53
450.88	839.71
451.254	846.94
451.628	858.69
452.002	862.08
452.376	847.17
452.75	872.7
453.123	865.25
453.497	879.03
453.871	877
454.244	893.95
454.618	901.18
454.992	878.58
455.365	903.66
455.739	931.68
456.112	938.24
456.486	905.24
456.859	958.8
457.232	942.98
457.606	946.6
457.979	970.33
458.352	963.32
458.725	991.8
459.099	998.58
459.472	1025.02
459.845	998.35
460.218	1019.37
460.591	1021.63
460.964	1033.6
461.337	1060.27
461.71	1085.8
462.083	1079.93
462.456	1103.88
462.829	1105.47
463.201	1093.49
463.574	1124.22
463.947	1133.26
464.32	1132.58
464.692	1154.96
465.065	1141.17
465.438	1187.5
465.81	1201.06
466.183	1221.85
466.555	1243.31
466.928	1232.47
467.3	1220.94
467.672	1262.98
468.045	1301.39
468.417	1291.68
468.789	1300.04
469.161	1321.05
469.534	1343.43
469.906	1357.21
470.278	1354.27
470.65	1377.77
471.022	1425.68
471.394	1452.12
471.766	1463.42
472.138	1471.78
472.51	1477.21
472.882	1524.89
473.253	1561.27
473.625	1573.48
473.997	1590.88
474.369	1584.32
474.74	1631.78
475.112	1659.8
475.484	1700.25
475.855	1714.49
476.227	1761.04
476.598	1808.95
476.97	1825.45
477.341	1861.38
477.713	1874.03
478.084	1910.19
478.455	1930.08
478.827	1987.25
479.198	2070.19
479.569	2037.64
479.94	2110.41
480.311	2138.66
480.682	2217.53
481.053	2268.82
481.424	2309.5
481.795	2341.59
482.166	2342.04
482.537	2413.91
482.908	2457.75
483.279	2492.32
483.65	2542.49
484.021	2618.19
484.391	2675.14
484.762	2672.66
485.133	2707.01
485.503	2781.81
485.874	2810.73
486.244	2889.15
486.615	2907
486.985	3005.3
487.356	3089.59
487.726	3099.54
488.097	3167.11
488.467	3214.56
488.837	3256.82
489.207	3323.94
489.578	3391.05
489.948	3413.43
490.318	3491.84
490.688	3508.57
491.058	3566.42
491.428	3655.68
491.798	3672.4
492.168	3780.65
492.538	3824.26
492.908	3863.36
493.278	3892.51
493.648	3967.76
494.017	4009.12
494.387	4066.29
494.757	4079.4
495.126	4158.72
495.496	4159.17
495.866	4247.08
496.235	4272.39
496.605	4335.89
496.974	4352.84
497.344	4417.92
497.713	4410.46
498.082	4480.07
498.452	4509.9
498.821	4624.02
499.19	4603.45
499.559	4670.8
499.928	4672.6
500.298	4721.64
500.667	4750.57
501.036	4779.27
501.405	4870.56
501.774	4866.95
502.143	4894.52
502.512	4938.36
502.88	4949.88
503.249	4964.35
503.618	4997.11
503.987	5052.48
504.356	5108.3
504.724	5055.64
505.093	5110.78
505.462	5193.95
505.83	5175.87
506.199	5225.81
506.567	5269.65
506.936	5300.84
507.304	5332.25
507.672	5368.86
508.041	5420.61
508.409	5465.35
508.777	5492.47
509.145	5514.39
509.514	5470.77
509.882	5603.2
510.25	5578.12
510.618	5602.07
510.986	5660.15
511.354	5690.88
511.722	5693.82
512.09	5739.47
512.458	5730.65
512.826	5784.89
513.193	5790.54
513.561	5798.45
513.929	5868.28
514.297	5925.45
514.664	5906.02
515.032	5929.07
515.4	5999.12
515.767	5966.13
516.135	6004.77
516.502	6033.02
516.869	6081.83
517.237	6111.21
517.604	6050.87
517.972	6162.51
518.339	6208.61
518.706	6183.98
519.073	6236.63
519.44	6255.39
519.808	6337.87
520.175	6265.78
520.542	6386.68
520.909	6339.9
521.276	6343.29
521.643	6423.74
522.009	6437.08
522.376	6469.62
522.743	6543.97
523.11	6576.28
523.477	6565.66
523.843	6613.12
524.21	6700.57
524.577	6688.6
524.943	6768.59
525.31	6752.1
525.676	6822.6
526.043	6895.82
526.409	6884.52
526.776	6965.42
527.142	7010.85
527.508	7015.59
527.874	7072.54
528.241	7076.61
528.607	7102.82
528.973	7180.11
529.339	7178.3
529.705	7210.62
530.071	7345.3
530.437	7303.49
530.803	7324.06
531.169	7412.19
531.535	7394.79
531.901	7406.77
532.267	7434.79
532.632	7510.72
532.998	7498.07
533.364	7576.71
533.73	7640.21
534.095	7638.85
534.461	7695.12
534.826	7696.93
535.192	7802.92
535.557	7777.38
535.923	7827.1
536.288	7849.47
536.653	7852.41
537.019	7844.72
537.384	7881.33
537.749	7946.64
538.114	7940.77
538.479	8019.18
538.845	8072.51
539.21	8085.17
539.575	8094.66
539.94	8116.35
540.305	8174.21
540.67	8199.29
541.034	8180.99
541.399	8222.11
541.764	8305.05
542.129	8310.47
542.494	8405.61
542.858	8345.27
543.223	8372.17
543.587	8453.52
543.952	8501.88
544.316	8496.46
544.681	8517.25
545.045	8565.16
545.41	8640.86
545.774	8634.98
546.138	8613.74
546.503	8678.6
546.867	8710.46
547.231	8790.91
547.595	8746.85
547.959	8854.41
548.324	8837.24
548.688	8829.78
549.052	8884.7
549.416	8934.41
549.779	8919.95
550.143	9001.98
550.507	9071.81
550.871	9130.57
551.235	9085.14
551.599	9157.23
551.962	9167.85
552.326	9216.89
552.689	9147.74
553.053	9166.27
553.417	9224.8
553.78	9319.26
554.143	9277.68
554.507	9389.77
554.87	9387.28
555.234	9485.36
555.597	9380.5
555.96	9400.16
556.323	9475.64
556.686	9518.58
557.05	9593.83
557.413	9587.05
557.776	9614.39
558.139	9608.52
558.502	9758.35
558.865	9724.45
559.228	9726.71
559.59	9790.43
559.953	9832.24
560.316	9945.68
560.679	9921.05
561.041	9952.01
561.404	10027.04
561.767	10045.57
562.129	10023.87
562.492	10079.69
562.854	10097.09
563.217	10133.7
563.579	10011.22
563.941	10195.62
564.304	10190.65
564.666	10325.79
565.028	10289.18
565.39	10325.34
565.753	10368.95
566.115	10408.5
566.477	10476.07
566.839	10510.19
567.201	10563.52
567.563	10499.12
567.925	10629.51
568.287	10671.09
568.648	10677.64
569.01	10693.46
569.372	10836.73
569.734	10826.57
570.095	10880.12
570.457	10929.16
570.819	10918.54
571.18	10973.68
571.542	11025.43
571.903	11101.59
572.265	11126.44
572.626	11188.36
572.987	11159.89
573.349	11244.41
573.71	11375.25
574.071	11394.91
574.432	11504.97
574.794	11551.52
575.155	11581.57
575.516	11634
575.877	11707.22
576.238	11817.5
576.599	11854.11
576.96	11927.1
577.32	12045.06
577.681	12238.96
578.042	12288.45
578.403	12289.13
578.763	12471.72
579.124	12519.85
579.485	12604.37
579.845	12805.95
580.206	12928.43
580.566	12989.67
580.927	13214.98
581.287	13234.86
581.648	13436.67
582.008	13662.88
582.368	13670.78
582.728	13891.57
583.089	14079.14
583.449	14244.33
583.809	14382.18
584.169	14503.98
584.529	14693.81
584.889	15033.46
585.249	15075.49
585.609	15251.76
585.969	15526.1
586.329	15684.07
586.688	15964.74
587.048	16101.68
587.408	16407.89
587.768	16570.14
588.127	16838.84
588.487	17062.79
588.846	17350.01
589.206	17631.58
589.565	17774.41
589.925	18254.84
590.284	18367.61
590.643	18750.43
591.003	18957.2
591.362	19325.55
591.721	19574.36
592.08	19787.91
592.44	20118.98
592.799	20421.12
593.158	20605.74
593.517	20925.74
593.876	21231.94
594.235	21487.53
594.593	21807.52
594.952	22076.44
595.311	22259.49
595.67	22683.88
596.029	23134.26
596.387	23458.32
596.746	23810.63
597.104	23855.15
597.463	24142.37
597.822	24584.62
598.18	24734
598.538	24964.05
598.897	25436.12
599.255	25463.92
599.613	26154.3
599.972	26276.33
600.33	26638.13
600.688	26725.81
601.046	27152.92
601.404	27481.27
601.762	27719
602.12	28110.86
602.478	28358.99
602.836	28582.03
603.194	28833.1
603.552	29014.79
603.91	29241.45
604.268	29659.06
604.625	29730.25
604.983	30188.99
605.341	30225.38
605.698	30567.97
606.056	30903.78
606.413	31143.55
606.771	31388.51
607.128	31558.9
607.485	31645.45
607.843	31981.49
608.2	32340.35
608.557	32566.11
608.914	32607.24
609.272	33039.31
609.629	33308.69
609.986	33588.45
610.343	33585.06
610.7	33947.77
611.057	34160.87
611.414	34262.56
611.771	34482.67
612.127	34699.38
612.484	34828.42
612.841	35070.9
613.198	35204.46
613.554	35309.09
613.911	35784.1
614.267	35768.73
614.624	35933.25
614.98	36174.15
615.337	36593.57
615.693	36516.51
616.05	36654.81
616.406	36843.73
616.762	36977.74
617.118	37276.49
617.475	37279.88
617.831	37480.55
618.187	37604.17
618.543	37670.83
618.899	38023.59
619.255	38083.93
619.611	38242.79
619.967	38376.12
620.323	38507.87
620.678	38541.54
621.034	38441.66
621.39	38509
621.746	38766.4
622.101	39186.95
622.457	38859.95
622.812	39106.73
623.168	39313.27
623.523	39314.4
623.879	39517.34
624.234	39403.44
624.589	39482.99
624.945	39743.32
625.3	39727.73
625.655	39746.48
626.01	39888.17
626.365	40095.17
626.72	39900.15
627.075	40010.88
627.43	40136.08
627.785	40032.8
628.14	40172.91
628.495	40336.52
628.85	40352.34
629.205	40215.17
629.559	40588.04
629.914	40471.66
630.269	40553.24
630.623	40439.12
630.978	40504.43
631.332	40743.52
631.687	40775.61
632.041	40568.61
632.396	40691.32
632.75	40563.41
633.104	40745.78
633.459	40514.15
633.813	40573.13
634.167	40553.47
634.521	40533.13
634.875	40687.93
635.229	40599.79
635.583	40587.59
635.937	40584.88
636.291	40690.64
636.645	40694.93
636.999	40622.39
637.352	40837.08
637.706	40557.08
638.06	40757.76
638.413	40584.43
638.767	40635.5
639.121	40658.78
639.474	40623.3
639.828	40576.52
640.181	40641.83
640.534	40555.5
640.888	40531.77
641.241	40335.17
641.594	40549.63
641.947	40569.51
642.301	40529.06
642.654	40459.46
643.007	40620.13
643.36	40605.67
643.713	40497.42
644.066	40618.55
644.419	40354.83
644.771	40171.1
645.124	39955.52
645.477	39805.46
645.83	39577.45
646.182	39333.16
646.535	39357.34
646.888	39437.11
647.24	39306.95
647.593	39453.16
647.945	39389.88
648.298	39300.17
648.65	39259.94
649.002	39155.76
649.355	39268.08
649.707	39293.61
650.059	39429.88
650.411	39830.55
650.763	39918.91
651.115	40180.82
651.467	40071.67
651.819	40146.92
652.171	39981.28
652.523	39934.73
652.875	40020.6
653.227	39771.34
653.578	40192.57
653.93	40060.83
654.282	39949.87
654.633	39775.41
654.985	39966.36
655.337	39955.97
655.688	39983.77
656.039	40226.7
656.391	39795.3
656.742	39968.17
657.094	39846.59
657.445	39991.45
657.796	39930.43
658.147	39917.78
658.498	39642.53
658.849	40015.85
659.2	39760.95
659.551	39757.78
659.902	39870.77
660.253	39766.14
660.604	39870.32
660.955	39662.87
661.306	39831
661.656	39822.19
662.007	39708.29
662.358	39868.29
662.708	39780.15
663.059	39663.77
663.409	39583.1
663.76	39937.89
664.11	39684.56
664.461	39710.78
664.811	39998
665.161	39745.81
665.511	39722.53
665.862	39663.32
666.212	39758.91
666.562	39733.6
666.912	39595.3
667.262	39628.75
667.612	39659.93
667.962	39589.2
668.312	39582.19
668.662	39791.45
669.011	39634.4
669.361	39661.06
669.711	39499.71
670.06	39631.68
670.41	39516.21
670.76	39417
671.109	39617.9
671.459	39519.82
671.808	39469.2
672.157	39555.3
672.507	39274.86
672.856	39369.09
673.205	39414.97
673.554	39558.92
673.904	39393.72
674.253	39522.31
674.602	39482.54
674.951	38925.04
675.3	38755.55
675.649	39330.67
675.998	39290.68
676.346	39402.31
676.695	39434.85
677.044	39027.41
677.393	39334.74
677.741	39301.52
678.09	39248.87
678.438	39128.87
678.787	39248.42
679.135	39122.09
679.484	38978.59
679.832	39153.5
680.181	38875.77
680.529	38929.33
680.877	38768.88
681.225	38927.52
681.573	39053.17
681.922	38744.48
682.27	38615.89
682.618	38628.55
682.966	38553.75
683.314	38594.65
683.661	38537.25
684.009	38368.67
684.357	38247.77
684.705	38279.4
685.053	38264.04
685.4	38225.39
685.748	38075.34
686.095	38052.52
686.443	37942.24
686.79	37935.01
687.138	38074.21
687.485	37976.36
687.832	38006.64
688.18	37879.19
688.527	37668.57
688.874	37773.2
689.221	37562.81
689.568	37630.15
689.915	37421.57
690.262	37460.44
690.609	37259.99
690.956	37129.38
691.303	37236.04
691.65	36880.12
691.997	36921.7
692.344	36782.49
692.69	36829.95
693.037	36677.64
693.383	36365.78
693.73	36526
694.077	36352.67
694.423	36367.14
694.769	36241.72
695.116	36162.85
695.462	36189.97
695.808	36046.69
696.155	35938
696.501	35772.8
696.847	35907.71
697.193	35611.22
697.539	35725.12
697.885	35538.23
698.231	35384.79
698.577	35523.77
698.923	35348.41
699.269	35180.28
699.614	35059.6
699.96	34983.22
700.306	35040.39
700.651	34824.8
700.997	34651.25
701.342	34723.79
701.688	34600.63
702.033	34567.64
702.379	34478.15
702.724	34380.52
703.069	34417.13
703.415	34032.28
703.76	34128.55
704.105	34184.82
704.45	33997.03
704.795	33934.43
705.14	33821.22
705.485	33707.32
705.83	33494.67
706.175	33612.86
706.52	33463.03
706.865	33336.71
707.209	33312.53
707.554	33208.58
707.899	33364.28
708.243	33117.96
708.588	33044.74
708.932	32947.11
709.277	32917.51
709.621	32798.64
709.966	32637.97
710.31	32704.63
710.654	32526.11
710.998	32548.48
711.342	32587.8
711.687	32595.71
712.031	32340.35
712.375	32143.07
712.719	32248.38
713.063	32070.07
713.407	32358.43
713.75	32056.97
714.094	32089.28
714.438	31995.27
714.782	31871.89
715.125	31776.3
715.469	31937.2
715.812	31659.01
716.156	31491.33
716.499	31494.72
716.843	31492.69
717.186	31322.75
717.53	31506.02
717.873	31309.87
718.216	31272.36
718.559	31195.07
718.902	31018.13
719.246	31129.99
719.589	31046.6
719.932	30918.47
720.275	30871.24
720.617	30809.99
720.96	30893.38
721.303	30754.18
721.646	30793.5
721.989	30555.76
722.331	30688.64
722.674	30633.5
723.016	30641.64
723.359	30579.94
723.701	30625.82
724.044	30238.71
724.386	30165.49
724.729	30473.28
725.071	30337.69
725.413	30294.53
725.755	30276.9
726.097	30005.5
726.439	29974.08
726.782	29983.8
727.124	30130.01
727.465	29989
727.807	29957.81
728.149	29866.52
728.491	29778.84
728.833	29810.7
729.175	29782.45
729.516	29660.19
729.858	29624.04
730.199	29648.44
730.541	29638.5
730.882	29495
731.224	29725.73
731.565	29341.78
731.906	29424.72
732.248	29479.63
732.589	29280.54
732.93	29184.05
733.271	29320.54
733.612	29152.64
733.953	29154.9
734.294	29140.21
734.635	29052.08
734.976	29160.32
735.317	29005.52
735.658	28928.91
735.999	28870.16
736.339	28769.6
736.68	28920.33
737.021	28770.05
737.361	28592.2
737.702	28779.99
738.042	28700.67
738.383	28682.37
738.723	28698.86
739.063	28488.47
739.404	28661.58
739.744	28454.12
740.084	28434.24
740.424	28425.2
740.764	28386.1
741.104	28543.39
741.444	28266.56
741.784	28087.35
742.124	28352.43
742.464	28409.15
742.804	28129.84
743.143	28158.99
743.483	28045.32
743.823	28061.59
744.162	27981.14
744.502	27991.76
744.841	27887.81
745.181	27940.69
745.52	27887.36
745.86	27913.57
746.199	27890.98
746.538	27810.53
746.877	27775.05
747.216	27826.34
747.556	27638.55
747.895	27743.41
748.234	27578.22
748.573	27473.81
748.911	27606.92
749.25	27566.24
749.589	27419.12
749.928	27524.88
750.267	27469.07
750.605	27399.46
750.944	27362.4
751.283	27178.9
751.621	27346.36
751.96	27045.35
752.298	27064.78
752.636	27070.66
752.975	26928.06
753.313	26910.44
753.651	27093.48
753.989	26820.04
754.327	26803.55
754.666	26570.56
755.004	26763.32
755.342	26682.65
755.679	26651.91
756.017	26583.44
756.355	26590.9
756.693	26315.88
757.031	26468.41
757.368	26253.5
757.706	26274.52
758.044	26243.56
758.381	26211.02
758.719	25997.92
759.056	25981.42
759.394	26004.92
759.731	25955.21
760.068	25694.2
