Data from hue_60_FLMS001491_87.txt Node
Date: Mon Feb 06 15:18:03 GMT 2017
User: dcchb
Spectrometer: FLMS00149
Trigger mode: 0
Integration Time (sec): 2.000000E-2
Scans to average: 10
Electric dark correction enabled: true
Nonlinearity correction enabled: false
Boxcar width: 0
XAxis mode: Wavelengths
Number of Pixels in Spectrum: 2048
>>>>>Begin Spectral Data<<<<<
341.393	-9.39
341.776	-9.39
342.16	-9.39
342.543	-60.92
342.927	-73.12
343.31	-67.24
343.693	-59.79
344.077	-68.37
344.46	-69.28
344.843	-63.4
345.226	-55.27
345.61	-24.08
345.993	-18.88
346.376	1.45
346.759	7.33
347.142	27.67
347.525	52.98
347.908	82.58
348.291	56.59
348.674	92.98
349.057	104.73
349.44	141.56
349.823	140.43
350.206	150.6
350.588	207.55
350.971	217.49
351.354	233.31
351.737	264.72
352.119	251.17
352.502	268.79
352.884	277.83
353.267	282.58
353.65	298.4
354.032	303.82
354.414	309.02
354.797	312.63
355.179	327.55
355.562	311.5
355.944	339.98
356.326	330.26
356.709	317.83
357.091	342.91
357.473	353.08
357.855	342.69
358.238	348.56
358.62	339.3
359.002	333.2
359.384	352.86
359.766	366.64
360.148	344.72
360.53	320.32
360.912	342.01
361.294	340.43
361.676	329.81
362.057	335.68
362.439	334.78
362.821	324.84
363.203	328.45
363.584	337.94
363.966	335.23
364.348	351.95
364.729	312.41
365.111	330.03
365.493	309.47
365.874	309.47
366.256	333.2
366.637	327.55
367.019	315.34
367.4	327.32
367.781	331.62
368.163	322.58
368.544	313.99
368.925	326.42
369.306	320.77
369.688	316.7
370.069	316.47
370.45	313.76
370.831	314.89
371.212	313.31
371.593	334.1
371.974	314.67
372.355	340.88
372.736	328.68
373.117	322.58
373.498	329.36
373.879	320.99
374.26	329.81
374.641	315.12
375.021	320.99
375.402	318.28
375.783	320.54
376.163	330.49
376.544	333.2
376.925	325.74
377.305	352.41
377.686	327.77
378.066	323.25
378.447	325.06
378.827	341.56
379.208	302.92
379.588	326.42
379.968	344.95
380.349	337.94
380.729	342.24
381.109	335.01
381.489	320.77
381.87	322.58
382.25	348.56
382.63	327.32
383.01	331.62
383.39	334.55
383.77	343.37
384.15	361.67
384.53	344.95
384.91	364.84
385.29	339.3
385.67	340.2
386.049	349.47
386.429	348.34
386.809	355.57
387.189	351.05
387.568	348.56
387.948	365.74
388.328	350.15
388.707	371.39
389.087	368.9
389.466	355.8
389.846	344.04
390.225	356.93
390.605	357.6
390.984	364.16
391.363	377.94
391.743	366.64
392.122	379.98
392.501	375
392.881	380.2
393.26	398.05
393.639	356.47
394.018	400.77
394.397	366.19
394.776	384.72
395.155	382.01
395.534	380.43
395.913	361.45
396.292	383.59
396.671	399.18
397.05	382.24
397.429	386.53
397.808	378.62
398.186	377.72
398.565	387.66
398.944	350.37
399.323	377.26
399.701	400.31
400.08	398.28
400.458	387.43
400.837	385.4
401.215	392.86
401.594	397.38
401.972	396.47
402.351	404.83
402.729	401.67
403.107	409.35
403.486	415.68
403.864	403.93
404.242	402.12
404.62	404.83
404.999	412.52
405.377	406.87
405.755	409.81
406.133	421.56
406.511	408.68
406.889	419.75
407.267	433.31
407.645	428.56
408.023	427.66
408.401	412.29
408.779	432.4
409.156	433.53
409.534	409.58
409.912	417.72
410.29	444.61
410.667	433.31
411.045	432.86
411.422	449.13
411.8	450.71
412.178	444.83
412.555	448.9
412.933	432.18
413.31	465.17
413.687	457.71
414.065	460.65
414.442	460.2
414.819	461.1
415.197	467.88
415.574	473.76
415.951	466.08
416.328	477.15
416.705	485.28
417.082	465.4
417.46	476.02
417.837	471.95
418.214	473.98
418.591	506.98
418.967	517.37
419.344	481.22
419.721	476.02
420.098	478.5
420.475	490.26
420.852	515.57
421.228	524.83
421.605	524.83
421.982	506.53
422.358	520.76
422.735	529.35
423.111	518.73
423.488	523.02
423.864	529.8
424.241	521.22
424.617	524.15
424.994	530.48
425.37	548.56
425.746	514.21
426.123	551.72
426.499	551.5
426.875	560.76
427.251	544.94
427.627	548.79
428.003	563.47
428.379	566.86
428.756	562.34
429.132	582.46
429.507	561.67
429.883	572.51
430.259	599.86
430.635	592.63
431.011	599.41
431.387	615.22
431.763	598.05
432.138	600.76
432.514	610.03
432.89	615.9
433.265	619.52
433.641	625.39
434.016	617.48
434.392	617.48
434.767	657.48
435.143	644.15
435.518	635.56
435.894	648.67
436.269	647.77
436.644	661.55
437.02	674.43
437.395	657.71
437.77	671.04
438.145	690.02
438.52	683.7
438.895	668.78
439.271	666.52
439.646	687.09
440.021	706.52
440.395	710.59
440.77	686.86
441.145	686.41
441.52	723.47
441.895	711.49
442.27	709.01
442.645	741.1
443.019	730.48
443.394	730.02
443.769	721.44
444.143	737.93
444.518	724.6
444.892	742.45
445.267	770.25
445.641	766.18
446.016	749.91
446.39	769.57
446.764	791.26
447.139	755.33
447.513	761.21
447.887	793.52
448.262	786.74
448.636	771.38
449.01	789.46
449.384	803.02
449.758	828.78
450.132	794.88
450.506	810.47
450.88	810.93
451.254	835.78
451.628	841.43
452.002	827.42
452.376	843.69
452.75	824.94
453.123	847.76
453.497	849.57
453.871	837.59
454.244	850.47
454.618	862.22
454.992	878.49
455.365	915.33
455.739	913.75
456.112	899.96
456.486	914.2
456.859	925.95
457.232	946.06
457.606	936.57
457.979	953.29
458.352	974.54
458.725	963.46
459.099	961.2
459.472	986.06
459.845	995.55
460.218	1011.37
460.591	1019.51
460.964	1033.97
461.337	1046.4
461.71	1069.9
462.083	1073.97
462.456	1097.47
462.829	1105.15
463.201	1071.03
463.574	1125.27
463.947	1139.96
464.32	1150.58
464.692	1136.11
465.065	1167.53
465.438	1204.14
465.81	1237.81
466.183	1231.48
466.555	1257.92
466.928	1236
467.3	1257.69
467.672	1296.11
468.045	1307.64
468.417	1332.04
468.789	1325.71
469.161	1354.19
469.534	1375.2
469.906	1427.63
470.278	1463.79
470.65	1468.53
471.022	1514.64
471.394	1521.64
471.766	1523
472.138	1573.39
472.51	1599.6
472.882	1652.03
473.253	1684.12
473.625	1677.57
473.997	1743.78
474.369	1778.36
474.74	1811.12
475.112	1851.35
475.484	1907.39
475.855	1958.69
476.227	2008.41
476.598	2050.89
476.97	2084.34
477.341	2151.45
477.713	2199.14
478.084	2266.48
478.455	2327.95
478.827	2368.62
479.198	2449.98
479.569	2508.96
479.94	2600.93
480.311	2652.23
480.682	2748.73
481.053	2854.04
481.424	2949.63
481.795	2998.66
482.166	3087.02
482.537	3179.9
482.908	3268.04
483.279	3341.48
483.65	3480.91
484.021	3580.34
484.391	3691.98
484.762	3774.69
485.133	3887.45
485.503	3997.06
485.874	4098.07
486.244	4165.41
486.615	4310.27
486.985	4413.99
487.356	4558.62
487.726	4687.21
488.097	4844.72
488.467	4962.45
488.837	5106.63
489.207	5223.92
489.578	5351.37
489.948	5479.73
490.318	5627.3
490.688	5821.19
491.058	5940.28
491.428	6097.11
491.798	6232.25
492.168	6457.78
492.538	6510.44
492.908	6693.71
493.278	6863.87
493.648	6986.58
494.017	7062.29
494.387	7256.86
494.757	7433.12
495.126	7589.5
495.496	7744.08
495.866	7880.57
496.235	8083.05
496.605	8179.54
496.974	8337.05
497.344	8544.06
497.713	8652.75
498.082	8817.72
498.452	8989.47
498.821	9106.07
499.19	9261.78
499.559	9421.55
499.928	9486.18
500.298	9693.86
500.667	9878.48
501.036	9939.27
501.405	10176.78
501.774	10250
502.143	10314.63
502.512	10461.52
502.88	10673.26
503.249	10862.86
503.618	10914.16
503.987	11120.71
504.356	11256.75
504.724	11369.07
505.093	11501.72
505.462	11608.38
505.83	11811.77
506.199	12008.14
506.567	12170.4
506.936	12245.65
507.304	12417.17
507.672	12476.61
508.041	12674.57
508.409	12837.28
508.777	13087.21
509.145	13144.84
509.514	13170.6
509.882	13284.72
510.25	13491.5
510.618	13673.41
510.986	13714.31
511.354	13904.37
511.722	14098.03
512.09	14281.76
512.458	14220.97
512.826	14427.97
513.193	14583.67
513.561	14632.93
513.929	14902.53
514.297	14990.21
514.664	15111.79
515.032	15229.98
515.4	15437.43
515.767	15502.29
516.135	15592.01
516.502	15668.61
516.869	15944.99
517.237	15984.09
517.604	16086.68
517.972	16358.09
518.339	16386.56
518.706	16537.29
519.073	16592.88
519.44	16743.84
519.808	16991.06
520.175	16972.99
520.542	17229.25
520.909	17338.4
521.276	17353.77
521.643	17699.29
522.009	17711.27
522.376	17867.88
522.743	18089.34
523.11	18272.84
523.477	18434.19
523.843	18579.5
524.21	18772.49
524.577	18875.76
524.943	18838.7
525.31	19205.7
525.676	19235.3
526.043	19443.66
526.409	19510.32
526.776	19791.67
527.142	19889.97
527.508	20012.45
527.874	20170.87
528.241	20310.98
528.607	20400.01
528.973	20667.35
529.339	20514.59
529.705	20856.5
530.071	20950.06
530.437	21011.75
530.803	21153.89
531.169	21271.63
531.535	21232.99
531.901	21403.15
532.267	21484.96
532.632	21657.83
532.998	21787.32
533.364	21878.17
533.73	21945.06
534.095	22080.2
534.461	22147.77
534.826	22385.05
535.192	22420.98
535.557	22632.72
535.923	22641.31
536.288	22807.41
536.653	22862.55
537.019	22812.38
537.384	22975.54
537.749	22973.96
538.114	23130.11
538.479	23169.21
538.845	23244.69
539.21	23286.04
539.575	23600.16
539.94	23517.45
540.305	23712.47
540.67	23608.07
541.034	23754.5
541.399	23834.05
541.764	23944.1
542.129	23995.85
542.494	24086.92
542.858	24243.76
543.223	24194.26
543.587	24223.64
543.952	24268.84
544.316	24356.52
544.681	24321.95
545.045	24561.49
545.41	24760.13
545.774	24742.27
546.138	24789.05
546.503	24924.87
546.867	24859.56
547.231	25096.39
547.595	25127.35
547.959	25188.82
548.324	25232.66
548.688	25305.42
549.052	25503.84
549.416	25457.96
549.779	25571.18
550.143	25537.51
550.507	25812.08
550.871	25982.24
551.235	25860.66
551.599	26148.34
551.962	26100.43
552.326	26130.94
552.689	26324.6
553.053	26311.95
553.417	26342.01
553.78	26793.07
554.143	26531.6
554.507	26805.04
554.87	26900.41
555.234	27124.36
555.597	27048.88
555.96	27127.3
556.323	27256.56
556.686	27349.89
557.05	27508.98
557.413	27603.67
557.776	27660.39
558.139	27780.39
558.502	27836.88
558.865	27824.68
559.228	28132.69
559.59	28144.44
559.953	28377.43
560.316	28591.89
560.679	28545.34
561.041	28706.69
561.404	28981.48
561.767	29060.35
562.129	29056.51
562.492	29298.54
562.854	29330.63
563.217	29314.81
563.579	29484.75
563.941	29693.33
564.304	29771.29
564.666	30037.73
565.028	29954.34
565.39	30166.09
565.753	30402.92
566.115	30492.18
566.477	30618.95
566.839	30443.37
567.201	30784.6
567.563	30781.44
567.925	31089
568.287	31119.73
568.648	30971.94
569.01	31356.34
569.372	31432.94
569.734	31532.15
570.095	31663.9
570.457	31760.85
570.819	31926.94
571.18	31871.13
571.542	32116.32
571.903	32258.46
572.265	32289.42
572.626	32411.68
572.987	32492.58
573.349	32497.55
573.71	32735.06
574.071	32817.32
574.432	32906.35
574.794	32894.83
575.155	33030.19
575.516	32968.95
575.877	33273.12
576.238	33037.65
576.599	33375.72
576.96	33292.56
577.32	33422.5
577.681	33456.17
578.042	33482.38
578.403	33593.11
578.763	33584.98
579.124	33702.04
579.485	33780.23
579.845	33862.49
580.206	33945.2
580.566	33771.19
580.927	33944.97
581.287	34045.53
581.648	33882.37
582.008	34052.31
582.368	34075.36
582.728	34188.8
583.089	34126.21
583.449	34290.95
583.809	34275.81
584.169	34393.54
584.529	34221.12
584.889	34429.93
585.249	34348.8
585.609	34362.13
585.969	34427.67
586.329	34307.22
586.688	34479.64
587.048	34363.04
587.408	34392.41
587.768	34406.88
588.127	34357.16
588.487	34329.59
588.846	34461.79
589.206	34314.68
589.565	34438.06
589.925	34541.34
590.284	34568.68
590.643	34516.25
591.003	34666.08
591.362	34785.62
591.721	34665.63
592.08	34672.86
592.44	34779.98
592.799	34776.13
593.158	34630.6
593.517	34815
593.876	34774.33
594.235	34783.82
594.593	34899.97
594.952	34904.49
595.311	34765.06
595.67	34979.07
596.029	35017.48
596.387	35127.31
596.746	35171.83
597.104	35026.07
597.463	34976.81
597.822	35209.57
598.18	35020.2
598.538	35034.66
598.897	35316.68
599.255	34983.59
599.613	35667.64
599.972	35286.4
600.33	35389.68
600.688	35397.36
601.046	35464.25
601.404	35610.69
601.762	35466.28
602.12	35766.84
602.478	35649.33
602.836	35674.64
603.194	35584.02
603.552	35774.53
603.91	35610.01
604.268	35772.04
604.625	35682.1
604.983	35906.95
605.341	35771.36
605.698	35903.11
606.056	36043.9
606.413	36079.6
606.771	36156.44
607.128	36231.46
607.485	36122.31
607.843	36223.33
608.2	36314.4
608.557	36471.91
608.914	36264.68
609.272	36602.07
609.629	36428.75
609.986	36775.86
610.343	36540.83
610.7	36790.54
611.057	36848.62
611.414	36829.41
611.771	36869.64
612.127	37125.45
612.484	36970.2
612.841	37276.41
613.198	37114.83
613.554	37148.5
613.911	37407.48
614.267	37341.94
614.624	37329.06
614.98	37456.29
615.337	37651.31
615.693	37418.78
616.05	37496.29
616.406	37818.09
616.762	37544.65
617.118	37821.25
617.475	37711.88
617.831	37910.06
618.187	37896.28
618.543	37900.8
618.899	38081.81
619.255	38082.04
619.611	38137.85
619.967	38163.84
620.323	38240.22
620.678	38263.95
621.034	38039.55
621.39	38164.75
621.746	38069.15
622.101	38660.55
622.457	38276.38
622.812	38467.79
623.168	38414.68
623.523	38379.88
623.879	38613.09
624.234	38213.33
624.589	38512.76
624.945	38486.77
625.3	38609.71
625.655	38535.81
626.01	38627.78
626.365	38766.99
626.72	38568.12
627.075	38617.39
627.43	38616.26
627.785	38516.83
628.14	38588.91
628.495	38722.7
628.85	38649.48
629.205	38557.28
629.559	38909.81
629.914	38672.53
630.269	38697.39
630.623	38725.86
630.978	38626.88
631.332	38685.18
631.687	38779.87
632.041	38679.53
632.396	38656.71
632.75	38554.34
633.104	38627.78
633.459	38472.31
633.813	38401.8
634.167	38478.18
634.521	38517.73
634.875	38483.61
635.229	38532.65
635.583	38304.85
635.937	38287
636.291	38300.33
636.645	38314.35
636.999	38298.3
637.352	38375.14
637.706	38180.79
638.06	38315.02
638.413	38352.08
638.767	38082.71
639.121	38229.6
639.474	38009.27
639.828	38070.74
640.181	38078.19
640.534	38129.72
640.888	38003.39
641.241	37846.34
641.594	38063.5
641.947	38007.24
642.301	38049.49
642.654	38085.88
643.007	38025.54
643.36	37901.02
643.713	37866.67
644.066	37903.74
644.419	37688.6
644.771	37537.19
645.124	37122.51
645.477	37109.86
645.83	36944.21
646.182	36783.76
646.535	36620.15
646.888	36859.69
647.24	36465.35
647.593	36575.18
647.945	36702.86
648.298	36595.97
648.65	36546.93
649.002	36453.83
649.355	36562.53
649.707	36512.36
650.059	36550.32
650.411	36964.78
650.763	36997.32
651.115	37444.76
651.467	37336.52
651.819	37270.31
652.171	37216.75
652.523	37154.83
652.875	37158.67
653.227	37145.56
653.578	37178.78
653.93	37116.64
654.282	37075.51
654.633	36969.07
654.985	36926.81
655.337	37153.7
655.688	36965.45
656.039	37212.23
656.391	36802.52
656.742	36889.98
657.094	36860.6
657.445	37023.08
657.796	36928.17
658.147	36934.72
658.498	36850.2
658.849	36801.39
659.2	36799.81
659.551	36757.55
659.902	36882.52
660.253	36820.37
660.604	36869.19
660.955	36802.97
661.306	36877.77
661.656	36773.82
662.007	36613.83
662.358	36769.75
662.708	36691.56
663.059	36712.81
663.409	36448.41
663.76	36807.94
664.11	36724.11
664.461	36770.66
664.811	36760.26
665.161	36596.65
665.511	36668.74
665.862	36662.64
666.212	36832.8
666.562	36713.48
666.912	36630.32
667.262	36731.34
667.612	36612.7
667.962	36645.24
668.312	36567.72
668.662	36805.01
669.011	36659.93
669.361	36430.33
669.711	36533.15
670.06	36579.93
670.41	36352.14
670.76	36362.53
671.109	36598.91
671.459	36545.35
671.808	36316.88
672.157	36574.05
672.507	36287.28
672.856	36364.34
673.205	36296.77
673.554	36416.32
673.904	36342.87
674.253	36507.61
674.602	36286.83
674.951	35888.65
675.3	35656.11
675.649	36343.1
675.998	36139.71
676.346	36139.49
676.695	36253.38
677.044	36000.96
677.393	36032.82
677.741	36162.76
678.09	35905.14
678.438	36035.08
678.787	36091.35
679.135	35993.5
679.484	35708.99
679.832	35850
680.181	35652.95
680.529	35897.46
680.877	35769.78
681.225	35894.07
681.573	35818.14
681.922	35591.71
682.27	35560.07
682.618	35515.1
682.966	35553.97
683.314	35556.9
683.661	35443.46
684.009	35340.41
684.357	35229.23
684.705	35209.57
685.053	35327.08
685.4	35171.38
685.748	35031.49
686.095	35141.77
686.443	34817.26
686.79	34851.39
687.138	34934.55
687.485	34918.5
687.832	34710.82
688.18	34839.41
688.527	34478.51
688.874	34580.21
689.221	34447.33
689.568	34389.7
689.915	34400.1
690.262	34292.76
690.609	34167.11
690.956	34167.79
691.303	34021.13
691.65	33885.99
691.997	34037.62
692.344	33788.36
692.69	33834.46
693.037	33668.82
693.383	33496.17
693.73	33581.14
694.077	33459.78
694.423	33351.76
694.769	33274.93
695.116	33313.57
695.462	33161.71
695.808	33027.25
696.155	33157.87
696.501	32846.69
696.847	32898.89
697.193	32725.79
697.539	32732.57
697.885	32534.38
698.231	32430.21
698.577	32522.18
698.923	32404.67
699.269	32309.31
699.614	32253.26
699.96	32089.65
700.306	32172.81
700.651	31955.87
700.997	31774.86
701.342	31938.47
701.688	31775.76
702.033	31698.47
702.379	31714.29
702.724	31455.32
703.069	31514.52
703.415	31291.03
703.76	31196.34
704.105	31246.73
704.45	31230.01
704.795	30999.96
705.14	30866.86
705.485	30918.83
705.83	30748.22
706.175	30797.26
706.52	30743.25
706.865	30592.06
707.209	30563.36
707.554	30376.7
707.899	30454.44
708.243	30333.76
708.588	30259.87
708.932	30100.78
709.277	30087.22
709.621	30165.18
709.966	29936.49
710.31	29980.78
710.654	29744.85
710.998	29860.78
711.342	29830.27
711.687	29735.14
712.031	29618.76
712.375	29583.73
712.719	29477.52
713.063	29429.16
713.407	29607.46
713.75	29228.71
714.094	29350.06
714.438	29217.64
714.782	29233
715.125	29164.08
715.469	29087.02
715.812	28884.76
716.156	28817.65
716.499	28791.88
716.843	28847.48
717.186	28730.42
717.53	28786.01
717.873	28665.33
718.216	28687.71
718.559	28631.44
718.902	28272.35
719.246	28457.43
719.589	28508.95
719.932	28237.77
720.275	28299.92
720.617	28278.9
720.96	28233.71
721.303	28245.91
721.646	28118.23
721.989	28040.27
722.331	28172.24
722.674	27991
723.016	28036.88
723.359	27921.85
723.701	27915.98
724.044	27854.28
724.386	27670.11
724.729	27716.43
725.071	27644.57
725.413	27604.8
725.755	27568.87
726.097	27398.25
726.439	27361.87
726.782	27305.37
727.124	27404.58
727.465	27362.77
727.807	27384.46
728.149	27272.15
728.491	27246.39
728.833	27190.12
729.175	27106.5
729.516	27090.01
729.858	26966.62
730.199	27126.84
730.541	27091.14
730.882	26822.9
731.224	27057.47
731.565	26847.75
731.906	26826.96
732.248	26808.66
732.589	26680.98
732.93	26673.07
733.271	26653.18
733.612	26691.37
733.953	26649.57
734.294	26599.63
734.635	26543.58
734.976	26530.02
735.317	26417.94
735.658	26363.25
735.999	26335
736.339	26312.18
736.68	26356.24
737.021	26251.16
737.361	26166.42
737.702	26379.52
738.042	26173.65
738.383	26113.31
738.723	26101.79
739.063	25907.44
739.404	26216.36
739.744	26032.18
740.084	25915.8
740.424	25922.36
740.764	25846.65
741.104	25984.95
741.444	25777.95
741.784	25672.87
742.124	25695.69
742.464	25756.03
742.804	25712.42
743.143	25571.86
743.483	25569.82
743.823	25443.05
744.162	25381.8
744.502	25624.51
744.841	25325.76
745.181	25556.72
745.52	25304.97
745.86	25418.87
746.199	25196.95
746.538	25099.1
746.877	25222.03
747.216	25308.81
747.556	25164.86
747.895	25107.01
748.234	25051.87
748.573	25034.92
748.911	24935.71
749.25	24931.19
749.589	24700.92
749.928	24840.8
750.267	24888.71
750.605	24752.89
750.944	24652.56
751.283	24653.91
751.621	24758.09
751.96	24435.61
752.298	24522.62
752.636	24513.8
752.975	24387.71
753.313	24277.43
753.651	24535.5
753.989	24289.4
754.327	24264.55
754.666	24041.73
755.004	24028.62
755.342	24145.68
755.679	24129.86
756.017	23953.59
756.355	24018.9
756.693	23753.6
