Data from hue_20_FLMS001491_66.txt Node
Date: Mon Feb 06 15:34:28 GMT 2017
User: dcchb
Spectrometer: FLMS00149
Trigger mode: 0
Integration Time (sec): 2.000000E-2
Scans to average: 10
Electric dark correction enabled: true
Nonlinearity correction enabled: false
Boxcar width: 0
XAxis mode: Wavelengths
Number of Pixels in Spectrum: 2048
>>>>>Begin Spectral Data<<<<<
341.393	2.2
341.776	2.2
342.16	2.2
342.543	-50.68
342.927	-56.1
343.31	-57.46
343.693	-69.66
344.077	-54.97
344.46	-72.82
344.843	-53.39
345.226	-38.02
345.61	-25.37
345.993	-21.3
346.376	-13.16
346.759	19.15
347.142	27.29
347.525	45.59
347.908	63.22
348.291	70.68
348.674	77.91
349.057	102.31
349.44	132.82
349.823	144.12
350.206	160.84
350.588	197.45
350.971	190.45
351.354	217.79
351.737	234.74
352.119	264.12
352.502	267.96
352.884	266.83
353.267	271.8
353.65	272.93
354.032	268.19
354.414	301.18
354.797	314.74
355.179	324
355.562	311.35
355.944	330.1
356.326	347.05
356.709	330.56
357.091	351.57
357.473	339.37
357.855	349.31
358.238	356.54
358.62	365.58
359.002	333.72
359.384	338.47
359.766	334.62
360.148	329.43
360.53	337.79
360.912	334.62
361.294	331.91
361.676	335.98
362.057	338.24
362.439	335.08
362.821	346.83
363.203	334.4
363.584	325.81
363.966	315.42
364.348	324.68
364.729	316.09
365.111	314.96
365.493	312.25
365.874	328.75
366.256	325.36
366.637	320.16
367.019	306.15
367.4	334.4
367.781	303.44
368.163	312.7
368.544	314.96
368.925	295.08
369.306	309.31
369.688	309.99
370.069	306.6
370.45	320.16
370.831	332.82
371.212	301.63
371.593	299.6
371.974	314.06
372.355	309.09
372.736	311.35
373.117	329.43
373.498	298.47
373.879	320.84
374.26	316.55
374.641	303.89
375.021	311.8
375.402	323.78
375.783	333.27
376.163	328.3
376.544	312.25
376.925	315.64
377.305	308.64
377.686	309.99
378.066	315.64
378.447	337.11
378.827	318.35
379.208	334.85
379.588	338.24
379.968	347.05
380.349	331.23
380.729	321.29
381.109	326.04
381.489	324.23
381.87	305.92
382.25	340.95
382.63	351.57
383.01	335.98
383.39	328.75
383.77	332.82
384.15	323.32
384.53	337.11
384.91	345.7
385.29	333.72
385.67	344.34
386.049	345.02
386.429	338.69
386.809	348.63
387.189	366.94
387.568	342.99
387.948	352.48
388.328	355.19
388.707	353.15
389.087	359.26
389.466	362.87
389.846	361.52
390.225	350.44
390.605	370.33
390.984	346.6
391.363	347.96
391.743	384.34
392.122	364.23
392.501	360.39
392.881	365.13
393.26	366.04
393.639	373.04
394.018	362.19
394.397	370.56
394.776	359.48
395.155	377.33
395.534	393.15
395.913	361.97
396.292	364.68
396.671	385.7
397.05	371.01
397.429	384.79
397.808	380.72
398.186	380.05
398.565	385.02
398.944	400.38
399.323	374.85
399.701	384.57
400.08	373.04
400.458	388.41
400.837	410.78
401.215	395.87
401.594	400.61
401.972	384.34
402.351	415.3
402.729	391.57
403.107	406.94
403.486	407.62
403.864	418.69
404.242	403.1
404.62	407.84
404.999	385.47
405.377	404.68
405.755	416.2
406.133	387.96
406.511	410.55
406.889	416.66
407.267	422.98
407.645	398.13
408.023	416.88
408.401	433.83
408.779	438.58
409.156	436.77
409.534	423.89
409.912	435.41
410.29	449.65
410.667	454.85
411.045	425.47
411.422	455.75
411.8	441.74
412.178	430.89
412.555	460.95
412.933	443.32
413.31	459.59
413.687	449.2
414.065	469.08
414.442	470.89
414.819	467.05
415.197	460.27
415.574	488.07
415.951	455.98
416.328	449.65
416.705	484.68
417.082	488.97
417.46	500.04
417.837	501.4
418.214	484.68
418.591	496.65
418.967	504.79
419.344	481.51
419.721	487.61
420.098	499.14
420.475	499.14
420.852	498.01
421.228	504.34
421.605	526.03
421.982	505.92
422.358	508.63
422.735	513.15
423.111	508.4
423.488	528.74
423.864	504.56
424.241	547.27
424.617	501.63
424.994	530.1
425.37	509.99
425.746	536.88
426.123	526.71
426.499	535.52
426.875	531.91
427.251	542.75
427.627	576.88
428.003	561.06
428.379	578.46
428.756	562.87
429.132	572.36
429.507	567.61
429.883	576.65
430.259	560.38
430.635	582.98
431.011	599.7
431.387	576.2
431.763	589.31
432.138	593.6
432.514	592.7
432.89	589.53
433.265	613.71
433.641	595.63
434.016	629.31
434.392	619.59
434.767	637.21
435.143	622.53
435.518	648.06
435.894	639.47
436.269	662.52
436.644	661.85
437.02	648.74
437.395	657.78
437.77	663.65
438.145	681.06
438.52	657.55
438.895	669.08
439.271	673.15
439.646	682.64
440.021	692.58
440.395	679.25
440.77	698.23
441.145	690.55
441.52	706.82
441.895	711.34
442.27	712.47
442.645	729.19
443.019	721.96
443.394	709.3
443.769	750.88
444.143	715.18
444.518	727.61
444.892	736.2
445.267	735.74
445.641	741.62
446.016	749.53
446.39	739.81
446.764	762.86
447.139	738.68
447.513	738
447.887	762.86
448.262	752.24
448.636	769.19
449.01	782.3
449.384	782.3
449.758	794.27
450.132	777.1
450.506	780.04
450.88	800.83
451.254	785.01
451.628	839.47
452.002	791.11
452.376	823.65
452.75	811.67
453.123	818.45
453.497	850.99
453.871	852.58
454.244	861.84
454.618	845.8
454.992	862.07
455.365	867.49
455.739	905.91
456.112	886.02
456.486	880.6
456.859	933.93
457.232	894.16
457.606	912.01
457.979	919.24
458.352	924.21
458.725	954.72
459.099	963.99
459.472	976.64
459.845	982.97
460.218	982.97
460.591	958.11
460.964	1004.21
461.337	1012.35
461.71	1033.59
462.083	1014.15
462.456	1017.09
462.829	1036.75
463.201	1039.69
463.574	1062.06
463.947	1071.33
464.32	1090.31
464.692	1101.16
465.065	1105.23
465.438	1135.51
465.81	1119.46
466.183	1155.62
466.555	1169.63
466.928	1177.31
467.3	1181.61
467.672	1186.58
468.045	1213.92
468.417	1209.63
468.789	1205.11
469.161	1252.11
469.534	1229.06
469.906	1286.01
470.278	1327.59
470.65	1325.11
471.022	1336.63
471.394	1337.31
471.766	1323.75
472.138	1382.51
472.51	1386.8
472.882	1407.36
473.253	1407.59
473.625	1441.94
473.997	1466.12
474.369	1499.57
474.74	1505.44
475.112	1511.99
475.484	1551.54
475.855	1594.48
476.227	1615.04
476.598	1642.61
476.97	1673.8
477.341	1697.53
477.713	1714.47
478.084	1729.84
478.455	1804.87
478.827	1804.64
479.198	1796.73
479.569	1831.76
479.94	1877.63
480.311	1923.06
480.682	1941.59
481.053	2016.84
481.424	2040.12
481.795	2062.94
482.166	2112.2
482.537	2130.96
482.908	2162.15
483.279	2163.05
483.65	2267.23
484.021	2267.23
484.391	2309.71
484.762	2352.88
485.133	2358.3
485.503	2408.92
485.874	2473.32
486.244	2474.68
486.615	2546.77
486.985	2572.53
487.356	2643.26
487.726	2639.42
488.097	2728.91
488.467	2740.21
488.837	2766.2
489.207	2810.94
489.578	2844.39
489.948	2916.03
490.318	2943.37
490.688	2950.6
491.058	3031.28
491.428	3066.53
491.798	3147.88
492.168	3200.31
492.538	3191.27
492.908	3203.48
493.278	3269.91
493.648	3267.65
494.017	3333.64
494.387	3348.1
494.757	3401.21
495.126	3423.13
495.496	3436.92
495.866	3483.02
496.235	3501.09
496.605	3576.35
496.974	3560.08
497.344	3624.71
497.713	3611.15
498.082	3651.82
498.452	3704.03
498.821	3737.02
499.19	3718.04
499.559	3737.25
499.928	3781.99
500.298	3811.14
500.667	3834.19
501.036	3873.51
501.405	3861.31
501.774	3943.57
502.143	3946.73
502.512	3971.59
502.88	3974.98
503.249	3980.63
503.618	4071.7
503.987	4074.64
504.356	4121.42
504.724	4135.43
505.093	4106.95
505.462	4130.46
505.83	4160.96
506.199	4162.32
506.567	4241.64
506.936	4285.48
507.304	4280.06
507.672	4306.72
508.041	4335.65
508.409	4289.32
508.777	4402.09
509.145	4421.07
509.514	4373.39
509.882	4452.48
510.25	4427.62
510.618	4518.02
510.986	4434.18
511.354	4501.75
511.722	4538.13
512.09	4554.85
512.458	4536.32
512.826	4612.48
513.193	4599.6
513.561	4636.43
513.929	4625.36
514.297	4705.81
514.664	4729.99
515.032	4741.51
515.4	4792.59
515.767	4778.8
516.135	4804.11
516.502	4762.3
516.869	4878.69
517.237	4861.51
517.604	4811.34
517.972	4871.68
518.339	4943.09
518.706	4987.16
519.073	4926.82
519.44	4990.32
519.808	5013.6
520.175	5018.79
520.542	5046.14
520.909	5056.53
521.276	5135.4
521.643	5148.28
522.009	5150.54
522.376	5150.32
522.743	5159.36
523.11	5208.17
523.477	5256.98
523.843	5273.7
524.21	5306.47
524.577	5340.59
524.943	5334.72
525.31	5406.13
525.676	5428.05
526.043	5489.52
526.409	5525.22
526.776	5550.31
527.142	5576.52
527.508	5558.22
527.874	5608.38
528.241	5631.89
528.607	5682.05
528.973	5697.65
529.339	5722.5
529.705	5738.32
530.071	5755.05
530.437	5764.54
530.803	5824.88
531.169	5926.12
531.535	5899.68
531.901	5945.32
532.267	5955.49
532.632	6006.34
532.998	6001.82
533.364	6058.09
533.73	6076.62
534.095	6087.47
534.461	6105.55
534.826	6120.46
535.192	6130.4
535.557	6205.66
535.923	6199.55
536.288	6190.06
536.653	6297.86
537.019	6245.65
537.384	6288.14
537.749	6342.38
538.114	6298.31
538.479	6338.53
538.845	6345.54
539.21	6346.44
539.575	6405.88
539.94	6504.18
540.305	6459.21
540.67	6491.75
541.034	6491.3
541.399	6578.08
541.764	6572.88
542.129	6581.01
542.494	6618.3
542.858	6711.41
543.223	6713.21
543.587	6671.41
543.952	6716.38
544.316	6805.87
544.681	6711.86
545.045	6793.21
545.41	6823.04
545.774	6875.69
546.138	6839.54
546.503	6922.7
546.867	6875.02
547.231	6928.57
547.595	6970.38
547.959	6996.6
548.324	6998.63
548.688	7027.33
549.052	7070.49
549.416	7102.36
549.779	7083.15
550.143	7141.9
550.507	7146.65
550.871	7192.52
551.235	7192.07
551.599	7264.39
551.962	7265.06
552.326	7238.85
552.689	7287.89
553.053	7289.92
553.417	7369.92
553.78	7392.74
554.143	7309.58
554.507	7459.63
554.87	7423.93
555.234	7460.76
555.597	7520.65
555.96	7456.7
556.323	7579.18
556.686	7513.19
557.05	7632.29
557.413	7678.39
557.776	7648.1
558.139	7686.3
558.502	7669.12
558.865	7736.46
559.228	7785.28
559.59	7775.11
559.953	7762.9
560.316	7844.26
560.679	7882
561.041	7887.42
561.404	7933.07
561.767	8030.69
562.129	7997.47
562.492	8055.32
562.854	8047.42
563.217	8082.44
563.579	8173.51
563.941	8121.31
564.304	8132.84
564.666	8224.36
565.028	8250.57
565.39	8239.27
565.753	8306.62
566.115	8354.98
566.477	8324.24
566.839	8371.7
567.201	8478.59
567.563	8427.29
567.925	8524.47
568.287	8474.75
568.648	8488.76
569.01	8614.86
569.372	8651.92
569.734	8601.53
570.095	8694.4
570.457	8697.57
570.819	8708.19
571.18	8786.38
571.542	8825.02
571.903	8811.01
572.265	8857.56
572.626	8895.08
572.987	8949.54
573.349	8955.64
573.71	9032.25
574.071	9122.19
574.432	9045.36
574.794	9176.88
575.155	9255.75
575.516	9290.32
575.877	9382.07
576.238	9353.37
576.599	9419.13
576.96	9480.6
577.32	9572.8
577.681	9625.45
578.042	9723.76
578.403	9813.24
578.763	9777.54
579.124	9919.68
579.485	9973.69
579.845	10138.43
580.206	10212.1
580.566	10242.16
580.927	10378.88
581.287	10502.94
581.648	10578.2
582.008	10694.13
582.368	10766.67
582.728	10932.31
583.089	11056.83
583.449	11201.23
583.809	11265.41
584.169	11438.51
584.529	11574.55
584.889	11823.59
585.249	11887.99
585.609	12101.77
585.969	12283.69
586.329	12432.38
586.688	12646.39
587.048	12889.1
587.408	12953.5
587.768	13215.42
588.127	13452.92
588.487	13664.89
588.846	13916.19
589.206	14025.79
589.565	14273.01
589.925	14585.77
590.284	14751.19
590.643	14916.61
591.003	15282.25
591.362	15510.5
591.721	15619.19
592.08	15905.97
592.44	16286.29
592.799	16473.86
593.158	16719.96
593.517	16975.32
593.876	17289.66
594.235	17565.13
594.593	17898.91
594.952	18208.73
595.311	18352.68
595.67	18566.46
596.029	19058.88
596.387	19318.98
596.746	19606.66
597.104	19773.43
597.463	20037.38
597.822	20423.81
598.18	20583.58
598.538	21030.13
598.897	21265.6
599.255	21389.89
599.613	21951.91
599.972	22054.73
600.33	22512.35
600.688	22677.99
601.046	22931.09
601.404	23318.65
601.762	23561.13
602.12	23894.68
602.478	24198.18
602.836	24485.18
603.194	24628.9
603.552	24919.29
603.91	25156.12
604.268	25457.13
604.625	25642.66
604.983	26052.37
605.341	26098.24
605.698	26528.29
606.056	26653.71
606.413	26983.64
606.771	27349.28
607.128	27533
607.485	27615.04
607.843	27834.01
608.2	28231.97
608.557	28566.88
608.914	28722.13
609.272	29113.53
609.629	29176.35
609.986	29450.69
610.343	29561.88
610.7	30131.13
611.057	30224.69
611.414	30392.82
611.771	30422.65
612.127	30784.67
612.484	31002.97
612.841	31313.7
613.198	31264.21
613.554	31441.38
613.911	31859.44
614.267	31954.13
614.624	32018.99
614.98	32258.53
615.337	32483.84
615.693	32658.07
616.05	32615.58
616.406	33051.96
616.762	33052.41
617.118	33336.02
617.475	33419.63
617.831	33451.04
618.187	33740.3
618.543	33967.86
618.899	34101.65
619.255	34192.94
619.611	34383.9
619.967	34558.81
620.323	34712.93
620.678	34741.63
621.034	34710.22
621.39	34877.9
621.746	34877.22
622.101	35459.35
622.457	35278.79
622.812	35418.9
623.168	35531.44
623.523	35728.5
623.879	35879.9
624.234	35659.8
624.589	35897.3
624.945	36046.23
625.3	36109.28
625.655	36128.03
626.01	36177.52
626.365	36377.52
626.72	36351.98
627.075	36397.63
627.43	36483.96
627.785	36467.69
628.14	36530.96
628.495	36665.65
628.85	36648.7
629.205	36595.82
629.559	36783.38
629.914	36899.31
630.269	36943.83
630.623	36821.57
630.978	36830.61
631.332	37041.46
631.687	36936.6
632.041	37072.19
632.396	37125.75
632.75	36951.51
633.104	37116.71
633.459	37017.28
633.813	37073.32
634.167	37058.86
634.521	37190.83
634.875	37280.55
635.229	37146.99
635.583	37101.57
635.937	37098.4
636.291	37227.21
636.645	37209.36
636.999	37137.95
637.352	37487.32
637.706	37026.31
638.06	37219.08
638.413	37152.41
638.767	37078.97
639.121	37311.28
639.474	36889.82
639.828	36942.25
640.181	36994.23
640.534	37087.56
640.888	37043.94
641.241	36952.42
641.594	36986.99
641.947	37053.66
642.301	37011.17
642.654	36875.36
643.007	37054.56
643.36	36972.53
643.713	36902.7
644.066	37132.98
644.419	36947.22
644.771	36747.9
645.124	36450.96
645.477	36368.93
645.83	36276.96
646.182	36086.9
646.535	35942.5
646.888	36112.21
647.24	35801.71
647.593	36020.24
647.945	35895.95
648.298	35788.38
648.65	35807.59
649.002	35667.25
649.355	35934.37
649.707	35796.06
650.059	35869.96
650.411	36241.02
650.763	36410.06
651.115	36771.86
651.467	36655.7
651.819	36646.21
652.171	36618.87
652.523	36534.58
652.875	36501.36
653.227	36440.12
653.578	36682.14
653.93	36612.77
654.282	36376.84
654.633	36381.36
654.985	36401.47
655.337	36367.12
655.688	36540.9
656.039	36648.92
656.391	36182.49
656.742	36391.98
657.094	36382.04
657.445	36363.73
657.796	36343.39
658.147	36239.89
658.498	36350.17
658.849	36387.69
659.2	36427.46
659.551	36164.87
659.902	36319.89
660.253	36255.04
660.604	36376.39
660.955	36249.39
661.306	36370.96
661.656	36164.87
662.007	36189.95
662.358	36238.99
662.708	36217.3
663.059	36202.38
663.409	35987.47
663.76	36185.21
664.11	36295.03
664.461	36304.07
664.811	36229.05
665.161	36232.44
665.511	36255.71
665.862	36140.46
666.212	36168.26
666.562	36169.61
666.912	36184.53
667.262	36090.97
667.612	36235.15
667.962	36277.41
668.312	36214.81
668.662	36295.26
669.011	36205.09
669.361	36069.73
669.711	36064.53
670.06	36079.22
670.41	36120.35
670.76	35895.04
671.109	36120.12
671.459	36031.31
671.808	35916.06
672.157	36027.92
672.507	35812.56
672.856	35846.68
673.205	35850.53
673.554	35991.54
673.904	35899.79
674.253	36095.72
674.602	35906.8
674.951	35347.94
675.3	35272.91
675.649	35932.11
675.998	35854.59
676.346	35762.39
676.695	35861.37
677.044	35624.09
677.393	35764.43
677.741	35824.99
678.09	35651.21
678.438	35771.88
678.787	35721.04
679.135	35570.76
679.484	35322.4
679.832	35581.61
680.181	35302.29
680.529	35364.89
680.877	35451.67
681.225	35294.61
681.573	35556.97
681.922	35282.18
682.27	35286.25
682.618	35246.25
682.966	35093.71
683.314	35104.78
683.661	35058.23
684.009	35011.68
684.357	34897.56
684.705	34800.16
685.053	34868.63
685.4	34836.09
685.748	34626.15
686.095	34633.16
686.443	34604.91
686.79	34659.15
687.138	34482.65
687.485	34550
687.832	34389.32
688.18	34383.45
688.527	34271.58
688.874	34186.39
689.221	34265.94
689.568	34036.34
689.915	34016.22
690.262	33947.07
690.609	33918.37
690.956	33764.48
691.303	33816.68
691.65	33664.6
691.997	33590.92
692.344	33442.91
692.69	33410.59
693.037	33347.99
693.383	33100.77
693.73	33256.24
694.077	33060.32
694.423	33042.92
694.769	32968.34
695.116	32861.9
695.462	32712.98
695.808	32728.12
696.155	32634.79
696.501	32526.32
696.847	32491.97
697.193	32346.21
697.539	32430.73
697.885	32090.4
698.231	32109.16
698.577	32177.85
698.923	31956.62
699.269	31855.83
699.614	31726.34
699.96	31626.91
700.306	31816.28
700.651	31611.77
700.997	31533.8
701.342	31544.42
701.688	31397.08
702.033	31399.57
702.379	31315.96
702.724	31267.14
703.069	31278.44
703.415	30859.25
703.76	30935.18
704.105	31003.2
704.45	30917.55
704.795	30741.73
705.14	30574.96
705.485	30582.19
705.83	30387.39
706.175	30466.49
706.52	30440.5
706.865	30302.88
707.209	30210
707.554	30085.93
707.899	30200.28
708.243	29978.36
708.588	29901.3
708.932	29823.79
709.277	29742.21
709.621	29777.47
709.966	29635.77
710.31	29614.08
710.654	29476.91
710.998	29434.65
711.342	29479.85
711.687	29333.64
712.031	29240.98
712.375	29148.78
712.719	29210.93
713.063	29131.15
713.407	29290.7
713.75	28968
714.094	29024.72
714.438	28994.66
714.782	28895
715.125	28714.22
715.469	28891.16
715.812	28634.22
716.156	28560.1
716.499	28492.98
716.843	28504.05
717.186	28513.77
717.53	28576.14
717.873	28485.07
718.216	28403.94
718.559	28299.99
718.902	28089.83
719.246	28200.11
719.589	28122.14
719.932	27947.68
720.275	28083.72
720.617	27950.62
720.96	27796.05
721.303	27977.51
721.646	27863.62
721.989	27650.52
722.331	27741.13
722.674	27716.05
723.016	27756.73
723.359	27697.07
723.701	27678.99
724.044	27423.18
724.386	27293.92
724.729	27479.45
725.071	27487.81
725.413	27357.19
725.755	27344.99
726.097	27266.8
726.439	27023.87
726.782	27222.5
727.124	27309.96
727.465	27047.82
727.807	27123.3
728.149	26980.03
728.491	26923.53
728.833	27055.73
729.175	26836.3
729.516	26709.07
729.858	26760.6
730.199	26879.69
730.541	26747.94
730.882	26685.8
731.224	26770.99
731.565	26537.32
731.906	26656.19
732.248	26600.37
732.589	26500.72
732.93	26356.09
733.271	26382.07
733.612	26358.8
733.953	26278.57
734.294	26293.72
734.635	26255.98
734.976	26223.66
735.317	26196.77
735.658	26040.16
735.999	26257.11
736.339	26055.76
736.68	26218.69
737.021	26084.68
737.361	25877.91
737.702	26139.6
738.042	25944.8
738.383	25886.27
738.723	25888.53
739.063	25769.89
739.404	25860.96
739.744	25682.88
740.084	25780.73
740.424	25777.12
740.764	25583.68
741.104	25675.43
741.444	25414.42
741.784	25529.22
742.124	25510.69
742.464	25457.81
742.804	25432.95
743.143	25285.15
743.483	25424.59
743.823	25353.18
744.162	25241.54
744.502	25290.58
744.841	25205.61
745.181	25297.58
745.52	25284.25
745.86	25344.81
746.199	25188.89
746.538	25148.89
746.877	25096.01
747.216	25126.74
747.556	25067.98
747.895	24988.66
748.234	24915.9
748.573	24912.96
748.911	24871.61
749.25	24839.06
749.589	24817.82
749.928	24743.02
750.267	24768.78
750.605	24812.62
750.944	24604.95
751.283	24563.82
751.621	24581.44
751.96	24504.61
752.298	24491.05
752.636	24480.43
752.975	24376.93
753.313	24222.36
753.651	24313.43
753.989	24221.23
754.327	24318.85
754.666	24054.9
755.004	24063.27
755.342	24175.58
755.679	24024.17
756.017	23976.94
756.355	24024.85
756.693	23935.36
757.031	24061.23
757.368	23770.62
757.706	23677.96
758.044	23668.93
758.381	23743.05
758.719	23564.07
759.056	23615.14
759.394	23473.9
759.731	23343.28
760.068	23402.27
760.405	23209.73
760.743	23181.71
761.08	23243.63
