Data from hue_210_FLMS001491_00008.txt Node
Date: Tue Feb 07 16:40:41 GMT 2017
User: dcchb
Spectrometer: FLMS00149
Trigger mode: 0
Integration Time (sec): 2.000000E-2
Scans to average: 10
Electric dark correction enabled: true
Nonlinearity correction enabled: false
Boxcar width: 0
XAxis mode: Wavelengths
Number of Pixels in Spectrum: 2048
>>>>>Begin Spectral Data<<<<<
341.393	-7.68
341.776	-7.68
342.16	-7.68
342.543	-62.37
342.927	-61.47
343.31	-67.34
343.693	-75.93
344.077	-64.18
344.46	-58.08
344.843	-34.58
345.226	-48.59
345.61	-42.26
345.993	-19.66
346.376	7.23
346.759	7.91
347.142	29.83
347.525	44.29
347.908	50.62
348.291	73.9
348.674	106.66
349.057	90.17
349.44	120.67
349.823	150.05
350.206	165.42
350.588	188.24
350.971	202.03
351.354	208.81
351.737	246.32
352.119	237.28
352.502	244.06
352.884	280.9
353.267	285.87
353.65	277.28
354.032	286.09
354.414	304.17
354.797	297.62
355.179	315.92
355.562	333.78
355.944	318.18
356.326	330.16
356.709	317.05
357.091	345.75
357.473	337.84
357.855	339.65
358.238	330.84
358.62	340.56
359.002	332.42
359.384	348.47
359.766	327.22
360.148	322.03
360.53	336.26
360.912	338.52
361.294	345.53
361.676	351.4
362.057	329.71
362.439	327.45
362.821	351.4
363.203	326.77
363.584	326.77
363.966	339.2
364.348	317.05
364.729	331.06
365.111	285.64
365.493	338.52
365.874	320.44
366.256	317.73
366.637	321.35
367.019	319.54
367.4	306.43
367.781	313.21
368.163	332.42
368.544	315.02
368.925	296.04
369.306	346.66
369.688	320.9
370.069	304.4
370.45	300.33
370.831	303.72
371.212	325.42
371.593	293.55
371.974	301.69
372.355	312.76
372.736	295.81
373.117	316.15
373.498	303.04
373.879	317.05
374.26	309.37
374.641	316.83
375.021	315.02
375.402	332.19
375.783	318.64
376.163	315.92
376.544	311.63
376.925	318.64
377.305	319.54
377.686	330.61
378.066	321.35
378.447	322.48
378.827	311.63
379.208	321.35
379.588	319.31
379.968	308.69
380.349	303.95
380.729	326.32
381.109	331.29
381.489	354.34
381.87	334.68
382.25	327.22
382.63	319.09
383.01	335.58
383.39	355.47
383.77	336.94
384.15	335.36
384.53	332.65
384.91	347.34
385.29	358.41
385.67	353.89
386.049	351.63
386.429	337.62
386.809	379.43
387.189	346.66
387.568	366.54
387.948	352.99
388.328	357.73
388.707	352.31
389.087	344.62
389.466	373.32
389.846	363.15
390.225	379.88
390.605	359.31
390.984	373.32
391.363	367.45
391.743	358.63
392.122	376.71
392.501	376.26
392.881	393.89
393.26	376.49
393.639	390.05
394.018	377.84
394.397	376.71
394.776	373.32
395.155	411.97
395.534	392.76
395.913	380.1
396.292	408.35
396.671	423.27
397.05	394.34
397.429	392.53
397.808	417.39
398.186	411.74
398.565	388.69
398.944	385.07
399.323	410.61
399.701	389.82
400.08	421.01
400.458	411.06
400.837	423.27
401.215	416.26
401.594	421.01
401.972	414.23
402.351	418.29
402.729	435.92
403.107	434.34
403.486	431.85
403.864	445.41
404.242	444.73
404.62	440.67
404.999	450.38
405.377	458.52
405.755	482.25
406.133	454.68
406.511	449.93
406.889	471.63
407.267	491.06
407.645	493.32
408.023	493.32
408.401	504.17
408.779	508.01
409.156	498.52
409.534	524.51
409.912	525.64
410.29	526.09
410.667	538.06
411.045	556.82
411.422	562.47
411.8	556.37
412.178	551.85
412.555	578.97
412.933	582.36
413.31	605.63
413.687	607.67
414.065	615.58
414.442	611.74
414.819	618.29
415.197	650.6
415.574	650.6
415.951	648.57
416.328	651.73
416.705	683.37
417.082	687.67
417.46	665.07
417.837	700.09
418.214	715.91
418.591	705.52
418.967	720.88
419.344	750.26
419.721	763.6
420.098	760.88
420.475	774.22
420.852	795.23
421.228	786.19
421.605	813.99
421.982	813.31
422.358	830.03
422.735	835.01
423.111	857.15
423.488	864.84
423.864	870.49
424.241	930.15
424.617	913.2
424.994	904.61
425.37	955.68
425.746	950.71
426.123	987.09
426.499	966.53
426.875	991.84
427.251	1016.92
427.627	1035
428.003	1060.54
428.379	1044.27
428.756	1051.27
429.132	1074.32
429.507	1094.21
429.883	1108.67
430.259	1126.75
430.635	1124.94
431.011	1166.3
431.387	1144.38
431.763	1191.38
432.138	1187.54
432.514	1210.14
432.89	1207.65
433.265	1258.95
433.641	1295.56
434.016	1294.88
434.392	1357.48
434.767	1393.41
435.143	1375.33
435.518	1371.72
435.894	1401.77
436.269	1444.48
436.644	1457.81
437.02	1505.95
437.395	1485.38
437.77	1523.35
438.145	1545.72
438.52	1561.99
438.895	1581.88
439.271	1616.45
439.646	1659.17
440.021	1678.15
440.395	1658.26
440.77	1700.07
441.145	1745.94
441.52	1770.8
441.895	1782.1
442.27	1807.86
442.645	1796.56
443.019	1861.42
443.394	1850.35
443.769	1898.93
444.143	1902.55
444.518	1926.28
444.892	1921.98
445.267	1921.98
445.641	1959.95
446.016	1985.03
446.39	1995.43
446.764	2008.76
447.139	2018.7
447.513	2034.07
447.887	2020.29
448.262	2053.28
448.636	2084.69
449.01	2113.62
449.384	2103.45
449.758	2130.11
450.132	2171.02
450.506	2192.48
450.88	2177.57
451.254	2172.37
451.628	2233.16
452.002	2288.98
452.376	2270.22
452.75	2268.87
453.123	2300.96
453.497	2328.53
453.871	2378.47
454.244	2381.63
454.618	2415.08
454.992	2454.62
455.365	2444.46
455.739	2519.93
456.112	2507.28
456.486	2486.04
456.859	2563.1
457.232	2599.48
457.606	2632.7
457.979	2644.68
458.352	2698.23
458.725	2743.88
459.099	2742.53
459.472	2782.3
459.845	2799.93
460.218	2843.54
460.591	2845.8
460.964	2855.07
461.337	2929.41
461.71	2986.59
462.083	3005.34
462.456	3013.93
462.829	3020.71
463.201	3091.22
463.574	3100.94
463.947	3150.2
464.32	3177.54
464.692	3230.65
465.065	3239.01
465.438	3292.12
465.81	3310.42
466.183	3355.17
466.555	3436.07
466.928	3465.67
467.3	3467.71
467.672	3513.13
468.045	3614.37
468.417	3569.4
468.789	3580.7
469.161	3627.48
469.534	3733.24
469.906	3773.23
470.278	3794.48
470.65	3862.95
471.022	3923.29
471.394	4003.96
471.766	4005.54
472.138	4067.92
472.51	4147.69
472.882	4227.69
473.253	4213
473.625	4272.2
473.997	4363.5
474.369	4323.05
474.74	4449.83
475.112	4532.08
475.484	4580.67
475.855	4634.23
476.227	4623.16
476.598	4800.33
476.97	4815.92
477.341	4883.94
477.713	4933.43
478.084	4997.83
478.455	5139.07
478.827	5112.18
479.198	5284.38
479.569	5252.07
479.94	5395.34
480.311	5431.27
480.682	5608.44
481.053	5643.47
481.424	5738.15
481.795	5822.45
482.166	5842.78
482.537	5897.02
482.908	6053.63
483.279	6021.08
483.65	6160.29
484.021	6268.31
484.391	6342.66
484.762	6431.92
485.133	6392.6
485.503	6474.41
485.874	6654.06
486.244	6692.03
486.615	6774.74
486.985	6829.88
487.356	6967.5
487.726	6948.07
488.097	7131.34
488.467	7117.55
488.837	7261.96
489.207	7311.45
489.578	7412.23
489.948	7509.18
490.318	7543.3
490.688	7541.72
491.058	7711.21
491.428	7721.15
491.798	7811.55
492.168	7976.29
492.538	7958.89
492.908	8019.68
493.278	8144.42
493.648	8107.58
494.017	8241.82
494.387	8272.1
494.757	8334.02
495.126	8471.64
495.496	8469.61
495.866	8466.9
496.235	8526.78
496.605	8576.5
496.974	8679.77
497.344	8717.28
497.713	8696.27
498.082	8770.39
498.452	8808.36
498.821	8868.24
499.19	8887.9
499.559	8898.52
499.928	8924.06
500.298	8977.17
500.667	9108.91
501.036	8996.15
501.405	9155.01
501.774	9061.46
502.143	9135.35
502.512	9153.88
502.88	9208.8
503.249	9159.31
503.618	9318.63
503.987	9338.51
504.356	9318.63
504.724	9329.7
505.093	9408.11
505.462	9383.48
505.83	9427.1
506.199	9483.82
506.567	9584.15
506.936	9529.47
507.304	9676.58
507.672	9575.12
508.041	9653.76
508.409	9637.49
508.777	9750.93
509.145	9701.21
509.514	9764.94
509.882	9808.1
510.25	9809.46
510.618	9806.97
510.986	9817.14
511.354	9838.39
511.722	9953.86
512.09	9957.7
512.458	9870.25
512.826	9880.19
513.193	9975.78
513.561	10006.29
513.929	10000.42
514.297	10037.48
514.664	10106.4
515.032	10095.33
515.4	10143.24
515.767	10141.65
516.135	10137.13
516.502	10074.99
516.869	10158.38
517.237	10190.01
517.604	10069.34
517.972	10194.31
518.339	10172.16
518.706	10206.74
519.073	10180.98
519.44	10200.86
519.808	10245.15
520.175	10262.78
520.542	10321.31
520.909	10251.93
521.276	10171.03
521.643	10281.76
522.009	10329.22
522.376	10289.67
522.743	10309.11
523.11	10363.57
523.477	10458.03
523.843	10439.95
524.21	10512.94
524.577	10560.17
524.943	10463.45
525.31	10477.01
525.676	10475.88
526.043	10546.84
526.409	10553.17
526.776	10534.41
527.142	10496.22
527.508	10586.61
527.874	10544.36
528.241	10580.51
528.607	10510.68
528.973	10529.89
529.339	10450.35
529.705	10546.39
530.071	10484.24
530.437	10611.47
530.803	10546.39
531.169	10592.72
531.535	10503.9
531.901	10485.37
532.267	10551.36
532.632	10550.23
532.998	10513.62
533.364	10550.46
533.73	10542.32
534.095	10527.41
534.461	10499.38
534.826	10481.31
535.192	10407.86
535.557	10501.87
535.923	10354.53
536.288	10396.34
536.653	10441.31
537.019	10343.68
537.384	10301.65
537.749	10279.96
538.114	10160.64
538.479	10265.27
538.845	10209
539.21	10195.44
539.575	10120.41
539.94	10160.64
540.305	10171.26
540.67	10081.32
541.034	10082.67
541.399	10081.09
541.764	10002.67
542.129	9994.99
542.494	9926.97
542.858	9984.82
543.223	9915.45
543.587	9956.12
543.952	9840.87
544.316	9809.23
544.681	9832.96
545.045	9809.91
545.41	9769.46
545.774	9824.83
546.138	9702.8
546.503	9675.45
546.867	9677.49
547.231	9639.07
547.595	9636.13
547.959	9597.04
548.324	9528.56
548.688	9574.21
549.052	9550.26
549.416	9553.42
549.779	9497.6
550.143	9413.54
550.507	9443.82
550.871	9451.73
551.235	9310.04
551.599	9416.93
551.962	9341.9
552.326	9292.86
552.689	9278.63
553.053	9175.13
553.417	9237.27
553.78	9232.75
554.143	9159.99
554.507	9223.71
554.87	9123.38
555.234	9210.15
555.597	9180.32
555.96	9116.6
556.323	9163.83
556.686	9102.59
557.05	9120.44
557.413	9063.26
557.776	9091.96
558.139	9073.89
558.502	9064.39
558.865	9012.42
559.228	9114.34
559.59	9009.25
559.953	9047.45
560.316	9079.99
560.679	9032.08
561.041	9122.02
561.404	9074.11
561.767	9053.1
562.129	9014.23
562.492	9029.82
562.854	9020.78
563.217	9020.78
563.579	9023.49
563.941	9060.55
564.304	9033.66
564.666	9019.88
565.028	9062.59
565.39	9053.55
565.753	9159.31
566.115	9062.36
566.477	9044.96
566.839	9111.17
567.201	9159.76
567.563	9091.29
567.925	9230.27
568.287	9132.42
568.648	9123.6
569.01	9206.99
569.372	9203.83
569.734	9131.74
570.095	9247.89
570.457	9218.74
570.819	9190.04
571.18	9242.92
571.542	9221.45
571.903	9224.16
572.265	9286.76
572.626	9357.95
572.987	9270.04
573.349	9282.47
573.71	9297.61
574.071	9338.29
574.432	9338.96
574.794	9323.37
575.155	9350.04
575.516	9312.52
575.877	9395.69
576.238	9353.65
576.599	9390.71
576.96	9359.53
577.32	9419.41
577.681	9411.28
578.042	9505.51
578.403	9395.01
578.763	9431.62
579.124	9549.58
579.485	9547.32
579.845	9488.34
580.206	9503.03
580.566	9443.82
580.927	9468
581.287	9532.18
581.648	9544.83
582.008	9542.35
582.368	9502.58
582.728	9562.69
583.089	9574.89
583.449	9582.35
583.809	9565.4
584.169	9575.34
584.529	9589.8
584.889	9629.13
585.249	9615.34
585.609	9586.41
585.969	9585.28
586.329	9597.94
586.688	9587.09
587.048	9595
587.408	9602.91
587.768	9621.67
588.127	9620.54
588.487	9643.59
588.846	9696.92
589.206	9630.26
589.565	9657.83
589.925	9644.72
590.284	9717.03
590.643	9718.39
591.003	9743.47
591.362	9690.37
591.721	9763.36
592.08	9717.71
592.44	9771.27
592.799	9728.56
593.158	9740.99
593.517	9721.55
593.876	9804.94
594.235	9759.07
594.593	9768.56
594.952	9816.01
595.311	9738.95
595.67	9683.14
596.029	9785.28
596.387	9828.89
596.746	9770.36
597.104	9695.79
597.463	9792.06
597.822	9768.56
598.18	9712.29
598.538	9755.68
598.897	9795.22
599.255	9699.63
599.613	9832.74
599.972	9791.38
600.33	9762.91
600.688	9778.73
601.046	9837.71
601.404	9827.99
601.762	9843.36
602.12	9855.11
602.478	9835.22
602.836	9861.66
603.194	9812.85
603.552	9790.03
603.91	9815.79
604.268	9845.62
604.625	9809.46
604.983	9818.05
605.341	9787.54
605.698	9903.47
606.056	9944.37
606.413	9810.14
606.771	9917.93
607.128	9840.19
607.485	9862.57
607.843	9846.75
608.2	9928.33
608.557	9967.87
608.914	9907.31
609.272	10000.64
609.629	9914.77
609.986	9990.02
610.343	9964.94
610.7	10046.97
611.057	10001.32
611.414	9938.72
611.771	9970.13
612.127	10011.26
612.484	9964.94
612.841	10074.76
613.198	9945.73
613.554	10075.67
613.911	10074.54
614.267	10020.53
614.624	9936.46
614.98	10043.8
615.337	10054.88
615.693	10070.47
616.05	10065.27
616.406	10141.65
616.762	10098.27
617.118	10033.18
617.475	10095.33
617.831	10037.25
618.187	10152.05
618.543	10076.8
618.899	10097.36
619.255	10121.32
619.611	10108.21
619.967	10178.72
620.323	10161.99
620.678	10102.56
621.034	10109.56
621.39	10159.28
621.746	10130.13
622.101	10202.9
622.457	10116.8
622.812	10094.65
623.168	10166.96
623.523	10136
623.879	10143.24
624.234	10118.6
624.589	10161.77
624.945	10171.48
625.3	10211.93
625.655	10147.08
626.01	10131.26
626.365	10119.96
626.72	10128.55
627.075	10137.13
627.43	10111.15
627.785	10150.69
628.14	10179.62
628.495	10135.55
628.85	10172.39
629.205	10056.68
629.559	10161.09
629.914	10136
630.269	10129.45
630.623	10088.55
630.978	10054.2
631.332	10068.66
631.687	10099.4
632.041	10013.75
632.396	10022.34
632.75	9987.31
633.104	9971.04
633.459	9956.12
633.813	9981.66
634.167	9966.07
634.521	9962.22
634.875	9985.27
635.229	9937.59
635.583	9888.55
635.937	9881.77
636.291	9915.22
636.645	9875.9
636.999	9857.37
637.352	9851.27
637.706	9809.69
638.06	9853.3
638.413	9752.29
638.767	9743.47
639.121	9813.75
639.474	9756.58
639.828	9686.3
640.181	9741.44
640.534	9738.05
640.888	9707.09
641.241	9670.93
641.594	9681.33
641.947	9727.2
642.301	9677.26
642.654	9697.82
643.007	9700.08
643.36	9713.64
643.713	9659.86
644.066	9642.91
644.419	9612.85
644.771	9686.52
645.124	9530.82
645.477	9504.61
645.83	9434.78
646.182	9491.28
646.535	9390.26
646.888	9377.15
647.24	9338.29
647.593	9352.3
647.945	9315.46
648.298	9257.61
648.65	9253.99
649.002	9247.21
649.355	9336.48
649.707	9368.12
650.059	9422.58
650.411	9520.88
650.763	9469.58
651.115	9561.56
651.467	9530.14
651.819	9516.81
652.171	9531.05
652.523	9570.37
652.875	9540.09
653.227	9486.08
653.578	9561.33
653.93	9536.25
654.282	9515.23
654.633	9472.07
654.985	9529.01
655.337	9495.34
655.688	9569.69
656.039	9625.74
656.391	9543.03
656.742	9512.97
657.094	9552.52
657.445	9585.96
657.796	9515.23
658.147	9535.12
658.498	9451.73
658.849	9538.05
659.2	9532.63
659.551	9571.05
659.902	9572.86
660.253	9540.09
660.604	9513.65
660.955	9469.81
661.306	9503.03
661.656	9545.29
662.007	9638.39
662.358	9584.61
662.708	9564.04
663.059	9566.3
663.409	9516.13
663.76	9636.81
664.11	9531.73
664.461	9559.75
664.811	9586.64
665.161	9563.59
665.511	9560.88
665.862	9572.86
666.212	9578.51
666.562	9669.58
666.912	9604.04
667.262	9544.61
667.612	9580.31
667.962	9623.02
668.312	9603.82
668.662	9620.99
669.011	9511.61
669.361	9559.07
669.711	9511.16
670.06	9585.96
670.41	9576.47
670.76	9553.42
671.109	9523.14
671.459	9532.4
671.808	9535.34
672.157	9610.37
672.507	9443.37
672.856	9394.78
673.205	9490.15
673.554	9478.85
673.904	9442.46
674.253	9529.92
674.602	9538.28
674.951	9345.29
675.3	9296.7
675.649	9402.24
675.998	9474.1
676.346	9426.64
676.695	9527.66
677.044	9347.55
677.393	9443.82
677.741	9380.77
678.09	9388.91
678.438	9329.7
678.787	9333.99
679.135	9345.97
679.484	9293.31
679.832	9315.91
680.181	9258.51
680.529	9268
680.877	9296.48
681.225	9284.05
681.573	9324.27
681.922	9217.38
682.27	9174.22
682.618	9231.4
682.966	9153.66
683.314	9178.97
683.661	9107.11
684.009	9081.12
684.357	9096.48
684.705	9139.19
685.053	9088.12
685.4	9049.25
685.748	9005.19
686.095	8984.85
686.443	8956.83
686.79	8952.98
687.138	8965.41
687.485	8961.57
687.832	8838.86
688.18	8854
688.527	8856.72
688.874	8823.04
689.221	8773.78
689.568	8754.12
689.915	8738.3
690.262	8770.62
690.609	8685.87
690.956	8701.92
691.303	8670.96
691.65	8585.76
691.997	8672.09
692.344	8470.29
692.69	8544.18
693.037	8541.02
693.383	8481.36
693.73	8463.73
694.077	8340.35
694.423	8385.09
694.769	8381.7
695.116	8409.95
695.462	8337.63
695.808	8298.31
696.155	8304.87
696.501	8246.56
696.847	8264.42
697.193	8130.86
697.539	8177.19
697.885	8171.08
698.231	8084.76
698.577	8043.4
698.923	8105.32
699.269	7997.3
699.614	7975.84
699.96	7980.36
700.306	7979.45
700.651	7882.28
700.997	7905.1
701.342	7874.14
701.688	7774.71
702.033	7858.32
702.379	7793.02
702.724	7806.35
703.069	7726.8
703.415	7665.11
703.76	7664.66
704.105	7668.27
704.45	7614.26
704.795	7579.46
705.14	7593.25
705.485	7571.1
705.83	7493.14
706.175	7488.62
706.52	7527.71
706.865	7412.91
707.209	7490.2
707.554	7378.11
707.899	7423.76
708.243	7340.37
708.588	7356.42
708.932	7305.12
709.277	7320.49
709.621	7294.5
709.966	7238.91
710.31	7329.98
710.654	7222.41
710.998	7247.27
711.342	7199.58
711.687	7149.42
712.031	7130.89
712.375	7154.84
712.719	7177.21
713.063	7094.73
713.407	7129.76
713.75	7088.4
714.094	7042.07
714.438	7013.83
714.782	7115.97
715.125	6984.68
715.469	7028.97
715.812	6923.89
716.156	6976.99
716.499	6948.29
716.843	7001.85
717.186	6933.15
717.53	6938.35
717.873	6920.95
718.216	6912.13
718.559	6875.98
718.902	6842.53
719.246	6882.76
719.589	6838.92
719.932	6872.14
720.275	6859.71
720.617	6778.13
720.96	6765.7
721.303	6818.13
721.646	6809.54
721.989	6790.56
722.331	6792.14
722.674	6770.9
723.016	6744.46
723.359	6760.05
723.701	6805.24
724.044	6742.65
724.386	6724.57
724.729	6753.72
725.071	6755.08
725.413	6741.97
725.755	6724.12
726.097	6737.9
726.439	6666.27
726.782	6685.47
727.124	6716.21
727.465	6636.89
727.807	6597.79
728.149	6733.61
728.491	6658.58
728.833	6706.26
729.175	6612.48
729.516	6640.73
729.858	6642.76
730.199	6662.65
730.541	6582.88
730.882	6656.1
731.224	6628.07
731.565	6656.55
731.906	6634.63
732.248	6671.46
732.589	6585.82
732.93	6566.83
733.271	6563.22
733.612	6633.95
733.953	6645.47
734.294	6563.67
734.635	6614.97
734.976	6624.01
735.317	6634.4
735.658	6617.45
735.999	6624.01
736.339	6651.12
736.68	6660.16
737.021	6653.16
737.361	6625.59
737.702	6700.39
738.042	6665.59
738.383	6646.38
738.723	6672.14
739.063	6605.02
739.404	6678.02
739.744	6706.26
740.084	6750.33
740.424	6680.5
740.764	6696.1
741.104	6727.28
741.444	6693.61
741.784	6766.38
742.124	6800.73
742.464	6809.54
742.804	6807.28
743.143	6835.75
743.483	6859.93
743.823	6832.81
744.162	6889.08
744.502	6871.91
744.841	6951
745.181	6984.68
745.52	6998.91
745.86	6981.96
746.199	7024.67
746.538	7089.53
746.877	7078.23
747.216	7117.78
747.556	7132.24
747.895	7267.83
748.234	7233.48
748.573	7309.64
748.911	7302.41
749.25	7422.86
749.589	7436.87
749.928	7529.97
750.267	7659.23
750.605	7659.23
750.944	7770.42
751.283	7772.23
751.621	7858.32
751.96	8003.18
752.298	7946.68
752.636	8140.58
752.975	8242.5
753.313	8286.11
753.651	8419.89
753.989	8503.51
754.327	8658.76
754.666	8707.12
755.004	8770.62
755.342	9035.47
755.679	9056.49
756.017	9159.76
756.355	9424.16
756.693	9433.42
757.031	9632.97
757.368	9766.3
757.706	9934.2
758.044	10010.13
758.381	10204.93
758.719	10422.78
759.056	10575.32
759.394	10708.42
759.731	10797.46
760.068	11077.45
760.405	11166.03
760.743	11296.43
761.08	11547.72
761.417	11700.71
761.754	11797.43
762.091	12091.66
762.428	12227.02
762.765	12347.02
763.102	12594.92
763.438	12704.3
763.775	12793.79
764.112	13114.68
764.449	13234.91
764.785	13405.3
765.122	13542.24
765.458	13662.69
765.795	13898.17
