Data from hue_36_FLMS001491_00037.txt Node
Date: Tue Feb 07 17:29:44 GMT 2017
User: dcchb
Spectrometer: FLMS00149
Trigger mode: 0
Integration Time (sec): 2.000000E-2
Scans to average: 10
Electric dark correction enabled: true
Nonlinearity correction enabled: false
Boxcar width: 0
XAxis mode: Wavelengths
Number of Pixels in Spectrum: 2048
>>>>>Begin Spectral Data<<<<<
341.393	-4.9
341.776	-4.9
342.16	-4.9
342.543	-88.51
342.927	-55.97
343.31	-61.4
343.693	-65.46
344.077	-76.31
344.46	-70.44
344.843	-49.42
345.226	-54.17
345.61	-42.64
345.993	-19.36
346.376	5.49
346.759	-5.58
347.142	31.93
347.525	46.17
347.908	52.72
348.291	82.78
348.674	105.83
349.057	119.84
349.44	134.08
349.823	128.88
350.206	157.58
350.588	175.21
350.971	231.7
351.354	233.96
351.737	239.39
352.119	265.15
352.502	258.37
352.884	269.22
353.267	288.88
353.65	299.05
354.032	306.05
354.414	287.52
354.797	321.19
355.179	340.63
355.562	316.45
355.944	336.11
356.326	334.75
356.709	328.2
357.091	328.42
357.473	344.92
357.855	351.25
358.238	336.11
358.62	337.24
359.002	344.24
359.384	351.25
359.766	340.17
360.148	353.28
360.53	332.94
360.912	338.82
361.294	327.52
361.676	346.28
362.057	332.94
362.439	322.77
362.821	351.02
363.203	314.41
363.584	319.61
363.966	339.72
364.348	323.9
364.729	299.5
365.111	316.22
365.493	294.53
365.874	317.8
366.256	336.11
366.637	331.14
367.019	324.36
367.4	318.71
367.781	315.99
368.163	319.16
368.544	297.69
368.925	317.35
369.306	323
369.688	311.7
370.069	330.91
370.45	317.58
370.831	300.18
371.212	294.75
371.593	305.37
371.974	323.9
372.355	324.81
372.736	327.07
373.117	318.71
373.498	338.82
373.879	313.06
374.26	313.28
374.641	326.16
375.021	310.8
375.402	329.1
375.783	304.7
376.163	320.51
376.544	324.58
376.925	336.33
377.305	332.94
377.686	330.46
378.066	318.48
378.447	352.83
378.827	346.05
379.208	347.18
379.588	344.24
379.968	317.12
380.349	337.24
380.729	330.46
381.109	336.11
381.489	334.07
381.87	337.91
382.25	319.84
382.63	316.67
383.01	313.51
383.39	336.56
383.77	336.56
384.15	356.67
384.53	337.69
384.91	359.16
385.29	353.73
385.67	336.78
386.049	364.58
386.429	336.33
386.809	355.99
387.189	356.67
387.568	349.44
387.948	354.64
388.328	344.24
388.707	355.09
389.087	334.53
389.466	364.58
389.846	342.89
390.225	350.8
390.605	358.25
390.984	367.97
391.363	355.54
391.743	374.07
392.122	369.55
392.501	371.13
392.881	372.04
393.26	380.4
393.639	351.7
394.018	377.24
394.397	353.73
394.776	368.42
395.155	379.72
395.534	373.85
395.913	358.71
396.292	376.78
396.671	366.61
397.05	378.82
397.429	376.11
397.808	355.54
398.186	394.86
398.565	395.31
398.944	371.81
399.323	380.63
399.701	359.38
400.08	395.77
400.458	372.04
400.837	392.38
401.215	406.84
401.594	393.05
401.972	400.74
402.351	385.15
402.729	398.48
403.107	397.57
403.486	393.73
403.864	393.73
404.242	400.06
404.62	400.06
404.999	418.82
405.377	397.8
405.755	411.81
406.133	425.37
406.511	414.07
406.889	432.15
407.267	423.34
407.645	413.17
408.023	437.57
408.401	421.98
408.779	441.87
409.156	413.85
409.534	422.66
409.912	438.93
410.29	434.41
410.667	450.45
411.045	433.28
411.422	467.63
411.8	443.67
412.178	438.48
412.555	447.52
412.933	457.23
413.31	437.57
413.687	448.65
414.065	455.43
414.442	479.61
414.819	455.88
415.197	472.15
415.574	479.15
415.951	463.11
416.328	476.67
416.705	472.6
417.082	474.63
417.46	466.5
417.837	489.55
418.214	489.1
418.591	493.16
418.967	500.85
419.344	504.46
419.721	512.15
420.098	503.79
420.475	511.7
420.852	496.33
421.228	504.24
421.605	519.6
421.982	492.26
422.358	499.72
422.735	505.59
423.111	510.57
423.488	518.25
423.864	520.51
424.241	528.64
424.617	520.51
424.994	524.35
425.37	517.57
425.746	509.89
426.123	527.51
426.499	522.32
426.875	529.1
427.251	553.05
427.627	548.98
428.003	559.38
428.379	575.42
428.756	545.82
429.132	558.02
429.507	543.56
429.883	554.18
430.259	559.38
430.635	587.4
431.011	597.34
431.387	612.03
431.763	601.86
432.138	599.6
432.514	602.31
432.89	620.85
433.265	611.58
433.641	593.5
434.016	641.86
434.392	617.68
434.767	640.05
435.143	621.52
435.518	641.86
435.894	635.76
436.269	650.67
436.644	653.61
437.02	658.81
437.395	640.73
437.77	688.41
438.145	647.74
438.52	668.75
438.895	678.7
439.271	672.14
439.646	691.13
440.021	696.32
440.395	687.28
440.77	682.54
441.145	695.87
441.52	707.4
441.895	706.04
442.27	711.01
442.645	687.06
443.019	736.1
443.394	704.46
443.769	734.97
444.143	719.6
444.518	739.94
444.892	737.45
445.267	736.55
445.641	732.48
446.016	733.38
446.39	743.55
446.764	745.59
447.139	750.79
447.513	740.62
447.887	772.93
448.262	766.38
448.636	786.49
449.01	771.35
449.384	769.99
449.758	799.15
450.132	794.4
450.506	822.65
450.88	800.28
451.254	805.93
451.628	801.41
452.002	817
452.376	799.6
452.75	842.99
453.123	816.77
453.497	832.14
453.871	852.03
454.244	859.48
454.618	861.97
454.992	864.45
455.365	888.18
455.739	882.76
456.112	889.54
456.486	911.23
456.859	904
457.232	918.92
457.606	919.59
457.979	949.42
458.352	944.45
458.725	950.55
459.099	985.36
459.472	995.75
459.845	986.94
460.218	998.24
460.591	1000.04
460.964	1005.92
461.337	1045.92
461.71	1047.5
462.083	1055.64
462.456	1054.96
462.829	1071.45
463.201	1060.83
463.574	1087.95
463.947	1067.39
464.32	1071.23
464.692	1129.76
465.065	1109.87
465.438	1142.87
465.81	1159.81
466.183	1159.81
466.555	1188.29
466.928	1210.43
467.3	1215.41
467.672	1191.45
468.045	1281.84
468.417	1279.58
468.789	1294.5
469.161	1320.49
469.534	1321.62
469.906	1326.36
470.278	1378.34
470.65	1390.99
471.022	1413.59
471.394	1435.97
471.766	1470.99
472.138	1470.09
472.51	1549.63
472.882	1536.3
473.253	1545.57
473.625	1602.29
473.997	1627.6
474.369	1666.47
474.74	1665.11
475.112	1710.99
475.484	1745.79
475.855	1783.3
476.227	1798.67
476.598	1887.25
476.97	1892.22
477.341	1978.32
477.713	2025.1
478.084	2076.85
478.455	2110.98
478.827	2141.94
479.198	2233.46
479.569	2246.34
479.94	2327.47
480.311	2378.54
480.682	2440.23
481.053	2509.84
481.424	2580.12
481.795	2608.82
482.166	2708.02
482.537	2738.08
482.908	2835.48
483.279	2905.3
483.65	2984.85
484.021	3068.46
484.391	3163.6
484.762	3195.69
485.133	3282.02
485.503	3324.73
485.874	3422.13
486.244	3533.99
486.615	3643.82
486.985	3726.53
487.356	3821.89
487.726	3894.21
488.097	4000.42
488.467	4069.79
488.837	4211.71
489.207	4320.41
489.578	4377.13
489.948	4448.99
490.318	4574.87
490.688	4635.88
491.058	4768.31
491.428	4814.86
491.798	4966.49
492.168	5085.13
492.538	5133.49
492.908	5250.55
493.278	5338.24
493.648	5405.13
494.017	5549.98
494.387	5656.42
494.757	5759.69
495.126	5827.26
495.496	5897.99
495.866	5979.8
496.235	6119.91
496.605	6162.17
496.974	6265.22
497.344	6392.44
497.713	6480.58
498.082	6529.39
498.452	6647.35
498.821	6668.82
499.19	6753.34
499.559	6851.64
499.928	6982.49
500.298	7007.57
500.667	7140.9
501.036	7192.65
501.405	7303.61
501.774	7308.58
502.143	7417.28
502.512	7468.12
502.88	7566.43
503.249	7636.93
503.618	7735.01
503.987	7778.17
504.356	7873.76
504.724	7927.09
505.093	7990.37
505.462	8071.04
505.83	8193.75
506.199	8310.81
506.567	8380.64
506.936	8398.95
507.304	8470.81
507.672	8558.26
508.041	8598.94
508.409	8690.46
508.777	8788.77
509.145	8843.91
509.514	8943.34
509.882	8982.66
510.25	8993.96
510.618	9054.52
510.986	9086.84
511.354	9196.89
511.722	9273.95
512.09	9323.67
512.458	9408.86
512.826	9416.09
513.193	9481.86
513.561	9585.81
513.929	9648.86
514.297	9760.04
514.664	9798.46
515.032	9878
515.4	9955.29
515.767	9935.85
516.135	10094.27
516.502	10017.66
516.869	10211.1
517.237	10197.09
517.604	10196.41
517.972	10290.2
518.339	10455.16
518.706	10401.83
519.073	10415.62
519.44	10528.83
519.808	10622.16
520.175	10606.12
520.542	10784.65
520.909	10864.42
521.276	10862.38
521.643	10875.72
522.009	10952.78
522.376	11065.99
522.743	11113.45
523.11	11275.93
523.477	11361.81
523.843	11399.77
524.21	11523.38
524.577	11515.47
524.943	11632.08
525.31	11687.45
525.676	11734.9
526.043	11850.83
526.409	11939.42
526.776	12029.58
527.142	12065.29
527.508	12080.43
527.874	12251.05
528.241	12247.43
528.607	12340.31
528.973	12347.09
529.339	12342.57
529.705	12584.15
530.071	12654.65
530.437	12637.93
530.803	12729
531.169	12813.07
531.535	12792.95
531.901	12841.77
532.267	12954.31
532.632	13114.53
532.998	13082.44
533.364	13154.3
533.73	13189.33
534.095	13354.07
534.461	13398.14
534.826	13431.81
535.192	13477.23
535.557	13545.25
535.923	13555.65
536.288	13667.73
536.653	13753.61
537.019	13628.64
537.384	13751.12
537.749	13787.28
538.114	13863.21
538.479	13887.16
538.845	13988.4
539.21	14010.55
539.575	14079.47
539.94	14083.77
540.305	14242.86
540.67	14149.76
541.034	14287.6
541.399	14334.61
541.764	14428.17
542.129	14496.19
542.494	14460.71
542.858	14497.77
543.223	14543.42
543.587	14650.08
543.952	14702.28
544.316	14808.72
544.681	14752.9
545.045	14846.69
545.41	14911.32
545.774	14918.1
546.138	15026.79
546.503	15089.17
546.867	15114.93
547.231	15178.65
547.595	15229.05
547.959	15210.74
548.324	15310.18
548.688	15398.08
549.052	15416.39
549.416	15465.65
549.779	15547.01
550.143	15499.32
550.507	15666.78
550.871	15717.4
551.235	15683.27
551.599	15769.83
551.962	15845.53
552.326	15852.99
552.689	15944.96
553.053	15918.75
553.417	16003.94
553.78	16260.89
554.143	16082.81
554.507	16230.6
554.87	16248.68
555.234	16435.12
555.597	16367.1
555.96	16446.87
556.323	16428.34
556.686	16530.48
557.05	16623.14
557.413	16651.16
557.776	16734.55
558.139	16847.54
558.502	16847.31
558.865	16796.69
559.228	16992.39
559.59	17007.76
559.953	17073.52
560.316	17246.17
560.679	17281.42
561.041	17416.79
561.404	17474.19
561.767	17495.88
562.129	17442.1
562.492	17690
562.854	17701.98
563.217	17625.82
563.579	17732.26
563.941	17729.77
564.304	17888.64
564.666	17967.51
565.028	18062.19
565.39	18123.66
565.753	18240.04
566.115	18235.98
566.477	18346.48
566.839	18357.55
567.201	18467.83
567.563	18523.65
567.925	18645
568.287	18667.6
568.648	18689.75
569.01	18841.61
569.372	19013.81
569.734	18906.24
570.095	19060.13
570.457	19223.07
570.819	19223.75
571.18	19150.75
571.542	19330.64
571.903	19381.71
572.265	19513.23
572.626	19523.17
572.987	19596.84
573.349	19679.78
573.71	19776.95
574.071	19907.34
574.432	19966.78
574.794	20139.43
575.155	20158.41
575.516	20223.95
575.877	20416.03
576.238	20336.49
576.599	20601.11
576.96	20684.5
577.32	20840.88
577.681	20833.2
578.042	21072.51
578.403	21132.85
578.763	21284.48
579.124	21338.27
579.485	21575.32
579.845	21704.81
580.206	21779.61
580.566	21931.92
580.927	21983.9
581.287	22330.78
581.648	22323.1
582.008	22657.78
582.368	22716.54
582.728	22848.06
583.089	22986.13
583.449	23112.01
583.809	23402.17
584.169	23495.27
584.529	23683.97
584.889	23945.88
585.249	24064.3
585.609	24233.11
585.969	24591.51
586.329	24617.5
586.688	24836.03
587.048	25020.66
587.408	25219.07
587.768	25411.61
588.127	25602.56
588.487	25813.4
588.846	26093.4
589.206	26075.32
589.565	26494.74
589.925	26841.17
590.284	26853.15
590.643	27193.03
591.003	27344.89
591.362	27826.46
591.721	27920.47
592.08	27995.72
592.44	28317.97
592.799	28525.65
593.158	28803.61
593.517	28898.97
593.876	29231.39
594.235	29317.04
594.593	29624.83
594.952	29918.38
595.311	29934.88
595.67	30261.87
596.029	30604.01
596.387	30816.66
596.746	31039.25
597.104	31090.55
597.463	31329.87
597.822	31606.02
598.18	31657.77
598.538	31729.63
598.897	32271.31
599.255	32211.2
599.613	32756.27
599.972	32789.49
600.33	33035.13
600.688	32974.34
601.046	33313.09
601.404	33606.42
601.762	33622.69
602.12	34021.1
602.478	34052.28
602.836	34278.72
603.194	34392.61
603.552	34490.92
603.91	34497.92
604.268	34924.58
604.625	34883
604.983	35285.92
605.341	35162.99
605.698	35429.87
606.056	35657.66
606.413	35651.56
606.771	35944.66
607.128	36074.6
607.485	36020.82
607.843	36294.26
608.2	36453.58
608.557	36823.51
608.914	36822.61
609.272	36943.96
609.629	37128.13
609.986	37483.83
610.343	37235.7
610.7	37637.95
611.057	37630.49
611.414	37803.37
611.771	38012.86
612.127	38164.72
612.484	38240.42
612.841	38379.63
613.198	38503.46
613.554	38565.16
613.911	38765.15
614.267	38939.84
614.624	38933.51
614.98	39015.99
615.337	39297.79
615.693	39366.72
616.05	39309.77
616.406	39601.97
616.762	39448.3
617.118	39539.14
617.475	39648.97
617.831	39954.05
618.187	39854.84
618.543	39965.35
618.899	40147.26
619.255	40189.97
619.611	40191.56
619.967	40403.3
620.323	40630.19
620.678	40524.65
621.034	40584.77
621.39	40546.35
621.746	40660.47
622.101	41069.27
622.457	40805.1
622.812	41003.06
623.168	41040.12
623.523	40982.04
623.879	41275.6
624.234	40947.02
624.589	41325.09
624.945	41339.55
625.3	41314.46
625.655	41237.63
626.01	41590.39
626.365	41518.75
626.72	41541.13
627.075	41550.16
627.43	41534.8
627.785	41492.31
628.14	41585.19
628.495	41706.32
628.85	41708.8
629.205	41565.53
629.559	41795.13
629.914	41697.28
630.269	41736.37
630.623	41649.82
630.978	41645.08
631.332	41884.17
631.687	41905.64
632.041	41650.27
632.396	41841
632.75	41578.64
633.104	41658.86
633.459	41542.93
633.813	41635.81
634.167	41569.83
634.521	41596.72
634.875	41690.5
635.229	41556.04
635.583	41538.19
635.937	41608.92
636.291	41562.37
636.645	41547.23
636.999	41498.19
637.352	41646.43
637.706	41451.18
638.06	41613.67
638.413	41555.14
638.767	41406.44
639.121	41610.05
639.474	41340.68
639.828	41467.45
640.181	41471.52
640.534	41506.78
640.888	41441.47
641.241	41225.2
641.594	41401.47
641.947	41471.3
642.301	41305.43
642.654	41267.91
643.007	41263.62
643.36	41281.7
643.713	41132.55
644.066	41288.25
644.419	41181.13
644.771	40835.83
645.124	40515.84
645.477	40602.39
645.83	40305.9
646.182	40192.23
646.535	40008.74
646.888	40162.86
647.24	39962.86
647.593	40207.6
647.945	40165.79
648.298	39903.2
648.65	39920.83
649.002	39840.6
649.355	39980.26
649.707	40077.89
650.059	40173.93
650.411	40594.71
650.763	40510.19
651.115	40952.67
651.467	40850.52
651.819	40775.95
652.171	40668.83
652.523	40597.87
652.875	40589.96
653.227	40479.01
653.578	40749.73
653.93	40673.13
654.282	40522.39
654.633	40437.43
654.985	40512
655.337	40486.01
655.688	40584.77
656.039	40664.99
656.391	40292.34
656.742	40342.06
657.094	40469.06
657.445	40546.8
657.796	40493.92
658.147	40372.79
658.498	40436.52
658.849	40491.89
659.2	40359.01
659.551	40381.16
659.902	40534.82
660.253	40400.59
660.604	40462.28
660.955	40169.18
661.306	40417.76
661.656	40313.81
662.007	40361.72
662.358	40415.51
662.708	40462.28
663.059	40140.48
663.409	40097.77
663.76	40307.71
664.11	40326.69
664.461	40280.37
664.811	40269.75
665.161	40327.37
665.511	40169.64
665.862	40233.81
666.212	40316.98
666.562	40267.49
666.912	40093.93
667.262	40021.17
667.612	40067.49
667.962	40183.65
668.312	40154.95
668.662	40407.37
669.011	40287.15
669.361	40157.66
669.711	40073.82
670.06	40100.49
670.41	40002.18
670.76	40049.64
671.109	40138
671.459	39945.01
671.808	39920.15
672.157	40031.79
672.507	39821.62
672.856	39815.52
673.205	39931
673.554	40001.28
673.904	39877.67
674.253	40127.83
674.602	40010.32
674.951	39495.53
675.3	39255.08
675.649	39802.87
675.998	39894.84
676.346	39837.89
676.695	39967.61
677.044	39650.33
677.393	39843.77
677.741	39777.33
678.09	39629.99
678.438	39683.55
678.787	39671.12
679.135	39751.79
679.484	39374.4
679.832	39608.75
680.181	39385.48
680.529	39562.87
680.877	39349.77
681.225	39171.47
681.573	39523.1
681.922	39255.08
682.27	39200.17
682.618	39166.05
682.966	38985.49
683.314	39059.16
683.661	38933.28
684.009	38855.55
684.357	38780.97
684.705	38727.87
685.053	38826.85
685.4	38609.9
685.748	38615.33
686.095	38614.2
686.443	38475.22
686.79	38373.3
687.138	38437.7
687.485	38436.35
687.832	38308.22
688.18	38420.98
688.527	38064.83
688.874	38124.27
689.221	38019.18
689.568	37870.26
689.915	37791.17
690.262	37849.7
690.609	37844.05
690.956	37556.37
691.303	37519.76
691.65	37474.79
691.997	37382.59
692.344	37138.53
692.69	37349.6
693.037	37138.53
693.383	36864.41
693.73	37111.41
694.077	36744.64
694.423	36833.45
694.769	36641.37
695.116	36673.23
695.462	36535.83
695.808	36424.65
696.155	36512.33
696.501	36284.99
696.847	36268.27
697.193	35979.69
697.539	36126.35
697.885	35901.27
698.231	35783.31
698.577	35732.01
698.923	35810.43
699.269	35603.88
699.614	35438.23
699.96	35463.54
700.306	35338.12
700.651	35270.78
700.997	35068.53
701.342	35213.83
701.688	35088.41
702.033	34885.48
702.379	34887.97
702.724	34779.5
703.069	34890.9
703.415	34574.08
703.76	34555.32
704.105	34482.55
704.45	34483.91
704.795	34286.17
705.14	34129.12
705.485	34256.12
705.83	33964.83
706.175	34003.24
706.52	33863.81
706.865	33746.75
707.209	33799.63
707.554	33739.3
707.899	33783.36
708.243	33563.93
708.588	33381.11
708.932	33367.1
709.277	33200.55
709.621	33260.89
709.966	33120.33
710.31	33194.23
710.654	32819.77
710.998	32927.57
711.342	32909.71
711.687	32969.15
712.031	32791.07
712.375	32674.47
712.719	32674.69
713.063	32496.62
713.407	32629.95
713.75	32500.01
714.094	32382.27
714.438	32299.33
714.782	32340.01
715.125	32139.34
715.469	32173.46
715.812	32017.76
716.156	31848.27
716.499	31911.77
716.843	31969.63
717.186	31737.77
717.53	31893.7
717.873	31846.24
718.216	31718.78
718.559	31634.49
718.902	31430.66
719.246	31587.49
719.589	31343.2
719.932	31252.13
720.275	31291.9
720.617	31328.51
720.96	31113.83
721.303	31073.6
721.646	31084.23
721.989	30943.44
722.331	31019.59
722.674	30966.49
723.016	30958.8
723.359	30864.57
723.701	30941.4
724.044	30630.9
724.386	30569.21
724.729	30795.19
725.071	30684.69
725.413	30609.66
725.755	30539.15
726.097	30467.97
726.439	30330.12
726.782	30359.95
727.124	30468.87
727.465	30163.12
727.807	30277.47
728.149	30123.57
728.491	30141.88
728.833	30243.57
729.175	29944.14
729.516	29929.91
729.858	29908.89
730.199	29992.5
730.541	29879.28
730.882	29995.44
731.224	29900.3
731.565	29658.05
731.906	29673.41
732.248	29645.39
732.589	29554.77
732.93	29503.48
733.271	29601.55
733.612	29534.21
733.953	29611.95
734.294	29503.93
734.635	29377.15
734.976	29504.83
735.317	29273.88
735.658	29136.25
735.999	29205.86
736.339	29252.86
736.68	29336.47
737.021	29144.39
737.361	28982.36
737.702	29149.81
738.042	29070.27
738.383	28915.02
738.723	28989.82
739.063	28913.21
739.404	28995.01
739.744	28906.2
740.084	28744.63
740.424	28790.5
740.764	28582.6
741.104	28725.64
741.444	28555.93
741.784	28623.27
742.124	28532.2
742.464	28434.35
742.804	28436.16
743.143	28356.61
743.483	28398.87
743.823	28139.9
744.162	28171.76
744.502	28256.73
744.841	28222.15
745.181	28283.85
745.52	28116.62
745.86	28239.1
746.199	28198.88
746.538	28048.6
746.877	28050.18
747.216	28160.46
747.556	27984.19
747.895	27901.71
748.234	27846.34
748.573	27828.72
748.911	27731.09
749.25	27718.89
749.589	27684.99
749.928	27681.83
750.267	27636.63
750.605	27474.6
750.944	27480.48
751.283	27282.07
751.621	27451.78
751.96	27263.08
752.298	27333.82
752.636	27250.2
752.975	27169.75
753.313	27025.8
753.651	27101.5
753.989	27047.04
754.327	26992.13
754.666	26926.59
755.004	26997.78
755.342	27021.73
755.679	26893.15
756.017	26748.97
756.355	26856.77
756.693	26678.92
757.031	26633.72
757.368	26531.58
757.706	26550.11
