Data from hue_50_FLMS001491_98.txt Node
Date: Mon Feb 06 15:11:22 GMT 2017
User: dcchb
Spectrometer: FLMS00149
Trigger mode: 0
Integration Time (sec): 2.000000E-2
Scans to average: 10
Electric dark correction enabled: true
Nonlinearity correction enabled: false
Boxcar width: 0
XAxis mode: Wavelengths
Number of Pixels in Spectrum: 2048
>>>>>Begin Spectral Data<<<<<
341.393	-14.34
341.776	-14.34
342.16	-14.34
342.543	-44.17
342.927	-65.18
343.31	-51.4
343.693	-71.96
344.077	-61.79
344.46	-60.66
344.843	-64.96
345.226	-43.26
345.61	-15.47
345.993	-5.07
346.376	-25.18
346.759	2.39
347.142	21.6
347.525	36.28
347.908	60.46
348.291	88.26
348.674	89.39
349.057	101.37
349.44	124.42
349.823	122.84
350.206	153.34
350.588	201.25
350.971	210.97
351.354	232.44
351.737	247.35
352.119	228.82
352.502	265.88
352.884	279.44
353.267	291.19
353.65	302.72
354.032	300.46
354.414	302.49
354.797	314.47
355.179	344.52
355.562	309.05
355.944	324.86
356.326	339.55
356.709	334.13
357.091	349.5
357.473	335.49
357.855	350.17
358.238	365.99
358.62	347.01
359.002	363.73
359.384	358.76
359.766	342.94
360.148	342.04
360.53	334.13
360.912	354.69
361.294	326.22
361.676	322.15
362.057	355.82
362.439	335.49
362.821	326.22
363.203	349.27
363.584	345.88
363.966	324.19
364.348	315.83
364.729	325.32
365.111	326.45
365.493	311.08
365.874	323.96
366.256	311.08
366.637	323.73
367.019	330.06
367.4	330.29
367.781	310.4
368.163	328.48
368.544	323.06
368.925	328.71
369.306	311.76
369.688	306.79
370.069	318.76
370.45	305.66
370.831	300.68
371.212	304.53
371.593	335.94
371.974	342.04
372.355	322.83
372.736	325.77
373.117	333.68
373.498	341.14
373.879	348.14
374.26	326.67
374.641	326.67
375.021	311.31
375.402	329.61
375.783	333.68
376.163	336.84
376.544	358.08
376.925	322.6
377.305	330.51
377.686	339.33
378.066	344.75
378.447	336.16
378.827	340.01
379.208	326.9
379.588	330.51
379.968	338.88
380.349	339.55
380.729	340.01
381.109	336.39
381.489	345.88
381.87	323.73
382.25	348.14
382.63	337.75
383.01	338.42
383.39	347.69
383.77	363.96
384.15	342.27
384.53	354.47
384.91	350.17
385.29	356.73
385.67	360.12
386.049	374.81
386.429	346.11
386.809	372.55
387.189	367.12
387.568	353.11
387.948	364.41
388.328	361.7
388.707	377.29
389.087	375.48
389.466	364.41
389.846	365.99
390.225	374.13
390.605	366.9
390.984	389.5
391.363	368.03
391.743	371.42
392.122	383.62
392.501	371.19
392.881	395.37
393.26	363.96
393.639	398.53
394.018	405.99
394.397	379.78
394.776	391.53
395.155	422.26
395.534	401.25
395.913	398.31
396.292	386.33
396.671	395.37
397.05	397.86
397.429	411.87
397.808	402.6
398.186	404.41
398.565	415.71
398.944	395.6
399.323	403.05
399.701	411.87
400.08	410.74
400.458	416.61
400.837	422.49
401.215	413
401.594	408.25
401.972	410.51
402.351	417.74
402.729	417.52
403.107	420
403.486	455.48
403.864	434.01
404.242	425.65
404.62	431.75
404.999	437.86
405.377	431.98
405.755	457.97
406.133	438.76
406.511	426.33
406.889	451.64
407.267	457.52
407.645	444.64
408.023	469.27
408.401	476.5
408.779	438.76
409.156	445.77
409.534	470.85
409.912	465.65
410.29	479.21
410.667	452.54
411.045	471.53
411.422	487.57
411.8	492.32
412.178	500.9
412.555	493.22
412.933	483.28
413.31	490.06
413.687	518.31
414.065	502.94
414.442	497.06
414.819	520.34
415.197	507.46
415.574	529.38
415.951	503.16
416.328	531.86
416.705	530.51
417.082	512.88
417.46	517.4
417.837	545.2
418.214	539.32
418.591	535.03
418.967	557.4
419.344	526.89
419.721	583.61
420.098	559.43
420.475	559.89
420.852	563.73
421.228	572.54
421.605	576.16
421.982	578.64
422.358	575.03
422.735	550.62
423.111	571.41
423.488	595.14
423.864	605.76
424.241	623.61
424.617	620.45
424.994	629.26
425.37	589.04
425.746	610.96
426.123	631.07
426.499	613.9
426.875	639.43
427.251	624.07
427.627	622.48
428.003	638.3
428.379	649.6
428.756	638.98
429.132	654.35
429.507	667.91
429.883	648.92
430.259	684.63
430.635	677.17
431.011	669.04
431.387	687.79
431.763	698.41
432.138	707.23
432.514	710.16
432.89	690.96
433.265	714.91
433.641	728.7
434.016	746.55
434.392	743.84
434.767	746.55
435.143	750.62
435.518	765.76
435.894	755.14
436.269	772.08
436.644	765.3
437.02	774.34
437.395	763.95
437.77	782.48
438.145	780.9
438.52	813.89
438.895	834.46
439.271	817.73
439.646	832.87
440.021	832.87
440.395	824.06
440.77	838.52
441.145	851.63
441.52	838.75
441.895	859.99
442.27	864.06
442.645	828.81
443.019	867.9
443.394	859.09
443.769	895.02
444.143	884.85
444.518	879.65
444.892	896.15
445.267	894.11
445.641	912.42
446.016	923.72
446.39	921.23
446.764	923.49
447.139	923.72
447.513	949.25
447.887	916.49
448.262	934.34
448.636	940.44
449.01	951.97
449.384	984.06
449.758	954.23
450.132	1001.68
450.506	967.33
450.88	970.27
451.254	992.19
451.628	1003.26
452.002	1024.73
452.376	990.84
452.75	1044.17
453.123	1049.14
453.497	1049.59
453.871	1058.18
454.244	1105.41
454.618	1075.13
454.992	1060.89
455.365	1094.11
455.739	1104.96
456.112	1116.93
456.486	1154.9
456.859	1142.24
457.232	1167.1
457.606	1151.06
457.979	1158.97
458.352	1164.16
458.725	1215.69
459.099	1192.86
459.472	1232.41
459.845	1275.12
460.218	1252.52
460.591	1269.92
460.964	1257.04
461.337	1288
461.71	1302.47
462.083	1342.69
462.456	1348.79
462.829	1323.48
463.201	1363.93
463.574	1379.3
463.947	1424.04
464.32	1418.17
464.692	1445.06
465.065	1445.06
465.438	1478.28
465.81	1498.39
466.183	1514.44
466.555	1527.77
466.928	1563.25
467.3	1570.03
467.672	1592.18
468.045	1637.6
468.417	1653.19
468.789	1651.84
469.161	1716.01
469.534	1737.48
469.906	1720.99
470.278	1779.06
470.65	1808.44
471.022	1839.63
471.394	1895.9
471.766	1895.22
472.138	1919.62
472.51	1979.06
472.882	2002.33
473.253	2045.27
473.625	2062.67
473.997	2134.08
474.369	2131.6
474.74	2189
475.112	2233.29
475.484	2288.65
475.855	2387.86
476.227	2404.13
476.598	2474.86
476.97	2479.84
477.341	2583.11
477.713	2613.84
478.084	2651.58
478.455	2767.51
478.827	2802.09
479.198	2918.92
479.569	2945.13
479.94	3046.15
480.311	3126.6
480.682	3178.12
481.053	3312.36
481.424	3353.49
481.795	3423.09
482.166	3529.07
482.537	3612.46
482.908	3729.29
483.279	3775.4
483.65	3878.44
484.021	4044.54
484.391	4111.43
484.762	4153.92
485.133	4263.07
485.503	4409.73
485.874	4560.01
486.244	4661.93
486.615	4742.83
486.985	4850.62
487.356	4967.23
487.726	5113.89
488.097	5269.37
488.467	5332.42
488.837	5468.46
489.207	5607.44
489.578	5754.33
489.948	5842.91
490.318	5990.93
490.688	6105.5
491.058	6298.27
491.428	6456.68
491.798	6477.7
492.168	6721.31
492.538	6851.92
492.908	6910.23
493.278	7136.21
493.648	7201.52
494.017	7403.32
494.387	7447.61
494.757	7622.75
495.126	7861.84
495.496	7848.96
495.866	8055.28
496.235	8168.05
496.605	8359.91
496.974	8434.26
497.344	8628.83
497.713	8749.73
498.082	8842.83
498.452	9022.71
498.821	9187
499.19	9210.73
499.559	9365.76
499.928	9510.39
500.298	9666.99
500.667	9753.99
501.036	9775.46
501.405	9951.73
501.774	10103.82
502.143	10216.13
502.512	10347.2
502.88	10444.37
503.249	10656.12
503.618	10701.99
503.987	10803.23
504.356	10905.6
504.724	11029.89
505.093	11191.7
505.462	11240.96
505.83	11398.25
506.199	11481.63
506.567	11666.26
506.936	11678.92
507.304	11869.87
507.672	12007.27
508.041	12156.64
508.409	12267.38
508.777	12416.3
509.145	12492.45
509.514	12602.06
509.882	12753.92
510.25	12749.4
510.618	12898.09
510.986	13006.79
511.354	13121.14
511.722	13311.19
512.09	13426.44
512.458	13420.57
512.826	13518.87
513.193	13687.45
513.561	13730.61
513.929	13918.63
514.297	14045.86
514.664	14141.45
515.032	14184.84
515.4	14430.71
515.767	14491.95
516.135	14545.51
516.502	14576.92
516.869	14832.05
517.237	14942.79
517.604	14860.3
517.972	15128.54
518.339	15176.23
518.706	15377.12
519.073	15327.63
519.44	15539.15
519.808	15704.35
520.175	15672.94
520.542	15896.66
520.909	15942.31
521.276	16130.32
521.643	16226.82
522.009	16349.53
522.376	16313.6
522.743	16539.58
523.11	16692.8
523.477	16818.22
523.843	16982.28
524.21	17184.08
524.577	17248.94
524.943	17404.87
525.31	17450.74
525.676	17632.88
526.043	17727.34
526.409	17849.6
526.776	17980.67
527.142	18096.37
527.508	18180.21
527.874	18405.29
528.241	18457.27
528.607	18478.51
528.973	18766.64
529.339	18646.19
529.705	18961.44
530.071	18978.39
530.437	19144.03
530.803	19147.87
531.169	19293.18
531.535	19369.11
531.901	19520.52
532.267	19551.03
532.632	19743.11
532.998	19732.72
533.364	19904.46
533.73	20019.49
534.095	20174.96
534.461	20172.25
534.826	20322.3
535.192	20292.93
535.557	20538.8
535.923	20546.48
536.288	20610.66
536.653	20779.47
537.019	20619.7
537.384	20772.69
537.749	20900.82
538.114	20966.81
538.479	20925.68
538.845	21186.46
539.21	21057.65
539.575	21217.42
539.94	21388.04
540.305	21435.04
540.67	21640.69
541.034	21573.35
541.399	21682.49
541.764	21719.78
542.129	21854.02
542.494	21817.41
542.858	22019.21
543.223	22062.15
543.587	22169.71
543.952	22166.1
544.316	22268.69
544.681	22258.07
545.045	22338.3
545.41	22537.39
545.774	22515.69
546.138	22536.71
546.503	22527.9
546.867	22675.01
547.231	22950.71
547.595	22950.94
547.959	23046.07
548.324	23079.52
548.688	23176.92
549.052	23206.52
549.416	23180.99
549.779	23374.2
550.143	23477.7
550.507	23682.22
550.871	23472.05
551.235	23565.16
551.599	23884.7
551.962	23892.61
552.326	23921.53
552.689	24092.15
553.053	23957.24
553.417	24140.96
553.78	24305.7
554.143	24341.41
554.507	24472.48
554.87	24584.34
555.234	24676.77
555.597	24721.51
555.96	24819.59
556.323	24877.89
556.686	24936.19
557.05	25071.33
557.413	25064.33
557.776	25145.23
558.139	25270.65
558.502	25404.43
558.865	25414.6
559.228	25622.5
559.59	25696.85
559.953	25713.35
560.316	26060.91
560.679	25983.4
561.041	26198.08
561.404	26290.06
561.767	26436.04
562.129	26424.97
562.492	26639.43
562.854	26523.72
563.217	26666.77
563.579	26779.76
563.941	27064.73
564.304	27044.61
564.666	27285.96
565.028	27320.76
565.39	27395.56
565.753	27645.5
566.115	27690.47
566.477	27861.54
566.839	27783.13
567.201	28017.47
567.563	27974.76
567.925	28259.95
568.287	28200.74
568.648	28349.89
569.01	28366.84
569.372	28645.48
569.734	28533.61
570.095	28764.79
570.457	28744.46
570.819	28907.16
571.18	29062.19
571.542	29158.23
571.903	29143.09
572.265	29385.34
572.626	29453.59
572.987	29445.68
573.349	29459.24
573.71	29699.23
574.071	29881.15
574.432	29923.18
574.794	30114.14
575.155	30074.82
575.516	29977.64
575.877	30300.12
576.238	30403.85
576.599	30566.78
576.96	30634.8
577.32	30695.59
577.681	30843.16
578.042	31020.33
578.403	30955.92
578.763	31160.44
579.124	31293.09
579.485	31395.01
579.845	31679.97
580.206	31390.26
580.566	31561.78
580.927	31688.79
581.287	31879.06
581.648	31905.73
582.008	32081.54
582.368	32096.46
582.728	32292.39
583.089	32229.79
583.449	32355.89
583.809	32531.25
584.169	32611.02
584.529	32544.81
584.889	32928.98
585.249	32779.38
585.609	32936.66
585.969	33200.84
586.329	33130.78
586.688	33321.51
587.048	33371.91
587.408	33404.45
587.768	33469.53
588.127	33593.14
588.487	33708.39
588.846	34105.9
589.206	33906.58
589.565	33956.52
589.925	34231.32
590.284	34183.41
590.643	34254.14
591.003	34570.29
591.362	34719.89
591.721	34589.95
592.08	34830.85
592.44	34988.36
592.799	35067.91
593.158	35183.83
593.517	35104.06
593.876	35250.73
594.235	35381.8
594.593	35407.56
594.952	35674.22
595.311	35485.75
595.67	35703.14
596.029	35986.98
596.387	35973.87
596.746	36216.8
597.104	36068.78
597.463	36074.88
597.822	36312.39
598.18	36254.54
598.538	36325.95
598.897	36617.24
599.255	36365.95
599.613	37005.03
599.972	36884.58
600.33	36904.24
600.688	36864.24
601.046	37038.02
601.404	37281.63
601.762	37297.68
602.12	37559.14
602.478	37507.39
602.836	37491.34
603.194	37484.11
603.552	37541.96
603.91	37490.89
604.268	37821.28
604.625	37690.44
604.983	37940.15
605.341	37905.12
605.698	38046.58
606.056	38199.57
606.413	38182.63
606.771	38392.79
607.128	38399.57
607.485	38359.8
607.843	38404.54
608.2	38561.15
608.557	38863.29
608.914	38611.54
609.272	38814.7
609.629	38948.03
609.986	39049.72
610.343	39175.14
610.7	39363.16
611.057	39335.82
611.414	39413.33
611.771	39407.68
612.127	39656.26
612.484	39631.18
612.841	39804.96
613.198	39655.13
613.554	39756.14
613.911	39937.38
614.267	40038.17
614.624	39887.67
614.98	40079.98
615.337	40298.95
615.693	40180.54
616.05	40307.32
616.406	40493.3
616.762	40414.21
617.118	40438.16
617.475	40475.45
617.831	40798.15
618.187	40726.74
618.543	40850.58
618.899	40892.39
619.255	40975.55
619.611	40975.77
619.967	41076.34
620.323	41056.9
620.678	40938.03
621.034	40941.88
621.39	40998.37
621.746	41045.6
622.101	41469.77
622.457	41181.64
622.812	41211.25
623.168	41349.32
623.523	41299.61
623.879	41402.2
624.234	41169.89
624.589	41455.53
624.945	41514.97
625.3	41470.68
625.655	41600.39
626.01	41507.28
626.365	41687.84
626.72	41607.17
627.075	41444.91
627.43	41654.4
627.785	41580.28
628.14	41645.81
628.495	41624.34
628.85	41664.12
629.205	41545.7
629.559	41694.17
629.914	41635.87
630.269	41773.04
630.623	41600.39
630.978	41476.55
631.332	41777.33
631.687	41867.05
632.041	41620.05
632.396	41733.04
632.75	41600.84
633.104	41629.32
633.459	41561.52
633.813	41588.41
634.167	41552.03
634.521	41488.98
634.875	41656.66
635.229	41521.97
635.583	41413.28
635.937	41316.1
636.291	41293.96
636.645	41413.73
636.999	41213.05
637.352	41448.98
637.706	41232.94
638.06	41362.43
638.413	41217.57
638.767	41061.19
639.121	41309.32
639.474	40928.09
639.828	41026.84
640.181	41181.19
640.534	41071.36
640.888	41009.22
641.241	40837.02
641.594	40822.56
641.947	41058.71
642.301	40904.36
642.654	40919.05
643.007	40880.41
643.36	40965.38
643.713	40877.24
644.066	40917.47
644.419	40563.35
644.771	40557.93
645.124	40078.4
645.477	40068.9
645.83	39787.1
646.182	39795.46
646.535	39490.39
646.888	39662.36
647.24	39507.79
647.593	39685.64
647.945	39535.36
648.298	39501.24
648.65	39382.37
649.002	39106.9
649.355	39411.52
649.707	39327.91
650.059	39441.12
650.411	40059.64
650.763	39983.26
651.115	40378.5
651.467	40215.11
651.819	40252.4
652.171	40213.76
652.523	40119.3
652.875	40142.8
653.227	39900.77
653.578	40192.06
653.93	40200.88
654.282	39914.33
654.633	39819.42
654.985	39823.71
655.337	39988
655.688	40039.53
656.039	40043.37
656.391	39833.88
656.742	39769.7
657.094	39897.38
657.445	39983.71
657.796	39861.23
658.147	39630.05
658.498	39651.74
658.849	39751.62
659.2	39610.16
659.551	39656.49
659.902	39707.11
660.253	39745.3
660.604	39713.43
660.955	39591.85
661.306	39548.69
661.656	39736.03
662.007	39596.6
662.358	39688.12
662.708	39678.63
663.059	39669.37
663.409	39339.88
663.76	39709.14
664.11	39611.06
664.461	39593.44
664.811	39578.52
665.161	39510.95
665.511	39391.18
665.862	39465.76
666.212	39659.2
666.562	39619.88
666.912	39518.86
667.262	39560.67
667.612	39483.83
667.962	39625.98
668.312	39385.98
668.662	39643.6
669.011	39418.98
669.361	39416.27
669.711	39477.96
670.06	39391.63
670.41	39292.88
670.76	39316.83
671.109	39371.3
671.459	39443.61
671.808	39132.88
672.157	39349.83
672.507	39166.78
672.856	39131.3
673.205	39099.21
673.554	39196.84
673.904	39070.96
674.253	39364.29
674.602	39183.73
674.951	38489.28
675.3	38406.57
675.649	38978.31
675.998	38916.17
676.346	38986.22
676.695	39136.05
677.044	38871.65
677.393	38890.86
677.741	39024.19
678.09	38930.4
678.438	38795.04
678.787	38853.12
679.135	38892.21
679.484	38568.38
679.832	38762.5
680.181	38602.5
680.529	38715.95
680.877	38529.28
681.225	38512.56
681.573	38843.85
681.922	38538.77
682.27	38256.97
682.618	38387.59
682.966	38335.16
683.314	38420.36
683.661	38207.94
684.009	38041.16
684.357	38176.52
684.705	37930.88
685.053	38067.15
685.4	38009.98
685.748	37771.11
686.095	37795.97
686.443	37609.99
686.79	37642.98
687.138	37602.3
687.485	37680.04
687.832	37548.29
688.18	37449.99
688.527	37336.77
688.874	37301.07
689.221	37208.41
689.568	37172.71
689.915	37171.58
690.262	37057.23
690.609	36789.67
690.956	36812.72
691.303	36794.64
691.65	36535.66
691.997	36547.41
692.344	36410.7
692.69	36405.05
693.037	36371.15
693.383	36150.14
693.73	36287.31
694.077	36085.28
694.423	36069.69
694.769	36095
695.116	35913.99
695.462	35872.63
695.808	35727.78
696.155	35673.77
696.501	35506.76
696.847	35537.72
697.193	35327.79
697.539	35342.93
697.885	35100.22
698.231	35194.23
698.577	35102.71
698.923	35046.66
699.269	34830.17
699.614	34717.63
699.96	34605.77
700.306	34567.58
700.651	34394.93
700.997	34295.27
701.342	34390.64
701.688	34217.98
702.033	34074.94
702.379	34103.19
702.724	34138.21
703.069	34069.06
703.415	33780.03
703.76	33794.94
704.105	33858.22
704.45	33682.41
704.795	33469.08
705.14	33394.96
705.485	33387.95
705.83	33147.28
706.175	33281.06
706.52	33032.93
706.865	33054.63
707.209	33014.17
707.554	32747.29
707.899	32834.74
708.243	32790.45
708.588	32784.58
708.932	32601.3
709.277	32521.31
709.621	32436.34
709.966	32324.47
710.31	32487.86
710.654	32139.62
710.998	32150.92
711.342	32124.93
711.687	32026.86
712.031	31862.57
712.375	31780.31
712.719	31852.62
713.063	31823.02
713.407	31832.74
713.75	31721.1
714.094	31636.36
714.438	31508.23
714.782	31654.44
715.125	31420.09
715.469	31448.79
715.812	31359.53
716.156	31170.38
716.499	31344.39
716.843	31135.58
717.186	31086.77
717.53	31096.71
717.873	31211.28
718.216	31120.66
718.559	30952.76
718.902	30710.96
719.246	30751.86
719.589	30707.79
719.932	30524.97
720.275	30478.42
720.617	30514.58
720.96	30582.6
721.303	30366.56
721.646	30526.1
721.989	30116.62
722.331	30301.7
722.674	30162.05
723.016	30258.31
723.359	30107.36
723.701	30162.5
724.044	30023.97
724.386	29677.54
724.729	29940.81
725.071	29757.31
725.413	29852
725.755	29871.66
726.097	29641.38
726.439	29499.24
726.782	29570.2
727.124	29713.47
727.465	29454.72
727.807	29450.88
728.149	29369.3
728.491	29334.95
728.833	29395.06
729.175	29253.6
729.516	29185.57
729.858	29084.11
730.199	29056.09
730.541	29044.34
730.882	29142.19
731.224	29069.42
731.565	28971.57
731.906	28927.95
732.248	28922.76
732.589	28881.85
732.93	28722.76
733.271	28714.17
733.612	28648.87
733.953	28828.3
734.294	28677.11
734.635	28526.38
734.976	28666.49
735.317	28435.31
735.658	28425.59
735.999	28446.16
736.339	28480.28
736.68	28483.22
737.021	28467.63
737.361	28311.47
737.702	28365.26
738.042	28275.99
738.383	28197.35
738.723	28323
739.063	28123.46
739.404	28123.46
739.744	28158.03
740.084	27922.56
740.424	28100.86
740.764	27982.22
741.104	27923.01
741.444	27754.43
741.784	27754.2
742.124	27740.19
742.464	27725.73
742.804	27612.73
743.143	27643.92
743.483	27589.01
743.823	27523.02
744.162	27520.76
744.502	27461.55
744.841	27334.1
745.181	27504.26
745.52	27342.01
745.86	27323.25
746.199	27346.75
746.538	27247.32
746.877	27369.8
747.216	27242.12
747.556	27124.84
747.895	27129.13
748.234	27002.13
748.573	26978.63
748.911	26892.98
749.25	26935.92
749.589	26750.16
749.928	26798.52
750.267	26828.57
750.605	26786.54
750.944	26621.8
751.283	26629.48
751.621	26637.62
751.96	26497.74
752.298	26440.79
752.636	26469.94
752.975	26340.23
753.313	26229.27
753.651	26412.99
753.989	26203.73
754.327	26144.3
754.666	26044.64
755.004	26133.45
755.342	26119.21
755.679	25932.33
756.017	25862.5
756.355	25880.12
