Data from hue_250_FLMS001491_00041.txt Node
Date: Tue Feb 07 16:01:01 GMT 2017
User: dcchb
Spectrometer: FLMS00149
Trigger mode: 0
Integration Time (sec): 2.000000E-2
Scans to average: 10
Electric dark correction enabled: true
Nonlinearity correction enabled: false
Boxcar width: 0
XAxis mode: Wavelengths
Number of Pixels in Spectrum: 2048
>>>>>Begin Spectral Data<<<<<
341.393	-9.83
341.776	-9.83
342.16	-9.83
342.543	-56.38
342.927	-75.37
343.31	-74.46
343.693	-62.71
344.077	-57.29
344.46	-64.52
344.843	-50.96
345.226	-53.67
345.61	-43.73
345.993	-33.78
346.376	13.9
346.759	25.88
347.142	44.86
347.525	37.17
347.908	46.89
348.291	89.38
348.674	71.75
349.057	111.3
349.44	140
349.823	124.4
350.206	151.97
350.588	175.7
350.971	185.19
351.354	170.96
351.737	215.7
352.119	253.44
352.502	246.66
352.884	246.21
353.267	264.29
353.65	269.71
354.032	285.08
354.414	290.95
354.797	311.07
355.179	303.61
355.562	305.87
355.944	309.71
356.326	322.36
356.709	300.22
357.091	316.94
357.473	330.5
357.855	337.05
358.238	331.86
358.62	323.04
359.002	300.9
359.384	310.16
359.766	311.74
360.148	326.88
360.53	319.88
360.912	306.09
361.294	312.42
361.676	318.07
362.057	310.84
362.439	319.43
362.821	328.01
363.203	306.55
363.584	298.64
363.966	314.91
364.348	312.2
364.729	286.66
365.111	311.07
365.493	294.57
365.874	327.56
366.256	322.36
366.637	316.71
367.019	302.03
367.4	294.12
367.781	290.95
368.163	299.99
368.544	298.41
368.925	311.07
369.306	316.04
369.688	319.43
370.069	292.76
370.45	302.48
370.831	283.5
371.212	287.34
371.593	294.34
371.974	285.98
372.355	304.06
372.736	304.74
373.117	301.57
373.498	308.35
373.879	305.87
374.26	310.61
374.641	299.54
375.021	304.51
375.402	315.13
375.783	311.52
376.163	301.35
376.544	299.77
376.925	296.6
377.305	313.78
377.686	306.55
378.066	316.94
378.447	307.9
378.827	317.62
379.208	322.36
379.588	322.59
379.968	329.82
380.349	309.71
380.729	327.11
381.109	309.48
381.489	325.53
381.87	328.24
382.25	331.4
382.63	332.08
383.01	335.02
383.39	328.01
383.77	341.12
384.15	331.4
384.53	359.65
384.91	328.92
385.29	330.27
385.67	349.93
386.049	334.79
386.429	348.35
386.809	344.28
387.189	379.31
387.568	350.16
387.948	358.07
388.328	342.48
388.707	342.93
389.087	349.26
389.466	351.97
389.846	379.54
390.225	349.48
390.605	369.37
390.984	345.87
391.363	346.54
391.743	365.3
392.122	340.67
392.501	367.33
392.881	365.98
393.26	365.53
393.639	371.18
394.018	375.7
394.397	365.98
394.776	377.28
395.155	384.74
395.534	369.37
395.913	371.4
396.292	398.75
396.671	382.93
397.05	390.84
397.429	377.96
397.808	390.84
398.186	384.96
398.565	393.77
398.944	400.55
399.323	385.64
399.701	404.62
400.08	420.21
400.458	394.23
400.837	417.96
401.215	409.59
401.594	407.11
401.972	399.65
402.351	400.55
402.729	404.4
403.107	418.63
403.486	412.53
403.864	419.09
404.242	427.45
404.62	432.87
404.999	423.38
405.377	442.36
405.755	442.81
406.133	446.2
406.511	466.77
406.889	467.22
407.267	460.21
407.645	453.89
408.023	462.7
408.401	482.81
408.779	475.81
409.156	480.1
409.534	504.05
409.912	499.53
410.29	507.22
410.667	486.2
411.045	509.7
411.422	518.29
411.8	499.99
412.178	516.71
412.555	520.78
412.933	540.44
413.31	524.84
413.687	518.74
414.065	582.92
414.442	549.7
414.819	581.57
415.197	543.6
415.574	577.05
415.951	571.85
416.328	601.91
416.705	610.04
417.082	608.01
417.46	623.83
417.837	621.79
418.214	600.78
418.591	621.79
418.967	633.77
419.344	641.45
419.721	637.84
420.098	658.17
420.475	669.47
420.852	673.99
421.228	645.97
421.605	685.97
421.982	708.34
422.358	699.53
422.735	697.72
423.111	723.94
423.488	731.62
423.864	739.53
424.241	742.24
424.617	751.05
424.994	749.25
425.37	772.3
425.746	791.5
426.123	787.21
426.499	793.54
426.875	814.1
427.251	822.69
427.627	848.23
428.003	863.82
428.379	856.81
428.756	873.08
429.132	873.08
429.507	892.52
429.883	877.83
430.259	906.08
430.635	905.85
431.011	919.18
431.387	907.66
431.763	943.59
432.138	947.43
432.514	979.97
432.89	968.45
433.265	1028.79
433.641	1020.65
434.016	1022.91
434.392	1038.05
434.767	1039.86
435.143	1074.66
435.518	1077.15
435.894	1105.85
436.269	1106.3
436.644	1126.41
437.02	1151.04
437.395	1142.23
437.77	1182.23
438.145	1198.73
438.52	1194.43
438.895	1211.38
439.271	1233.07
439.646	1238.05
440.021	1262
440.395	1272.85
440.77	1259.51
441.145	1285.73
441.52	1311.94
441.895	1327.76
442.27	1329.8
442.645	1347.87
443.019	1347.42
443.394	1358.27
443.769	1379.96
444.143	1400.08
444.518	1400.98
444.892	1379.74
445.267	1391.04
445.641	1418.83
446.016	1461.32
446.39	1438.27
446.764	1458.61
447.139	1464.48
447.513	1468.77
447.887	1492.5
448.262	1503.58
448.636	1495.44
449.01	1492.05
449.384	1520.52
449.758	1557.59
450.132	1551.03
450.506	1564.82
450.88	1569.79
451.254	1559.39
451.628	1592.61
452.002	1609.79
452.376	1614.08
452.75	1647.98
453.123	1675.1
453.497	1678.49
453.871	1670.58
454.244	1697.24
454.618	1743.8
454.992	1744.93
455.365	1738.15
455.739	1789.9
456.112	1807.3
456.486	1798.94
456.859	1816.79
457.232	1872.83
457.606	1857.69
457.979	1878.48
458.352	1928.2
458.725	1918.93
459.099	1933.85
459.472	2000.51
459.845	2008.65
460.218	2024.01
460.591	2024.69
460.964	2017.24
461.337	2079.15
461.71	2108.53
462.083	2130.9
462.456	2120.51
462.829	2120.74
463.201	2212.48
463.574	2162.32
463.947	2231.69
464.32	2253.84
464.692	2256.78
465.065	2259.94
465.438	2296.78
465.81	2328.87
466.183	2349.43
466.555	2390.56
466.928	2396.89
467.3	2398.24
467.672	2434.63
468.045	2511.69
468.417	2522.98
468.789	2533.38
469.161	2548.07
469.534	2597.33
469.906	2647.28
470.278	2672.59
470.65	2692.02
471.022	2741.06
471.394	2767.5
471.766	2814.95
472.138	2796.88
472.51	2852.92
472.882	2894.73
473.253	2929.75
473.625	2993.25
473.997	3037.32
474.369	2975.18
474.74	3089.3
475.112	3117.77
475.484	3152.35
475.855	3188.73
476.227	3196.19
476.598	3291.1
476.97	3339.69
477.341	3409.74
477.713	3444.99
478.084	3433.47
478.455	3513.69
478.827	3554.82
479.198	3630.75
479.569	3635.95
479.94	3740.35
480.311	3792.56
480.682	3825.32
481.053	3876.62
481.424	3933.79
481.795	4010.4
482.166	4052.89
482.537	4074.13
482.908	4128.37
483.279	4181.47
483.65	4206.78
484.021	4325.65
484.391	4365.65
484.762	4412.43
485.133	4453.1
485.503	4455.14
485.874	4555.93
486.244	4599.31
486.615	4660.56
486.985	4725.19
487.356	4778.29
487.726	4807.22
488.097	4901.68
488.467	4899.19
488.837	5025.74
489.207	5076.59
489.578	5116.81
489.948	5157.04
490.318	5236.36
490.688	5221.22
491.058	5279.3
491.428	5286.75
491.798	5382.12
492.168	5453.98
492.538	5441.33
492.908	5576.24
493.278	5651.26
493.648	5630.93
494.017	5664.14
494.387	5751.83
494.757	5728.32
495.126	5737.36
495.496	5821.2
495.866	5852.16
496.235	5928.09
496.605	5957.02
496.974	5976.9
497.344	6064.36
497.713	6086.73
498.082	6046.96
498.452	6113.85
498.821	6163.34
499.19	6144.58
499.559	6187.52
499.928	6209.44
500.298	6280.63
500.667	6294.41
501.036	6295.99
501.405	6305.03
501.774	6375.54
502.143	6400.4
502.512	6435.2
502.88	6491.69
503.249	6440.85
503.618	6475.42
503.987	6498.7
504.356	6551.58
504.724	6615.08
505.093	6547.51
505.462	6618.7
505.83	6664.57
506.199	6621.18
506.567	6799.03
506.936	6710.45
507.304	6799.26
507.672	6768.52
508.041	6824.57
508.409	6872.02
508.777	6868.18
509.145	6892.14
509.514	6865.7
509.882	6957.67
510.25	6957.9
510.618	6955.64
510.986	7022.08
511.354	7016.43
511.722	7114.28
512.09	7120.38
512.458	7123.32
512.826	7107.95
513.193	7120.15
513.561	7157.44
513.929	7275.85
514.297	7233.6
514.664	7242.18
515.032	7271.79
515.4	7298.23
515.767	7270.88
516.135	7329.64
516.502	7230.43
516.869	7398.34
517.237	7427.71
517.604	7418.45
517.972	7436.98
518.339	7439.92
518.706	7507.03
519.073	7451.22
519.44	7490.54
519.808	7503.87
520.175	7525.79
520.542	7609.4
520.909	7603.75
521.276	7538.9
521.643	7608.5
522.009	7695.73
522.376	7681.04
522.743	7732.79
523.11	7696.41
523.477	7795.84
523.843	7786.57
524.21	7823.41
524.577	7807.59
524.943	7813.92
525.31	7915.16
525.676	7903.41
526.043	7928.94
526.409	7967.14
526.776	7980.69
527.142	7965.55
527.508	8016.85
527.874	8037.19
528.241	8054.36
528.607	8123.52
528.973	8101.37
529.339	8083.29
529.705	8166.9
530.071	8181.14
530.437	8212.78
530.803	8227.92
531.169	8251.2
531.535	8240.12
531.901	8218.43
532.267	8196.28
532.632	8160.12
532.998	8306.79
533.364	8288.93
533.73	8288.03
534.095	8281.48
534.461	8323.28
534.826	8327.8
535.192	8311.08
535.557	8312.89
535.923	8358.09
536.288	8335.26
536.653	8368.03
537.019	8282.16
537.384	8275.38
537.749	8374.36
538.114	8293.23
538.479	8298.2
538.845	8289.39
539.21	8231.08
539.575	8301.36
539.94	8332.78
540.305	8346.11
540.67	8354.47
541.034	8360.57
541.399	8304.3
541.764	8295.71
542.129	8343.62
542.494	8311.98
542.858	8406.45
543.223	8323.06
543.587	8336.39
543.952	8284.41
544.316	8333
544.681	8269.5
545.045	8294.81
545.41	8381.81
545.774	8334.58
546.138	8274.25
546.503	8336.16
546.867	8295.71
547.231	8300.01
547.595	8307.47
547.959	8316.96
548.324	8320.8
548.688	8278.77
549.052	8311.76
549.416	8319.44
549.779	8371.19
550.143	8295.94
550.507	8349.05
550.871	8349.95
551.235	8274.25
551.599	8302.49
551.962	8316.05
552.326	8362.6
552.689	8327.8
553.053	8289.39
553.417	8302.49
553.78	8345.43
554.143	8364.19
554.507	8332.32
554.87	8372.55
555.234	8447.57
555.597	8380.01
555.96	8412.77
556.323	8390.63
556.686	8419.33
557.05	8451.87
557.413	8434.92
557.776	8461.81
558.139	8499.55
558.502	8472.21
558.865	8481.92
559.228	8484.64
559.59	8471.53
559.953	8514.01
560.316	8607.34
560.679	8527.57
561.041	8648.25
561.404	8620.68
561.767	8655.03
562.129	8678.75
562.492	8691.64
562.854	8714.23
563.217	8700.45
563.579	8755.14
563.941	8704.74
564.304	8761.69
564.666	8832.65
565.028	8783.16
565.39	8850.28
565.753	8823.16
566.115	8938.18
566.477	8895.25
566.839	8966.2
567.201	9009.37
567.563	9016.37
567.925	9003.04
568.287	9000.1
568.648	9067.67
569.01	9112.42
569.372	9090.04
569.734	9102.47
570.095	9153.32
570.457	9179.76
570.819	9230.38
571.18	9141.34
571.542	9255.46
571.903	9223.15
572.265	9273.54
572.626	9301.56
572.987	9309.7
573.349	9287.78
573.71	9358.29
574.071	9429.7
574.432	9457.04
574.794	9474.21
575.155	9452.07
575.516	9439.64
575.877	9517.6
576.238	9525.74
576.599	9595.79
576.96	9572.52
577.32	9508.79
577.681	9615.45
578.042	9624.72
578.403	9551.05
578.763	9671.5
579.124	9724.6
579.485	9702.46
579.845	9744.72
580.206	9704.72
580.566	9721.67
580.927	9718.73
581.287	9753.98
581.648	9734.55
582.008	9846.18
582.368	9808.22
582.728	9801.44
583.089	9869.23
583.449	9883.69
583.809	9891.15
584.169	9895.67
584.529	9952.39
584.889	9979.96
585.249	9916.24
585.609	9883.24
585.969	9952.85
586.329	9909
586.688	9961.66
587.048	9952.62
587.408	9934.09
587.768	9999.17
588.127	9967.08
588.487	9932.51
588.846	10076.23
589.206	10063.8
589.565	10020.64
589.925	10028.1
590.284	10044.82
590.643	10066.97
591.003	10102.67
591.362	10125.27
591.721	10132.28
592.08	10096.12
592.44	10174.08
592.799	10110.13
593.158	10108.32
593.517	10141.54
593.876	10173.63
594.235	10190.35
594.593	10193.74
594.952	10205.49
595.311	10184.25
595.67	10180.41
596.029	10248.66
596.387	10267.41
596.746	10196.91
597.104	10223.35
597.463	10217.47
597.822	10308.99
598.18	10287.07
598.538	10304.02
598.897	10243.23
599.255	10233.29
599.613	10317.13
599.972	10260.18
600.33	10350.8
600.688	10306.51
601.046	10363.91
601.404	10307.86
601.762	10374.98
602.12	10363.68
602.478	10318.03
602.836	10377.69
603.194	10323.46
603.552	10370.01
603.91	10312.61
604.268	10428.99
604.625	10324.36
604.983	10431.7
605.341	10327.07
605.698	10396.45
606.056	10387.86
606.413	10337.47
606.771	10415.66
607.128	10443
607.485	10457.92
607.843	10365.04
608.2	10474.64
608.557	10511.02
608.914	10415.66
609.272	10483.23
609.629	10457.24
609.986	10575.65
610.343	10558.48
610.7	10584.02
611.057	10536.56
611.414	10552.38
611.771	10613.39
612.127	10593.73
612.484	10634.64
612.841	10553.06
613.198	10607.29
613.554	10626.27
613.911	10690.68
614.267	10616.11
614.624	10589.67
614.98	10653.17
615.337	10715.31
615.693	10711.92
616.05	10712.83
616.406	10761.86
616.762	10725.93
617.118	10652.71
617.475	10663.11
617.831	10724.12
618.187	10768.64
618.543	10819.72
618.899	10751.02
619.255	10754.63
619.611	10766.16
619.967	10787.17
620.323	10778.81
620.678	10724.35
621.034	10782.43
621.39	10795.31
621.746	10720.74
622.101	10827.85
622.457	10804.57
622.812	10806.38
623.168	10834.18
623.523	10820.17
623.879	10860.62
624.234	10748.53
624.589	10799.15
624.945	10735.88
625.3	10720.74
625.655	10739.49
626.01	10827.85
626.365	10812.94
626.72	10748.76
627.075	10788.76
627.43	10775.87
627.785	10781.98
628.14	10783.11
628.495	10708.53
628.85	10746.95
629.205	10803.9
629.559	10776.1
629.914	10734.75
630.269	10737.91
630.623	10720.74
630.978	10721.86
631.332	10708.98
631.687	10687.97
632.041	10682.32
632.396	10734.29
632.75	10676.67
633.104	10630.79
633.459	10586.28
633.813	10501.53
634.167	10556.9
634.521	10556.67
634.875	10589.67
635.229	10541.08
635.583	10597.35
635.937	10488.88
636.291	10519.84
636.645	10489.33
636.999	10481.87
637.352	10488.88
637.706	10468.76
638.06	10508.99
638.413	10460.85
638.767	10423.79
639.121	10475.09
639.474	10406.62
639.828	10368.2
640.181	10403.23
640.534	10388.77
640.888	10342.67
641.241	10345.15
641.594	10342.89
641.947	10358.71
642.301	10400.74
642.654	10260.41
643.007	10308.77
643.36	10345.38
643.713	10341.31
644.066	10350.8
644.419	10309.22
644.771	10144.03
645.124	10042.33
645.477	10091.6
645.83	10035.33
646.182	9976.12
646.535	9948.33
646.888	9919.17
647.24	9891.15
647.593	9972.96
647.945	9899.74
648.298	9899.97
648.65	9872.85
649.002	9885.95
649.355	9885.5
649.707	9871.49
650.059	10026.74
650.411	10056.35
650.763	10072.16
651.115	10164.82
651.467	10141.09
651.819	10179.51
652.171	10145.61
652.523	10097.93
652.875	10092.05
653.227	10073.07
653.578	10157.59
653.93	10056.8
654.282	10018.15
654.633	10085.5
654.985	10062.9
655.337	10095.67
655.688	10053.86
656.039	10082.56
656.391	10081.2
656.742	10014.76
657.094	10045.27
657.445	10045.72
657.796	10061.32
658.147	9963.47
658.498	10015.89
658.849	10053.18
659.2	10073.97
659.551	9959.63
659.902	10045.5
660.253	10029.68
660.604	10058.61
660.955	10004.82
661.306	10102.67
661.656	10018.15
662.007	10067.64
662.358	10037.82
662.708	10009.79
663.059	10052.28
663.409	9953.07
663.76	10034.65
664.11	10021.32
664.461	10081.66
664.811	10055.44
665.161	10050.47
665.511	9999.62
665.862	10070.13
666.212	10050.24
666.562	10025.39
666.912	9969.12
667.262	10074.42
667.612	9953.98
667.962	10036.69
668.312	10030.36
668.662	10008.21
669.011	10031.94
669.361	9991.71
669.711	10062.9
670.06	9957.82
670.41	10058.15
670.76	9966.18
671.109	10022.9
671.459	9973.86
671.808	9997.14
672.157	9979.06
672.507	9911.49
672.856	9889.57
673.205	9921.66
673.554	9964.14
673.904	9901.77
674.253	9991.49
674.602	9943.35
674.951	9798.73
675.3	9692.29
675.649	9952.39
675.998	9928.89
676.346	9886.18
676.695	9839.85
677.044	9834.88
677.393	9859.06
677.741	9841.44
678.09	9805.28
678.438	9798.5
678.787	9830.59
679.135	9818.61
679.484	9763.92
679.832	9695.9
680.181	9724.83
680.529	9756.92
680.877	9706.75
681.225	9682.57
681.573	9772.29
681.922	9642.35
682.27	9650.25
682.618	9644.38
682.966	9624.94
683.314	9654.77
683.661	9591.5
684.009	9579.3
684.357	9543.14
684.705	9514.21
685.053	9495.68
685.4	9499.52
685.748	9405.06
686.095	9459.53
686.443	9443.71
686.79	9386.53
687.138	9433.54
687.485	9403.93
687.832	9368
688.18	9321.9
688.527	9334.33
688.874	9275.35
689.221	9276.93
689.568	9258.17
689.915	9180.44
690.262	9215.01
690.609	9194.45
690.956	9202.81
691.303	9163.04
691.65	9061.8
691.997	9060.89
692.344	9078.97
692.69	9001.23
693.037	9019.99
693.383	8930.5
693.73	8946.09
694.077	8833.33
694.423	8867.45
694.769	8874.91
695.116	8846.21
695.462	8809.6
695.808	8805.08
696.155	8791.52
696.501	8715.59
696.847	8723.95
697.193	8682.37
697.539	8640.56
697.885	8584.97
698.231	8655.93
698.577	8593.79
698.923	8588.14
699.269	8538.65
699.614	8439.89
699.96	8434.47
700.306	8478.31
700.651	8370.51
700.997	8394.02
701.342	8375.26
701.688	8312.44
702.033	8278.77
702.379	8273.79
702.724	8223.17
703.069	8281.7
703.415	8142.27
703.76	8149.28
704.105	8180.46
704.45	8107.47
704.795	8044.2
705.14	8038.55
705.485	8124.65
705.83	8055.04
706.175	8015.27
706.52	7972.56
706.865	7931.66
707.209	7935.27
707.554	7875.84
707.899	7902.73
708.243	7910.41
708.588	7843.07
708.932	7856.4
709.277	7812.34
709.621	7795.84
709.966	7712.45
710.31	7820.47
710.654	7688.95
710.998	7732.57
711.342	7712.45
711.687	7665.67
712.031	7626.35
712.375	7608.95
712.719	7561.72
713.063	7600.59
713.407	7548.62
713.75	7551.1
714.094	7537.09
714.438	7542.74
714.782	7548.62
715.125	7494.38
715.469	7470.88
715.812	7448.28
716.156	7424.55
716.499	7415.51
716.843	7418.9
717.186	7444.89
717.53	7426.81
717.873	7481.72
718.216	7378.45
718.559	7380.26
718.902	7338.45
719.246	7319.69
719.589	7341.61
719.932	7258
720.275	7325.34
720.617	7315.85
720.96	7228.85
721.303	7258.23
721.646	7293.93
721.989	7219.58
722.331	7279.92
722.674	7219.36
723.016	7279.24
723.359	7164.9
723.701	7121.28
724.044	7149.3
724.386	7179.81
724.729	7156.31
725.071	7208.74
725.413	7166.25
725.755	7144.56
726.097	7044.67
726.439	7076.76
726.782	7108.4
727.124	7144.33
727.465	7144.56
727.807	7127.16
728.149	7100.72
728.491	7062.53
728.833	7071.11
729.175	7130.32
729.516	7069.31
729.858	7046.93
730.199	7068.18
730.541	7057.33
730.882	7015.97
731.224	7084.9
731.565	7038.12
731.906	7049.65
732.248	7071.11
732.589	6969.87
732.93	7008.52
733.271	7037.89
733.612	7038.35
733.953	7021.17
734.294	6948.4
734.635	6996.99
734.976	7079.47
735.317	6935.52
735.658	6961.74
735.999	7044.9
736.339	7034.73
736.68	7046.71
737.021	6985.92
737.361	6974.84
737.702	7028.63
738.042	6974.84
738.383	6988.86
738.723	7033.83
739.063	6983.88
739.404	7015.07
739.744	7039.02
740.084	7039.7
740.424	7019.82
740.764	7043.09
741.104	7085.58
741.444	6991.79
741.784	7020.72
742.124	7062.98
742.464	7050.55
742.804	7050.78
743.143	7081.73
743.483	7050.78
743.823	7002.87
744.162	7086.25
744.502	7107.72
744.841	7060.27
745.181	7094.84
745.52	7116.31
745.86	7189.75
746.199	7234.27
746.538	7188.85
746.877	7252.58
747.216	7335.06
747.556	7245.12
747.895	7287.15
748.234	7305.46
748.573	7358.11
748.911	7392.69
749.25	7417.77
749.589	7427.49
749.928	7532.34
750.267	7561.5
750.605	7556.52
750.944	7637.88
751.283	7657.09
751.621	7714.03
751.96	7773.24
752.298	7815.27
752.636	7975.27
752.975	7925.55
753.313	8057.75
753.651	8094.82
753.989	8114.7
754.327	8186.79
754.666	8206.22
755.004	8338.88
755.342	8378.65
755.679	8429.72
756.017	8477.4
756.355	8665.65
756.693	8664.29
757.031	8811.63
757.368	8890.05
757.706	8998.07
758.044	9053.89
758.381	9145.64
758.719	9231.51
759.056	9353.09
759.394	9478.28
759.731	9524.16
760.068	9536.81
760.405	9673.3
760.743	9804.15
761.08	9884.6
761.417	9918.04
761.754	10039.17
762.091	10151.71
762.428	10266.74
762.765	10349.22
763.102	10511.48
763.438	10511.02
763.775	10592.15
764.112	10721.41
764.449	10875.31
764.785	10867.62
765.122	10961.63
