Data from hue_140_FLMS001491_00058.txt Node
Date: Tue Feb 07 16:56:07 GMT 2017
User: dcchb
Spectrometer: FLMS00149
Trigger mode: 0
Integration Time (sec): 2.000000E-2
Scans to average: 10
Electric dark correction enabled: true
Nonlinearity correction enabled: false
Boxcar width: 0
XAxis mode: Wavelengths
Number of Pixels in Spectrum: 2048
>>>>>Begin Spectral Data<<<<<
341.393	-12.57
341.776	-12.57
342.16	-12.57
342.543	-48.5
342.927	-70.42
343.31	-74.49
343.693	-60.93
344.077	-72.68
344.46	-62.06
344.843	-56.18
345.226	-20.03
345.61	-46.02
345.993	-24.77
346.376	-1.5
346.759	12.74
347.142	31.95
347.525	36.92
347.908	71.27
348.291	73.3
348.674	97.48
349.057	95
349.44	130.02
349.823	149.46
350.206	161.21
350.588	217.71
350.971	223.36
351.354	244.37
351.737	232.4
352.119	257.71
352.502	266.97
352.884	271.72
353.267	263.58
353.65	302.45
354.032	297.48
354.414	292.05
354.797	324.82
355.179	317.14
355.562	317.82
355.944	331.6
356.326	312.39
356.709	332.73
357.091	337.48
357.473	338.15
357.855	345.39
358.238	332.51
358.62	352.17
359.002	336.12
359.384	352.17
359.766	341.09
360.148	346.29
360.53	324.82
360.912	336.12
361.294	338.38
361.676	342.9
362.057	304.26
362.439	331.15
362.821	321.21
363.203	319.17
363.584	307.42
363.966	339.28
364.348	334.77
364.729	311.49
365.111	311.71
365.493	318.49
365.874	318.95
366.256	321.21
366.637	314.88
367.019	301.77
367.4	313.3
367.781	295.67
368.163	322.34
368.544	317.36
368.925	304.26
369.306	314.43
369.688	317.82
370.069	298.16
370.45	297.03
370.831	317.14
371.212	296.35
371.593	281.89
371.974	320.08
372.355	308.1
372.736	310.59
373.117	313.07
373.498	318.04
373.879	309.46
374.26	311.94
374.641	315.33
375.021	319.85
375.402	319.4
375.783	317.36
376.163	339.51
376.544	344.03
376.925	323.01
377.305	330.7
377.686	345.39
378.066	311.71
378.447	327.31
378.827	324.14
379.208	326.4
379.588	332.51
379.968	320.98
380.349	344.48
380.729	323.92
381.109	333.64
381.489	334.99
381.87	347.42
382.25	342.22
382.63	342.22
383.01	340.19
383.39	347.42
383.77	337.25
384.15	334.54
384.53	351.26
384.91	348.55
385.29	348.55
385.67	370.24
386.049	355.1
386.429	358.27
386.809	344.93
387.189	335.67
387.568	364.82
387.948	343.58
388.328	361.88
388.707	373.63
389.087	339.28
389.466	356.91
389.846	360.98
390.225	360.98
390.605	367.76
390.984	374.99
391.363	361.88
391.743	356.23
392.122	380.41
392.501	377.02
392.881	370.24
393.26	357.82
393.639	380.87
394.018	374.54
394.397	391.03
394.776	372.5
395.155	391.26
395.534	381.77
395.913	383.35
396.292	381.77
396.671	371.37
397.05	397.36
397.429	407.31
397.808	402.11
398.186	385.39
398.565	397.14
398.944	388.55
399.323	411.15
399.701	419.73
400.08	406.4
400.458	406.63
400.837	407.76
401.215	421.09
401.594	417.02
401.972	424.03
402.351	420.86
402.729	430.81
403.107	410.47
403.486	426.51
403.864	417.7
404.242	443.69
404.62	427.87
404.999	438.27
405.377	425.61
405.755	432.62
406.133	419.28
406.511	421.77
406.889	434.88
407.267	439.62
407.645	446.85
408.023	440.07
408.401	481.88
408.779	434.65
409.156	462.9
409.534	453.86
409.912	452.73
410.29	459.06
410.667	454.31
411.045	461.09
411.422	481.2
411.8	480.52
412.178	473.52
412.555	483.69
412.933	488.89
413.31	491.37
413.687	478.94
414.065	508.55
414.442	497.92
414.819	508.09
415.197	517.36
415.574	520.98
415.951	513.97
416.328	513.07
416.705	512.61
417.082	533.63
417.46	527.53
417.837	514.65
418.214	530.92
418.591	530.24
418.967	534.53
419.344	539.28
419.721	541.31
420.098	532.27
420.475	551.93
420.852	538.38
421.228	573.18
421.605	551.03
421.982	561.88
422.358	552.84
422.735	557.36
423.111	575.44
423.488	596.23
423.864	577.47
424.241	591.48
424.617	579.5
424.994	588.09
425.37	596.68
425.746	584.25
426.123	609.33
426.499	593.74
426.875	604.14
427.251	632.16
427.627	645.94
428.003	621.09
428.379	626.73
428.756	638.03
429.132	636.45
429.507	650.46
429.883	666.06
430.259	657.02
430.635	663.34
431.011	674.19
431.387	671.48
431.763	695.43
432.138	697.47
432.514	686.62
432.89	685.49
433.265	714.64
433.641	664.02
434.016	701.99
434.392	746.51
434.767	729.56
435.143	732.49
435.518	776.11
435.894	750.35
436.269	737.69
436.644	749.67
437.02	775.66
437.395	768.65
437.77	788.76
438.145	777.69
438.52	798.26
438.895	788.31
439.271	814.75
439.646	788.99
440.021	831.93
440.395	849.78
440.77	819.5
441.145	831.48
441.52	853.17
441.895	848.65
442.27	843.9
442.645	841.64
443.019	870.34
443.394	843
443.769	857.01
444.143	862.21
444.518	885.94
444.892	859.27
445.267	882.55
445.641	920.74
446.016	926.16
446.39	911.7
446.764	887.75
447.139	900.63
447.513	901.53
447.887	927.07
448.262	954.18
448.636	919.38
449.01	929.78
449.384	972.04
449.758	950.57
450.132	949.66
450.506	991.25
450.88	970
451.254	971.58
451.628	972.94
452.002	1013.62
452.376	1022.2
452.75	1025.37
453.123	1037.57
453.497	1026.72
453.871	1041.19
454.244	1056.1
454.618	1081.64
454.992	1053.39
455.365	1089.32
455.739	1100.62
456.112	1098.13
456.486	1134.07
456.859	1166.61
457.232	1156.44
457.606	1180.17
457.979	1177.23
458.352	1195.31
458.725	1185.14
459.099	1210.22
459.472	1221.3
459.845	1230.33
460.218	1264.68
460.591	1277.57
460.964	1283.44
461.337	1300.16
461.71	1315.98
462.083	1344
462.456	1354.85
462.829	1384.46
463.201	1346.72
463.574	1386.71
463.947	1420.84
464.32	1413.15
464.692	1473.27
465.065	1465.58
465.438	1475.07
465.81	1521.17
466.183	1519.14
466.555	1569.08
466.928	1573.15
467.3	1614.73
467.672	1622.19
468.045	1691.11
468.417	1675.52
468.789	1701.28
469.161	1744.22
469.534	1755.07
469.906	1788.74
470.278	1798.68
470.65	1828.51
471.022	1873.48
471.394	1916.64
471.766	1937.66
472.138	1985.12
472.51	2012.01
472.882	2085.45
473.253	2095.62
473.625	2113.7
473.997	2148.95
474.369	2220.59
474.74	2304.43
475.112	2284.09
475.484	2370.64
475.855	2428.95
476.227	2466.23
476.598	2535.16
476.97	2581.94
477.341	2670.3
477.713	2728.83
478.084	2822.61
478.455	2896.73
478.827	2934.7
479.198	3043.17
479.569	3102.15
479.94	3161.13
480.311	3244.97
480.682	3329.94
481.053	3454.68
481.424	3566.54
481.795	3624.17
482.166	3711.17
482.537	3832.3
482.908	3934.67
483.279	4004.27
483.65	4117.26
484.021	4206.53
484.391	4283.14
484.762	4458.95
485.133	4502.57
485.503	4590.25
485.874	4823.91
486.244	4880.41
486.615	5002.21
486.985	5150.23
487.356	5276.1
487.726	5383.9
488.097	5508.41
488.467	5607.62
488.837	5780.5
489.207	5901.4
489.578	6042.86
489.948	6202.63
490.318	6340.71
490.688	6428.16
491.058	6563.3
491.428	6705.9
491.798	6869.96
492.168	7071.09
492.538	7145.89
492.908	7264.3
493.278	7376.84
493.648	7541.13
494.017	7594.01
494.387	7833.33
494.757	7908.13
495.126	8098.18
495.496	8234.44
495.866	8299.08
496.235	8453.2
496.605	8544.49
496.974	8718.95
497.344	8870.81
497.713	8892.28
498.082	9073.97
498.452	9176.11
498.821	9321.87
499.19	9398.48
499.559	9585.6
499.928	9579.95
500.298	9692.49
500.667	9850.67
501.036	9850.67
501.405	9999.37
501.774	10024.68
502.143	10175.64
502.512	10308.74
502.88	10370.21
503.249	10393.94
503.618	10566.59
503.987	10593.48
504.356	10763.64
504.724	10863.3
505.093	10861.95
505.462	10955.05
505.83	11061.04
506.199	11103.52
506.567	11289.73
506.936	11255.83
507.304	11384.87
507.672	11421.93
508.041	11592.32
508.409	11617.86
508.777	11737.63
509.145	11863.5
509.514	11792.09
509.882	11908.7
510.25	11952.54
510.618	12009.26
510.986	12031.41
511.354	12222.81
511.722	12292.19
512.09	12313.66
512.458	12284.28
512.826	12436.82
513.193	12469.59
513.561	12411.06
513.929	12572.86
514.297	12688.56
514.664	12666.87
515.032	12681.56
515.4	12743.25
515.767	12833.65
516.135	12918.16
516.502	12817.83
516.869	13000.42
517.237	12994.32
517.604	12984.15
517.972	13079.51
518.339	13109.12
518.706	13155.9
519.073	13153.19
519.44	13222.11
519.808	13293.52
520.175	13264.82
520.542	13400.18
520.909	13439.05
521.276	13414.65
521.643	13500.29
522.009	13530.35
522.376	13521.09
522.743	13565.15
523.11	13677.92
523.477	13767.18
523.843	13770.34
524.21	13843.34
524.577	13872.94
524.943	13895.54
525.31	13923.33
525.676	13982.77
526.043	14060.05
526.409	14062.31
526.776	14140.05
527.142	14117.45
527.508	14180.28
527.874	14192.25
528.241	14213.72
528.607	14200.62
528.973	14284.23
529.339	14151.13
529.705	14278.58
530.071	14400.38
530.437	14350.89
530.803	14348.18
531.169	14359.48
531.535	14319.71
531.901	14325.81
532.267	14305.47
532.632	14334.85
532.998	14350.22
533.364	14428.86
533.73	14250.78
534.095	14348.86
534.461	14372.59
534.826	14274.29
535.192	14363.77
535.557	14299.6
535.923	14271.8
536.288	14330.78
536.653	14301.4
537.019	14255.53
537.384	14241.07
537.749	14222.54
538.114	14182.08
538.479	14149.09
538.845	14112.93
539.21	14071.58
539.575	14124.23
539.94	14096.44
540.305	14136.21
540.67	14073.84
541.034	14043.78
541.399	14029.77
541.764	13953.84
542.129	14051.47
542.494	13948.64
542.858	13911.81
543.223	13924.92
543.587	13890.79
543.952	13856.44
544.316	13891.47
544.681	13804.24
545.045	13793.39
545.41	13802.21
545.774	13773.28
546.138	13666.62
546.503	13669.78
546.867	13650.35
547.231	13675.21
547.595	13629.33
547.959	13581.65
548.324	13583.23
548.688	13497.13
549.052	13474.08
549.416	13472.27
549.779	13415.33
550.143	13418.71
550.507	13394.99
550.871	13397.92
551.235	13302.56
551.599	13341.88
551.962	13318.6
552.326	13338.72
552.689	13321.77
553.053	13219.62
553.417	13194.77
553.78	13319.06
554.143	13199.74
554.507	13225.73
554.87	13156.57
555.234	13312.05
555.597	13133.3
555.96	13143.02
556.323	13091.27
556.686	13172.17
557.05	13133.07
557.413	13250.36
557.776	13048.1
558.139	13215.56
558.502	13167.42
558.865	13097.59
559.228	13178.27
559.59	13156.35
559.953	13103.47
560.316	13233.41
560.679	13151.38
561.041	13223.01
561.404	13162.68
561.767	13248.32
562.129	13149.34
562.492	13221.43
562.854	13197.93
563.217	13140.08
563.579	13146.86
563.941	13337.36
564.304	13222.79
564.666	13351.37
565.028	13267.76
565.39	13328.32
565.753	13337.59
566.115	13356.57
566.477	13362.45
566.839	13357.47
567.201	13347.08
567.563	13347.53
567.925	13473.85
568.287	13392.95
568.648	13445.83
569.01	13497.13
569.372	13511.14
569.734	13453.29
570.095	13524.47
570.457	13517.24
570.819	13537.81
571.18	13427.53
571.542	13607.18
571.903	13659.39
572.265	13679.95
572.626	13563.12
572.987	13616.68
573.349	13630.91
573.71	13671.59
574.071	13773.73
574.432	13719.05
574.794	13701.19
575.155	13697.58
575.516	13623.46
575.877	13756.56
576.238	13716.79
576.599	13721.31
576.96	13766.05
577.32	13739.38
577.681	13779.16
578.042	13767.86
578.403	13794.07
578.763	13833.62
579.124	13841.08
579.485	13735.54
579.845	13821.42
580.206	13741.64
580.566	13783.68
580.927	13749.33
581.287	13777.35
581.648	13835.88
582.008	13827.52
582.368	13857.57
582.728	13815.31
583.089	13814.41
583.449	13737.12
583.809	13771.47
584.169	13812.15
584.529	13644.47
584.889	13846.27
585.249	13735.54
585.609	13700.29
585.969	13771.25
586.329	13694.87
586.688	13791.81
587.048	13773.51
587.408	13672.95
587.768	13682.66
588.127	13738.71
588.487	13616.45
588.846	13764.24
589.206	13691.7
589.565	13653.96
589.925	13726.5
590.284	13610.57
590.643	13644.02
591.003	13712.94
591.362	13601.54
591.721	13681.31
592.08	13492.84
592.44	13614.87
592.799	13632.27
593.158	13611.93
593.517	13586.62
593.876	13677.24
594.235	13562.44
594.593	13567.64
594.952	13581.87
595.311	13658.93
595.67	13587.52
596.029	13634.3
596.387	13613.96
596.746	13598.82
597.104	13593.17
597.463	13620.29
597.822	13646.28
598.18	13539.62
598.538	13493.29
598.897	13658.26
599.255	13564.7
599.613	13665.26
599.972	13613.06
600.33	13603.34
600.688	13517.92
601.046	13633.62
601.404	13543.68
601.762	13564.93
602.12	13522.44
602.478	13567.41
602.836	13596.34
603.194	13505.27
603.552	13555.21
603.91	13435.89
604.268	13614.64
604.625	13488.77
604.983	13567.41
605.341	13477.92
605.698	13543.01
606.056	13548.66
606.413	13519.5
606.771	13593.4
607.128	13655.77
607.485	13584.81
607.843	13561.54
608.2	13568.99
608.557	13724.24
608.914	13599.73
609.272	13619.84
609.629	13659.61
609.986	13729.67
610.343	13653.51
610.7	13808.54
611.057	13706.62
611.414	13704.36
611.771	13707.52
612.127	13788.42
612.484	13815.09
612.841	13740.06
613.198	13750.68
613.554	13767.18
613.911	13811.25
614.267	13836.33
614.624	13825.71
614.98	13873.84
615.337	13862.77
615.693	13852.38
616.05	13802.89
616.406	13901.64
616.762	13900.28
617.118	13842.88
617.475	13803.79
617.831	13845.14
618.187	13881.3
618.543	13954.97
618.899	14030.68
619.255	13987.51
619.611	13952.71
619.967	14003.56
620.323	13985.93
620.678	13953.39
621.034	13987.51
621.39	13974.63
621.746	13965.37
622.101	14115.87
622.457	13943.22
622.812	14017.8
623.168	14054.4
623.523	14033.39
623.879	14122.43
624.234	13966.95
624.589	14096.66
624.945	13987.51
625.3	14016.44
625.655	14057.79
626.01	14091.69
626.365	14015.08
626.72	13936.89
627.075	14035.2
627.43	13988.19
627.785	13949.77
628.14	13973.05
628.495	14034.07
628.85	13948.19
629.205	13958.36
629.559	14011.02
629.914	13939.38
630.269	13900.28
630.623	13899.61
630.978	13934.41
631.332	13968.53
631.687	13968.53
632.041	13853.73
632.396	13910.91
632.75	13804.47
633.104	13867.74
633.459	13838.59
633.813	13795.88
634.167	13763.11
634.521	13717.24
634.875	13710.68
635.229	13808.99
635.583	13651.7
635.937	13650.35
636.291	13617.81
636.645	13723.57
636.999	13648.54
637.352	13599.95
637.706	13623.23
638.06	13561.31
638.413	13589.78
638.767	13572.38
639.121	13603.12
639.474	13551.82
639.828	13534.64
640.181	13481.31
640.534	13555.66
640.888	13491.03
641.241	13467.08
641.594	13484.25
641.947	13499.84
642.301	13451.03
642.654	13463.23
643.007	13487.64
643.36	13514.08
643.713	13410.81
644.066	13444.93
644.419	13360.86
644.771	13293.97
645.124	13177.59
645.477	13183.69
645.83	13002.91
646.182	13035.22
646.535	12992.29
646.888	12995.9
647.24	12923.36
647.593	12966.98
647.945	12946.19
648.298	12835
648.65	12821.89
649.002	12860.76
649.355	12962.23
649.707	12939.86
650.059	13054.2
650.411	13133.3
650.763	13110.02
651.115	13249
651.467	13180.08
651.819	13239.06
652.171	13287.64
652.523	13153.19
652.875	13265.72
653.227	13192.28
653.578	13287.19
653.93	13227.53
654.282	13253.07
654.633	13085.84
654.985	13195.22
655.337	13199.51
655.688	13157.48
656.039	13257.14
656.391	13080.19
656.742	13184.6
657.094	13127.42
657.445	13139.85
657.796	13211.26
658.147	13222.79
658.498	13193.41
658.849	13251.94
659.2	13201.09
659.551	13150.47
659.902	13180.76
660.253	13170.81
660.604	13223.01
660.955	13114.09
661.306	13178.04
661.656	13161.32
662.007	13317.7
662.358	13266.63
662.708	13225.95
663.059	13258.49
663.409	13115.22
663.76	13202.68
664.11	13223.47
664.461	13225.27
664.811	13294.42
665.161	13254.65
665.511	13212.62
665.862	13188.66
666.212	13220.53
666.562	13239.74
666.912	13254.65
667.262	13264.14
667.612	13244.48
667.962	13238.38
668.312	13250.81
668.662	13268.89
669.011	13317.47
669.361	13299.62
669.711	13200.19
670.06	13204.94
670.41	13140.76
670.76	13176.01
671.109	13249.68
671.459	13174.43
671.808	13179.4
672.157	13133.3
672.507	13087.88
672.856	13105.95
673.205	13088.33
673.554	13115.9
673.904	13090.81
674.253	13100.08
674.602	13044.04
674.951	12919.07
675.3	12903.7
675.649	13098.27
675.998	13015.79
676.346	13047.2
676.695	13010.59
677.044	12940.54
677.393	12946.86
677.741	13016.47
678.09	13051.94
678.438	12901.89
678.787	12931.04
679.135	12931.27
679.484	12835.45
679.832	12909.58
680.181	12841.33
680.529	12887.88
680.877	12771.27
681.225	12781.44
681.573	12810.14
681.922	12778.73
682.27	12682.46
682.618	12718.17
682.966	12747.32
683.314	12676.14
683.661	12719.98
684.009	12635.68
684.357	12604.73
684.705	12536.7
685.053	12584.39
685.4	12583.48
685.748	12417.84
686.095	12415.13
686.443	12416.26
686.79	12376.93
687.138	12496.25
687.485	12402.47
687.832	12366.54
688.18	12288.8
688.527	12335.81
688.874	12217.62
689.221	12188.46
689.568	12139.43
689.915	12185.75
690.262	12183.72
690.609	12055.36
690.956	11998.19
691.303	11999.09
691.65	11937.62
691.997	11906.89
692.344	11805.88
692.69	11850.62
693.037	11807.01
693.383	11737.86
693.73	11746.67
694.077	11713
694.423	11683.85
694.769	11650.85
695.116	11552.78
695.462	11524.98
695.808	11567.46
696.155	11546.9
696.501	11461.48
696.847	11421.03
697.193	11337.64
697.539	11414.93
697.885	11246.34
698.231	11248.38
698.577	11230.75
698.923	11218.32
699.269	11177.64
699.614	11095.61
699.96	11074.6
700.306	11027.14
700.651	11030.08
700.997	10969.29
701.342	10948.72
701.688	10973.13
702.033	10845.9
702.379	10816.75
702.724	10778.11
703.069	10858.56
703.415	10734.72
703.76	10734.04
704.105	10718
704.45	10665.79
704.795	10579.92
705.14	10572.69
705.485	10578.34
705.83	10476.19
706.175	10484.33
706.52	10478.23
706.865	10339.25
707.209	10336.31
707.554	10367.95
707.899	10407.72
708.243	10237.78
708.588	10299.7
708.932	10189.65
709.277	10188.52
709.621	10199.82
709.966	10085.02
710.31	10144.9
710.654	10001.4
710.998	10058.13
711.342	10007.51
711.687	10047.5
712.031	9971.35
712.375	9896.1
712.719	9988.52
713.063	9950.56
713.407	9987.62
713.75	9888.64
714.094	9898.58
714.438	9821.97
714.782	9898.58
715.125	9761.86
715.469	9822.2
715.812	9760.96
716.156	9716.21
716.499	9744.01
716.843	9720.28
717.186	9619.49
717.53	9781.52
717.873	9698.81
718.216	9683.22
718.559	9658.59
718.902	9626.27
719.246	9676.89
719.589	9624.01
719.932	9552.83
720.275	9589.89
720.617	9544.01
720.96	9502.21
721.303	9545.82
721.646	9575.65
721.989	9457.01
722.331	9533.62
722.674	9443.9
723.016	9565.93
723.359	9476.9
723.701	9448.65
724.044	9426.5
724.386	9340.18
724.729	9458.14
725.071	9339.27
725.413	9368.43
725.755	9377.69
726.097	9328.43
726.439	9323.23
726.782	9337.01
727.124	9399.61
727.465	9352.61
727.807	9304.7
728.149	9314.87
728.491	9296.79
728.833	9298.37
729.175	9319.39
729.516	9264.7
729.858	9316.22
730.199	9287.52
730.541	9283.23
730.882	9225.6
731.224	9309.22
731.565	9278.48
731.906	9299.28
732.248	9297.24
732.589	9246.62
732.93	9269.45
733.271	9229.9
733.612	9233.06
733.953	9253.85
734.294	9250.69
734.635	9216.57
734.976	9188.77
735.317	9129.34
735.658	9271.71
735.999	9253.63
736.339	9228.54
736.68	9289.56
737.021	9326.62
737.361	9228.77
737.702	9282.55
738.042	9215.89
738.383	9245.49
738.723	9270.12
739.063	9232.84
739.404	9289.11
739.744	9272.16
740.084	9207.07
740.424	9347.41
740.764	9269.22
741.104	9319.39
741.444	9337.69
741.784	9360.06
742.124	9385.15
742.464	9409.33
742.804	9315.55
743.143	9379.5
743.483	9380.18
743.823	9346.73
744.162	9397.35
744.502	9504.47
744.841	9468.76
745.181	9486.84
745.52	9495.65
745.86	9601.87
746.199	9585.37
746.538	9627.4
746.877	9623.79
747.216	9742.2
747.556	9652.03
747.895	9793.05
748.234	9734.07
748.573	9888.19
748.911	9842.99
749.25	9960.73
749.589	9997.56
749.928	10088.41
750.267	10104.68
750.605	10196.43
750.944	10242.08
751.283	10349.42
751.621	10393.03
751.96	10422.64
752.298	10526.59
752.636	10620.14
752.975	10676.41
753.313	10812.91
753.651	10880.93
753.989	10994.6
754.327	11024.43
754.666	11157.08
755.004	11255.83
755.342	11414.93
755.679	11549.39
756.017	11587.58
756.355	11754.8
756.693	11845.65
757.031	11937.62
757.368	12152.31
757.706	12308.01
758.044	12510.72
