Data from hue_290_FLMS001491_00084.txt Node
Date: Tue Feb 07 15:53:23 GMT 2017
User: dcchb
Spectrometer: FLMS00149
Trigger mode: 0
Integration Time (sec): 2.000000E-2
Scans to average: 10
Electric dark correction enabled: true
Nonlinearity correction enabled: false
Boxcar width: 0
XAxis mode: Wavelengths
Number of Pixels in Spectrum: 2048
>>>>>Begin Spectral Data<<<<<
341.393	-11.81
341.776	-11.81
342.16	-11.81
342.543	-70.56
342.927	-64.91
343.31	-71.47
343.693	-50.45
344.077	-71.47
344.46	-69.66
344.843	-42.99
345.226	-44.35
345.61	-27.17
345.993	-10.23
346.376	-7.74
346.759	21.19
347.142	13.95
347.525	53.28
347.908	54.41
348.291	68.42
348.674	81.3
349.057	102.99
349.44	104.12
349.823	155.19
350.206	142.09
350.588	168.53
350.971	192.48
351.354	193.84
351.737	241.52
352.119	242.87
352.502	252.82
352.884	284.23
353.267	275.87
353.65	297.79
354.032	281.52
354.414	283.1
354.797	313.61
355.179	333.04
355.562	314.29
355.944	333.49
356.326	317
356.709	326.94
357.091	322.19
357.473	340.95
357.855	319.94
358.238	317
358.62	343.21
359.002	338.69
359.384	328.3
359.766	340.05
360.148	337.79
360.53	333.72
360.912	311.57
361.294	331.01
361.676	302.76
362.057	334.62
362.439	337.11
362.821	342.53
363.203	316.32
363.584	318.13
363.966	326.26
364.348	314.96
364.729	305.25
365.111	300.95
365.493	312.25
365.874	301.4
366.256	312.03
366.637	308.86
367.019	321.29
367.4	298.47
367.781	324
368.163	306.83
368.544	315.42
368.925	319.03
369.306	313.16
369.688	287.85
370.069	306.15
370.45	309.99
370.831	298.92
371.212	295.53
371.593	300.27
371.974	310.9
372.355	320.84
372.736	319.48
373.117	310.67
373.498	323.1
373.879	286.94
374.26	313.38
374.641	317.9
375.021	292.14
375.402	324.45
375.783	278.81
376.163	308.86
376.544	320.84
376.925	314.29
377.305	332.59
377.686	323.1
378.066	332.14
378.447	321.07
378.827	305.02
379.208	323.32
379.588	342.76
379.968	333.72
380.349	326.49
380.729	324.45
381.109	330.56
381.489	326.94
381.87	342.53
382.25	335.75
382.63	333.49
383.01	346.83
383.39	357.67
383.77	340.05
384.15	346.83
384.53	342.99
384.91	349.76
385.29	343.21
385.67	351.35
386.049	339.82
386.429	350.89
386.809	346.83
387.189	371.01
387.568	358.58
387.948	347.05
388.328	373.94
388.707	366.49
389.087	355.41
389.466	368.75
389.846	375.98
390.225	371.01
390.605	354.51
390.984	358.13
391.363	370.33
391.743	358.13
392.122	385.7
392.501	361.97
392.881	375.75
393.26	346.38
393.639	370.1
394.018	366.26
394.397	374.62
394.776	380.05
395.155	404.9
395.534	389.99
395.913	379.59
396.292	394.28
396.671	414.62
397.05	394.74
397.429	383.44
397.808	416.88
398.186	404.9
398.565	399.71
398.944	401.06
399.323	418.69
399.701	405.58
400.08	382.76
400.458	398.58
400.837	401.51
401.215	424.79
401.594	433.83
401.972	427.5
402.351	422.08
402.729	436.32
403.107	433.38
403.486	430.44
403.864	438.35
404.242	454.17
404.62	439.48
404.999	448.97
405.377	470.67
405.755	464.56
406.133	436.09
406.511	455.75
406.889	456.43
407.267	469.54
407.645	474.28
408.023	480.83
408.401	472.47
408.779	485.13
409.156	488.07
409.534	482.19
409.912	502.08
410.29	530.33
410.667	498.91
411.045	526.26
411.422	548.18
411.8	550.66
412.178	543.43
412.555	544.56
412.933	541.4
413.31	561.06
413.687	558.35
414.065	580.49
414.442	565.13
414.819	594.28
415.197	606.03
415.574	622.75
415.951	614.16
416.328	624.56
416.705	669.98
417.082	632.7
417.46	659.81
417.837	652.81
418.214	670.89
418.591	689.42
418.967	687.84
419.344	678.57
419.721	686.25
420.098	690.32
420.475	700.04
420.852	739.36
421.228	729.64
421.605	753.82
421.982	736.42
422.358	755.86
422.735	741.62
423.111	774.39
423.488	788.4
423.864	772.13
424.241	819.81
424.617	802.63
424.994	803.76
425.37	826.59
425.746	830.66
426.123	844.22
426.499	841.28
426.875	851.22
427.251	856.64
427.627	890.32
428.003	886.25
428.379	908.62
428.756	927.6
429.132	928.96
429.507	942.29
429.883	936.87
430.259	961.95
430.635	938.68
431.011	968.96
431.387	989.75
431.763	1001.95
432.138	999.47
432.514	1005.34
432.89	1049.18
433.265	1052.12
433.641	1062.06
434.016	1072.01
434.392	1107.03
434.767	1088.5
435.143	1096.64
435.518	1100.71
435.894	1160.82
436.269	1132.8
436.644	1141.16
437.02	1180.7
437.395	1178.9
437.77	1210.53
438.145	1214.15
438.52	1232.91
438.895	1241.04
439.271	1227.93
439.646	1246.24
440.021	1276.75
440.395	1284.2
440.77	1267.93
441.145	1276.97
441.52	1316.75
441.895	1332.11
442.27	1324.88
442.645	1339.34
443.019	1343.86
443.394	1352
443.769	1368.95
444.143	1330.53
444.518	1389.29
444.892	1391.77
445.267	1374.37
445.641	1399.23
446.016	1388.61
446.39	1389.74
446.764	1425.67
447.139	1412.56
447.513	1394.94
447.887	1413.01
448.262	1414.6
448.636	1421.15
449.01	1443.97
449.384	1450.98
449.758	1467.48
450.132	1489.62
450.506	1486.01
450.88	1488.72
451.254	1460.24
451.628	1525.78
452.002	1545.89
452.376	1507.47
452.75	1527.81
453.123	1533.24
453.497	1572.33
453.871	1543.41
454.244	1583.63
454.618	1612.1
454.992	1609.62
455.365	1612.1
455.739	1657.08
456.112	1647.81
456.486	1643.52
456.859	1662.27
457.232	1683.74
457.606	1700.01
457.979	1704.98
458.352	1737.75
458.725	1718.99
459.099	1739.56
459.472	1739.11
459.845	1786.56
460.218	1798.99
460.591	1810.74
460.964	1789.95
461.337	1865.66
461.71	1836.51
462.083	1886.22
462.456	1893
462.829	1876.5
463.201	1907.01
463.574	1906.33
463.947	1949.95
464.32	1966.67
464.692	1961.7
465.065	1971.19
465.438	1982.94
465.81	2029.27
466.183	2042.15
466.555	2074.69
466.928	2099.32
467.3	2087.8
467.672	2089.38
468.045	2155.14
468.417	2142.94
468.789	2137.06
469.161	2139.32
469.534	2190.39
469.906	2229.94
470.278	2232.2
470.65	2281.69
471.022	2285.31
471.394	2355.59
471.766	2330.05
472.138	2375.25
472.51	2395.36
472.882	2464.74
473.253	2417.06
473.625	2466.77
473.997	2490.95
474.369	2465.42
474.74	2553.55
475.112	2535.92
475.484	2631.74
475.855	2603.94
476.227	2642.36
476.598	2701.79
476.97	2692.53
477.341	2733.43
477.713	2809.36
478.084	2793.77
478.455	2849.36
478.827	2828.34
479.198	2928.91
479.569	2906.53
479.94	2968.45
480.311	2976.59
480.682	3053.42
481.053	3113.08
481.424	3125.06
481.795	3150.14
482.166	3193.53
482.537	3210.71
482.908	3289.8
483.279	3292.74
483.65	3379.74
484.021	3386.3
484.391	3371.38
484.762	3398.72
485.133	3466.07
485.503	3516.46
485.874	3516.24
486.244	3580.41
486.615	3649.79
486.985	3651.82
487.356	3705.16
487.726	3705.83
488.097	3807.75
488.467	3772.73
488.837	3855.66
489.207	3878.71
489.578	3934.53
489.948	3885.49
490.318	3988.09
490.688	3970.69
491.058	4029.22
491.428	4045.26
491.798	4104.24
492.168	4164.58
492.538	4163.9
492.908	4195.09
493.278	4232.83
493.648	4251.13
494.017	4343.33
494.387	4338.81
494.757	4334.74
495.126	4376.78
495.496	4374.07
495.866	4430.56
496.235	4451.35
496.605	4479.6
496.974	4471.46
497.344	4499.71
497.713	4499.71
498.082	4568.41
498.452	4606.38
498.821	4609.54
499.19	4608.18
499.559	4695.64
499.928	4678.92
500.298	4666.71
500.667	4750.78
501.036	4703.55
501.405	4740.61
501.774	4730.67
502.143	4779.48
502.512	4801.85
502.88	4810.21
503.249	4813.83
503.618	4855.86
503.987	4841.4
504.356	4899.25
504.724	4926.14
505.093	4922.07
505.462	4967.5
505.83	4992.58
506.199	4937.89
506.567	5013.6
506.936	5009.98
507.304	5028.96
507.672	5059.92
508.041	5117.32
508.409	5093.82
508.777	5115.29
509.145	5105.12
509.514	5159.81
509.882	5197.77
510.25	5205.23
510.618	5209.98
510.986	5181.28
511.354	5221.5
511.722	5267.83
512.09	5299.24
512.458	5292.46
512.826	5299.92
513.193	5262.86
513.561	5364.32
513.929	5411.78
514.297	5387.37
514.664	5414.04
515.032	5444.09
515.4	5451.78
515.767	5469.4
516.135	5489.29
516.502	5409.29
516.869	5533.58
517.237	5537.88
517.604	5500.36
517.972	5559.35
518.339	5549.4
518.706	5577.65
519.073	5598.67
519.44	5606.12
519.808	5666.24
520.175	5628.72
520.542	5675.73
520.909	5717.31
521.276	5672.79
521.643	5714.6
522.009	5716.63
522.376	5784.88
522.743	5816.29
523.11	5804.31
523.477	5892.44
523.843	5874.82
524.21	5954.59
524.577	5946.91
524.943	5935.15
525.31	5969.73
525.676	6020.35
526.043	6062.61
526.409	6088.15
526.776	6121.82
527.142	6184.19
527.508	6161.82
527.874	6162.49
528.241	6216.96
528.607	6196.39
528.973	6293.56
529.339	6212.89
529.705	6254.24
530.071	6366.56
530.437	6363.62
530.803	6323.85
531.169	6396.16
531.535	6387.12
531.901	6410.4
532.267	6423.05
532.632	6505.76
532.998	6494.01
533.364	6561.35
533.73	6597.06
534.095	6558.87
534.461	6595.02
534.826	6612.88
535.192	6645.19
535.557	6675.47
535.923	6665.53
536.288	6686.1
536.653	6680.22
537.019	6691.29
537.384	6774.45
537.749	6797.5
538.114	6769.71
538.479	6767
538.845	6838.18
539.21	6804.51
539.575	6854
539.94	6851.97
540.305	6902.13
540.67	6917.5
541.034	6896.94
541.399	6961.57
541.764	6990.95
542.129	6989.82
542.494	7035.92
542.858	7039.76
543.223	7009.02
543.587	7069.59
543.952	7091.96
544.316	7108.23
544.681	7058.51
545.045	7145.52
545.41	7158.85
545.774	7143.03
546.138	7157.04
546.503	7222.13
546.867	7214.22
547.231	7275.23
547.595	7235.23
547.959	7274.1
548.324	7246.76
548.688	7269.13
549.052	7347.32
549.416	7397.04
549.779	7317.04
550.143	7406.98
550.507	7396.13
550.871	7432.52
551.235	7371.28
551.599	7512.29
551.962	7400.65
552.326	7489.24
552.689	7530.82
553.053	7427.32
553.417	7562.23
553.78	7599.74
554.143	7563.81
554.507	7608.78
554.87	7654.66
555.234	7578.28
555.597	7658.95
555.96	7660.99
556.323	7696.01
556.686	7652.17
557.05	7691.94
557.413	7715.22
557.776	7719.06
558.139	7814.88
558.502	7760.19
558.865	7762.23
559.228	7851.49
559.59	7832.05
559.953	7881.54
560.316	7907.53
560.679	7832.96
561.041	7980.75
561.404	7989.11
561.767	8041.99
562.129	7975.78
562.492	7991.6
562.854	8100.75
563.217	8043.12
563.579	8071.14
563.941	8149.33
564.304	8164.93
564.666	8216.22
565.028	8265.71
565.39	8205.15
565.753	8267.75
566.115	8274.08
566.477	8319.95
566.839	8277.92
567.201	8404.24
567.563	8319.27
567.925	8421.42
568.287	8391.14
568.648	8465.26
569.01	8505.26
569.372	8518.36
569.734	8500.74
570.095	8588.64
570.457	8650.34
570.819	8610.79
571.18	8611.24
571.542	8635.65
571.903	8717.68
572.265	8750.67
572.626	8797.9
572.987	8781.86
573.349	8882.87
573.71	8921.29
574.071	8932.36
574.432	9045.58
574.794	9006.49
575.155	9079.48
575.516	9108.63
575.877	9058.01
576.238	9154.51
576.599	9268.4
576.96	9289.42
577.32	9340.04
577.681	9358.12
578.042	9467.04
578.403	9453.25
578.763	9549.3
579.124	9580.26
579.485	9676.75
579.845	9779.8
580.206	9776.18
580.566	9893.47
580.927	9944.09
581.287	10010.75
581.648	10023.63
582.008	10168.72
582.368	10238.77
582.728	10314.02
583.089	10438.31
583.449	10502.94
583.809	10574.13
584.169	10660.45
584.529	10751.98
584.889	10857.51
585.249	10956.72
585.609	10954.91
585.969	11214.56
586.329	11209.82
586.688	11367.33
587.048	11517.15
587.408	11607.55
587.768	11718.05
588.127	11792.85
588.487	12013.86
588.846	12148.1
589.206	12233.29
589.565	12345.38
589.925	12531.59
590.284	12555.32
590.643	12747.86
591.003	12904.69
591.362	13012.26
591.721	13165.93
592.08	13238.69
592.44	13375.86
592.799	13634.84
593.158	13638.23
593.517	13853.59
593.876	13934.04
594.235	14042.51
594.593	14227.59
594.952	14299
595.311	14447.47
595.67	14621.03
596.029	14788.26
596.387	14966.78
596.746	15114.35
597.104	15056.5
597.463	15211.52
597.822	15370.61
598.18	15503.94
598.538	15626.88
598.897	15819.41
599.255	15816.02
599.613	16166.3
599.972	16150.03
600.33	16275.9
600.688	16298.95
601.046	16503.46
601.404	16640.41
601.762	16761.08
602.12	16820.97
602.478	17004.92
602.836	17023.9
603.194	17132.6
603.552	17213.28
603.91	17176.67
604.268	17380.73
604.625	17470.9
604.983	17584.34
605.341	17560.39
605.698	17864.33
606.056	17834.05
606.413	17950.66
606.771	18116.98
607.128	18213.48
607.485	18135.74
607.843	18252.34
608.2	18432.23
608.557	18603.97
608.914	18462.73
609.272	18797.87
609.629	18796.51
609.986	18942.5
610.343	18884.19
610.7	19077.18
611.057	19055.49
611.414	19146.11
611.771	19234.69
612.127	19251.41
612.484	19358.53
612.841	19473.33
613.198	19448.25
613.554	19398.08
613.911	19567.11
614.267	19690.95
614.624	19644.17
614.98	19750.61
615.337	19815.69
615.693	19929.14
616.05	19903.6
616.406	20056.82
616.762	20028.12
617.118	20066.76
617.475	20074.9
617.831	20170.49
618.187	20310.82
618.543	20274.21
618.899	20441.89
619.255	20440.31
619.611	20370.71
619.967	20610.25
620.323	20682.34
620.678	20562.11
621.034	20550.59
621.39	20557.82
621.746	20609.8
622.101	20816.57
622.457	20804.14
622.812	20795.78
623.168	20859.51
623.523	20921.2
623.879	20925.27
624.234	20742.67
624.589	20851.82
624.945	20915.1
625.3	21048.43
625.655	20906.96
626.01	21008.2
626.365	21137.92
626.72	21005.27
627.075	21006.62
627.43	21036.9
627.785	21028.77
628.14	21154.87
628.495	21159.39
628.85	21153.29
629.205	21057.69
629.559	21226.73
629.914	21111.93
630.269	21096.79
630.623	21018.37
630.978	21047.98
631.332	21144.25
631.687	21233.51
632.041	21137.69
632.396	21102.89
632.75	20962.78
633.104	21036
633.459	21053.85
633.813	20942.67
634.167	20972.95
634.521	21108.32
634.875	21080.29
635.229	20961.43
635.583	20894.76
635.937	20872.62
636.291	20884.37
636.645	21050.01
636.999	20966.17
637.352	20999.62
637.706	20851.6
638.06	20939.73
638.413	20967.53
638.767	20827.19
639.121	20947.19
639.474	20823.8
639.828	20777.93
640.181	20841.2
640.534	20800.75
640.888	20826.06
641.241	20681.21
641.594	20681.66
641.947	20823.12
642.301	20807.31
642.654	20782
643.007	20786.52
643.36	20746.29
643.713	20733.64
644.066	20867.87
644.419	20639.17
644.771	20564.37
645.124	20394.89
645.477	20289.13
645.83	20277.15
646.182	20142.69
646.535	20228.11
646.888	20268.56
647.24	20077.61
647.593	20167.55
647.945	20113.54
648.298	20006.65
648.65	19958.51
649.002	20091.17
649.355	20192.18
649.707	20168.23
650.059	20189.24
650.411	20470.37
650.763	20520.53
651.115	20602.79
651.467	20612.73
651.819	20643.02
652.171	20577.03
652.523	20593.98
652.875	20504.04
653.227	20551.95
653.578	20689.79
653.93	20550.36
654.282	20523.25
654.633	20426.98
654.985	20524.6
655.337	20558.5
655.688	20626.75
656.039	20647.54
656.391	20458.84
656.742	20498.16
657.094	20509.01
657.445	20599.63
657.796	20637.14
658.147	20601.66
658.498	20478.73
658.849	20635.33
659.2	20634.43
659.551	20575.22
659.902	20564.83
660.253	20547.88
660.604	20499.07
660.955	20476.92
661.306	20573.87
661.656	20612.96
662.007	20534.77
662.358	20584.49
662.708	20519.63
663.059	20535.45
663.409	20517.37
663.76	20627.65
664.11	20570.02
664.461	20657.25
664.811	20644.15
665.161	20680.76
665.511	20646.86
665.862	20623.13
666.212	20730.02
666.562	20748.78
666.912	20679.4
667.262	20632.85
667.612	20626.29
667.962	20647.31
668.312	20571.38
668.662	20795.55
669.011	20796.91
669.361	20642.56
669.711	20654.77
670.06	20582.23
670.41	20566.41
670.76	20465.17
671.109	20515.34
671.459	20552.62
671.808	20423.14
672.157	20602.57
672.507	20479.63
672.856	20563.92
673.205	20426.98
673.554	20535.22
673.904	20512.85
674.253	20527.09
674.602	20514.88
674.951	20165.29
675.3	20023.82
675.649	20408.9
675.998	20319.86
676.346	20357.15
676.695	20432.4
677.044	20269.92
677.393	20318.73
677.741	20417.49
678.09	20331.39
678.438	20315.57
678.787	20346.08
679.135	20228.79
679.484	20213.65
679.832	20226.3
680.181	20153.31
680.529	20139.3
680.877	20085.52
681.225	20141.33
681.573	20184.72
681.922	20040.32
682.27	19951.96
682.618	19946.54
682.966	19883.49
683.314	19920.1
683.661	19824.96
684.009	19851.85
684.357	19733.21
684.705	19702.25
685.053	19667.22
685.4	19646.43
685.748	19620.22
686.095	19478.3
686.443	19532.09
686.79	19438.53
687.138	19431.52
687.485	19526.66
687.832	19427.68
688.18	19496.15
688.527	19202.83
688.874	19373.22
689.221	19224.97
689.568	19161.47
689.915	19146.56
690.262	19155.6
690.609	19018.65
690.956	18932.55
691.303	18921.93
691.65	18786.34
691.997	18792.44
692.344	18758.55
692.69	18711.09
693.037	18628.61
693.383	18577.76
693.73	18620.02
694.077	18411.21
694.423	18347.03
694.769	18410.98
695.116	18280.14
695.462	18260.25
695.808	18212.8
696.155	18238.79
696.501	18063.88
696.847	18100.71
697.193	17963.09
697.539	17989.3
697.885	17840.6
698.231	17838.57
698.577	17774.62
698.923	17717.9
699.269	17729.19
699.614	17527.17
699.96	17540.5
700.306	17456.89
700.651	17443.78
700.997	17319.26
701.342	17337.11
701.688	17272.26
702.033	17103
702.379	17085.37
702.724	17146.61
703.069	17093.73
703.415	16938.93
703.76	16954.75
704.105	16926.28
704.45	16831.14
704.795	16700.07
705.14	16730.35
705.485	16693.06
705.83	16725.61
706.175	16618.72
706.52	16579.17
706.865	16536.46
707.209	16500.53
707.554	16391.6
707.899	16347.31
708.243	16356.35
708.588	16289.46
708.932	16189.8
709.277	16148.45
709.621	16113.19
709.966	16002.23
710.31	16143.7
710.654	15945.06
710.998	15948.45
711.342	15942.8
711.687	15940.54
712.031	15752.98
712.375	15700.1
712.719	15813.09
713.063	15844.72
713.407	15831.62
713.75	15651.51
714.094	15727.89
714.438	15613.77
714.782	15619.65
715.125	15495.58
715.469	15554.56
715.812	15510.95
716.156	15399.76
716.499	15481.8
716.843	15414.68
717.186	15364.96
717.53	15431.85
717.873	15470.5
718.216	15436.83
718.559	15304.85
718.902	15136.49
719.246	15213.55
719.589	15165.42
719.932	15179.66
720.275	15151.64
720.617	15077.51
720.96	15132.65
721.303	15099.43
721.646	15087.23
721.989	14982.15
722.331	15058.76
722.674	14993.45
723.016	15032.77
723.359	14968.82
723.701	14893.56
724.044	14867.35
724.386	14856.95
724.729	14942.38
725.071	14851.76
725.413	14877.52
725.755	14819.89
726.097	14839.78
726.439	14776.96
726.782	14782.38
727.124	14826.9
727.465	14718.88
727.807	14785.54
728.149	14730.63
728.491	14709.61
728.833	14797.97
729.175	14561.59
729.516	14602.5
729.858	14720.46
730.199	14600.92
730.541	14716.84
730.882	14655.83
731.224	14724.53
731.565	14662.61
731.906	14628.03
732.248	14587.58
732.589	14554.36
732.93	14539.45
733.271	14558.66
733.612	14487.02
733.953	14510.52
734.294	14514.36
734.635	14483.4
734.976	14530.41
735.317	14543.29
735.658	14419
735.999	14575.15
736.339	14488.83
736.68	14505.78
737.021	14525.21
737.361	14482.5
737.702	14531.54
738.042	14562.27
738.383	14548.71
738.723	14528.15
739.063	14564.08
739.404	14563.4
739.744	14555.49
740.084	14519.56
740.424	14505.78
740.764	14515.72
741.104	14592.55
741.444	14587.13
741.784	14570.41
742.124	14656.28
742.464	14626.45
742.804	14658.09
743.143	14617.64
743.483	14619.67
743.823	14556.17
744.162	14757.07
744.502	14643.85
744.841	14709.16
745.181	14791.87
745.52	14750.74
745.86	14877.07
746.199	14813.34
746.538	14882.26
746.877	14945.77
747.216	15073.67
747.556	14968.36
747.895	15103.05
748.234	15033.67
748.573	15117.51
748.911	15204.97
749.25	15321.57
749.589	15222.59
749.928	15364.06
750.267	15519.08
750.605	15448.35
750.944	15469.82
751.283	15595.24
751.621	15596.14
751.96	15647.67
752.298	15785.52
752.636	15894.21
752.975	15865.52
753.313	15990.71
753.651	16141.21
753.989	16089.92
754.327	16323.58
754.666	16240.42
755.004	16485.61
755.342	16578.49
755.679	16656.45
756.017	16697.81
756.355	16848.54
756.693	16885.83
757.031	17071.81
757.368	17085.14
757.706	17145.26
758.044	17310.45
758.381	17537.11
758.719	17483.1
759.056	17643.32
759.394	17600.61
