Data from hue_32_FLMS001491_00088.txt Node
Date: Tue Feb 07 17:24:02 GMT 2017
User: dcchb
Spectrometer: FLMS00149
Trigger mode: 0
Integration Time (sec): 2.000000E-2
Scans to average: 10
Electric dark correction enabled: true
Nonlinearity correction enabled: false
Boxcar width: 0
XAxis mode: Wavelengths
Number of Pixels in Spectrum: 2048
>>>>>Begin Spectral Data<<<<<
341.393	-10.71
341.776	-10.71
342.16	-10.71
342.543	-77.14
342.927	-94.32
343.31	-67.88
343.693	-70.37
344.077	-57.71
344.46	-60.87
344.843	-42.8
345.226	-28.56
345.61	-19.75
345.993	-22.68
346.376	-4.83
346.759	9.18
347.142	11.44
347.525	37.65
347.908	64.77
348.291	69.52
348.674	83.3
349.057	99.57
349.44	124.88
349.823	147.93
350.206	177.31
350.588	218.44
350.971	210.31
351.354	220.25
351.737	233.36
352.119	244.2
352.502	260.47
352.884	283.75
353.267	276.74
353.65	301.38
354.032	321.04
354.414	320.36
354.797	304.99
355.179	297.53
355.562	320.81
355.944	340.92
356.326	327.36
356.709	333.01
357.091	342.73
357.473	346.8
357.855	346.12
358.238	339.57
358.62	363.52
359.002	347.25
359.384	351.32
359.766	349.96
360.148	339.12
360.53	350.41
360.912	334.6
361.294	335.73
361.676	349.06
362.057	324.43
362.439	330.3
362.821	332.11
363.203	317.42
363.584	300.7
363.966	324.2
364.348	313.13
364.729	337.31
365.111	321.04
365.493	346.8
365.874	319.23
366.256	331.43
366.637	330.53
367.019	309.29
367.4	300.92
367.781	323.75
368.163	304.77
368.544	312
368.925	306.57
369.306	310.64
369.688	314.48
370.069	302.51
370.45	325.78
370.831	327.36
371.212	304.54
371.593	304.54
371.974	327.14
372.355	321.71
372.736	329.4
373.117	326.91
373.498	325.56
373.879	330.75
374.26	322.84
374.641	327.82
375.021	312.9
375.402	323.75
375.783	319
376.163	323.75
376.544	319.68
376.925	323.52
377.305	325.1
377.686	326.91
378.066	332.56
378.447	330.98
378.827	337.53
379.208	343.86
379.588	341.15
379.968	328.72
380.349	334.37
380.729	313.35
381.109	340.92
381.489	326.23
381.87	344.31
382.25	346.8
382.63	351.77
383.01	341.38
383.39	332.11
383.77	340.02
384.15	364.2
384.53	349.06
384.91	339.57
385.29	354.03
385.67	345.89
386.049	373.46
386.429	365.78
386.809	397.42
387.189	337.53
387.568	329.17
387.948	354.71
388.328	377.76
388.707	364.88
389.087	358.78
389.466	359.91
389.846	366.69
390.225	373.69
390.605	374.37
390.984	353.35
391.363	361.49
391.743	366.01
392.122	360.36
392.501	365.1
392.881	378.66
393.26	365.78
393.639	390.41
394.018	374.82
394.397	374.37
394.776	390.19
395.155	389.74
395.534	381.83
395.913	379.79
396.292	378.21
396.671	359.45
397.05	392.9
397.429	369.85
397.808	389.51
398.186	403.29
398.565	393.35
398.944	406.46
399.323	400.36
399.701	404.2
400.08	400.36
400.458	403.52
400.837	429.06
401.215	391.09
401.594	408.72
401.972	412.33
402.351	397.19
402.729	415.95
403.107	427.47
403.486	429.96
403.864	413.46
404.242	404.2
404.62	440.13
404.999	447.81
405.377	442.62
405.755	431.54
406.133	431.54
406.511	437.64
406.889	423.63
407.267	450.98
407.645	431.99
408.023	438.55
408.401	435.16
408.779	465.21
409.156	462.95
409.534	455.5
409.912	454.59
410.29	462.95
410.667	437.87
411.045	455.27
411.422	467.25
411.8	468.6
412.178	459.56
412.555	475.83
412.933	466.34
413.31	498.66
413.687	476.06
414.065	483.74
414.442	503.18
414.819	483.29
415.197	488.94
415.574	516.74
415.951	524.2
416.328	509.96
416.705	492.78
417.082	524.65
417.46	516.74
417.837	530.3
418.214	535.95
418.591	512.22
418.967	536.17
419.344	538.21
419.721	524.65
420.098	533.46
420.475	544.53
420.852	556.96
421.228	546.57
421.605	562.16
421.982	580.24
422.358	562.61
422.735	567.36
423.111	550.18
423.488	555.38
423.864	593.12
424.241	573.01
424.617	564.42
424.994	574.14
425.37	562.84
425.746	581.82
426.123	590.41
426.499	623.4
426.875	603.06
427.251	608.03
427.627	599.45
428.003	605.1
428.379	624.76
428.756	608.94
429.132	640.8
429.507	618.88
429.883	627.47
430.259	640.8
430.635	642.61
431.011	635.38
431.387	652.1
431.763	640.58
432.138	654.14
432.514	669.28
432.89	678.09
433.265	690.29
433.641	705.89
434.016	688.71
434.392	670.86
434.767	698.88
435.143	713.34
435.518	712.44
435.894	743.62
436.269	714.47
436.644	718.77
437.02	726.9
437.395	711.08
437.77	740.91
438.145	765.77
438.52	778.43
438.895	778.2
439.271	753.79
439.646	759.44
440.021	748.37
440.395	803.06
440.77	790.63
441.145	787.92
441.52	798.31
441.895	800.12
442.27	834.24
442.645	814.58
443.019	825.66
443.394	825.66
443.769	821.81
444.143	823.17
444.518	852.77
444.892	839.44
445.267	818.2
445.641	839.22
446.016	847.58
446.39	884.64
446.764	862.04
447.139	858.65
447.513	881.25
447.887	891.87
448.262	867.01
448.636	890.97
449.01	883.28
449.384	909.72
449.758	888.48
450.132	905.88
450.506	939.1
450.88	904.52
451.254	917.41
451.628	934.35
452.002	951.98
452.376	950.4
452.75	965.09
453.123	961.92
453.497	1002.6
453.871	991.3
454.244	1027.01
454.618	1008.93
454.992	1036.72
455.365	1041.7
455.739	1079.66
456.112	1052.77
456.486	1029.04
456.859	1043.5
457.232	1067.68
457.606	1068.36
457.979	1120.79
458.352	1098.87
458.725	1111.98
459.099	1139.32
459.472	1144.74
459.845	1155.14
460.218	1173.44
460.591	1166.66
460.964	1166.21
461.337	1208.7
461.71	1225.65
462.083	1227.23
462.456	1238.07
462.829	1243.5
463.201	1280.79
463.574	1266.77
463.947	1293.89
464.32	1334.57
464.692	1342.48
465.065	1350.16
465.438	1351.97
465.81	1376.83
466.183	1389.03
466.555	1417.96
466.928	1424.96
467.3	1440.56
467.672	1432.19
468.045	1490.05
468.417	1486.43
468.789	1526.2
469.161	1533.43
469.534	1548.12
469.906	1613.43
470.278	1599.65
470.65	1625.41
471.022	1660.44
471.394	1691.17
471.766	1719.64
472.138	1735.01
472.51	1759.64
472.882	1806.87
473.253	1833.54
473.625	1887.78
473.997	1925.51
474.369	1930.03
474.74	1953.99
475.112	1992.63
475.484	2040.77
475.855	2089.35
476.227	2105.4
476.598	2166.64
476.97	2201.67
477.341	2261.32
477.713	2312.17
478.084	2309.69
478.455	2403.02
478.827	2457.93
479.198	2503.58
479.569	2534.99
479.94	2633.97
480.311	2666.29
480.682	2752.39
481.053	2795.1
481.424	2871.03
481.795	2941.31
482.166	3000.97
482.537	3076.44
482.908	3156.44
483.279	3196.67
483.65	3264.69
484.021	3369.77
484.391	3421.75
484.762	3472.82
485.133	3540.61
485.503	3593.72
485.874	3696.77
486.244	3801.62
486.615	3902.19
486.985	3965.01
487.356	4119.35
487.726	4130.65
488.097	4272.8
488.467	4293.36
488.837	4417.2
489.207	4479.8
489.578	4563.64
489.948	4634.14
490.318	4746.01
490.688	4788.94
491.058	4911.2
491.428	5027.81
491.798	5084.08
492.168	5226.22
492.538	5284.52
492.908	5354.8
493.278	5453.56
493.648	5457.85
494.017	5638.19
494.387	5701.91
494.757	5729.03
495.126	5783.72
495.496	5905.97
495.866	5964.5
496.235	6085.4
496.605	6136.03
496.974	6272.52
497.344	6282.91
497.713	6297.83
498.082	6346.64
498.452	6507.09
498.821	6553.42
499.19	6630.93
499.559	6735.56
499.928	6792.73
500.298	6841.09
500.667	6984.82
501.036	6917.47
501.405	7104.59
501.774	7112.95
502.143	7220.29
502.512	7253.06
502.88	7327.86
503.249	7301.19
503.618	7419.83
503.987	7490.11
504.356	7644.46
504.724	7586.38
505.093	7658.02
505.462	7692.14
505.83	7789.31
506.199	7857.56
506.567	7944.79
506.936	7979.37
507.304	8029.76
507.672	8101.85
508.041	8208.06
508.409	8249.87
508.777	8268.17
509.145	8281.96
509.514	8326.25
509.882	8457.55
510.25	8423.42
510.618	8533.02
510.986	8586.36
511.354	8597.88
511.722	8720.82
512.09	8771.89
512.458	8766.24
512.826	8873.81
513.193	8940.7
513.561	8910.87
513.929	9059.34
514.297	9107.47
514.664	9213.46
515.032	9191.99
515.4	9328.71
515.767	9261.59
516.135	9337.75
516.502	9326.45
516.869	9502.26
517.237	9512.43
517.604	9482.83
517.972	9610.28
518.339	9609.83
518.706	9644.41
519.073	9668.14
519.44	9663.62
519.808	9881.69
520.175	9863.16
520.542	9983.83
520.909	9991.52
521.276	10038.07
521.643	10142.25
522.009	10130.27
522.376	10232.19
522.743	10308.8
523.11	10352.19
523.477	10417.27
523.843	10464.27
524.21	10587.66
524.577	10614.55
524.943	10640.09
525.31	10782.91
525.676	10738.39
526.043	10903.36
526.409	10942
526.776	11023.35
527.142	11062
527.508	11165.95
527.874	11212.95
528.241	11230.81
528.607	11261.54
528.973	11421.76
529.339	11414.53
529.705	11508.77
530.071	11618.37
530.437	11704.47
530.803	11689.1
531.169	11715.99
531.535	11804.8
531.901	11819.49
532.267	11822.2
532.632	11914.18
532.998	11908.08
533.364	12207.28
533.73	12064.46
534.095	12258.58
534.461	12254.28
534.826	12301.06
535.192	12345.58
535.557	12329.53
535.923	12431.23
536.288	12546.48
536.653	12536.08
537.019	12604.56
537.384	12574.95
537.749	12775.85
538.114	12672.8
538.479	12659.02
538.845	12788.05
539.21	12791.67
539.575	12877.09
539.94	12935.17
540.305	13015.84
540.67	13011.32
541.034	13094.49
541.399	13108.05
541.764	13151.21
542.129	13299.45
542.494	13259.45
542.858	13427.36
543.223	13407.02
543.587	13449.96
543.952	13502.61
544.316	13529.95
544.681	13508.03
545.045	13619.9
545.41	13733.11
545.774	13770.85
546.138	13855.14
546.503	13797.74
546.867	13842.49
547.231	13968.59
547.595	14003.61
547.959	14078.64
548.324	14046.33
548.688	14086.55
549.052	14120.67
549.416	14202.25
549.779	14200.67
550.143	14331.29
550.507	14392.53
550.871	14463.04
551.235	14350.5
551.599	14503.49
551.962	14522.47
552.326	14520.44
552.689	14694.22
553.053	14572.19
553.417	14588.91
553.78	14905.29
554.143	14769.24
554.507	14895.57
554.87	14959.52
555.234	15041.1
555.597	14967.21
555.96	15082.91
556.323	15127.88
556.686	15143.92
557.05	15277.03
557.413	15311.83
557.776	15256.46
558.139	15466.85
558.502	15459.17
558.865	15468.89
559.228	15546.63
559.59	15578.71
559.953	15580.97
560.316	15717.69
560.679	15791.36
561.041	15952.72
561.404	15897.8
561.767	15992.94
562.129	16024.58
562.492	16064.58
562.854	16182.77
563.217	16132.37
563.579	16220.05
563.941	16314.29
564.304	16363.55
564.666	16430.9
565.028	16449.65
565.39	16504.11
565.753	16600.83
566.115	16580.5
566.477	16809.64
566.839	16674.05
567.201	16891.22
567.563	16839.7
567.925	17029.3
568.287	17021.39
568.648	17109.07
569.01	17167.37
569.372	17325.56
569.734	17288.27
570.095	17412.56
570.457	17369.63
570.819	17475.39
571.18	17515.84
571.542	17574.82
571.903	17604.65
572.265	17741.37
572.626	17765.78
572.987	17900.01
573.349	17933.23
573.71	17995.15
574.071	18178.42
574.432	18243.73
574.794	18425.87
575.155	18459.99
575.516	18431.07
575.877	18706.54
576.238	18753.09
576.599	18809.59
576.96	18800.78
577.32	19089.81
577.681	19152.86
578.042	19429.46
578.403	19434.88
578.763	19568.44
579.124	19640.98
579.485	19882.1
579.845	19965.27
580.206	20093.62
580.566	20277.35
580.927	20427.85
581.287	20673.27
581.648	20675.53
582.008	20965.47
582.368	21061.28
582.728	21308.96
583.089	21400.26
583.449	21463.76
583.809	21863.97
584.169	22124.98
584.529	22186
584.889	22544.41
585.249	22663.95
585.609	22747.34
585.969	23107.78
586.329	23423.48
586.688	23513.87
587.048	23714.32
587.408	23854.2
587.768	24103.46
588.127	24514.98
588.487	24559.27
588.846	24942.08
589.206	25057.34
589.565	25245.13
589.925	25663.42
590.284	25827.03
590.643	26036.29
591.003	26501.59
591.362	26682.6
591.721	26922.82
592.08	27079.88
592.44	27408.69
592.799	27609.13
593.158	27942.23
593.517	28118.72
593.876	28475.1
594.235	28636.9
594.593	28880.74
594.952	29214.29
595.311	29353.95
595.67	29677.33
596.029	30154.15
596.387	30363.64
596.746	30643.63
597.104	30673.68
597.463	30949.16
597.822	31323.16
598.18	31392.31
598.538	31654.22
598.897	32011.28
599.255	31978.51
599.613	32658.04
599.972	32616.91
600.33	32944.59
600.688	33095.09
601.046	33371.47
601.404	33725.36
601.762	33910.66
602.12	34167.38
602.478	34370.31
602.836	34532.79
603.194	34675.61
603.552	34876.74
603.91	34956.74
604.268	35344.75
604.625	35451.86
604.983	35634.23
605.341	35793.32
605.698	35976.37
606.056	36310.15
606.413	36525.28
606.771	36722.11
607.128	36827.2
607.485	36847.08
607.843	37053.63
608.2	37477.8
608.557	37685.93
608.914	37657.68
609.272	37993.49
609.629	38203.66
609.986	38303.77
610.343	38235.97
610.7	38670.08
611.057	38678.22
611.414	38858.1
611.771	39013.8
612.127	39231.43
612.484	39415.83
612.841	39552.1
613.198	39533.34
613.554	39614.24
613.911	39926.55
614.267	39898.53
614.624	40097.62
614.98	40228.69
615.337	40526.99
615.693	40604.5
616.05	40674.1
616.406	40881.33
616.762	40892.4
617.118	40887.65
617.475	41211.49
617.831	41305.04
618.187	41447.41
618.543	41493.74
618.899	41831.58
619.255	41806.27
619.611	41833.84
619.967	41973.73
620.323	42126.94
620.678	42107.96
621.034	42101.63
621.39	42193.83
621.746	42134.4
622.101	42771.45
622.457	42518.12
622.812	42536.65
623.168	42775.29
623.523	42718.34
623.879	43000.37
624.234	42895.28
624.589	42872.69
624.945	43071.33
625.3	43032.91
625.655	43096.86
626.01	43197.88
626.365	43211.43
626.72	43181.83
627.075	43284.43
627.43	43214.15
627.785	43182.96
628.14	43366.46
628.495	43484.42
628.85	43415.5
629.205	43248.72
629.559	43525.55
629.914	43471.54
630.269	43654.36
630.623	43384.31
630.978	43436.06
631.332	43605.77
631.687	43646
632.041	43616.4
632.396	43627.69
632.75	43523.52
633.104	43607.36
633.459	43542.05
633.813	43448.94
634.167	43399.23
634.521	43541.6
634.875	43562.16
635.229	43471.09
635.583	43380.02
635.937	43355.61
636.291	43419.11
636.645	43430.19
636.999	43338.89
637.352	43606.68
637.706	43213.47
638.06	43487.59
638.413	43299.57
638.767	43241.72
639.121	43338.44
639.474	43095.96
639.828	43294.82
640.181	43275.16
640.534	43145.22
640.888	43021.83
641.241	43070.42
641.594	43093.25
641.947	43272.9
642.301	43071.1
642.654	43160.36
643.007	43042.17
643.36	43075.39
643.713	43118.1
644.066	43244.65
644.419	42996.07
644.771	42813.48
645.124	42275.64
645.477	42336.88
645.83	42188.86
646.182	42030
646.535	41859.61
646.888	41886.95
647.24	41862.77
647.593	41967.63
647.945	41924.01
648.298	41800.62
648.65	41726.95
649.002	41584.58
649.355	41721.98
649.707	41707.75
650.059	41866.84
650.411	42502.3
650.763	42360.84
651.115	42720.15
651.467	42599.47
651.819	42551.34
652.171	42569.64
652.523	42406.71
652.875	42410.33
653.227	42336.88
653.578	42565.8
653.93	42605.35
654.282	42262.98
654.633	42300.5
654.985	42365.13
655.337	42477.67
655.688	42217.34
656.039	42452.58
656.391	42111.8
656.742	42239.93
657.094	42282.87
657.445	42409.2
657.796	42323.77
658.147	42284.45
658.498	42225.47
658.849	42246.71
659.2	42291.01
659.551	42157.45
659.902	42222.76
660.253	42236.54
660.604	42222.31
660.955	42064.57
661.306	42255.3
661.656	42150.22
662.007	42193.16
662.358	42225.47
662.708	42083.78
663.059	42177.56
663.409	41809.66
663.76	42144.8
664.11	42050.79
664.461	42115.64
664.811	42095.98
665.161	42072.71
665.511	41964.46
665.862	41898.47
666.212	42039.94
666.562	42064.35
666.912	42003.78
667.262	41909.32
667.612	41953.84
667.962	42089.2
668.312	41948.64
668.662	42117
669.011	41964.01
669.361	41942.77
669.711	41792.26
670.06	41918.14
670.41	41832.71
670.76	41819.83
671.109	41891.02
671.459	41935.76
671.808	41772.83
672.157	41914.97
672.507	41535.77
672.856	41724.92
673.205	41690.57
673.554	41851.7
673.904	41706.84
674.253	41917.68
674.602	41787.97
674.951	41116.35
675.3	41032.06
675.649	41657.35
675.998	41447.19
676.346	41575.09
676.695	41742.77
677.044	41386.62
677.393	41517.47
677.741	41561.31
678.09	41404.48
678.438	41329.22
678.787	41433.63
679.135	41292.16
679.484	41186.85
679.832	41259.62
680.181	41093.75
680.529	41129.46
680.877	41072.28
681.225	40967.2
681.573	41254.65
681.922	41117.48
682.27	40834.77
682.618	40847.65
682.966	40738.73
683.314	40843.36
683.661	40779.18
684.009	40588.23
684.357	40606.98
684.705	40259.87
685.053	40518.17
685.4	40449.47
685.748	40320.21
686.095	40237.05
686.443	40163.38
686.79	40131.29
687.138	40179.42
687.485	40112.98
687.832	40163.6
688.18	39969.71
688.527	39830.28
688.874	39822.37
689.221	39640.68
689.568	39614.47
689.915	39597.29
690.262	39499.89
690.609	39408.37
690.956	39281.37
691.303	39274.81
691.65	39030.08
691.997	39171.54
692.344	38744.43
692.69	38938.33
693.037	38815.62
693.383	38390.32
693.73	38627.37
694.077	38437.55
694.423	38518.45
694.769	38300.38
695.116	38328.4
695.462	38288.17
695.808	38140.16
696.155	38101.96
696.501	37872.14
696.847	37926.38
697.193	37744.46
697.539	37721.64
697.885	37622.43
698.231	37435.54
698.577	37417.46
698.923	37267.86
699.269	37150.8
699.614	37102.89
699.96	36992.84
700.306	37018.38
700.651	36843.69
700.997	36707.65
701.342	36618.39
701.688	36527.32
702.033	36421.1
702.379	36369.58
702.724	36354.21
703.069	36426.53
703.415	35889.14
703.76	36081.9
704.105	36085.29
704.45	36043.94
704.795	35848.69
705.14	35671.97
705.485	35641.01
705.83	35407.35
706.175	35545.42
706.52	35452.99
706.865	35304.98
707.209	35279.21
707.554	35224.75
707.899	35253.45
708.243	34960.8
708.588	34928.94
708.932	34829.06
709.277	34810.53
709.621	34751.77
709.966	34599.68
710.31	34723.3
710.654	34274.49
710.998	34404.66
711.342	34294.61
711.687	34407.37
712.031	34251.67
712.375	34029.98
712.719	34138.23
713.063	34029.75
713.407	34096.19
713.75	33934.62
714.094	33909.76
714.438	33648.3
714.782	33772.81
715.125	33703.66
715.469	33639.48
715.812	33384.35
716.156	33256.89
716.499	33159.04
716.843	33383.44
717.186	33163.56
717.53	33285.37
717.873	33233.17
718.216	33037.92
718.559	33008.76
718.902	32804.93
719.246	32822.33
719.589	32691.03
719.932	32656.68
720.275	32631.37
720.617	32617.59
720.96	32677.47
721.303	32576.23
721.646	32612.39
721.989	32316.13
722.331	32422.79
722.674	32288.11
723.016	32336.24
723.359	32361.55
723.701	32285.62
724.044	31996.14
724.386	31915.69
724.729	32125.17
725.071	32017.15
725.413	31926.31
725.755	32049.47
726.097	31842.92
726.439	31602.25
726.782	31765.63
727.124	31739.87
727.465	31705.52
727.807	31617.61
728.149	31614
728.491	31561.8
728.833	31566.32
729.175	31348.7
729.516	31412.87
729.858	31305.76
730.199	31366.77
730.541	31237.51
730.882	31201.81
731.224	31268.7
731.565	31185.54
731.906	31086.1
732.248	31105.31
732.589	30809.95
732.93	30820.35
733.271	30864.19
733.612	30761.59
733.953	30874.36
734.294	30691.31
734.635	30670.97
734.976	30771.08
735.317	30589.85
735.658	30523.41
735.999	30515.5
736.339	30391.88
736.68	30542.16
737.021	30343.52
737.361	30350.76
737.702	30390.75
738.042	30301.27
738.383	30132.23
738.723	30214.94
739.063	30150.31
739.404	30233.92
739.744	30058.33
740.084	30018.33
740.424	30104.66
740.764	30070.54
741.104	30101.5
741.444	29715.74
741.784	29780.83
742.124	29846.81
742.464	29677.33
742.804	29702.64
743.143	29762.75
743.483	29618.12
743.823	29449.76
744.162	29560.72
744.502	29609.53
744.841	29476.88
745.181	29519.82
745.52	29407.96
745.86	29340.61
746.199	29324.57
746.538	29331.35
746.877	29256.32
747.216	29416.09
747.556	29204.8
747.895	29260.84
748.234	29090
748.573	29120.73
748.911	28992.6
749.25	28948.08
749.589	28845.26
749.928	28960.74
750.267	28990.11
750.605	28876.22
750.944	28702.66
751.283	28807.29
751.621	28641.65
751.96	28529.11
752.298	28675.55
752.636	28538.37
752.975	28513.74
753.313	28327.31
753.651	28563.91
753.989	28214.31
754.327	28318.72
754.666	28219.29
755.004	28196.01
755.342	28241.21
755.679	28078.72
756.017	28042.79
756.355	28176.35
756.693	27908.56
757.031	27972.97
757.368	27749.69
