Data from hue_24_FLMS001491_00084.txt Node
Date: Tue Feb 07 17:12:52 GMT 2017
User: dcchb
Spectrometer: FLMS00149
Trigger mode: 0
Integration Time (sec): 2.000000E-2
Scans to average: 10
Electric dark correction enabled: true
Nonlinearity correction enabled: false
Boxcar width: 0
XAxis mode: Wavelengths
Number of Pixels in Spectrum: 2048
>>>>>Begin Spectral Data<<<<<
341.393	-8.59
341.776	-8.59
342.16	-8.59
342.543	-65.54
342.927	-76.38
343.31	-69.83
343.693	-81.81
344.077	-60.34
344.46	-76.16
344.843	-61.47
345.226	-24.63
345.61	-28.93
345.993	-11.75
346.376	-9.27
346.759	-11.3
347.142	20.34
347.525	63.05
347.908	74.12
348.291	73.22
348.674	89.49
349.057	115.25
349.44	131.3
349.823	124.29
350.206	183.05
350.588	198.41
350.971	216.27
351.354	235.25
351.737	252.65
352.119	233.44
352.502	258.52
352.884	265.08
353.267	268.24
353.65	275.47
354.032	322.7
354.414	310.73
354.797	339.65
355.179	307.56
355.562	313.89
355.944	326.09
356.326	332.42
356.709	331.52
357.091	351.63
357.473	328.35
357.855	351.18
358.238	349.6
358.62	347.34
359.002	343.49
359.384	331.29
359.766	346.21
360.148	345.98
360.53	317.51
360.912	343.49
361.294	357.05
361.676	340.56
362.057	331.74
362.439	334.45
362.821	335.13
363.203	330.61
363.584	328.58
363.966	327
364.348	331.06
364.729	320.67
365.111	324.74
365.493	329.48
365.874	334.68
366.256	302.82
366.637	333.1
367.019	307.56
367.4	321.57
367.781	319.54
368.163	316.38
368.544	311.86
368.925	308.69
369.306	315.25
369.688	327.22
370.069	323.83
370.45	297.17
370.831	328.8
371.212	307.56
371.593	313.66
371.974	307.11
372.355	323.83
372.736	326.55
373.117	326.32
373.498	326.09
373.879	315.47
374.26	307.11
374.641	332.19
375.021	323.83
375.402	317.51
375.783	322.25
376.163	313.44
376.544	342.59
376.925	310.05
377.305	347.79
377.686	337.17
378.066	341.46
378.447	328.58
378.827	337.84
379.208	313.66
379.588	351.86
379.968	333.1
380.349	337.84
380.729	336.49
381.109	314.12
381.489	329.93
381.87	336.04
382.25	361.57
382.63	328.13
383.01	330.39
383.39	346.66
383.77	379.43
384.15	324.74
384.53	336.04
384.91	352.08
385.29	348.24
385.67	349.14
386.049	376.26
386.429	356.6
386.809	355.7
387.189	360.22
387.568	359.76
387.948	345.75
388.328	357.96
388.707	349.37
389.087	358.63
389.466	380.78
389.846	378.75
390.225	362.7
390.605	343.72
390.984	369.93
391.363	366.54
391.743	369.03
392.122	389.14
392.501	386.43
392.881	383.72
393.26	388.24
393.639	369.48
394.018	374
394.397	364.28
394.776	371.06
395.155	377.84
395.534	378.3
395.913	388.46
396.292	385.3
396.671	391.18
397.05	377.17
397.429	390.05
397.808	386.88
398.186	375.36
398.565	390.27
398.944	403.83
399.323	417.16
399.701	411.29
400.08	415.58
400.458	396.83
400.837	417.39
401.215	422.14
401.594	394.34
401.972	398.18
402.351	419.88
402.729	397.05
403.107	411.29
403.486	396.37
403.864	420.55
404.242	412.64
404.62	429.37
404.999	422.14
405.377	427.79
405.755	428.92
406.133	423.49
406.511	440.89
406.889	433.89
407.267	424.85
407.645	442.02
408.023	452.87
408.401	440.44
408.779	438.18
409.156	435.69
409.534	455.58
409.912	447.45
410.29	453.77
410.667	452.64
411.045	464.39
411.422	465.75
411.8	458.52
412.178	481.12
412.555	481.12
412.933	489.25
413.31	489.93
413.687	484.06
414.065	487.9
414.442	455.81
414.819	484.28
415.197	504.62
415.574	523.6
415.951	513.88
416.328	500.1
416.705	508.91
417.082	515.69
417.46	496.94
417.837	540.55
418.214	512.08
418.591	531.74
418.967	540.55
419.344	510.27
419.721	525.18
420.098	505.98
420.475	554.79
420.852	537.61
421.228	539.87
421.605	541.91
421.982	573.54
422.358	534
422.735	550.04
423.111	578.06
423.488	570.15
423.864	563.83
424.241	561.79
424.617	585.97
424.994	557.27
425.37	582.81
425.746	575.13
426.123	577.39
426.499	576.48
426.875	588.69
427.251	605.86
427.627	593.66
428.003	613.32
428.379	639.08
428.756	611.06
429.132	618.29
429.507	607.67
429.883	628.23
430.259	620.1
430.635	642.47
431.011	632.98
431.387	635.69
431.763	661.9
432.138	645.41
432.514	659.19
432.89	677.72
433.265	676.14
433.641	698.74
434.016	684.95
434.392	693.32
434.767	700.77
435.143	708.91
435.518	704.39
435.894	711.62
436.269	715.91
436.644	716.37
437.02	766.08
437.395	742.35
437.77	753.88
438.145	754.1
438.52	750.49
438.895	780.77
439.271	765.63
439.646	781.9
440.021	796.59
440.395	803.59
440.77	763.6
441.145	792.07
441.52	784.84
441.895	818.06
442.27	809.7
442.645	799.75
443.019	813.54
443.394	803.82
443.769	813.99
444.143	839.98
444.518	837.04
444.892	822.13
445.267	845.18
445.641	837.49
446.016	859.41
446.39	828
446.764	861.67
447.139	853.76
447.513	856.47
447.887	870.49
448.262	862.12
448.636	862.12
449.01	892.63
449.384	869.36
449.758	886.76
450.132	896.7
450.506	896.47
450.88	927.21
451.254	925.85
451.628	938.96
452.002	934.21
452.376	927.89
452.75	946.42
453.123	967.43
453.497	965.85
453.871	949.81
454.244	974.89
454.618	1004.95
454.992	999.75
455.365	1002.91
455.739	1014.44
456.112	1031.39
456.486	1032.29
456.859	1043.14
457.232	1079.07
457.606	1073.64
457.979	1063.02
458.352	1039.75
458.725	1101.67
459.099	1089.24
459.472	1123.59
459.845	1134.66
460.218	1145.73
460.591	1151.16
460.964	1154.77
461.337	1180.08
461.71	1170.36
462.083	1197.26
462.456	1208.56
462.829	1234.32
463.201	1280.42
463.574	1228.22
463.947	1264.37
464.32	1266.18
464.692	1290.14
465.065	1289.91
465.438	1343.24
465.81	1345.05
466.183	1343.47
466.555	1359.74
466.928	1369.68
467.3	1388.21
467.672	1423.24
468.045	1453.3
468.417	1405.39
468.789	1461.43
469.161	1481.99
469.534	1497.59
469.906	1544.37
470.278	1562.67
470.65	1564.93
471.022	1560.64
471.394	1598.38
471.766	1646.51
472.138	1675.89
472.51	1674.53
472.882	1696.45
473.253	1751.82
473.625	1768.54
473.997	1776.22
474.369	1806.96
474.74	1831.36
475.112	1858.03
475.484	1846.51
475.855	1930.8
476.227	1908.88
476.598	1959.04
476.97	2040.62
477.341	2042.43
477.713	2082.43
478.084	2146.84
478.455	2168.53
478.827	2195.87
479.198	2252.82
479.569	2267.29
479.94	2332.59
480.311	2328.75
480.682	2426.15
481.053	2433.83
481.424	2491.46
481.795	2534.4
482.166	2590.67
482.537	2682.19
482.908	2694.84
483.279	2706.14
483.65	2754.73
484.021	2829.53
484.391	2851.9
484.762	2915.86
485.133	2936.65
485.503	2984.33
485.874	3037.89
486.244	3092.57
486.615	3149.07
486.985	3193.81
487.356	3278.11
487.726	3298.44
488.097	3375.73
488.467	3426.12
488.837	3483.75
489.207	3562.17
489.578	3589.74
489.948	3608.49
490.318	3703.63
490.688	3727.13
491.058	3744.31
491.428	3806.45
491.798	3884.19
492.168	3993.79
492.538	3984.53
492.908	4027.92
493.278	4074.24
493.648	4103.17
494.017	4123.51
494.387	4238.76
494.757	4231.75
495.126	4292.54
495.496	4369.6
495.866	4361.47
496.235	4389.49
496.605	4506.55
496.974	4462.93
497.344	4558.98
497.713	4519.43
498.082	4604.4
498.452	4670.84
498.821	4691.18
499.19	4685.07
499.559	4784.06
499.928	4844.62
500.298	4852.98
500.667	4895.46
501.036	4848.91
501.405	4904.05
501.774	4968
502.143	4988.8
502.512	4978.63
502.88	5039.42
503.249	5040.55
503.618	5085.97
503.987	5107.44
504.356	5160.99
504.724	5159.41
505.093	5176.36
505.462	5222.24
505.83	5268.56
506.199	5319.86
506.567	5355.34
506.936	5384.49
507.304	5454.77
507.672	5416.35
508.041	5485.05
508.409	5503.13
508.777	5565.5
509.145	5556.46
509.514	5598.72
509.882	5570.93
510.25	5619.29
510.618	5624.03
510.986	5680.98
511.354	5702.9
511.722	5763.46
512.09	5768.89
512.458	5778.38
512.826	5816.34
513.193	5886.85
513.561	5899.51
513.929	5938.37
514.297	5963.23
514.664	6006.62
515.032	6017.92
515.4	6029.67
515.767	6050.69
516.135	6151.7
516.502	6073.29
516.869	6136.11
517.237	6082.33
517.604	6115.09
517.972	6213.4
518.339	6283.9
518.706	6203.45
519.073	6271.93
519.44	6319.16
519.808	6380.4
520.175	6338.82
520.542	6470.56
520.909	6471.47
521.276	6443.9
521.643	6482.32
522.009	6556.89
522.376	6598.47
522.743	6621.07
523.11	6657.23
523.477	6676.66
523.843	6759.6
524.21	6781.06
524.577	6839.59
524.943	6842.53
525.31	6882.08
525.676	6916.88
526.043	6936.99
526.409	7016.09
526.776	7019.48
527.142	7077.78
527.508	7090.21
527.874	7203.88
528.241	7186.03
528.607	7283.65
528.973	7288.85
529.339	7279.36
529.705	7328.39
530.071	7436.41
530.437	7388.05
530.803	7429.18
531.169	7506.02
531.535	7497.43
531.901	7546.47
532.267	7558.9
532.632	7614.26
532.998	7612
533.364	7659.01
533.73	7738.33
534.095	7741.04
534.461	7819
534.826	7765.9
535.192	7835.27
535.557	7899.23
535.923	7914.14
536.288	7985.78
536.653	7991.43
537.019	8025.33
537.384	8031.43
537.749	8076.85
538.114	8098.77
538.479	8143.06
538.845	8199.33
539.21	8161.37
539.575	8208.82
539.94	8204.08
540.305	8320.91
540.67	8239.78
541.034	8334.47
541.399	8399.33
541.764	8407.46
542.129	8448.14
542.494	8428.93
542.858	8461.02
543.223	8458.99
543.587	8566.1
543.952	8545.09
544.316	8578.98
544.681	8625.54
545.045	8699.66
545.41	8729.94
545.774	8730.39
546.138	8807.9
546.503	8834.34
546.867	8823.5
547.231	8917.28
547.595	8908.69
547.959	8974.68
548.324	8968.13
548.688	9003.15
549.052	9066.43
549.416	9049.25
549.779	9073.43
550.143	9145.52
550.507	9121.57
550.871	9119.31
551.235	9195.92
551.599	9234.11
551.962	9269.59
552.326	9290.6
552.689	9376.48
553.053	9280.43
553.417	9359.53
553.78	9462.58
554.143	9409.92
554.507	9500.54
554.87	9484.72
555.234	9667.32
555.597	9533.76
555.96	9587.09
556.323	9584.38
556.686	9713.87
557.05	9704.38
557.413	9702.34
557.776	9745.28
558.139	9793.41
558.502	9830.48
558.865	9760.65
559.228	9908.44
559.59	9896.91
559.953	9960.42
560.316	10088.32
560.679	10043.35
561.041	10138.26
561.404	10119.51
561.767	10209.9
562.129	10176
562.492	10275.21
562.854	10243.57
563.217	10222.1
563.579	10176.46
563.941	10387.98
564.304	10391.59
564.666	10453.96
565.028	10470.23
565.39	10496.22
565.753	10579.61
566.115	10579.83
566.477	10635.2
566.839	10606.5
567.201	10697.57
567.563	10733.96
567.925	10794.07
568.287	10848.3
568.648	10868.19
569.01	10912.71
569.372	10973.95
569.734	10965.14
570.095	11002.2
570.457	11100.27
570.819	11099.82
571.18	11101.85
571.542	11199.25
571.903	11245.35
572.265	11340.04
572.626	11347.27
572.987	11443.54
573.349	11434.73
573.71	11495.97
574.071	11513.37
574.432	11625.46
574.794	11746.13
575.155	11729.86
575.516	11739.8
575.877	11824.1
576.238	11940.48
576.599	12003.53
576.96	12003.3
577.32	12164.88
577.681	12207.14
578.042	12286
578.403	12415.04
578.763	12497.07
579.124	12585.43
579.485	12725.77
579.845	12777.74
580.206	12811.19
580.566	12934.35
580.927	13167.11
581.287	13330.72
581.648	13405.07
582.008	13536.82
582.368	13731.84
582.728	13813.42
583.089	13915.34
583.449	14204.6
583.809	14354.88
584.169	14423.35
584.529	14616.56
584.889	14798.71
585.249	14944.24
585.609	15204.57
585.969	15424.68
586.329	15568.4
586.688	15777.21
587.048	15969.75
587.408	16257.65
587.768	16448.16
588.127	16690.18
588.487	16828.03
588.846	17283.61
589.206	17373.1
589.565	17610.38
589.925	18087.89
590.284	18105.74
590.643	18458.27
591.003	18723.12
591.362	19066.39
591.721	19342.54
592.08	19534.18
592.44	19900.49
592.799	20152.01
593.158	20405.34
593.517	20675.84
593.876	20970.97
594.235	21293.68
594.593	21587
594.952	22066.09
595.311	22233.31
595.67	22631.27
596.029	22973.18
596.387	23310.35
596.746	23655.42
597.104	23846.38
597.463	24102.19
597.822	24494.27
598.18	24664.44
598.538	24967.71
598.897	25403.63
599.255	25499.89
599.613	26230.27
599.972	26349.14
600.33	26648.79
600.688	26814.89
601.046	27202.9
601.404	27581.65
601.762	27860.28
602.12	28300.27
602.478	28550.44
602.836	28937.77
603.194	28993.81
603.552	29367.82
603.91	29534.82
604.268	29977.74
604.625	30179.77
604.983	30619.53
605.341	30611.85
605.698	31050.26
606.056	31406.86
606.413	31576.34
606.771	31931.59
607.128	32098.14
607.485	32276.21
607.843	32557.56
608.2	32909.19
608.557	33260.14
608.914	33295.17
609.272	33667.59
609.629	33897.64
609.986	34231.19
610.343	34159.55
610.7	34784.85
611.057	34912.98
611.414	35132.18
611.771	35286.98
612.127	35570.36
612.484	35779.4
612.841	36001.99
613.198	36082.89
613.554	36329.21
613.911	36757.68
614.267	36814.63
614.624	36899.14
614.98	37180.04
615.337	37420.49
615.693	37663.87
616.05	37645.56
616.406	38170.52
616.762	38097.3
617.118	38218.88
617.475	38352.89
617.831	38646.89
618.187	38825.65
618.543	38916.26
618.899	39381.56
619.255	39195.58
619.611	39470.83
619.967	39588.11
620.323	39820.65
620.678	39784.94
621.034	39807.09
621.39	39996.69
621.746	40123.46
622.101	40611.14
622.457	40316.91
622.812	40592.83
623.168	40700.4
623.523	40854.74
623.879	41059.94
624.234	40805.25
624.589	41172.48
624.945	41023.1
625.3	41257.67
625.655	41333.83
626.01	41434.39
626.365	41560.04
626.72	41410.44
627.075	41580.38
627.43	41648.4
627.785	41685.91
628.14	41828.73
628.495	41916.86
628.85	41788.73
629.205	41767.49
629.559	42051.55
629.914	41953.47
630.269	42045
630.623	42160.7
630.978	42070.76
631.332	42196.63
631.687	42371.32
632.041	42159.57
632.396	42404.08
632.75	42222.17
633.104	42184.43
633.459	42180.36
633.813	42246.8
634.167	42247.25
634.521	42335.16
634.875	42437.98
635.229	42361.37
635.583	42263.3
635.937	42306.23
636.291	42365.67
636.645	42278.66
636.999	42225.78
637.352	42505.32
637.706	42248.83
638.06	42430.3
638.413	42336.06
638.767	42275.5
639.121	42293.58
639.474	42111.66
639.828	42223.52
640.181	42215.16
640.534	42365.21
640.888	42177.2
641.241	42073.7
641.594	42010.65
641.947	42154.6
642.301	42139.01
642.654	42272.11
643.007	42107.37
643.36	42190.3
643.713	41972.68
644.066	42234.82
644.419	42071.44
644.771	41849.07
645.124	41440.04
645.477	41420.61
645.83	41055.19
646.182	41020.84
646.535	40910.79
646.888	41136.55
647.24	40906.04
647.593	41130.44
647.945	40979.26
648.298	40776.1
648.65	40926.83
649.002	40798.25
649.355	40950.79
649.707	40998.92
650.059	41080.5
650.411	41454.28
650.763	41737.21
651.115	42002.06
651.467	41833.02
651.819	41832.35
652.171	41627.61
652.523	41652.69
652.875	41588.06
653.227	41506.03
653.578	41734.95
653.93	41716.42
654.282	41620.83
654.633	41406.14
654.985	41546.7
655.337	41713.03
655.688	41701.28
656.039	41749.41
656.391	41485.46
656.742	41515.29
657.094	41564.56
657.445	41718.68
657.796	41529.3
658.147	41580.15
658.498	41320.95
658.849	41471.23
659.2	41511
659.551	41452.02
659.902	41461.51
660.253	41361.85
660.604	41403.21
660.955	41376.77
661.306	41473.94
661.656	41470.32
662.007	41351.91
662.358	41377.44
662.708	41404.11
663.059	41392.58
663.409	41278.24
663.76	41492.69
664.11	41481.4
664.461	41456.09
664.811	41439.59
665.161	41342.87
665.511	41344.22
665.862	41386.03
666.212	41446.37
666.562	41555.97
666.912	41330.66
667.262	41225.36
667.612	41227.39
667.962	41404.34
668.312	41309.42
668.662	41416.76
669.011	41293.15
669.361	41186.71
669.711	41156.21
670.06	41163.21
670.41	41134.74
670.76	41121.4
671.109	41293.83
671.459	41106.94
671.808	40997.79
672.157	41201.63
672.507	40958.02
672.856	40854.97
673.205	41080.5
673.554	41159.14
673.904	41020.16
674.253	41282.53
674.602	41037.11
674.951	40582.21
675.3	40350.35
675.649	41024.23
675.998	40936.55
676.346	40930.68
676.695	41055.87
677.044	40632.6
677.393	40800.28
677.741	41042.54
678.09	40860.17
678.438	40611.59
678.787	40836.67
679.135	40800.28
679.484	40548.54
679.832	40752.6
680.181	40449.56
680.529	40550.57
680.877	40486.39
681.225	40487.75
681.573	40623.11
681.922	40356.23
682.27	40188.1
682.618	40275.78
682.966	40157.14
683.314	40162.11
683.661	40039.85
684.009	39997.37
684.357	39921.44
684.705	39789.24
685.053	39974.99
685.4	39785.17
685.748	39686.19
686.095	39584.04
686.443	39529.36
686.79	39631.05
687.138	39524.38
687.485	39587.89
687.832	39345.63
688.18	39525.74
688.527	39127.78
688.874	39106.77
689.221	39024.96
689.568	39097.5
689.915	39017.05
690.262	39088.69
690.609	38832.88
690.956	38771.86
691.303	38694.35
691.65	38395.83
691.997	38606.89
692.344	38372.78
692.69	38333.91
693.037	38206.9
693.383	38010.53
693.73	38043.97
694.077	37902.51
694.423	37897.53
694.769	37855.5
695.116	37699.8
695.462	37724.66
695.808	37373.25
696.155	37667.03
696.501	37175.07
696.847	37225.46
697.193	36971.46
697.539	37165.12
697.885	36879.71
698.231	36747.51
698.577	36877.67
698.923	36671.13
699.269	36628.42
699.614	36476.56
699.96	36428.42
700.306	36475.65
700.651	36284.02
700.997	36115.21
701.342	36153.17
701.688	36057.36
702.033	35743.01
702.379	35892.16
702.724	35840.41
703.069	35857.14
703.415	35468.67
703.76	35481.55
704.105	35550.03
704.45	35253.99
704.795	35187.55
705.14	35223.25
705.485	35216.93
705.83	34953.21
706.175	34990.04
706.52	34875.92
706.865	34818.07
707.209	34719.09
707.554	34679.99
707.899	34691.74
708.243	34570.16
708.588	34442.71
708.932	34223.28
709.277	34215.6
709.621	34293.34
709.966	34073.23
710.31	34236.16
710.654	33872.1
710.998	33985.32
711.342	33841.14
711.687	33599.12
712.031	33695.61
712.375	33498.78
712.719	33570.87
713.063	33616.97
713.407	33572.9
713.75	33389.18
714.094	33447.26
714.438	33237.77
714.782	33158
715.125	33040.94
715.469	33100.15
715.812	32877.33
716.156	32735.64
716.499	32809.53
716.843	32741.74
717.186	32666.26
717.53	32617.67
717.873	32736.31
718.216	32665.13
718.559	32559.14
718.902	32350.56
719.246	32444.12
719.589	32318.02
719.932	32177.68
720.275	32183.56
720.617	32343.78
720.96	32083
721.303	32197.35
721.646	32071.93
721.989	31902.89
722.331	31986.96
722.674	31791.93
723.016	31969.78
723.359	31812.27
723.701	32019.95
724.044	31697.47
724.386	31530.7
724.729	31584.25
725.071	31527.31
725.413	31586.74
725.755	31373.64
726.097	31250.25
726.439	31329.8
726.782	31233.76
727.124	31408.89
727.465	31120.99
727.807	31136.81
728.149	31102.23
728.491	30960.09
728.833	30954.67
729.175	30968.68
729.516	30871.5
729.858	30827.21
730.199	30866.53
730.541	30784.05
730.882	30700.21
731.224	30759.87
731.565	30652.3
731.906	30634.45
732.248	30726.2
732.589	30449.82
732.93	30384.06
733.271	30448.24
733.612	30417.05
733.953	30450.72
734.294	30398.3
734.635	30212.76
734.976	30230.84
735.317	30001.92
735.658	30029.94
735.999	30097.06
736.339	30192.88
736.68	29990.17
737.021	30023.84
737.361	29783.4
737.702	30107.46
738.042	29761.48
738.383	29780.69
738.723	29856.16
739.063	29624.08
739.404	29743.85
739.744	29653.46
740.084	29615.27
740.424	29605.32
740.764	29553.8
741.104	29608.26
741.444	29529.17
741.784	29389.06
742.124	29525.78
742.464	29454.59
742.804	29278.1
743.143	29373.24
743.483	29284.43
743.823	29130.99
744.162	29271.32
744.502	29216.18
744.841	29169.18
745.181	29277.87
745.52	29013.02
745.86	29015.96
746.199	28962.18
746.538	29015.51
746.877	29042.85
747.216	29004.44
747.556	28857.55
747.895	28752.24
748.234	28697.1
748.573	28723.76
748.911	28668.62
749.25	28721.05
749.589	28594.5
749.928	28653.48
750.267	28587.72
750.605	28542.07
750.944	28419.59
751.283	28297.11
751.621	28370.78
751.96	28292.82
752.298	28231.57
752.636	28256.43
752.975	28183.67
753.313	28023.9
753.651	28162.88
753.989	27998.81
754.327	27955.88
754.666	27954.52
755.004	27757.01
755.342	27853.05
755.679	27736.45
756.017	27613.96
756.355	27699.38
756.693	27612.61
757.031	27660.52
757.368	27352.05
757.706	27430.01
758.044	27201.77
758.381	27432.5
758.719	27275.89
759.056	27293.07
759.394	27121.09
759.731	27027.31
