Data from hue_150_FLMS001491_00094.txt Node
Date: Tue Feb 07 16:54:47 GMT 2017
User: dcchb
Spectrometer: FLMS00149
Trigger mode: 0
Integration Time (sec): 2.000000E-2
Scans to average: 10
Electric dark correction enabled: true
Nonlinearity correction enabled: false
Boxcar width: 0
XAxis mode: Wavelengths
Number of Pixels in Spectrum: 2048
>>>>>Begin Spectral Data<<<<<
341.393	-3.35
341.776	-3.35
342.16	-3.35
342.543	-70.69
342.927	-70.24
343.31	-70.46
343.693	-64.59
344.077	-64.36
344.46	-45.38
344.843	-68.43
345.226	-46.06
345.61	-39.05
345.993	-18.49
346.376	-20.75
346.759	2.3
347.142	18.12
347.525	43.88
347.908	80.94
348.291	82.07
348.674	101.51
349.057	108.74
349.44	130.89
349.823	148.06
350.206	151.45
350.588	186.25
350.971	196.87
351.354	215.4
351.737	238
352.119	251.79
352.502	257.89
352.884	270.32
353.267	266.7
353.65	269.41
354.032	301.73
354.414	320.03
354.797	294.5
355.179	331.79
355.562	324.33
355.944	315.29
356.326	313.03
356.709	301.5
357.091	315.51
357.473	334.04
357.855	329.3
358.238	343.31
358.62	343.99
359.002	310.99
359.384	342.86
359.766	318.68
360.148	348.51
360.53	353.03
360.912	338.34
361.294	337.66
361.676	314.38
362.057	326.81
362.439	323.65
362.821	319.81
363.203	325.01
363.584	308.73
363.966	323.2
364.348	321.16
364.729	291.56
365.111	325.01
365.493	311.9
365.874	327.27
366.256	318.23
366.637	301.05
367.019	323.42
367.4	316.42
367.781	297.66
368.163	297.66
368.544	283.65
368.925	300.15
369.306	330.88
369.688	338.79
370.069	318.68
370.45	310.99
370.831	290.43
371.212	313.03
371.593	307.15
371.974	311.22
372.355	299.7
372.736	304.67
373.117	311.22
373.498	309.41
373.879	332.69
374.26	311.67
374.641	289.07
375.021	300.83
375.402	312.8
375.783	316.64
376.163	330.88
376.544	315.29
376.925	303.31
377.305	316.42
377.686	315.51
378.066	334.72
378.447	322.97
378.827	317.1
379.208	319.81
379.588	313.71
379.968	331.79
380.349	315.29
380.729	329.98
381.109	322.29
381.489	327.49
381.87	322.75
382.25	319.36
382.63	336.08
383.01	318.9
383.39	314.16
383.77	333.14
384.15	325.23
384.53	323.65
384.91	346.7
385.29	346.25
385.67	332.46
386.049	345.8
386.429	345.34
386.809	339.47
387.189	325.01
387.568	347.38
387.948	326.81
388.328	333.14
388.707	338.34
389.087	343.76
389.466	363.2
389.846	356.42
390.225	349.64
390.605	354.38
390.984	355.51
391.363	362.07
391.743	369.75
392.122	346.25
392.501	356.87
392.881	362.74
393.26	364.1
393.639	371.11
394.018	362.97
394.397	368.17
394.776	364.1
395.155	369.3
395.534	350.99
395.913	371.56
396.292	392.57
396.671	372.69
397.05	371.33
397.429	378.79
397.808	375.17
398.186	365
398.565	373.59
398.944	378.34
399.323	374.5
399.701	358.9
400.08	387.15
400.458	356.64
400.837	387.38
401.215	370.2
401.594	385.12
401.972	399.13
402.351	404.55
402.729	395.74
403.107	382.86
403.486	393.93
403.864	407.04
404.242	388.73
404.62	385.57
404.999	396.19
405.377	390.54
405.755	394.61
406.133	385.57
406.511	418.34
406.889	394.61
407.267	411.11
407.645	418.79
408.023	423.08
408.401	410.43
408.779	416.75
409.156	443.65
409.534	447.04
409.912	445
410.29	413.82
410.667	429.64
411.045	439.35
411.422	447.71
411.8	438.9
412.178	431.9
412.555	430.54
412.933	445.68
413.31	432.8
413.687	437.77
414.065	452.69
414.442	455.62
414.819	446.13
415.197	441.39
415.574	466.47
415.951	454.04
416.328	468.96
416.705	481.39
417.082	484.55
417.46	473.7
417.837	470.31
418.214	483.19
418.591	459.47
418.967	500.82
419.344	474.61
419.721	496.98
420.098	480.93
420.475	505.34
420.852	503.76
421.228	496.98
421.605	516.86
421.982	512.8
422.358	500.37
422.735	515.28
423.111	520.25
423.488	510.54
423.864	526.36
424.241	540.14
424.617	520.03
424.994	525.9
425.37	530.65
425.746	534.72
426.123	539.69
426.499	558.9
426.875	554.6
427.251	549.63
427.627	573.81
428.003	567.49
428.379	572
428.756	558.45
429.132	573.81
429.507	577.65
429.883	587.15
430.259	582.85
430.635	590.31
431.011	619.69
431.387	607.03
431.763	600.7
432.138	616.52
432.514	611.33
432.89	612.68
433.265	604.55
433.641	633.47
434.016	625.56
434.392	647.71
434.767	642.74
435.143	659.23
435.518	647.93
435.894	669.18
436.269	664.88
436.644	663.98
437.02	680.48
437.395	689.97
437.77	694.71
438.145	698.78
438.52	694.94
438.895	723.41
439.271	705.33
439.646	698.78
440.021	731.1
440.395	713.47
440.77	698.33
441.145	727.71
441.52	739.01
441.895	760.93
442.27	749.4
442.645	759.34
443.019	774.71
443.394	785.11
443.769	741.27
444.143	775.16
444.518	772.9
444.892	783.3
445.267	806.12
445.641	809.06
446.016	793.92
446.39	818.1
446.764	775.39
447.139	820.36
447.513	802.28
447.887	818.55
448.262	812.9
448.636	848.16
449.01	817.42
449.384	833.47
449.758	827.59
450.132	856.07
450.506	838.66
450.88	843.18
451.254	856.07
451.628	897.87
452.002	909.62
452.376	886.12
452.75	915.95
453.123	911.43
453.497	889.51
453.871	911.88
454.244	946.01
454.618	949.62
454.992	930.19
455.365	946.01
455.739	967.02
456.112	996.17
456.486	978.55
456.859	1004.76
457.232	1005.21
457.606	1021.94
457.979	1013.8
458.352	1032.33
458.725	1065.33
459.099	1065.33
459.472	1090.86
459.845	1111.65
460.218	1099
460.591	1085.21
460.964	1122.05
461.337	1139.22
461.71	1167.02
462.083	1171.76
462.456	1171.54
462.829	1171.76
463.201	1225.77
463.574	1204.3
463.947	1221.25
464.32	1282.95
464.692	1267.58
465.065	1261.93
465.438	1300.12
465.81	1315.04
466.183	1345.32
466.555	1355.26
466.928	1376.5
467.3	1384.19
467.672	1439.55
468.045	1431.42
468.417	1451.3
468.789	1436.39
469.161	1489.49
469.534	1515.26
469.906	1566.33
470.278	1573.11
470.65	1607.68
471.022	1629.38
471.394	1638.42
471.766	1689.04
472.138	1715.25
472.51	1767.68
472.882	1811.75
473.253	1832.54
473.625	1869.6
473.997	1924.29
474.369	1982.36
474.74	1970.39
475.112	2015.13
475.484	2080.21
475.855	2101.23
476.227	2145.97
476.598	2188.91
476.97	2282.24
477.341	2343.94
477.713	2385.52
478.084	2392.75
478.455	2479.3
478.827	2581.22
479.198	2657.15
479.569	2708.67
479.94	2751.83
480.311	2829.57
480.682	2911.38
481.053	3016.01
481.424	3087.87
481.795	3186.4
482.166	3272.05
482.537	3356.34
482.908	3484.02
483.279	3514.3
483.65	3601.3
484.021	3746.84
484.391	3842.65
484.762	3894.63
485.133	3990.9
485.503	4087.39
485.874	4271.79
486.244	4289.2
486.615	4469.08
486.985	4541.62
487.356	4662.29
487.726	4736.19
488.097	4887.15
488.467	4971.21
488.837	5112.68
489.207	5226.12
489.578	5410.52
489.948	5460.24
490.318	5617.07
490.688	5718.54
491.058	5838.08
491.428	5999.66
491.798	6053.44
492.168	6235.36
492.538	6363.26
492.908	6470.15
493.278	6617.04
493.648	6695.46
494.017	6870.37
494.387	6944.72
494.757	7099.06
495.126	7240.3
495.496	7252.73
495.866	7381.32
496.235	7520.75
496.605	7692.5
496.974	7756.9
497.344	7840.97
497.713	7936.33
498.082	8058.81
498.452	8164.12
498.821	8363.21
499.19	8409.09
499.559	8445.92
499.928	8611.12
500.298	8668.52
500.667	8799.36
501.036	8789.19
501.405	8973.82
501.774	9008.39
502.143	9110.76
502.512	9102.85
502.88	9220.82
503.249	9283.87
503.618	9400.93
503.987	9442.51
504.356	9597.08
504.724	9577.42
505.093	9612.22
505.462	9723.18
505.83	9795.49
506.199	9904.19
506.567	10060.57
506.936	9966.79
507.304	10223.28
507.672	10217.63
508.041	10209.49
508.409	10317.29
508.777	10317.74
509.145	10456.49
509.514	10465.3
509.882	10544.85
510.25	10583.72
510.618	10614.45
510.986	10685.19
511.354	10736.71
511.722	10802.92
512.09	10917.72
512.458	10870.49
512.826	10989.58
513.193	10991.39
513.561	11048.11
513.929	11024.39
514.297	11091.05
514.664	11210.6
515.032	11186.41
515.4	11265.51
515.767	11266.64
516.135	11281.33
516.502	11215.34
516.869	11376.01
517.237	11390.48
517.604	11416.24
517.972	11508.89
518.339	11511.6
518.706	11555.22
519.073	11450.59
519.44	11549.57
519.808	11534.43
520.175	11588.89
520.542	11724.25
520.909	11681.32
521.276	11698.49
521.643	11806.51
522.009	11753.18
522.376	11822.1
522.743	11796.34
523.11	11892.61
523.477	11924.47
523.843	11931.71
524.21	12020.74
524.577	11987.3
524.943	12079.95
525.31	11988.43
525.676	12123.11
526.043	12092.15
526.409	12152.72
526.776	12181.42
527.142	12162.66
527.508	12170.34
527.874	12223.22
528.241	12197.91
528.607	12201.3
528.973	12268.42
529.339	12171.02
529.705	12276.56
530.071	12220.06
530.437	12348.64
530.803	12278.59
531.169	12297.12
531.535	12237.46
531.901	12151.14
532.267	12172.83
532.632	12235.88
532.998	12254.41
533.364	12189.1
533.73	12223
534.095	12266.16
534.461	12236.1
534.826	12180.74
535.192	12139.16
535.557	12190.68
535.923	12127.18
536.288	12099.39
536.653	12087.86
537.019	11993.63
537.384	11972.16
537.749	12001.53
538.114	12028.43
538.479	11934.42
538.845	11891.71
539.21	11842.44
539.575	11832.27
539.94	11820.07
540.305	11877.02
540.67	11666.63
541.034	11680.19
541.399	11753.18
541.764	11662.11
542.129	11747.3
542.494	11678.15
542.858	11581.66
543.223	11545.28
543.587	11479.51
543.952	11544.6
544.316	11414.66
544.681	11419.4
545.045	11407.65
545.41	11380.53
545.774	11382.57
546.138	11320.2
546.503	11283.81
546.867	11278.16
547.231	11240.42
547.595	11307.09
547.959	11224.15
548.324	11215.11
548.688	11180.77
549.052	11051.05
549.416	11124.5
549.779	11033.2
550.143	10986.87
550.507	11049.02
550.871	10955.46
551.235	10949.13
551.599	10999.98
551.962	10919.3
552.326	10816.26
552.689	10897.16
553.053	10741.23
553.417	10828.68
553.78	10820.1
554.143	10763.6
554.507	10748.01
554.87	10781
555.234	10789.82
555.597	10686.32
555.96	10672.76
556.323	10599.31
556.686	10625.75
557.05	10715.01
557.413	10694
557.776	10598.18
558.139	10678.86
558.502	10589.37
558.865	10600.67
559.228	10579.65
559.59	10524.06
559.953	10568.58
560.316	10616.49
560.679	10572.87
561.041	10568.58
561.404	10565.19
561.767	10628.46
562.129	10505.53
562.492	10641.12
562.854	10612.64
563.217	10571.29
563.579	10592.31
563.941	10642.93
564.304	10565.19
564.666	10639.99
565.028	10616.26
565.39	10579.65
565.753	10693.77
566.115	10637.28
566.477	10698.97
566.839	10649.25
567.201	10720.21
567.563	10681.8
567.925	10761.12
568.287	10648.8
568.648	10717.73
569.01	10777.39
569.372	10755.01
569.734	10705.07
570.095	10785.3
570.457	10738.52
570.819	10766.09
571.18	10741.45
571.542	10826.2
571.903	10800.44
572.265	10829.14
572.626	10754.56
572.987	10739.87
573.349	10832.53
573.71	10823.03
574.071	10829.14
574.432	10782.81
574.794	10895.12
575.155	10800.21
575.516	10824.39
575.877	10835.46
576.238	10861.9
576.599	10880.21
576.96	10908.46
577.32	10846.99
577.681	10856.48
578.042	10831.85
578.403	10902.81
578.763	10946.87
579.124	10856.93
579.485	10886.76
579.845	10968.57
580.206	10878.63
580.566	10872.52
580.927	10929.7
581.287	10901.45
581.648	10812.87
582.008	10948
582.368	10871.39
582.728	10883.82
583.089	10841.57
583.449	10893.09
583.809	10806.76
584.169	10810.15
584.529	10743.26
584.889	10853.09
585.249	10780.1
585.609	10755.01
585.969	10829.14
586.329	10772.19
586.688	10743.94
587.048	10778.97
587.408	10686.32
587.768	10791.85
588.127	10655.81
588.487	10681.34
588.846	10752.98
589.206	10696.26
589.565	10694.22
589.925	10748.23
590.284	10676.37
590.643	10690.16
591.003	10699.87
591.362	10733.55
591.721	10690.38
592.08	10638.41
592.44	10624.4
592.799	10690.38
593.158	10668.69
593.517	10701.46
593.876	10697.39
594.235	10593.66
594.593	10590.05
594.952	10620.1
595.311	10645.41
595.67	10630.5
596.029	10698.97
596.387	10681.57
596.746	10636.37
597.104	10633.89
597.463	10632.53
597.822	10567
598.18	10633.21
598.538	10494.46
598.897	10646.77
599.255	10489.71
599.613	10685.41
599.972	10636.37
600.33	10609.93
600.688	10624.62
601.046	10621.91
601.404	10605.41
601.762	10616.71
602.12	10696.94
602.478	10647.45
602.836	10632.31
603.194	10597.73
603.552	10590.05
603.91	10543.49
604.268	10653.1
604.625	10564.51
604.983	10679.31
605.341	10544.85
605.698	10677.73
606.056	10689.93
606.413	10605.87
606.771	10620.78
607.128	10631.63
607.485	10552.99
607.843	10622.81
608.2	10657.16
608.557	10613.1
608.914	10579.43
609.272	10652.19
609.629	10712.53
609.986	10686.09
610.343	10654.9
610.7	10712.98
611.057	10684.06
611.414	10685.19
611.771	10679.54
612.127	10635.69
612.484	10715.69
612.841	10750.49
613.198	10733.77
613.554	10710.27
613.911	10753.21
614.267	10739.87
614.624	10710.04
614.98	10704.17
615.337	10776.03
615.693	10822.36
616.05	10741.91
616.406	10896.25
616.762	10843.83
617.118	10770.15
617.475	10783.71
617.831	10818.97
618.187	10840.21
618.543	10842.47
618.899	10854.9
619.255	10842.92
619.611	10784.62
619.967	10900.32
620.323	10909.59
620.678	10868.68
621.034	10850.6
621.39	10809.02
621.746	10802.24
622.101	10930.38
622.457	10871.62
622.812	10955.23
623.168	10917.5
623.523	10917.27
623.879	10986.42
624.234	10855.58
624.589	10886.54
624.945	10907.78
625.3	10918.85
625.655	10925.63
626.01	10945.07
626.365	10923.82
626.72	10856.71
627.075	10843.37
627.43	10886.76
627.785	10766.76
628.14	10847.21
628.495	10848.34
628.85	10858.29
629.205	10865.29
629.559	10869.59
629.914	10816.93
630.269	10811.96
630.623	10816.93
630.978	10782.58
631.332	10904.39
631.687	10715.47
632.041	10749.36
632.396	10748.91
632.75	10762.92
633.104	10785.97
633.459	10740.1
633.813	10630.72
634.167	10714.56
634.521	10707.11
634.875	10643.6
635.229	10703.72
635.583	10603.83
635.937	10689.03
636.291	10621.01
636.645	10650.61
636.999	10561.35
637.352	10582.59
637.706	10551.63
638.06	10601.12
638.413	10578.75
638.767	10539.2
639.121	10514.12
639.474	10494.23
639.828	10508.69
640.181	10477.73
640.534	10527.45
640.888	10482.25
641.241	10488.35
641.594	10469.37
641.947	10512.53
642.301	10411.75
642.654	10468.47
643.007	10471.41
643.36	10473.89
643.713	10457.62
644.066	10481.35
644.419	10425.98
644.771	10284.52
645.124	10226.89
645.477	10244.52
645.83	10105.77
646.182	10109.61
646.535	10074.35
646.888	10151.64
647.24	10073.68
647.593	10095.14
647.945	10034.58
648.298	10063.96
648.65	10121.36
649.002	10004.3
649.355	10006.11
649.707	10003.17
650.059	10096.05
650.411	10208.81
650.763	10200.23
651.115	10293.56
651.467	10300.11
651.819	10255.82
652.171	10323.16
652.523	10235.48
652.875	10267.57
653.227	10292.2
653.578	10286.78
653.93	10300.79
654.282	10224.86
654.633	10259.66
654.985	10307.12
655.337	10296.95
655.688	10286.1
656.039	10394.35
656.391	10221.92
656.742	10294.23
657.094	10340.79
657.445	10305.76
657.796	10310.96
658.147	10260.11
658.498	10230.96
658.849	10286.55
659.2	10310.05
659.551	10288.36
659.902	10327.91
660.253	10341.24
660.604	10336.27
660.955	10308.92
661.306	10332.88
661.656	10294.01
662.007	10348.92
662.358	10348.02
662.708	10338.53
663.059	10330.17
663.409	10243.39
663.76	10348.47
664.11	10352.99
664.461	10373.78
664.811	10320.22
665.161	10295.36
665.511	10343.95
665.862	10383.95
666.212	10420.11
666.562	10350.73
666.912	10334.69
667.262	10236.38
667.612	10363.16
667.962	10332.65
668.312	10355.7
668.662	10410.39
669.011	10410.62
669.361	10354.12
669.711	10383.05
670.06	10325.19
670.41	10301.69
670.76	10308.47
671.109	10328.36
671.459	10288.36
671.808	10347.79
672.157	10341.92
672.507	10279.09
672.856	10276.38
673.205	10244.52
673.554	10292.88
673.904	10243.16
674.253	10297.85
674.602	10309.6
674.951	10170.62
675.3	9998.88
675.649	10244.29
675.998	10243.61
676.346	10169.72
676.695	10225.31
677.044	10150.74
677.393	10200.9
677.741	10251.3
678.09	10181.7
678.438	10175.82
678.787	10140.11
679.135	10211.75
679.484	10094.47
679.832	10153.67
680.181	10068.93
680.529	10088.59
680.877	10014.69
681.225	10017.86
681.573	10056.73
681.922	9986.45
682.27	9960.68
682.618	9946.9
682.966	10006.56
683.314	9963.62
683.661	9963.62
684.009	9958.42
684.357	9869.84
684.705	9912.55
685.053	9831.42
685.4	9854.7
685.748	9765.21
686.095	9714.14
686.443	9686.34
686.79	9751.65
687.138	9708.04
687.485	9651.99
687.832	9680.47
688.18	9637.53
688.527	9601.6
688.874	9534.48
689.221	9559.11
689.568	9579
689.915	9481.83
690.262	9436.4
690.609	9458.32
690.956	9451.09
691.303	9402.06
691.65	9369.29
691.997	9368.38
692.344	9320.7
692.69	9259.23
693.037	9241.38
693.383	9215.85
693.73	9221.95
694.077	9157.32
694.423	9147.15
694.769	9015.4
695.116	9124.55
695.462	9069.18
695.808	9019.24
696.155	8998.68
696.501	8993.93
696.847	8953.03
697.193	8887.72
697.539	8849.08
697.885	8840.94
698.231	8815.86
698.577	8814.05
698.923	8759.36
699.269	8734.05
699.614	8726.37
699.96	8607.05
700.306	8623.09
700.651	8541.06
700.997	8577.67
701.342	8540.38
701.688	8443.89
702.033	8484.11
702.379	8506.26
702.724	8420.61
703.069	8519.59
703.415	8381.29
703.76	8312.59
704.105	8316.21
704.45	8295.42
704.795	8265.59
705.14	8208.19
705.485	8221.97
705.83	8168.19
706.175	8314.4
706.52	8148.98
706.865	8108.53
707.209	8130.68
707.554	8138.81
707.899	8091.58
708.243	8080.96
708.588	8092.26
708.932	7949.44
709.277	7941.75
709.621	8008.65
709.966	7900.85
710.31	7910.79
710.654	7867.86
710.998	7889.55
711.342	7838.25
711.687	7795.32
712.031	7855.88
712.375	7728.43
712.719	7778.59
713.063	7771.59
713.407	7810.01
713.75	7745.6
714.094	7723.23
714.438	7640.29
714.782	7746.73
715.125	7615.21
715.469	7582.67
715.812	7621.76
716.156	7533.63
716.499	7598.03
716.843	7569.33
717.186	7504.7
717.53	7565.95
717.873	7558.26
718.216	7580.86
718.559	7481.2
718.902	7423.12
719.246	7456.57
719.589	7490.47
719.932	7421.09
720.275	7454.08
720.617	7429
720.96	7412.73
721.303	7413.86
721.646	7440.52
721.989	7414.08
722.331	7432.62
722.674	7416.57
723.016	7424.03
723.359	7349.45
723.701	7430.81
724.044	7367.76
724.386	7302.22
724.729	7354.2
725.071	7400.3
725.413	7347.19
725.755	7292.51
726.097	7264.94
726.439	7306.74
726.782	7259.74
727.124	7331.83
727.465	7304.26
727.807	7306.52
728.149	7285.05
728.491	7286.18
728.833	7265.61
729.175	7226.07
729.516	7242.56
729.858	7231.49
730.199	7282.34
730.541	7252.96
730.882	7186.97
731.224	7284.82
731.565	7221.1
731.906	7272.62
732.248	7291.15
732.589	7245.28
732.93	7268.1
733.271	7279.85
733.612	7306.97
733.953	7274.88
734.294	7227.42
734.635	7243.92
734.976	7330.47
735.317	7215.22
735.658	7282.11
735.999	7261.09
736.339	7264.94
736.68	7248.67
737.021	7312.84
737.361	7155.56
737.702	7311.04
738.042	7251.6
738.383	7302
738.723	7328.21
739.063	7298.38
739.404	7373.41
739.744	7331.15
740.084	7343.58
740.424	7390.36
740.764	7367.31
741.104	7415.89
741.444	7313.97
741.784	7317.59
742.124	7442.56
742.464	7428.77
742.804	7457.7
743.143	7426.74
743.483	7459.73
743.823	7472.16
744.162	7486.17
744.502	7547.87
744.841	7514.65
745.181	7631.71
745.52	7612.05
745.86	7671.93
746.199	7644.81
746.538	7729.1
746.877	7791.25
747.216	7795.09
747.556	7822.44
747.895	7899.95
748.234	7893.39
748.573	7973.84
748.911	8025.37
749.25	8119.83
749.589	8045.25
749.928	8267.62
750.267	8303.33
750.605	8308.3
750.944	8389.43
751.283	8384.68
751.621	8526.82
751.96	8614.73
752.298	8714.62
752.636	8758
752.975	8812.69
753.313	8938.79
753.651	9115.06
753.989	9179.69
754.327	9240.25
754.666	9306.46
755.004	9474.6
755.342	9594.82
755.679	9653.12
756.017	9799.33
756.355	9956.84
756.693	10105.31
757.031	10229.6
757.368	10290.62
757.706	10403.16
758.044	10608.35
758.381	10707.11
758.719	10793.66
759.056	11063.25
759.394	11128.79
759.731	11283.14
760.068	11383.7
760.405	11510.93
760.743	11700.3
761.08	11904.14
761.417	11997.24
