Data from hue_330_FLMS001491_75.txt Node
Date: Mon Feb 06 15:45:52 GMT 2017
User: dcchb
Spectrometer: FLMS00149
Trigger mode: 0
Integration Time (sec): 2.000000E-2
Scans to average: 10
Electric dark correction enabled: true
Nonlinearity correction enabled: false
Boxcar width: 0
XAxis mode: Wavelengths
Number of Pixels in Spectrum: 2048
>>>>>Begin Spectral Data<<<<<
341.393	-15.4
341.776	-15.4
342.16	-15.4
342.543	-56.75
342.927	-67.37
343.31	-78.9
343.693	-79.35
344.077	-68.95
344.46	-49.52
344.843	-51.1
345.226	-58.78
345.61	-47.94
345.993	-19.24
346.376	9.01
346.759	0.2
347.142	37.03
347.525	36.58
347.908	61.21
348.291	93.98
348.674	96.01
349.057	119.74
349.44	130.82
349.823	127.43
350.206	167.42
350.588	193.64
350.971	190.02
351.354	215.79
351.737	232.06
352.119	250.36
352.502	252.85
352.884	285.61
353.267	298.95
353.65	288.1
354.032	303.92
354.414	332.84
354.797	317.7
355.179	308.89
355.562	307.99
355.944	331.26
356.326	330.36
356.709	342.11
357.091	346.86
357.473	356.8
357.855	359.06
358.238	338.27
358.62	341.88
359.002	324.93
359.384	335.1
359.766	319.96
360.148	338.95
360.53	333.75
360.912	350.25
361.294	340.53
361.676	320.64
362.057	334.43
362.439	322
362.821	323.58
363.203	326.52
363.584	349.34
363.966	315.44
364.348	310.92
364.729	309.34
365.111	317.48
365.493	331.04
365.874	340.98
366.256	328.78
366.637	298.72
367.019	311.83
367.4	333.75
367.781	328.55
368.163	322.9
368.544	286.52
368.925	293.75
369.306	297.37
369.688	306.18
370.069	322.68
370.45	323.58
370.831	317.25
371.212	303.01
371.593	316.57
371.974	343.69
372.355	306.4
372.736	316.57
373.117	339.17
373.498	327.87
373.879	329.68
374.26	305.5
374.641	315.44
375.021	312.96
375.402	320.19
375.783	333.52
376.163	328.55
376.544	347.31
376.925	334.2
377.305	305.95
377.686	314.31
378.066	331.04
378.447	347.53
378.827	317.25
379.208	335.56
379.588	327.87
379.968	326.06
380.349	337.36
380.729	335.1
381.109	314.09
381.489	327.19
381.87	334.2
382.25	330.81
382.63	338.27
383.01	355.44
383.39	345.27
383.77	336.46
384.15	342.56
384.53	355.89
384.91	339.4
385.29	325.16
385.67	348.89
386.049	357.93
386.429	343.01
386.809	338.49
387.189	353.63
387.568	352.05
387.948	340.98
388.328	369
388.707	338.04
389.087	359.28
389.466	363.58
389.846	355.89
390.225	381.88
390.605	359.28
390.984	356.8
391.363	362
391.743	350.7
392.122	364.26
392.501	388.44
392.881	388.89
393.26	373.07
393.639	395.22
394.018	382.11
394.397	371.04
394.776	364.48
395.155	367.42
395.534	370.36
395.913	375.56
396.292	380.3
396.671	373.3
397.05	393.63
397.429	382.11
397.808	389.57
398.186	388.89
398.565	385.95
398.944	386.18
399.323	398.61
399.701	406.74
400.08	401.32
400.458	384.82
400.837	392.5
401.215	416.01
401.594	400.19
401.972	401.32
402.351	412.16
402.729	417.81
403.107	415.78
403.486	421.88
403.864	412.39
404.242	422.79
404.62	426.85
404.999	444.48
405.377	439.73
405.755	439.73
406.133	440.19
406.511	430.92
406.889	465.72
407.267	437.25
407.645	444.93
408.023	463.69
408.401	455.33
408.779	450.81
409.156	476.12
409.534	471.6
409.912	486.29
410.29	484.7
410.667	469.34
411.045	479.06
411.422	507.53
411.8	502.33
412.178	503.46
412.555	507.76
412.933	517.92
413.31	513.4
413.687	531.71
414.065	526.29
414.442	523.57
414.819	541.2
415.197	540.75
415.574	550.69
415.951	561.76
416.328	565.61
416.705	560.86
417.082	564.93
417.46	574.19
417.837	585.72
418.214	585.04
418.591	606.51
418.967	608.32
419.344	611.93
419.721	604.48
420.098	597.02
420.475	631.82
420.852	635.21
421.228	625.72
421.605	641.76
421.982	636.34
422.358	657.36
422.735	658.71
423.111	693.29
423.488	671.59
423.864	682.44
424.241	696.22
424.617	681.99
424.994	689.9
425.37	713.17
425.746	721.31
426.123	719.95
426.499	694.87
426.875	715.66
427.251	725.38
427.627	724.25
428.003	748.65
428.379	768.77
428.756	749.33
429.132	769.67
429.507	777.58
429.883	783.23
430.259	831.81
430.635	801.76
431.011	806.5
431.387	817.13
431.763	854.41
432.138	837.24
432.514	849.44
432.89	855.09
433.265	866.62
433.641	866.16
434.016	898.03
434.392	887.41
434.767	919.5
435.143	902.77
435.518	910.23
435.894	930.12
436.269	924.69
436.644	946.84
437.02	961.08
437.395	980.96
437.77	985.93
438.145	982.09
438.52	1007.18
438.895	1016.22
439.271	980.51
439.646	1032.04
440.021	1027.97
440.395	1014.63
440.77	1023.45
441.145	1001.75
441.52	1036.33
441.895	1037.68
442.27	1058.93
442.645	1047.18
443.019	1080.62
443.394	1054.63
443.769	1050.57
444.143	1076.78
444.518	1094.86
444.892	1110.45
445.267	1088.08
445.641	1100.28
446.016	1087.63
446.39	1113.39
446.764	1143.9
447.139	1120.39
447.513	1135.54
447.887	1153.84
448.262	1129.43
448.636	1149.55
449.01	1144.8
449.384	1171.92
449.758	1161.98
450.132	1180.28
450.506	1146.38
450.88	1178.25
451.254	1172.82
451.628	1191.13
452.002	1193.84
452.376	1191.13
452.75	1172.37
453.123	1220.05
453.497	1200.84
453.871	1219.37
454.244	1255.76
454.618	1240.62
454.992	1267.06
455.365	1271.58
455.739	1293.5
456.112	1290.79
456.486	1291.69
456.859	1307.96
457.232	1311.58
457.606	1348.18
457.979	1349.31
458.352	1325.81
458.725	1378.69
459.099	1379.82
459.472	1399.93
459.845	1410.56
460.218	1394.51
460.591	1438.8
460.964	1445.58
461.337	1440.39
461.71	1481.74
462.083	1477.9
462.456	1459.37
462.829	1514.06
463.201	1505.69
463.574	1502.31
463.947	1524.45
464.32	1557.67
464.692	1569.42
465.065	1569.2
465.438	1594.05
465.81	1584.11
466.183	1613.26
466.555	1659.36
466.928	1633.15
467.3	1641.74
467.672	1654.17
468.045	1676.09
468.417	1701.4
468.789	1722.41
469.161	1720.38
469.534	1751.56
469.906	1776.2
470.278	1804.44
470.65	1821.39
471.022	1853.26
471.394	1872.24
471.766	1863.43
472.138	1891.45
472.51	1921.28
472.882	1985.68
473.253	1931.67
473.625	1979.35
473.997	1999.24
474.369	2040.82
474.74	2026.81
475.112	2081.5
475.484	2098
475.855	2130.31
476.227	2125.11
476.598	2174.38
476.97	2215.51
477.341	2257.54
477.713	2247.14
478.084	2273.81
478.455	2317.2
478.827	2352.68
479.198	2383.86
479.569	2402.62
479.94	2424.31
480.311	2466.57
480.682	2529.4
481.053	2561.49
481.424	2582.95
481.795	2607.13
482.166	2645.33
482.537	2669.51
482.908	2704.99
483.279	2714.02
483.65	2777.98
484.021	2799.9
484.391	2804.19
484.762	2860.46
485.133	2876.51
485.503	2937.3
485.874	2960.35
486.244	3014.13
486.615	3052.09
486.985	3098.42
487.356	3168.02
487.726	3160.57
488.097	3188.36
488.467	3218.87
488.837	3266.55
489.207	3274.24
489.578	3348.36
489.948	3337.29
490.318	3436.94
490.688	3431.52
491.058	3469.49
491.428	3518.07
491.798	3536.6
492.168	3572.76
492.538	3598.3
492.908	3606.88
493.278	3680.1
493.648	3663.38
494.017	3720.1
494.387	3730.27
494.757	3757.16
495.126	3824.73
495.496	3814.33
495.866	3833.54
496.235	3849.81
496.605	3937.72
496.974	3933.2
497.344	3941.56
497.713	4024.05
498.082	4014.56
498.452	4013.88
498.821	4035.12
499.19	4054.33
499.559	4076.02
499.928	4114.44
500.298	4114.89
500.667	4152.86
501.036	4175
501.405	4207.54
501.774	4182.91
502.143	4234.66
502.512	4262.46
502.88	4236.92
503.249	4257.26
503.618	4334.32
503.987	4270.59
504.356	4358.95
504.724	4346.98
505.093	4364.83
505.462	4337.48
505.83	4365.51
506.199	4396.24
506.567	4443.7
506.936	4369.8
507.304	4489.8
507.672	4497.25
508.041	4503.13
508.409	4541.32
508.777	4542.68
509.145	4603.69
509.514	4585.16
509.882	4567.76
510.25	4649.34
510.618	4603.01
510.986	4635.1
511.354	4677.81
511.722	4717.59
512.09	4753.52
512.458	4719.4
512.826	4741.54
513.193	4796
513.561	4723.69
513.929	4809.79
514.297	4818.6
514.664	4817.47
515.032	4864.7
515.4	4889.33
515.767	4856.57
516.135	4845.95
516.502	4871.71
516.869	4937.47
517.237	4918.49
517.604	4907.41
517.972	4960.52
518.339	4969.78
518.706	4988.54
519.073	5001.42
519.44	5010.01
519.808	4998.03
520.175	4992.83
520.542	5098.59
520.909	5026.28
521.276	5103.11
521.643	5090.69
522.009	5168.2
522.376	5188.99
522.743	5155.77
523.11	5221.76
523.477	5250.68
523.843	5247.07
524.21	5314.41
524.577	5377.91
524.943	5330
525.31	5350.57
525.676	5401.86
526.043	5440.28
526.409	5423.78
526.776	5489.32
527.142	5487.96
527.508	5542.88
527.874	5546.04
528.241	5566.83
528.607	5571.35
528.973	5578.36
529.339	5622.87
529.705	5656.09
530.071	5744
530.437	5708.75
530.803	5767.96
531.169	5810.21
531.535	5810.67
531.901	5833.94
532.267	5880.5
532.632	5839.59
532.998	5920.49
533.364	5877.33
533.73	5949.65
534.095	5971.79
534.461	6002.07
534.826	6001.85
535.192	6039.36
535.557	6073.71
535.923	6129.75
536.288	6111.22
536.653	6153.93
537.019	6132.47
537.384	6194.61
537.749	6191.22
538.114	6261.73
538.479	6238.45
538.845	6273.93
539.21	6274.38
539.575	6335.85
539.94	6366.36
540.305	6365.23
540.67	6386.7
541.034	6445.23
541.399	6446.36
541.764	6476.41
542.129	6480.03
542.494	6542.62
542.858	6522.96
543.223	6591.21
543.587	6618.78
543.952	6682.28
544.316	6703.07
544.681	6652.68
545.045	6729.29
545.41	6803.18
545.774	6762.51
546.138	6755.5
546.503	6815.61
546.867	6820.58
547.231	6917.76
547.595	6914.37
547.959	6937.42
548.324	6995.95
548.688	6960.01
549.052	6996.17
549.416	7078.43
549.779	7039.11
550.143	7054.7
550.507	7061.48
550.871	7121.14
551.235	7122.5
551.599	7130.86
551.962	7167.47
552.326	7239.33
552.689	7206.56
553.053	7209.73
553.417	7228.03
553.78	7380.57
554.143	7284.75
554.507	7316.16
554.87	7326.56
555.234	7395.94
555.597	7389.38
555.96	7400.68
556.323	7454.69
556.686	7412.21
557.05	7499.89
557.413	7495.59
557.776	7527.91
558.139	7576.95
558.502	7574.24
558.865	7507.34
559.228	7638.64
559.59	7618.53
559.953	7655.14
560.316	7731.07
560.679	7703.95
561.041	7819.2
561.404	7825.75
561.767	7878.18
562.129	7781.91
562.492	7883.15
562.854	7910.5
563.217	7861.01
563.579	7914.79
563.941	7939.2
564.304	8009.25
564.666	7996.82
565.028	8035.24
565.39	8091.74
565.753	8092.87
566.115	8088.57
566.477	8115.46
566.839	8214.22
567.201	8249.02
567.563	8244.27
567.925	8270.49
568.287	8287.89
568.648	8308.45
569.01	8331.05
569.372	8379.64
569.734	8382.35
570.095	8514.32
570.457	8487.43
570.819	8532.4
571.18	8551.61
571.542	8664.15
571.903	8682.46
572.265	8727.88
572.626	8776.01
572.987	8798.61
573.349	8799.97
573.71	8875.44
574.071	8987.76
574.432	8967.65
574.794	9100.07
575.155	9111.6
575.516	9084.48
575.877	9242.44
576.238	9227.75
576.599	9344.81
576.96	9424.36
577.32	9504.81
577.681	9626.16
578.042	9703.45
578.403	9727.4
578.763	9855.08
579.124	9911.35
579.485	10081.06
579.845	10209.87
580.206	10255.07
580.566	10361.06
580.927	10516.31
581.287	10649.41
581.648	10667.71
582.008	10925.56
582.368	10994.94
582.728	11192.9
583.089	11366.9
583.449	11528.48
583.809	11771.87
584.169	11874.01
584.529	11982.93
584.889	12302.7
585.249	12523.03
585.609	12651.16
585.969	12910.14
586.329	12973.87
586.688	13306.51
587.048	13586.06
587.408	13735.43
587.768	13902.43
588.127	14191.01
588.487	14377.22
588.846	14740.38
589.206	14887.49
589.565	15131.1
589.925	15541.94
590.284	15659
590.643	15982.38
591.003	16269.6
591.362	16548.01
591.721	16709.59
592.08	17006.08
592.44	17382.79
592.799	17636.8
593.158	17813.74
593.517	18182.77
593.876	18503.89
594.235	18782.08
594.593	19058
594.952	19305.45
595.311	19610.3
595.67	19913.8
596.029	20253.22
596.387	20572.54
596.746	20879.42
597.104	21059.31
597.463	21388.34
597.822	21694.09
598.18	21913.07
598.538	22291.14
598.897	22568.42
599.255	22655.2
599.613	23323.65
599.972	23407.49
600.33	23695.62
600.688	23833.24
601.046	24296.28
601.404	24643.39
601.762	24860.11
602.12	25157.05
602.478	25454.44
602.836	25658.28
603.194	25829.58
603.552	26116.12
603.91	26223.46
604.268	26643.79
604.625	26793.62
604.983	27132.14
605.341	27242.19
605.698	27683.54
606.056	27786.81
606.413	28108.39
606.771	28476.74
607.128	28611.2
607.485	28689.16
607.843	28969.83
608.2	29264.29
608.557	29543.83
608.914	29714.67
609.272	29970.71
609.629	30078.73
609.986	30432.39
610.343	30403.01
610.7	31011.59
611.057	31083.9
611.414	31203.67
611.771	31396.89
612.127	31719.59
612.484	31909.19
612.841	32129.07
613.198	32111.67
613.554	32293.36
613.911	32569.28
614.267	32677.3
614.624	32867.36
614.98	33108.25
615.337	33388.47
615.693	33428.25
616.05	33492.42
616.406	33794.34
616.762	33803.38
617.118	34028.91
617.475	34144.84
617.831	34267.55
618.187	34395.23
618.543	34653.52
618.899	34852.16
619.255	35010.35
619.611	34960.63
619.967	35143.23
620.323	35359.95
620.678	35269.55
621.034	35340.74
621.39	35508.19
621.746	35496.89
622.101	36005.13
622.457	35726.94
622.812	35992.02
623.168	36013.26
623.523	36189.75
623.879	36323.08
624.234	36271.56
624.589	36549.97
624.945	36573.02
625.3	36628.84
625.655	36657.54
626.01	36778.44
626.365	37005.78
626.72	36901.83
627.075	37075.61
627.43	36954.25
627.785	37018.21
628.14	37154.48
628.495	37322.61
628.85	37212.1
629.205	37297.52
629.559	37478.31
629.914	37317.86
630.269	37465.65
630.623	37242.16
630.978	37406.9
631.332	37548.36
631.687	37702.71
632.041	37520.57
632.396	37571.41
632.75	37463.85
633.104	37607.34
633.459	37435.37
633.813	37571.64
634.167	37655.48
634.521	37598.31
634.875	37741.58
635.229	37688.92
635.583	37594.24
635.937	37658.42
636.291	37465.2
636.645	37623.84
636.999	37586.55
637.352	37764.63
637.706	37548.81
638.06	37739.54
638.413	37570.28
638.767	37568.7
639.121	37617.97
639.474	37412.77
639.828	37535.93
640.181	37593.11
640.534	37617.29
640.888	37627.91
641.241	37394.69
641.594	37429.72
641.947	37630.39
642.301	37507.01
642.654	37580.9
643.007	37570.06
643.36	37611.19
643.713	37384.75
644.066	37722.82
644.419	37369.61
644.771	37176.85
645.124	36809.17
645.477	36917.87
645.83	36585.45
646.182	36460.93
646.535	36412.12
646.888	36540.48
647.24	36248.74
647.593	36464.78
647.945	36407.6
648.298	36176.87
648.65	36268.17
649.002	36256.19
649.355	36455.51
649.707	36269.98
650.059	36495.51
650.411	36792.45
650.763	36845.78
651.115	37344.3
651.467	37219.33
651.819	37226.11
652.171	37059.11
652.523	37057.08
652.875	36981.37
653.227	36920.81
653.578	37167.58
653.93	37090.3
654.282	36895.72
654.633	36910.87
654.985	36970.53
655.337	36841.71
655.688	37011.88
656.039	37165.1
656.391	36904.76
656.742	36772.79
657.094	36896.85
657.445	36991.54
657.796	36993.12
658.147	36936.63
658.498	36825.22
658.849	36961.26
659.2	36821.83
659.551	36594.94
659.902	36949.51
660.253	36928.27
660.604	36908.61
660.955	36707.71
661.306	36867.93
661.656	36724.43
662.007	36775.28
662.358	36750.19
662.708	36761.49
663.059	36750.42
663.409	36567.82
663.76	36951.54
664.11	36709.29
664.461	36900.24
664.811	36689.85
665.161	36748.84
665.511	36615.28
665.862	36827.03
666.212	36838.33
666.562	36773.92
666.912	36776.41
667.262	36796.07
667.612	36690.53
667.962	36726.01
668.312	36568.5
668.662	36813.02
669.011	36734.6
669.361	36764.43
669.711	36824.99
670.06	36523.98
670.41	36524.21
670.76	36502.06
671.109	36661.38
671.459	36640.14
671.808	36497.54
672.157	36571.44
672.507	36458.67
672.856	36445.34
673.205	36488.28
673.554	36491.44
673.904	36422.06
674.253	36578.44
674.602	36483.08
674.951	35846.94
675.3	35846.94
675.649	36298.9
675.998	36282.63
676.346	36285.12
676.695	36486.24
677.044	35999.7
677.393	36301.16
677.741	36389.98
678.09	36098.23
678.438	36063.88
678.787	36220.49
679.135	36097.33
679.484	35860.27
679.832	36094.84
680.181	36039.02
680.529	36021.85
680.877	35914.96
681.225	35888.52
681.573	36114.95
681.922	35792.7
682.27	35693.72
682.618	35810.33
682.966	35631.8
683.314	35685.14
683.661	35545.25
684.009	35434.75
684.357	35431.13
684.705	35333.73
685.053	35422.09
685.4	35317.91
685.748	35166.05
686.095	35178.71
686.443	35042.21
686.79	35036.79
687.138	35157.24
687.485	35034.98
687.832	34978.94
688.18	34883.35
688.527	34831.15
688.874	34831.15
689.221	34763.8
689.568	34637.93
689.915	34535.11
690.262	34569.01
690.609	34368.33
690.956	34401.33
691.303	34270.03
691.65	34095.8
691.997	34069.13
692.344	33996.82
692.69	33991.85
693.037	34034.56
693.383	33748.24
693.73	33851.51
694.077	33629.37
694.423	33750.5
694.769	33572.65
695.116	33478.87
695.462	33394.8
695.808	33307.12
696.155	33439.09
696.501	33055.83
696.847	33219.66
697.193	32980.12
697.539	33114.58
697.885	32880.46
698.231	32771.31
698.577	32584.43
698.923	32683.18
699.269	32439.34
699.614	32375.17
699.96	32337.88
700.306	32254.94
700.651	32134.95
700.997	32197.09
701.342	32133.59
701.688	32021.05
702.033	32064.21
702.379	31816.54
702.724	31776.31
703.069	31751.45
703.415	31575.86
703.76	31505.13
704.105	31439.15
704.45	31521.63
704.795	31391.01
705.14	31217.68
705.485	31184.91
705.83	31100.62
706.175	31143.56
706.52	30995.54
706.865	30907.41
707.209	30876.45
707.554	30729.56
707.899	30908.99
708.243	30609.56
708.588	30495.67
708.932	30298.16
709.277	30365.28
709.621	30464.26
709.966	30221.32
710.31	30337.93
710.654	30043.48
710.998	30110.14
711.342	30010.93
711.687	29997.83
712.031	29962.57
712.375	29735.01
712.719	29842.35
713.063	29803.03
713.407	29862.92
713.75	29662.47
714.094	29693.2
714.438	29621.57
714.782	29566.65
715.125	29332.76
715.469	29489.14
715.812	29314.23
716.156	29082.37
716.499	29270.39
716.843	29226.1
717.186	29142.03
717.53	29175.25
717.873	29094.12
718.216	29084.86
718.559	28925.76
718.902	28722.15
719.246	28910.4
719.589	28739.33
719.932	28619.56
720.275	28664.98
720.617	28507.24
720.96	28489.62
721.303	28500.47
721.646	28511.76
721.989	28413.24
722.331	28451.2
722.674	28334.37
723.016	28345.89
723.359	28233.58
723.701	28323.75
724.044	28086.01
724.386	28058.89
724.729	28030.87
725.071	27883.76
725.413	28013.7
725.755	28027.94
726.097	27670.2
726.439	27685.12
726.782	27753.37
727.124	27851.67
727.465	27709.07
727.807	27681.05
728.149	27528.06
728.491	27447.61
728.833	27487.61
729.175	27434.73
729.516	27454.62
729.858	27442.41
730.199	27386.14
730.541	27338.91
730.882	27291.23
731.224	27246.94
731.565	27098.47
731.906	27125.36
732.248	27134.17
732.589	26921.07
732.93	27091.69
733.271	26961.75
733.612	27075.64
733.953	26923.56
734.294	26874.97
734.635	26769.21
734.976	26894.63
735.317	26778.48
735.658	26607.18
735.999	26659.84
736.339	26744.58
736.68	26644.47
737.021	26550.91
737.361	26543
737.702	26576.22
738.042	26624.36
738.383	26385.49
738.723	26554.3
739.063	26329.67
739.404	26459.84
739.744	26289.68
740.084	26330.35
740.424	26357.47
740.764	26142.34
741.104	26370.35
741.444	26094.2
741.784	26052.62
742.124	26062.56
742.464	25955
742.804	25904.6
743.143	25922.23
743.483	25929.91
743.823	25709.13
744.162	25726.07
744.502	25834.32
744.841	25706.87
745.181	25743.48
745.52	25565.18
745.86	25696.7
746.199	25538.96
746.538	25560.43
746.877	25553.42
747.216	25493.31
747.556	25443.14
747.895	25457.61
748.234	25460.09
748.573	25284.05
748.911	25268.69
749.25	25254.22
749.589	25112.53
749.928	25227.33
750.267	25111.4
750.605	25108.24
750.944	25032.31
751.283	24938.3
751.621	25016.72
751.96	24812.65
752.298	24864.85
752.636	24769.72
752.975	24772.43
753.313	24631.87
753.651	24766.55
753.989	24645.43
754.327	24555.71
754.666	24394.36
755.004	24467.35
755.342	24443.17
755.679	24506.22
756.017	24318.43
756.355	24288.6
756.693	24194.36
757.031	24269.39
757.368	24012.67
757.706	24183.74
758.044	23988.27
758.381	24000.02
758.719	23771.55
759.056	23951.21
759.394	23765.67
759.731	23620.37
760.068	23662.85
