Data from hue_170_FLMS001491_00059.txt Node
Date: Tue Feb 07 16:48:54 GMT 2017
User: dcchb
Spectrometer: FLMS00149
Trigger mode: 0
Integration Time (sec): 2.000000E-2
Scans to average: 10
Electric dark correction enabled: true
Nonlinearity correction enabled: false
Boxcar width: 0
XAxis mode: Wavelengths
Number of Pixels in Spectrum: 2048
>>>>>Begin Spectral Data<<<<<
341.393	13.16
341.776	13.16
342.16	13.16
342.543	-65.03
342.927	-58.02
343.31	-71.81
343.693	-69.77
344.077	-76.1
344.46	-33.16
344.843	-41.75
345.226	-54.86
345.61	-9.43
345.993	-25.48
346.376	-1.07
346.759	3.45
347.142	20.62
347.525	44.58
347.908	45.25
348.291	61.3
348.674	101.07
349.057	107.17
349.44	114.86
349.823	138.81
350.206	179.71
350.588	204.57
350.971	206.83
351.354	222.88
351.737	254.51
352.119	253.16
352.502	259.26
352.884	266.26
353.267	289.99
353.65	298.58
354.032	323.66
354.414	290.44
354.797	308.97
355.179	309.65
355.562	319.82
355.944	316.21
356.326	321.4
356.709	347.84
357.091	348.3
357.473	364.57
357.855	353.95
358.238	330.9
358.62	328.64
359.002	346.71
359.384	341.29
359.766	331.35
360.148	327.73
360.53	339.48
360.912	330.9
361.294	346.94
361.676	337.22
362.057	315.3
362.439	341.06
362.821	321.63
363.203	353.72
363.584	330.22
363.966	339.71
364.348	334.28
364.729	344.68
365.111	318.01
365.493	334.74
365.874	321.86
366.256	329.99
366.637	341.74
367.019	316.88
367.4	337.9
367.781	315.3
368.163	314.85
368.544	316.66
368.925	328.86
369.306	314.4
369.688	314.62
370.069	323.44
370.45	301.52
370.831	328.86
371.212	307.85
371.593	327.51
371.974	327.51
372.355	310.33
372.736	307.17
373.117	315.3
373.498	335.64
373.879	331.12
374.26	300.61
374.641	315.08
375.021	306.94
375.402	327.96
375.783	330.44
376.163	319.14
376.544	329.54
376.925	320.73
377.305	327.05
377.686	338.8
378.066	346.26
378.447	337.9
378.827	323.66
379.208	312.36
379.588	348.07
379.968	344.91
380.349	338.8
380.729	329.09
381.109	337.9
381.489	337.9
381.87	324.34
382.25	338.8
382.63	311.46
383.01	325.47
383.39	347.62
383.77	346.26
384.15	357.79
384.53	351.46
384.91	340.39
385.29	350.33
385.67	358.01
386.049	356.66
386.429	359.37
386.809	347.39
387.189	358.01
387.568	349.65
387.948	353.49
388.328	359.14
388.707	361.18
389.087	362.76
389.466	354.4
389.846	370.89
390.225	374.28
390.605	368.63
390.984	358.01
391.363	377.9
391.743	365.24
392.122	371.35
392.501	381.06
392.881	392.81
393.26	375.87
393.639	374.28
394.018	361.63
394.397	374.51
394.776	384.91
395.155	394.17
395.534	381.29
395.913	367.5
396.292	377.9
396.671	401.4
397.05	404.11
397.429	395.07
397.808	391.01
398.186	394.17
398.565	397.79
398.944	410.44
399.323	404.11
399.701	414.28
400.08	422.19
400.458	415.86
400.837	394.85
401.215	411.12
401.594	404.34
401.972	398.01
402.351	432.36
402.729	421.97
403.107	413.6
403.486	418.35
403.864	416.99
404.242	428.07
404.62	431.01
404.999	448.86
405.377	449.99
405.755	450.44
406.133	433.27
406.511	430.55
406.889	442.3
407.267	449.99
407.645	465.35
408.023	462.87
408.401	467.61
408.779	471.68
409.156	452.7
409.534	491.34
409.912	493.15
410.29	482.08
410.667	476.65
411.045	495.18
411.422	496.77
411.8	511.91
412.178	521.4
412.555	543.55
412.933	512.36
413.31	517.56
413.687	516.65
414.065	548.52
414.442	559.59
414.819	530.44
415.197	553.04
415.574	566.6
415.951	553.04
416.328	597.1
416.705	576.09
417.082	535.41
417.46	560.04
417.837	560.49
418.214	574.5
418.591	575.18
418.967	616.09
419.344	602.98
419.721	629.19
420.098	627.61
420.475	609.53
420.852	615.63
421.228	642.53
421.605	654.95
421.982	645.92
422.358	659.25
422.735	666.03
423.111	652.69
423.488	681.39
423.864	653.6
424.241	660.6
424.617	705.12
424.994	713.03
425.37	718.46
425.746	699.93
426.123	721.85
426.499	715.52
426.875	732.24
427.251	712.58
427.627	751.45
428.003	734.5
428.379	750.77
428.756	770.21
429.132	777.21
429.507	798.91
429.883	775.63
430.259	773.6
430.635	824.22
431.011	821.73
431.387	826.93
431.763	811.56
432.138	829.87
432.514	856.53
432.89	865.12
433.265	875.51
433.641	915.06
434.016	889.52
434.392	915.29
434.767	919.81
435.143	919.81
435.518	912.12
435.894	948.73
436.269	931.78
436.644	993.02
437.02	981.27
437.395	991.22
437.77	986.25
438.145	1026.24
438.52	1050.2
438.895	1030.31
439.271	1036.64
439.646	1095.85
440.021	1063.31
440.395	1089.97
440.77	1076.19
441.145	1095.62
441.52	1126.58
441.895	1121.38
442.27	1118.45
442.645	1134.26
443.019	1139.46
443.394	1167.26
443.769	1180.82
444.143	1170.87
444.518	1203.19
444.892	1199.8
445.267	1214.26
445.641	1186.92
446.016	1221.04
446.39	1227.59
446.764	1235.73
447.139	1221.27
447.513	1272.11
447.887	1234.6
448.262	1258.1
448.636	1297.42
449.01	1275.96
449.384	1306.24
449.758	1318.67
450.132	1343.07
450.506	1330.64
450.88	1361.15
451.254	1387.36
451.628	1360.25
452.002	1402.28
452.376	1389.85
452.75	1425.1
453.123	1400.47
453.497	1450.19
453.871	1488.6
454.244	1471.43
454.618	1513.24
454.992	1515.27
455.365	1501.03
455.739	1543.07
456.112	1589.62
456.486	1604.53
456.859	1574.48
457.232	1617.64
457.606	1609.05
457.979	1667.58
458.352	1689.96
458.725	1701.48
459.099	1730.41
459.472	1733.57
459.845	1760.01
460.218	1764.3
460.591	1793.46
460.964	1791.65
461.337	1850.63
461.71	1884.75
462.083	1905.09
462.456	1932.89
462.829	1936.73
463.201	1992.55
463.574	2011.3
463.947	2002.04
464.32	2070.06
464.692	2111.41
465.065	2063.73
465.438	2127.23
465.81	2166.1
466.183	2190.96
466.555	2237.51
466.928	2267.12
467.3	2253.78
467.672	2328.13
468.045	2367.9
468.417	2411.07
468.789	2404.51
469.161	2431.4
469.534	2500.56
469.906	2552.08
470.278	2603.15
470.65	2627.56
471.022	2679.53
471.394	2752.07
471.766	2758.4
472.138	2860.09
472.51	2902.58
472.882	2983.48
473.253	2994.78
473.625	3056.25
473.997	3150.93
474.369	3166.98
474.74	3230.93
475.112	3307.09
475.484	3370.59
475.855	3461.21
476.227	3503.47
476.598	3615.1
476.97	3638.6
477.341	3801.99
477.713	3810.35
478.084	3906.85
478.455	4003.34
478.827	4067.97
479.198	4235.2
479.569	4255.76
479.94	4423.89
480.311	4442.88
480.682	4604
481.053	4721.06
481.424	4846.26
481.795	4928.51
482.166	5020.49
482.537	5110.2
482.908	5238.34
483.279	5318.79
483.65	5478.78
484.021	5627.03
484.391	5716.97
484.762	5802.16
485.133	5846.23
485.503	5981.82
485.874	6228.37
486.244	6272.89
486.615	6496.61
486.985	6601.24
487.356	6714.46
487.726	6747
488.097	7029.93
488.467	7019.98
488.837	7295.23
489.207	7377.04
489.578	7539.75
489.948	7643.47
490.318	7803.69
490.688	7837.36
491.058	8015.66
491.428	8180.86
491.798	8303.57
492.168	8499.04
492.538	8543.79
492.908	8658.36
493.278	8946.94
493.648	8891.8
494.017	9028.75
494.387	9115.97
494.757	9301.28
495.126	9371.34
495.496	9412.01
495.866	9605.91
496.235	9630.54
496.605	9794.83
496.974	9911.89
497.344	10004.99
497.713	10101.26
498.082	10158.43
498.452	10339.9
498.821	10372.21
499.19	10437.75
499.559	10587.35
499.928	10694.01
500.298	10717.97
500.667	10842.03
501.036	10862.37
501.405	10948.24
501.774	11017.39
502.143	11145.53
502.512	11181.46
502.88	11238.86
503.249	11339.19
503.618	11411.06
503.987	11415.58
504.356	11474.56
504.724	11574.67
505.093	11600.88
505.462	11656.7
505.83	11753.65
506.199	11827.54
506.567	11975.56
506.936	11984.83
507.304	12110.25
507.672	12071.15
508.041	12093.07
508.409	12163.58
508.777	12290.35
509.145	12391.6
509.514	12412.39
509.882	12382.78
510.25	12450.8
510.618	12502.55
510.986	12553.17
511.354	12646.5
511.722	12773.73
512.09	12838.81
512.458	12783.9
512.826	12876.33
513.193	12936.89
513.561	12934.63
513.929	12961.75
514.297	13068.19
514.664	13075.87
515.032	13164
515.4	13206.49
515.767	13202.87
516.135	13234.51
516.502	13126.72
516.869	13327.84
517.237	13377.78
517.604	13321.74
517.972	13399.93
518.339	13480.15
518.706	13384.56
519.073	13398.8
519.44	13491.45
519.808	13571
520.175	13557.89
520.542	13662.75
520.909	13698.45
521.276	13616.2
521.643	13738.45
522.009	13770.32
522.376	13871.78
522.743	13811.67
523.11	13940.03
523.477	13944.77
523.843	14064.09
524.21	14045.56
524.577	14111.78
524.943	14106.8
525.31	14070.87
525.676	14212.11
526.043	14204.88
526.409	14254.6
526.776	14290.98
527.142	14261.83
527.508	14323.52
527.874	14409.17
528.241	14389.96
528.607	14315.84
528.973	14465.89
529.339	14319.45
529.705	14425.44
530.071	14524.19
530.437	14451.2
530.803	14348.38
531.169	14419.56
531.535	14396.06
531.901	14356.74
532.267	14368.94
532.632	14434.48
532.998	14392.9
533.364	14430.64
533.73	14341.15
534.095	14372.79
534.461	14380.7
534.826	14461.15
535.192	14366.46
535.557	14369.4
535.923	14305.67
536.288	14283.52
536.653	14243.98
537.019	14189.51
537.384	14171.21
537.749	14234.26
538.114	14236.29
538.479	14122.17
538.845	14159.23
539.21	14050.76
539.575	14061.38
539.94	14070.2
540.305	14063.19
540.67	14009.41
541.034	13831.33
541.399	13951.33
541.764	13959.01
542.129	13917.88
542.494	13869.52
542.858	13802.63
543.223	13746.81
543.587	13846.7
543.952	13743.65
544.316	13674.73
544.681	13598.79
545.045	13670.88
545.41	13621.85
545.774	13566.25
546.138	13553.15
546.503	13453.71
546.867	13490.1
547.231	13419.82
547.595	13378.24
547.959	13393.38
548.324	13318.58
548.688	13241.52
549.052	13280.61
549.416	13187.96
549.779	13168.52
550.143	13138.24
550.507	13190.9
550.871	13131.69
551.235	13101.18
551.599	13143.67
551.962	13054.18
552.326	13058.7
552.689	13064.57
553.053	12970.79
553.417	12989.32
553.78	13018.25
554.143	12902.77
554.507	12880.4
554.87	12917.68
555.234	12961.75
555.597	12809.44
555.96	12857.35
556.323	12836.56
556.686	12797.46
557.05	12794.3
557.413	12780.51
557.776	12773.05
558.139	12746.61
558.502	12764.47
558.865	12725.15
559.228	12767.86
559.59	12768.99
559.953	12730.12
560.316	12790
560.679	12823.9
561.041	12779.38
561.404	12723.79
561.767	12834.07
562.129	12783.9
562.492	12796.33
562.854	12775.31
563.217	12778.03
563.579	12767.4
563.941	12759.95
564.304	12770.12
564.666	12778.48
565.028	12817.35
565.39	12809.44
565.753	12811.7
566.115	12836.78
566.477	12814.18
566.839	12879.94
567.201	12876.33
567.563	12790.45
567.925	12888.98
568.287	12776.44
568.648	12912.26
569.01	12867.29
569.372	12957.46
569.734	12950.22
570.095	12883.56
570.457	13014.86
570.819	12933.28
571.18	12861.87
571.542	13067.06
571.903	12935.99
572.265	12975.53
572.626	13101.63
572.987	13034.06
573.349	13089.2
573.71	12987.29
574.071	13038.58
574.432	13102.99
574.794	13147.96
575.155	13148.19
575.516	13013.95
575.877	13095.98
576.238	13120.39
576.599	13093.5
576.96	13155.64
577.32	13076.77
577.681	13146.6
578.042	13229.31
578.403	13229.31
578.763	13141.41
579.124	13174.63
579.485	13195.19
579.845	13212.59
580.206	13224.57
580.566	13146.83
580.927	13166.49
581.287	13197
581.648	13114.97
582.008	13191.8
582.368	13145.93
582.728	13073.16
583.089	13070.9
583.449	13125.81
583.809	13111.35
584.169	13143.67
584.529	13070.67
584.889	13155.19
585.249	13025.7
585.609	12993.16
585.969	13123.1
586.329	13023.89
586.688	13028.41
587.048	13062.99
587.408	13021.64
587.768	12994.52
588.127	12999.04
588.487	12937.34
588.846	13024.12
589.206	12917
589.565	12987.74
589.925	13010.56
590.284	12885.37
590.643	12945.7
591.003	12879.72
591.362	12937.57
591.721	12889.66
592.08	12943.22
592.44	12934.63
592.799	12933.73
593.158	12960.85
593.517	12878.36
593.876	12899.38
594.235	12823
594.593	12970.34
594.952	12913.39
595.311	12888.98
595.67	12905.71
596.029	12961.98
596.387	12916.33
596.746	12901.41
597.104	12921.75
597.463	12872.49
597.822	12903.9
598.18	12847.85
598.538	12794.97
598.897	12894.63
599.255	12876.1
599.613	12975.76
599.972	12859.38
600.33	12783.9
600.688	12798.36
601.046	12775.99
601.404	12902.32
601.762	12831.13
602.12	12792.71
602.478	12886.05
602.836	12890.34
603.194	12797.23
603.552	12775.54
603.91	12770.34
604.268	12823.67
604.625	12731.47
604.983	12854.18
605.341	12714.52
605.698	12827.29
606.056	12843.56
606.413	12876.1
606.771	12919.04
607.128	12900.96
607.485	12805.37
607.843	12871.36
608.2	12845.59
608.557	12888.31
608.914	12898.7
609.272	12868.64
609.629	12934.41
609.986	12991.13
610.343	12849.21
610.7	13021.41
611.057	12998.36
611.414	12948.87
611.771	12900.96
612.127	12949.32
612.484	12979.6
612.841	13001.75
613.198	12958.36
613.554	13074.29
613.911	13059.6
614.267	13093.5
614.624	13015.53
614.98	13081.52
615.337	13054.18
615.693	13039.71
616.05	13032.48
616.406	13110.22
616.762	13130.11
617.118	13067.96
617.475	13107.73
617.831	13060.5
618.187	13102.76
618.543	13134.63
618.899	13156.09
619.255	13090.79
619.611	13131.91
619.967	13240.84
620.323	13169.65
620.678	13150.67
621.034	13146.15
621.39	13165.36
621.746	13070.22
622.101	13286.26
622.457	13190.9
622.812	13191.57
623.168	13157.9
623.523	13222.31
623.879	13217.79
624.234	13194.51
624.589	13198.13
624.945	13266.15
625.3	13172.59
625.655	13187.73
626.01	13198.13
626.365	13178.02
626.72	13201.97
627.075	13228.64
627.43	13167.85
627.785	13123.33
628.14	13131.91
628.495	13169.43
628.85	13126.04
629.205	13132.82
629.559	13225.25
629.914	13093.72
630.269	13159.03
630.623	13074.06
630.978	13083.78
631.332	13063.67
631.687	13053.5
632.041	12951.35
632.396	12970.11
632.75	12933.28
633.104	13023.89
633.459	12998.36
633.813	13009.88
634.167	12953.16
634.521	12932.15
634.875	12878.36
635.229	12865.25
635.583	12829.78
635.937	12837.46
636.291	12830
636.645	12853.73
636.999	12778.25
637.352	12840.85
637.706	12744.58
638.06	12687.86
638.413	12740.06
638.767	12723.56
639.121	12653.51
639.474	12691.25
639.828	12598.82
640.181	12691.47
640.534	12668.42
640.888	12666.39
641.241	12688.99
641.594	12654.19
641.947	12731.02
642.301	12589.56
642.654	12649.44
643.007	12617.58
643.36	12585.94
643.713	12594.98
644.066	12568.09
644.419	12554.53
644.771	12524.25
645.124	12406.28
645.477	12346.4
645.83	12258.04
646.182	12200.64
646.535	12168.78
646.888	12225.5
647.24	12153.64
647.593	12166.74
647.945	12163.58
648.298	12074.77
648.65	12082.45
649.002	12103.24
649.355	12172.39
649.707	12187.98
650.059	12287.42
650.411	12406.51
650.763	12466.85
651.115	12475.43
651.467	12470.69
651.819	12440.86
652.171	12450.35
652.523	12371.71
652.875	12424.36
653.227	12374.87
653.578	12371.03
653.93	12465.49
654.282	12370.13
654.633	12299.17
654.985	12309.56
655.337	12481.08
655.688	12426.62
656.039	12485.15
656.391	12392.5
656.742	12409.22
657.094	12396.79
657.445	12387.08
657.796	12415.1
658.147	12401.76
658.498	12455.55
658.849	12450.12
659.2	12390.01
659.551	12340.97
659.902	12461.65
660.253	12463.23
660.604	12431.37
660.955	12406.28
661.306	12397.47
661.656	12513.4
662.007	12413.74
662.358	12426.17
662.708	12547.3
663.059	12473.85
663.409	12359.73
663.76	12469.79
664.11	12531.03
664.461	12457.58
664.811	12463.91
665.161	12480.41
665.511	12457.36
665.862	12489.9
666.212	12512.27
666.562	12499.61
666.912	12461.88
667.262	12499.16
667.612	12444.48
667.962	12452.84
668.312	12457.36
668.662	12528.54
669.011	12449.45
669.361	12428.66
669.711	12414.19
670.06	12455.32
670.41	12422.55
670.76	12316.34
671.109	12533.74
671.459	12327.87
671.808	12413.74
672.157	12410.58
672.507	12330.35
672.856	12330.81
673.205	12369.45
673.554	12454.87
673.904	12328.32
674.253	12429.56
674.602	12365.61
674.951	12193.86
675.3	12126.97
675.649	12335.33
675.998	12311.6
676.346	12253.52
676.695	12335.55
677.044	12238.38
677.393	12249.45
677.741	12270.24
678.09	12167.87
678.438	12223.46
678.787	12112.28
679.135	12169.23
679.484	12127.2
679.832	12132.62
680.181	12046.75
680.529	12137.14
680.877	12024.83
681.225	12023.24
681.573	12133.97
681.922	12078.61
682.27	11970.82
682.618	12061.66
682.966	11979.85
683.314	11909.57
683.661	12033.19
684.009	11902.34
684.357	11937.37
684.705	11861.67
685.053	11882
685.4	11844.26
685.748	11763.14
686.095	11760.2
686.443	11697.38
686.79	11698.96
687.138	11739.63
687.485	11695.34
687.832	11567.44
688.18	11641.56
688.527	11523.82
688.874	11603.59
689.221	11539.87
689.568	11479.75
689.915	11474.33
690.262	11411.96
690.609	11403.6
690.956	11266.65
691.303	11245.64
691.65	11252.64
691.997	11277.5
692.344	11192.98
692.69	11176.49
693.037	11119.99
693.383	11036.83
693.73	11078.64
694.077	11025.08
694.423	11022.37
694.769	10934.46
695.116	10942.59
695.462	10851.07
695.808	10911.63
696.155	10913.22
696.501	10749.83
696.847	10750.28
697.193	10680
697.539	10695.59
697.885	10629.16
698.231	10640.23
698.577	10550.29
698.923	10543.28
699.269	10496.28
699.614	10443.85
699.96	10376.73
700.306	10385.77
700.651	10359.56
700.997	10309.39
701.342	10251.99
701.688	10187.59
702.033	10209.28
702.379	10203.86
702.724	10139.9
703.069	10100.81
703.415	10010.19
703.76	10074.59
704.105	10045.67
704.45	9992.34
704.795	9920.93
705.14	9985.56
705.485	9902.85
705.83	9769.07
706.175	9897.2
706.52	9814.71
706.865	9703.76
707.209	9732.23
707.554	9718.22
707.899	9767.94
708.243	9616.98
708.588	9636.19
708.932	9588.73
709.277	9501.28
709.621	9560.94
709.966	9462.86
710.31	9533.82
710.654	9397.1
710.998	9361.17
711.342	9423.09
711.687	9303.09
712.031	9390.54
712.375	9343.77
712.719	9363.2
713.063	9314.84
713.407	9299.92
713.75	9202.53
714.094	9233.03
714.438	9266.71
714.782	9186.03
715.125	9200.72
715.469	9211.79
715.812	9086.6
716.156	9109.42
716.499	9063.32
716.843	9102.42
717.186	9076.43
717.53	9120.72
717.873	9056.77
718.216	9108.07
718.559	9055.86
718.902	8942.42
719.246	8955.98
719.589	8980.39
719.932	8910.1
720.275	8920.27
720.617	8939.48
720.96	8918.47
721.303	8869.43
721.646	8948.3
721.989	8858.13
722.331	8889.31
722.674	8871.69
723.016	8924.57
723.359	8860.16
723.701	8899.48
724.044	8841.41
724.386	8856.09
724.729	8861.97
725.071	8755.76
725.413	8808.19
725.755	8838.92
726.097	8801.63
726.439	8706.04
726.782	8723.44
727.124	8724.12
727.465	8777.68
727.807	8699.26
728.149	8789.43
728.491	8651.58
728.833	8735.19
729.175	8684.12
729.516	8714.86
729.858	8655.42
730.199	8719.83
730.541	8641.86
730.882	8685.93
731.224	8711.24
731.565	8651.81
731.906	8639.6
732.248	8631.02
732.589	8674.63
732.93	8676.21
733.271	8649.55
733.612	8641.19
733.953	8648.64
734.294	8669.66
734.635	8644.35
734.976	8645.7
735.317	8660.17
735.658	8628.98
735.999	8644.12
736.339	8704.01
736.68	8630.11
737.021	8645.48
737.361	8665.59
737.702	8670.79
738.042	8652.03
738.383	8659.72
738.723	8686.61
739.063	8701.97
739.404	8713.05
739.744	8692.26
740.084	8671.92
740.424	8701.52
740.764	8758.92
741.104	8788.3
741.444	8791.01
741.784	8802.54
742.124	8874.17
742.464	8864.91
742.804	8878.69
743.143	8822.65
743.483	8835.98
743.823	8875.98
744.162	8829.65
744.502	8998.92
744.841	8971.35
745.181	9018.35
745.52	8982.87
745.86	9037.78
746.199	9082.53
746.538	9108.07
746.877	9219.02
747.216	9216.99
747.556	9281.62
747.895	9331.34
748.234	9355.29
748.573	9338.57
748.911	9418.79
749.25	9571.33
749.589	9587.83
749.928	9673.02
750.267	9721.83
750.605	9752.34
750.944	9907.82
751.283	9877.99
751.621	9995.27
751.96	10044.54
752.298	10160.47
752.636	10293.57
752.975	10298.99
753.313	10391.87
753.651	10545.09
753.989	10571.3
754.327	10752.99
754.666	10797.51
755.004	11032.31
755.342	11098.97
755.679	11239.31
756.017	11327.89
756.355	11454.67
756.693	11573.76
757.031	11719.52
757.368	11871.38
757.706	11991.83
758.044	12093.07
758.381	12279.96
