Data from hue_70_FLMS001491_72.txt Node
Date: Mon Feb 06 15:21:24 GMT 2017
User: dcchb
Spectrometer: FLMS00149
Trigger mode: 0
Integration Time (sec): 2.000000E-2
Scans to average: 10
Electric dark correction enabled: true
Nonlinearity correction enabled: false
Boxcar width: 0
XAxis mode: Wavelengths
Number of Pixels in Spectrum: 2048
>>>>>Begin Spectral Data<<<<<
341.393	-13.81
341.776	-13.81
342.16	-13.81
342.543	-55.17
342.927	-80.25
343.31	-69.86
343.693	-51.1
344.077	-60.82
344.46	-62.85
344.843	-53.59
345.226	-30.76
345.61	-25.11
345.993	-16.3
346.376	-4.1
346.759	4.04
347.142	18.05
347.525	34.77
347.908	60.54
348.291	71.38
348.674	87.2
349.057	98.5
349.44	122.68
349.823	136.24
350.206	169.23
350.588	199.74
350.971	200.19
351.354	207.88
351.737	220.08
352.119	258.72
352.502	289.46
352.884	263.92
353.267	273.86
353.65	301.43
354.032	285.16
354.414	291.94
354.797	282.68
355.179	306.86
355.562	309.34
355.944	346.86
356.326	331.04
356.709	326.52
357.091	343.24
357.473	331.94
357.855	338.04
358.238	333.52
358.62	339.85
359.002	367.42
359.384	337.59
359.766	320.42
360.148	329.23
360.53	319.96
360.912	325.39
361.294	311.6
361.676	320.42
362.057	325.39
362.439	322.45
362.821	311.6
363.203	319.06
363.584	312.51
363.966	322.68
364.348	321.09
364.729	305.95
365.111	321.09
365.493	301.21
365.874	316.12
366.256	306.4
366.637	319.06
367.019	296.46
367.4	309.79
367.781	316.57
368.163	303.47
368.544	306.86
368.925	324.71
369.306	311.15
369.688	309.79
370.069	314.31
370.45	318.38
370.831	312.96
371.212	318.61
371.593	333.3
371.974	301.66
372.355	311.38
372.736	317.25
373.117	322.68
373.498	320.87
373.879	327.42
374.26	339.4
374.641	297.82
375.021	315.44
375.402	316.8
375.783	326.29
376.163	322.68
376.544	323.58
376.925	318.61
377.305	340.53
377.686	316.57
378.066	328.1
378.447	341.88
378.827	315.67
379.208	329.68
379.588	328.55
379.968	324.26
380.349	326.97
380.729	317.48
381.109	320.42
381.489	338.95
381.87	306.63
382.25	352.5
382.63	329.23
383.01	337.36
383.39	325.39
383.77	349.12
384.15	328.32
384.53	322.9
384.91	346.4
385.29	324.71
385.67	341.66
386.049	342.56
386.429	336.01
386.809	348.66
387.189	353.18
387.568	343.01
387.948	347.08
388.328	365.84
388.707	359.06
389.087	345.27
389.466	340.75
389.846	361.09
390.225	351.83
390.605	373.07
390.984	351.15
391.363	349.12
391.743	355.44
392.122	368.1
392.501	356.8
392.881	348.89
393.26	359.06
393.639	362.22
394.018	353.41
394.397	363.8
394.776	375.78
395.155	376.91
395.534	370.58
395.913	378.72
396.292	396.35
396.671	377.59
397.05	377.81
397.429	371.26
397.808	365.61
398.186	375.1
398.565	406.74
398.944	386.85
399.323	376.69
399.701	387.08
400.08	372.17
400.458	369.68
400.837	397.93
401.215	388.21
401.594	363.58
401.972	368.1
402.351	406.97
402.729	386.4
403.107	381.2
403.486	400.64
403.864	408.32
404.242	387.76
404.62	388.89
404.999	409.9
405.377	408.77
405.755	391.37
406.133	411.26
406.511	406.51
406.889	433.41
407.267	398.83
407.645	427.98
408.023	427.08
408.401	424.37
408.779	405.84
409.156	427.31
409.534	419.4
409.912	417.14
410.29	417.36
410.667	434.31
411.045	450.13
411.422	436.34
411.8	443.12
412.178	460.07
412.555	458.72
412.933	444.93
413.31	447.42
413.687	475.89
414.065	443.8
414.442	469.79
414.819	452.62
415.197	463.91
415.574	463.24
415.951	447.42
416.328	478.83
416.705	460.52
417.082	473.86
417.46	492.16
417.837	500.07
418.214	476.57
418.591	468.89
418.967	504.14
419.344	496.46
419.721	496.91
420.098	474.08
420.475	486.06
420.852	490.81
421.228	501.88
421.605	492.39
421.982	510.47
422.358	488.55
422.735	502.11
423.111	524.25
423.488	512.95
423.864	512.5
424.241	527.87
424.617	509.56
424.994	534.87
425.37	534.65
425.746	524.7
426.123	536.91
426.499	527.19
426.875	544.14
427.251	547.08
427.627	542.56
428.003	561.09
428.379	550.47
428.756	557.92
429.132	574.42
429.507	569.45
429.883	572.84
430.259	581.2
430.635	588.43
431.011	585.72
431.387	609.67
431.763	598.6
432.138	609.9
432.514	606.28
432.89	604.25
433.265	606.51
433.641	648.77
434.016	630.46
434.392	633.18
434.767	631.37
435.143	634.31
435.518	636.79
435.894	637.92
436.269	642.67
436.644	645.38
437.02	656.45
437.395	662.55
437.77	682.67
438.145	645.6
438.52	672.72
438.895	666.85
439.271	685.6
439.646	683.57
440.021	709.11
440.395	704.59
440.77	679.28
441.145	693.29
441.52	725.83
441.895	721.53
442.27	722.44
442.645	707.07
443.019	715.89
443.394	734.42
443.769	751.36
444.143	738.48
444.518	747.97
444.892	750.01
445.267	752.27
445.641	763.12
446.016	752.49
446.39	740.97
446.764	749.78
447.139	753.17
447.513	777.35
447.887	776.22
448.262	768.31
448.636	784.81
449.01	794.98
449.384	776.67
449.758	765.83
450.132	808.99
450.506	780.06
450.88	793.17
451.254	810.35
451.628	818.48
452.002	839.5
452.376	834.98
452.75	837.69
453.123	833.62
453.497	843.79
453.871	843.34
454.244	900.74
454.618	879.27
454.992	898.48
455.365	905.26
455.739	903.9
456.112	911.59
456.486	932.83
456.859	940.06
457.232	938.7
457.606	921.08
457.979	943
458.352	967.86
458.725	978.03
459.099	989.32
459.472	1021.64
459.845	1005.82
460.218	974.41
460.591	1017.8
460.964	1045.37
461.337	1060.96
461.71	1068.87
462.083	1073.39
462.456	1074.75
462.829	1101.41
463.201	1099.38
463.574	1132.82
463.947	1124.91
464.32	1148.19
464.692	1185.7
465.065	1176.21
465.438	1186.16
465.81	1207.4
466.183	1204.01
466.555	1299.37
466.928	1240.39
467.3	1277.68
467.672	1262.54
468.045	1312.03
468.417	1358.35
468.789	1334.17
469.161	1372.14
469.534	1392.03
469.906	1433.83
470.278	1435.19
470.65	1473.83
471.022	1460.05
471.394	1551.12
471.766	1548.86
472.138	1568.07
472.51	1595.18
472.882	1640.38
473.253	1703.88
473.625	1738.46
473.997	1729.42
474.369	1746.37
474.74	1819.58
475.112	1846.02
475.484	1888.96
475.855	1945.68
476.227	1980.03
476.598	2073.14
476.97	2056.87
477.341	2154.72
477.713	2193.81
478.084	2230.87
478.455	2293.24
478.827	2340.93
479.198	2424.99
479.569	2466.8
479.94	2565.1
480.311	2620.69
480.682	2690.07
481.053	2766.9
481.424	2890.29
481.795	2912.66
482.166	3003.06
482.537	3120.57
482.908	3185.42
483.279	3278.3
483.65	3382.03
484.021	3481.69
484.391	3571.4
484.762	3623.38
485.133	3761
485.503	3861.57
485.874	3945.4
486.244	4042.58
486.615	4207.32
486.985	4336.13
487.356	4461.78
487.726	4522.11
488.097	4664.03
488.467	4755.33
488.837	4879.62
489.207	4996
489.578	5132.49
489.948	5275.31
490.318	5446.16
490.688	5519.37
491.058	5655.42
491.428	5822.42
491.798	5914.39
492.168	6100.6
492.538	6204.55
492.908	6366.58
493.278	6477.32
493.648	6630.08
494.017	6803.41
494.387	6936.96
494.757	7004.31
495.126	7186.68
495.496	7302.38
495.866	7455.14
496.235	7588.92
496.605	7710.96
496.974	7912.76
497.344	7974
497.713	8161.11
498.082	8298.96
498.452	8390.49
498.821	8559.97
499.19	8628.22
499.559	8815.56
499.928	8949.11
500.298	9019.62
500.667	9169.45
501.036	9267.98
501.405	9399.05
501.774	9520.17
502.143	9606.05
502.512	9745.48
502.88	9857.57
503.249	9902.31
503.618	10100.5
503.987	10221.62
504.356	10320.38
504.724	10498
505.093	10526.25
505.462	10638.11
505.83	10748.84
506.199	10978.67
506.567	11163.07
506.936	11119.68
507.304	11310.41
507.672	11430.63
508.041	11479.67
508.409	11595.83
508.777	11725.54
509.145	11782.26
509.514	11896.61
509.882	12045.08
510.25	12126.88
510.618	12174.11
510.986	12310.61
511.354	12462.47
511.722	12568.68
512.09	12730.48
512.458	12713.99
512.826	12813.65
513.193	12982.46
513.561	13029.91
513.929	13123.92
514.297	13242.34
514.664	13405.72
515.032	13378.6
515.4	13581.31
515.767	13692.95
516.135	13667.86
516.502	13679.61
516.869	14042.54
517.237	13999.15
517.604	13970.68
517.972	14069.88
518.339	14233.72
518.706	14306.71
519.073	14449.31
519.44	14456.54
519.808	14583.32
520.175	14649.76
520.542	14833.03
520.909	14835.06
521.276	14886.81
521.643	15056.98
522.009	15069.41
522.376	15224.2
522.743	15238.89
523.11	15440.92
523.477	15607.92
523.843	15617.19
524.21	15809.95
524.577	15906.9
524.943	15962.94
525.31	16025.54
525.676	16174.24
526.043	16269.83
526.409	16286.32
526.776	16524.28
527.142	16481.8
527.508	16577.39
527.874	16709.36
528.241	16651.29
528.607	16810.15
528.973	16743.26
529.339	16842.01
529.705	17038.17
530.071	17195.45
530.437	17198.62
530.803	17267.77
531.169	17315
531.535	17258.5
531.901	17390.47
532.267	17354.09
532.632	17514.54
532.998	17589.79
533.364	17672.95
533.73	17594.54
534.095	17758.83
534.461	17741.2
534.826	17857.13
535.192	17934.19
535.557	18064.36
535.923	18028.88
536.288	17966.73
536.653	18110.91
537.019	17955.88
537.384	18108.65
537.749	18053.28
538.114	18098.48
538.479	18095.09
538.845	18159.27
539.21	18156.78
539.575	18258.93
539.94	18158.14
540.305	18348.42
540.67	18357.46
541.034	18417.34
541.399	18494.85
541.764	18415.53
542.129	18447.17
542.494	18473.38
542.858	18412.82
543.223	18429.09
543.587	18463.44
543.952	18483.78
544.316	18500.95
544.681	18574.17
545.045	18465.93
545.41	18636.09
545.774	18690.1
546.138	18666.6
546.503	18703.89
546.867	18640.84
547.231	18745.02
547.595	18708.63
547.959	18831.12
548.324	18814.17
548.688	18830.44
549.052	18836.09
549.416	18805.13
549.779	18788.63
550.143	18926.71
550.507	18925.58
550.871	18981.39
551.235	18991.79
551.599	19083.54
551.962	19029.3
552.326	19148.17
552.689	19100.71
553.053	18990.66
553.417	19063.65
553.78	19293.02
554.143	19077.21
554.507	19160.37
554.87	19214.61
555.234	19450.76
555.597	19180.94
555.96	19288.73
556.323	19346.58
556.686	19485.56
557.05	19457.77
557.413	19530.08
557.776	19561.04
558.139	19596.29
558.502	19660.92
558.865	19671.77
559.228	19797.19
559.59	19707.02
559.953	19798.1
560.316	19999.67
560.679	19979.33
561.041	20149.05
561.404	20121.25
561.767	20181.59
562.129	20215.03
562.492	20340.91
562.854	20237.18
563.217	20285.99
563.579	20335.71
563.941	20460.22
564.304	20460
564.666	20574.12
565.028	20643.72
565.39	20645.08
565.753	20648.69
566.115	20819.31
566.477	20888.91
566.839	20894.11
567.201	20938.63
567.563	20989.02
567.925	21028.12
568.287	21137.27
568.648	21079.19
569.01	21263.14
569.372	21307.21
569.734	21335.91
570.095	21404.38
570.457	21366.87
570.819	21546.75
571.18	21521.89
571.542	21683.47
571.903	21590.36
572.265	21786.29
572.626	21734.99
572.987	21765.95
573.349	21799.62
573.71	21875.33
574.071	21939.28
574.432	21955.55
574.794	22131.14
575.155	22038.49
575.516	21985.38
575.877	22057.7
576.238	22104.7
576.599	22283.68
576.96	22274.87
577.32	22136.56
577.681	22319.16
578.042	22324.36
578.403	22210.69
578.763	22184.25
579.124	22369.33
579.485	22380.85
579.845	22471.25
580.206	22452.04
580.566	22380.17
580.927	22410.23
581.287	22411.59
581.648	22537.23
582.008	22569.77
582.368	22442.09
582.728	22525.71
583.089	22521.41
583.449	22450.23
583.809	22432.83
584.169	22622.65
584.529	22475.99
584.889	22586.95
585.249	22506.05
585.609	22371.36
585.969	22515.99
586.329	22400.51
586.688	22581.07
587.048	22549.89
587.408	22460.4
587.768	22422.66
588.127	22551.47
588.487	22382.66
588.846	22524.35
589.206	22372.72
589.565	22531.81
589.925	22624.24
590.284	22458.59
590.643	22478.93
591.003	22628.76
591.362	22681.64
591.721	22600.96
592.08	22582.2
592.44	22648.19
592.799	22663.1
593.158	22468.31
593.517	22558.47
593.876	22601.19
594.235	22503.79
594.593	22512.6
594.952	22679.83
595.311	22509.66
595.67	22530
596.029	22645.7
596.387	22694.29
596.746	22767.51
597.104	22572.49
597.463	22588.98
597.822	22640.05
598.18	22639.6
598.538	22659.04
598.897	22734.52
599.255	22554.41
599.613	22785.59
599.972	22703.33
600.33	22804.12
600.688	22688.19
601.046	22769.32
601.404	22900.16
601.762	22917.11
602.12	22849.99
602.478	22855.42
602.836	22885.02
603.194	22698.36
603.552	22798.02
603.91	22758.7
604.268	22874.4
604.625	22836.43
604.983	22986.26
605.341	22865.59
605.698	22917.56
606.056	22963.44
606.413	22914.85
606.771	22953.27
607.128	23033.94
607.485	22969.54
607.843	23024.68
608.2	23066.94
608.557	23193.94
608.914	23098.35
609.272	23154.17
609.629	23212.92
609.986	23339.02
610.343	23229.87
610.7	23284.56
611.057	23343.09
611.414	23349.64
611.771	23290.21
612.127	23377.89
612.484	23472.12
612.841	23506.25
613.198	23343.54
613.554	23487.26
613.911	23495.85
614.267	23599.58
614.624	23576.53
614.98	23517.32
615.337	23692.23
615.693	23727.03
616.05	23680.03
616.406	23889.51
616.762	23769.06
617.118	23741.04
617.475	23897.42
617.831	23853.36
618.187	23854.71
618.543	23904.43
618.899	24003.18
619.255	23882.96
619.611	23986.23
619.967	24129.73
620.323	23941.72
620.678	23965.22
621.034	23870.76
621.39	23917.53
621.746	23961.6
622.101	24213.57
622.457	24021.49
622.812	24017.42
623.168	24105.33
623.523	24223.29
623.879	24279.79
624.234	24105.55
624.589	24127.92
624.945	24138.32
625.3	24202.27
625.655	24164.31
626.01	24274.59
626.365	24101.03
626.72	24198.21
627.075	24127.25
627.43	24166.34
627.785	24155.49
628.14	24270.75
628.495	24173.35
628.85	24129.28
629.205	24083.41
629.559	24178.55
629.914	24062.16
630.269	24064.2
630.623	24175.16
630.978	23959.12
631.332	24130.86
631.687	24181.93
632.041	24069.85
632.396	24023.07
632.75	23943.07
633.104	24118.43
633.459	23930.64
633.813	23976.74
634.167	23916.86
634.521	23958.44
634.875	23963.86
635.229	23904.43
635.583	23756.64
635.937	23848.84
636.291	23758.44
636.645	23780.36
636.999	23724.09
637.352	23876.86
637.706	23690.65
638.06	23788.27
638.413	23645.9
638.767	23637.54
639.121	23646.81
639.474	23655.17
639.828	23595.96
640.181	23637.77
640.534	23560.48
640.888	23531.56
641.241	23529.75
641.594	23445.23
641.947	23506.02
642.301	23467.38
642.654	23472.35
643.007	23475.96
643.36	23463.31
643.713	23438.9
644.066	23532.23
644.419	23333.14
644.771	23254.28
645.124	23012.93
645.477	22925.02
645.83	22879.14
646.182	22917.11
646.535	22733.39
646.888	22765.25
647.24	22714.85
647.593	22746.27
647.945	22646.38
648.298	22548.53
648.65	22516.89
649.002	22535.65
649.355	22599.83
649.707	22609.55
650.059	22671.24
650.411	23007.5
650.763	22889.77
651.115	23195.52
651.467	23004.79
651.819	23176.31
652.171	23134.5
652.523	22963.89
652.875	23074.85
653.227	23030.1
653.578	23155.75
653.93	23100.16
654.282	23090.21
654.633	22944.68
654.985	23024
655.337	23062.42
655.688	23023.77
656.039	23116.88
656.391	22853.61
656.742	22929.76
657.094	22942.65
657.445	23110.1
657.796	23004.34
658.147	22953.27
658.498	22888.64
658.849	23059.48
659.2	22866.49
659.551	22890.44
659.902	22977.22
660.253	22991.91
660.604	22977.45
660.955	22916.66
661.306	22983.32
661.656	22874.17
662.007	22946.94
662.358	23028.29
662.708	22827.39
663.059	23024.9
663.409	22864.68
663.76	22993.27
664.11	22975.86
664.461	23004.79
664.811	23002.3
665.161	22870.33
665.511	23036.43
665.862	22953.49
666.212	23078.01
666.562	23032.36
666.912	23003.43
667.262	22966.37
667.612	22925.24
667.962	22943.1
668.312	22953.49
668.662	23112.81
669.011	22902.19
669.361	22883.89
669.711	22790.56
670.06	22796.21
670.41	22798.02
670.76	22793.5
671.109	22848.41
671.459	22806.38
671.808	22775.42
672.157	22790.56
672.507	22652.71
672.856	22765.93
673.205	22783.33
673.554	22853.83
673.904	22659.26
674.253	23024.68
674.602	22805.7
674.951	22464.24
675.3	22308.31
675.649	22766.38
675.998	22698.58
676.346	22722.31
676.695	22719.37
677.044	22530.23
677.393	22618.81
677.741	22637.12
678.09	22581.3
678.438	22646.61
678.787	22570.23
679.135	22490.68
679.484	22448.87
679.832	22523.9
680.181	22313.74
680.529	22395.99
680.877	22243.68
681.225	22289.33
681.573	22487.74
681.922	22239.61
682.27	22213.17
682.618	22314.87
682.966	22229.22
683.314	22169.11
683.661	22077.13
684.009	21992.84
684.357	21993.29
684.705	22017.02
685.053	21982.9
685.4	21856.8
685.748	21774.54
686.095	21777.48
686.443	21699.51
686.79	21706.97
687.138	21729.57
687.485	21662.68
687.832	21616.58
688.18	21558.05
688.527	21461.78
688.874	21513.3
689.221	21416.13
689.568	21345.17
689.915	21224.27
690.262	21208.91
690.609	21239.41
690.956	21113.09
691.303	21165.29
691.65	20987.22
691.997	21103.82
692.344	20905.86
692.69	20796.04
693.037	20946.54
693.383	20684.63
693.73	20712.65
694.077	20613.89
694.423	20603.27
694.769	20536.61
695.116	20449.15
695.462	20504.52
695.808	20321.7
696.155	20411.64
696.501	20187.01
696.847	20162.38
697.193	20095.94
697.539	20173
697.885	19907.7
698.231	19877.64
698.577	19991.08
698.923	19858.43
699.269	19835.16
699.614	19676.29
699.96	19627.25
700.306	19674.26
700.651	19497.09
700.997	19603.98
701.342	19438.56
701.688	19403.98
702.033	19283.31
702.379	19216.19
702.724	19204.44
703.069	19293.48
703.415	19015.52
703.76	18907.27
704.105	18970.77
704.45	18877.67
704.795	18805.35
705.14	18815.97
705.485	18678.35
705.83	18589.09
706.175	18654.85
706.52	18556.09
706.865	18569.2
707.209	18479.03
707.554	18453.72
707.899	18399.26
708.243	18339.83
708.588	18343.44
708.932	18221.41
709.277	18209.44
709.621	18198.36
709.966	18175.09
710.31	18102.55
710.654	17905.94
710.998	17979.84
711.342	17893.29
711.687	17886.28
712.031	17824.81
712.375	17751.37
712.719	17857.13
713.063	17756.57
713.407	17775.78
713.75	17631.6
714.094	17740.52
714.438	17515.22
714.782	17594.31
715.125	17507.76
715.469	17580.3
715.812	17377.37
716.156	17423.47
716.499	17367.65
716.843	17416.46
717.186	17194.77
717.53	17359.06
717.873	17375.79
718.216	17318.16
718.559	17219.18
718.902	17033.87
719.246	17172.4
719.589	17067.77
719.932	17054.21
720.275	16979.41
720.617	17053.31
720.96	17035.68
721.303	16941.67
721.646	16995.68
721.989	16808.12
722.331	16992.52
722.674	16871.17
723.016	16957.49
723.359	16906.42
723.701	16913.43
724.044	16730.83
724.386	16671.62
724.729	16756.82
725.071	16675.47
725.413	16738.74
725.755	16625.75
726.097	16656.26
726.439	16500.78
726.782	16583.04
727.124	16606.77
727.465	16558.41
727.807	16539.42
728.149	16502.36
728.491	16527.67
728.833	16481.35
729.175	16485.87
729.516	16445.19
729.858	16431.63
730.199	16404.96
730.541	16420.78
730.882	16385.53
731.224	16442.93
731.565	16344.4
731.906	16302.37
732.248	16331.75
732.589	16226.44
732.93	16251.75
733.271	16291.29
733.612	16341.69
733.953	16289.71
734.294	16220.56
734.635	16152.77
734.976	16230.05
735.317	16242.26
735.658	16204.97
735.999	16203.61
736.339	16195.25
736.68	16159.09
737.021	16129.72
737.361	16070.74
737.702	16218.98
738.042	16209.94
738.383	16137.63
738.723	16209.49
739.063	16116.38
739.404	16193.67
739.744	16132.65
740.084	16094.24
740.424	16046.33
740.764	16204.74
741.104	16131.75
741.444	16044.97
741.784	16115.25
742.124	16161.13
742.464	16022.83
742.804	16135.82
743.143	16115.25
743.483	16133.33
743.823	16121.36
744.162	16116.61
744.502	16168.13
744.841	16218.3
745.181	16260.34
745.52	16278.41
745.86	16206.78
746.199	16275.48
746.538	16338.3
746.877	16327.9
747.216	16322.93
747.556	16335.59
747.895	16401.12
748.234	16375.59
748.573	16395.7
748.911	16463.04
749.25	16483.83
749.589	16435.47
749.928	16485.64
750.267	16604.28
750.605	16555.92
750.944	16565.41
751.283	16691.74
751.621	16715.69
751.96	16738.74
752.298	16850.15
752.636	16879.75
752.975	16917.72
753.313	16898.06
753.651	17110.03
753.989	17039.07
754.327	17008.56
754.666	17141.89
755.004	17247.2
755.342	17347.99
755.679	17418.27
756.017	17357.03
756.355	17573.07
756.693	17547.98
