Data from hue_24_FLMS001491_00061.txt Node
Date: Tue Feb 07 17:12:35 GMT 2017
User: dcchb
Spectrometer: FLMS00149
Trigger mode: 0
Integration Time (sec): 2.000000E-2
Scans to average: 10
Electric dark correction enabled: true
Nonlinearity correction enabled: false
Boxcar width: 0
XAxis mode: Wavelengths
Number of Pixels in Spectrum: 2048
>>>>>Begin Spectral Data<<<<<
341.393	-26.31
341.776	-26.31
342.16	-26.31
342.543	-67.22
342.927	-86.42
343.31	-70.61
343.693	-80.1
344.077	-77.16
344.46	-40.32
344.843	-60.44
345.226	-44.62
345.61	-29.7
345.993	-14.79
346.376	5.55
346.759	9.62
347.142	8.94
347.525	39.9
347.908	40.58
348.291	78.32
348.674	109.95
349.057	124.87
349.44	122.84
349.823	131.65
350.206	151.76
350.588	198.54
350.971	216.62
351.354	233.79
351.737	218.88
352.119	269.95
352.502	274.92
352.884	273.79
353.267	291.19
353.65	311.31
354.032	290.29
354.414	309.5
354.797	328.93
355.179	342.04
355.562	340.46
355.944	331.64
356.326	345.88
356.709	337.29
357.091	327.58
357.473	335.03
357.855	350.85
358.238	336.16
358.62	350.85
359.002	344.52
359.384	349.27
359.766	344.98
360.148	359.21
360.53	354.69
360.912	336.62
361.294	330.97
361.676	325.77
362.057	348.59
362.439	340.01
362.821	354.92
363.203	365.09
363.584	328.71
363.966	328.25
364.348	349.27
364.729	321.47
365.111	318.54
365.493	323.06
365.874	312.66
366.256	326.67
366.637	322.6
367.019	322.15
367.4	308.14
367.781	314.92
368.163	316.28
368.544	330.97
368.925	311.76
369.306	333.23
369.688	328.25
370.069	312.21
370.45	317.86
370.831	316.28
371.212	343.62
371.593	334.13
371.974	325.32
372.355	341.59
372.736	319.44
373.117	327.58
373.498	333.23
373.879	333.9
374.26	320.57
374.641	328.93
375.021	318.99
375.402	323.51
375.783	351.53
376.163	348.82
376.544	347.01
376.925	350.85
377.305	344.75
377.686	351.76
378.066	363.28
378.447	331.64
378.827	347.01
379.208	333.68
379.588	367.12
379.968	352.43
380.349	352.89
380.729	311.08
381.109	364.41
381.489	356.95
381.87	365.77
382.25	342.94
382.63	355.37
383.01	368.93
383.39	343.39
383.77	356.73
384.15	366.9
384.53	353.34
384.91	374.13
385.29	373
385.67	333.9
386.049	372.55
386.429	381.59
386.809	370.96
387.189	374.35
387.568	393.34
387.948	369.38
388.328	372.32
388.707	389.72
389.087	408.03
389.466	364.86
389.846	392.66
390.225	399.89
390.605	391.98
390.984	401.02
391.363	392.21
391.743	377.29
392.122	397.18
392.501	407.8
392.881	403.51
393.26	414.13
393.639	412.77
394.018	414.81
394.397	405.54
394.776	419.78
395.155	414.81
395.534	409.83
395.913	415.26
396.292	417.74
396.671	404.64
397.05	426.56
397.429	431.75
397.808	434.01
398.186	420.46
398.565	413.45
398.944	427.01
399.323	441.25
399.701	442.38
400.08	436.27
400.458	437.63
400.837	442.15
401.215	408.93
401.594	442.15
401.972	452.32
402.351	443.73
402.729	450.51
403.107	467.01
403.486	443.28
403.864	453.45
404.242	476.27
404.62	460.23
404.999	447.12
405.377	453.67
405.755	455.03
406.133	462.71
406.511	453.45
406.889	467.91
407.267	494.13
407.645	483.05
408.023	468.59
408.401	504.07
408.779	498.42
409.156	514.01
409.534	507.68
409.912	483.96
410.29	492.32
410.667	509.72
411.045	520.34
411.422	531.19
411.8	500.68
412.178	531.64
412.555	528.02
412.933	545.65
413.31	542.71
413.687	566.67
414.065	549.72
414.442	551.53
414.819	532.99
415.197	559.21
415.574	579.09
415.951	586.78
416.328	548.36
416.705	591.07
417.082	563.05
417.46	591.75
417.837	597.4
418.214	577.06
418.591	593.33
418.967	586.33
419.344	600.34
419.721	612.31
420.098	608.7
420.475	595.59
420.852	622.26
421.228	614.35
421.605	627.46
421.982	639.21
422.358	624.97
422.735	649.15
423.111	643.73
423.488	639.43
423.864	654.8
424.241	650.28
424.617	670.62
424.994	664.97
425.37	669.49
425.746	681.47
426.123	678.75
426.499	697.28
426.875	707
427.251	707
427.627	693.44
428.003	724.4
428.379	699.77
428.756	702.03
429.132	715.81
429.507	735.02
429.883	735.02
430.259	749.03
430.635	739.99
431.011	780.9
431.387	767.34
431.763	771.41
432.138	781.12
432.514	801.91
432.89	791.74
433.265	786.55
433.641	794.68
434.016	822.48
434.392	834
434.767	830.39
435.143	860.67
435.518	845.3
435.894	838.52
436.269	860.67
436.644	879.43
437.02	885.75
437.395	874
437.77	878.07
438.145	888.47
438.52	887.34
438.895	887.11
439.271	927.56
439.646	942.48
440.021	935.24
440.395	933.44
440.77	918.52
441.145	948.12
441.52	958.52
441.895	965.3
442.27	958.97
442.645	989.25
443.019	990.61
443.394	986.32
443.769	1015.02
444.143	982.93
444.518	990.16
444.892	1010.27
445.267	1007.56
445.641	1008.01
446.016	998.29
446.39	1038.97
446.764	1058.18
447.139	1024.96
447.513	1053.21
447.887	1043.04
448.262	1055.92
448.636	1076.48
449.01	1066.09
449.384	1056.82
449.758	1093.43
450.132	1108.35
450.506	1114.9
450.88	1119.87
451.254	1146.99
451.628	1098.4
452.002	1137.5
452.376	1171.85
452.75	1150.38
453.123	1166.2
453.497	1192.41
453.871	1182.02
454.244	1197.38
454.618	1201
454.992	1243.26
455.365	1231.06
455.739	1262.01
456.112	1282.81
456.486	1269.25
456.859	1282.35
457.232	1327.32
457.606	1325.06
457.979	1319.87
458.352	1360.54
458.725	1346.98
459.099	1344.72
459.472	1404.84
459.845	1434.67
460.218	1432.63
460.591	1443.48
460.964	1485.06
461.337	1476.7
461.71	1477.15
462.083	1517.6
462.456	1491.39
462.829	1517.6
463.201	1562.12
463.574	1586.98
463.947	1575.45
464.32	1609.58
464.692	1623.14
465.065	1636.47
465.438	1651.61
465.81	1661.1
466.183	1689.35
466.555	1727.54
466.928	1748.78
467.3	1747.65
467.672	1765.28
468.045	1834.43
468.417	1807.09
468.789	1854.09
469.161	1868.55
469.534	1915.11
469.906	1937.7
470.278	1956.91
470.65	1964.37
471.022	1993.75
471.394	2031.26
471.766	2039.85
472.138	2087.53
472.51	2158.49
472.882	2168.88
473.253	2172.05
473.625	2227.19
473.997	2280.97
474.369	2305.38
474.74	2305.38
475.112	2371.36
475.484	2398.03
475.855	2491.36
476.227	2478.25
476.598	2547.4
476.97	2574.07
477.341	2653.62
477.713	2722.09
478.084	2712.6
478.455	2796.89
478.827	2776.33
479.198	2901.97
479.569	2915.76
479.94	2988.75
480.311	3050.89
480.682	3105.13
481.053	3186.48
481.424	3222.87
481.795	3274.39
482.166	3343.99
482.537	3378.34
482.908	3485.46
483.279	3498.57
483.65	3565.46
484.021	3668.73
484.391	3705.79
484.762	3750.09
485.133	3797.32
485.503	3874.6
485.874	3950.31
486.244	3993.69
486.615	4057.65
486.985	4133.58
487.356	4261.03
487.726	4275.49
488.097	4385.77
488.467	4394.14
488.837	4500.57
489.207	4571.31
489.578	4605.2
489.948	4688.37
490.318	4722.26
490.688	4787.12
491.058	4868.47
491.428	4940.34
491.798	5038.41
492.168	5167
492.538	5180.56
492.908	5234.79
493.278	5337.39
493.648	5341.46
494.017	5397.73
494.387	5457.61
494.757	5528.34
495.126	5616.25
495.496	5631.62
495.866	5684.27
496.235	5737.15
496.605	5792.52
496.974	5837.94
497.344	5872.06
497.713	5937.82
498.082	6025.73
498.452	6052.62
498.821	6055.56
499.19	6122.45
499.559	6186.63
499.928	6256.91
500.298	6220.08
500.667	6312.73
501.036	6372.39
501.405	6389.34
501.774	6421.43
502.143	6477.7
502.512	6483.8
502.88	6586.17
503.249	6616
503.618	6604.02
503.987	6693.51
504.356	6721.76
504.724	6756.33
505.093	6756.33
505.462	6850.12
505.83	6834.75
506.199	6943.22
506.567	7024.58
506.936	6954.07
507.304	7040.62
507.672	7111.8
508.041	7197.68
508.409	7145.48
508.777	7210.56
509.145	7306.6
509.514	7286.72
509.882	7345.02
510.25	7338.92
510.618	7406.26
510.986	7433.6
511.354	7463.21
511.722	7553.15
512.09	7580.04
512.458	7587.95
512.826	7660.72
513.193	7711.34
513.561	7729.42
513.929	7834.05
514.297	7791.11
514.664	7871.33
515.032	7927.38
515.4	7956.98
515.767	8067.94
516.135	8029.07
516.502	7953.14
516.869	8088.5
517.237	8138.44
517.604	8087.15
517.972	8226.35
518.339	8229.97
518.706	8281.94
519.073	8267.25
519.44	8345.44
519.808	8402.84
520.175	8450.3
520.542	8524.42
520.909	8553.8
521.276	8560.81
521.643	8622.95
522.009	8698.66
522.376	8672.44
522.743	8713.8
523.11	8848.26
523.477	8941.13
523.843	8921.25
524.21	9032.88
524.577	9038.53
524.943	9114.92
525.31	9149.94
525.676	9234.69
526.043	9294.57
526.409	9313.78
526.776	9390.39
527.142	9423.16
527.508	9499.54
527.874	9541.57
528.241	9640.33
528.607	9646.2
528.973	9745.63
529.339	9665.86
529.705	9822.92
530.071	9857.95
530.437	9829.7
530.803	9978.4
531.169	9962.13
531.535	10024.72
531.901	10044.38
532.267	10108.79
532.632	10228.56
532.998	10262
533.364	10294.32
533.73	10386.52
534.095	10379.97
534.461	10444.6
534.826	10440.98
535.192	10515.56
535.557	10627.42
535.923	10550.81
536.288	10640.3
536.653	10680.52
537.019	10767.3
537.384	10786.28
537.749	10851.14
538.114	10830.12
538.479	10914.64
538.845	10864.7
539.21	10891.59
539.575	10979.27
539.94	10956.45
540.305	11067.86
540.67	11145.82
541.034	11137.91
541.399	11225.59
541.764	11257.23
542.129	11293.16
542.494	11292.94
542.858	11415.42
543.223	11369.55
543.587	11457.9
543.952	11435.08
544.316	11496.55
544.681	11633.72
545.045	11673.27
545.41	11647.5
545.774	11737.67
546.138	11740.61
546.503	11804.79
546.867	11826.03
547.231	11863.54
547.595	11944.45
547.959	12026.25
548.324	11997.33
548.688	11992.58
549.052	12122.75
549.416	12066.48
549.779	12170.2
550.143	12220.37
550.507	12222.4
550.871	12253.59
551.235	12317.77
551.599	12389.18
551.962	12346.02
552.326	12444.77
552.689	12517.54
553.053	12503.53
553.417	12590.76
553.78	12658.55
554.143	12683.86
554.507	12689.28
554.87	12817.42
555.234	12838.43
555.597	12817.64
555.96	12841.6
556.323	12903.52
556.686	12936.28
557.05	13035.72
557.413	13080.69
557.776	13102.83
558.139	13171.98
558.502	13198.2
558.865	13271.19
559.228	13303.73
559.59	13412.43
559.953	13337.18
560.316	13509.6
560.679	13552.99
561.041	13583.95
561.404	13639.77
561.767	13670.05
562.129	13645.64
562.492	13788.01
562.854	13798.63
563.217	13789.82
563.579	13824.62
563.941	13975.35
564.304	14009.02
564.666	14110.04
565.028	14076.59
565.39	14127.44
565.753	14217.61
566.115	14178.74
566.477	14402.23
566.839	14275.46
567.201	14426.87
567.563	14419.86
567.925	14573.98
568.287	14532.63
568.648	14603.81
569.01	14739.85
569.372	14727.2
569.734	14763.35
570.095	14869.79
570.457	14900.75
570.819	14874.76
571.18	15043.12
571.542	15079.28
571.903	15145.27
572.265	15217.13
572.626	15348.88
572.987	15416.9
573.349	15380.74
573.71	15505.93
574.071	15550.23
574.432	15632.03
574.794	15792.93
575.155	15725.59
575.516	15844
575.877	15938.69
576.238	15956.54
576.599	16110.21
576.96	16124.22
577.32	16378.45
577.681	16498.9
578.042	16514.04
578.403	16672.01
578.763	16679.46
579.124	16890.08
579.485	16967.59
579.845	17206.91
580.206	17191.77
580.566	17455.04
580.927	17544.3
581.287	17731.86
581.648	17800.34
582.008	18041.01
582.368	18123.27
582.728	18320.78
583.089	18451.85
583.449	18664.27
583.809	18824.04
584.169	19033.98
584.529	19274.87
584.889	19561.65
585.249	19534.98
585.609	19791.92
585.969	20133.38
586.329	20315.53
586.688	20631.9
587.048	20849.07
587.408	21024.89
587.768	21309.62
588.127	21572.89
588.487	21788.93
588.846	22313.66
589.206	22303.5
589.565	22673.2
589.925	23141.44
590.284	23277.03
590.643	23509.57
591.003	23987.97
591.362	24369.88
591.721	24567.62
592.08	24881.51
592.44	25137.32
592.799	25427.93
593.158	25790.64
593.517	26158.31
593.876	26469.26
594.235	26754
594.593	27062.01
594.952	27519.86
595.311	27746.74
595.67	28156.22
596.029	28619.94
596.387	28850.89
596.746	29291.56
597.104	29494.94
597.463	29751.66
597.822	30384.41
598.18	30335.83
598.538	30810.16
598.897	31301.22
599.255	31272.75
599.613	32084.48
599.972	32150.02
600.33	32733.96
600.688	32760.4
601.046	33267.05
601.404	33686.7
601.762	33797.88
602.12	34271.32
602.478	34702.94
602.836	34988.59
603.194	35067.68
603.552	35324.17
603.91	35535.69
604.268	35996.69
604.625	36231.26
604.983	36634.87
605.341	36754.19
605.698	37143.33
606.056	37479.37
606.413	37743.99
606.771	38140.14
607.128	38291.32
607.485	38490.41
607.843	38686.34
608.2	39220.11
608.557	39436.83
608.914	39668.24
609.272	40044.5
609.629	40268.45
609.986	40618.95
610.343	40694.65
610.7	41112.27
611.057	41210.57
611.414	41352.71
611.771	41672.7
612.127	42020.72
612.484	42093.71
612.841	42377.54
613.198	42387.94
613.554	42738.66
613.911	42922.39
614.267	43259.78
614.624	43287.12
614.98	43448.48
615.337	43913.55
615.693	43934.79
616.05	44206.65
616.406	44492.29
616.762	44476.7
617.118	44618.84
617.475	44739.52
617.831	45148.77
618.187	45180.86
618.543	45317.13
618.899	45716.67
619.255	45644.8
619.611	45771.35
619.967	46021.06
620.323	46250.21
620.678	46128.63
621.034	46064.9
621.39	46198.46
621.746	46354.61
622.101	46847.48
622.457	46492.92
622.812	46758.9
623.168	46851.78
623.523	47007.93
623.879	47252.22
624.234	47042.05
624.589	47269.17
624.945	47365.44
625.3	47510.52
625.655	47606.33
626.01	47702.83
626.365	47652.43
626.72	47692.88
627.075	47858.76
627.43	47779.89
627.785	47705.99
628.14	47958.19
628.495	48045.42
628.85	48033.44
629.205	47940.56
629.559	48133.32
629.914	48051.75
630.269	48156.15
630.623	48070.28
630.978	48054.91
631.332	48215.81
631.687	48392.53
632.041	48237.73
632.396	48286.09
632.75	48175.13
633.104	48263.26
633.459	48240.44
633.813	48257.84
634.167	48355.69
634.521	48284.06
634.875	48459.19
635.229	48396.82
635.583	48341.68
635.937	48382.36
636.291	48311.17
636.645	48372.19
636.999	48294.68
637.352	48444.05
637.706	48248.35
638.06	48447.44
638.413	48173.78
638.767	48127
639.121	48437.05
639.474	48166.32
639.828	48161.57
640.181	48248.35
640.534	48113.44
640.888	48174.23
641.241	47938.08
641.594	48249.03
641.947	48246.54
642.301	48137.62
642.654	48151.63
643.007	48194.79
643.36	48160.22
643.713	48032.08
644.066	48176.04
644.419	47987.11
644.771	47729.72
645.124	47418.77
645.477	47368.6
645.83	47111.43
646.182	47015.16
646.535	46920.48
646.888	47021.49
647.24	46842.74
647.593	47052.45
647.945	46910.08
648.298	46816.75
648.65	46861.95
649.002	46613.14
649.355	46855.62
649.707	46860.59
650.059	47116.18
650.411	47421.25
650.763	47574.47
651.115	47857.17
651.467	47762.94
651.819	47715.03
652.171	47656.5
652.523	47573.34
652.875	47643.17
653.227	47377.86
653.578	47710.74
653.93	47602.72
654.282	47430.74
654.633	47280.92
654.985	47468.71
655.337	47463.51
655.688	47459.22
656.039	47571.31
656.391	47369.28
656.742	47367.7
657.094	47425.55
657.445	47479.33
657.796	47361.37
658.147	47372.89
658.498	47289.73
658.849	47464.64
659.2	47392.1
659.551	47299
659.902	47432.78
660.253	47357.98
660.604	47394.36
660.955	47264.42
661.306	47548.93
661.656	47282.95
662.007	47382.61
662.358	47395.72
662.708	47334.48
663.059	47324.08
663.409	47078.21
663.76	47403.4
664.11	47294.7
664.461	47315.49
664.811	47351.65
665.161	47208.83
665.511	47062.17
665.862	47173.58
666.212	47322.72
666.562	47291.99
666.912	47221.94
667.262	47121.6
667.612	47252.22
667.962	47277.53
668.312	47242.95
668.662	47294.25
669.011	47137.42
669.361	47172.67
669.711	47058.78
670.06	46983.98
670.41	47093.35
670.76	46927.71
671.109	47044.31
671.459	47037.53
671.808	46886.35
672.157	47015.16
672.507	46804.32
672.856	46916.63
673.205	46871.66
673.554	47033.24
673.904	46889.06
674.253	47175.38
674.602	46933.36
674.951	46504.44
675.3	46218.35
675.649	46888.61
675.998	46729.75
676.346	46798.22
676.695	46954.15
677.044	46619.92
677.393	46681.61
677.741	46827.82
678.09	46704.89
678.438	46627.83
678.787	46668.28
679.135	46825.11
679.484	46398.46
679.832	46595.96
680.181	46258.57
680.529	46438.91
680.877	46319.81
681.225	46222.64
681.573	46425.8
681.922	46104
682.27	46086.82
682.618	46132.93
682.966	45954.17
683.314	46058.35
683.661	45904
684.009	45767.29
684.357	45746.49
684.705	45656.1
685.053	45686.38
685.4	45664.01
685.748	45431.47
686.095	45402.55
686.443	45309.9
686.79	45213.18
687.138	45405.49
687.485	45247.98
687.832	45084.14
688.18	45268.54
688.527	45084.82
688.874	44856.35
689.221	44774.32
689.568	44706.75
689.915	44751.04
690.262	44620.65
690.609	44624.94
690.956	44424.5
691.303	44431.95
691.65	44292.75
691.997	44236.48
692.344	43881.91
692.69	44116.26
693.037	44010.72
693.383	43604.18
693.73	43947.67
694.077	43466.1
694.423	43596.04
694.769	43492.77
695.116	43395.82
695.462	43203.06
695.808	43262.04
696.155	43234.92
696.501	42984.99
696.847	43002.39
697.193	42655.28
697.539	42821.37
697.885	42586.35
698.231	42335.06
698.577	42441.5
698.923	42288.28
699.269	42124.9
699.614	42017.33
699.96	42029.53
700.306	41902.3
700.651	41834.06
700.997	41748.63
701.342	41665.25
701.688	41590.67
702.033	41488.08
702.379	41381.64
702.724	41324.24
703.069	41328.31
703.415	40889.45
703.76	40979.16
704.105	40875.89
704.45	40877.7
704.795	40721.77
705.14	40497.82
705.485	40562.22
705.83	40366.07
706.175	40547.31
706.52	40175.79
706.865	40084.72
707.209	39965.63
707.554	39825.97
707.899	40189.35
708.243	39786.65
708.588	39826.88
708.932	39555.7
709.277	39537.62
709.621	39603.61
709.966	39355.02
710.31	39461.24
710.654	39117.74
710.998	39065.09
711.342	39099.21
711.687	39049.27
712.031	38865.32
712.375	38771.54
712.719	38948.71
713.063	38677.3
713.407	38898.31
713.75	38581.26
714.094	38401.15
714.438	38400.93
714.782	38513.24
715.125	38272.34
715.469	38518.89
715.812	38222.62
716.156	38006.13
716.499	38026.47
716.843	38087.04
717.186	37739.47
717.53	37959.13
717.873	37876.87
718.216	37821.73
718.559	37551.68
718.902	37289.32
719.246	37469.42
719.589	37340.39
719.932	37045.25
720.275	37155.31
720.617	37223.33
720.96	37180.17
721.303	37195.31
721.646	37021.75
721.989	36824.47
722.331	37030.57
722.674	36876.22
723.016	36866.28
723.359	36769.1
723.701	36822.89
724.044	36680.74
724.386	36444.14
724.729	36554.42
725.071	36369.57
725.413	36410.7
725.755	36464.03
726.097	36217.03
726.439	36073.53
726.782	36027.2
727.124	36213.41
727.465	36120.53
727.807	36022.91
728.149	35859.75
728.491	35739.3
728.833	35786.3
729.175	35805.06
729.516	35710.6
729.858	35596.48
730.199	35727.32
730.541	35585.63
730.882	35517.84
731.224	35608.91
731.565	35373.21
731.906	35332.76
732.248	35443.49
732.589	35328.92
732.93	35114.01
733.271	35021.81
733.612	35093.44
733.953	35151.07
734.294	34989.49
734.635	34938.19
734.976	34985.65
735.317	34845.31
735.658	34778.87
735.999	34647.35
736.339	34769.38
736.68	34954.91
737.021	34621.59
737.361	34586.56
737.702	34720.34
738.042	34566.45
738.383	34413.01
738.723	34525.1
739.063	34398.09
739.404	34509.05
739.744	34391.31
740.084	34210.98
740.424	34144.54
740.764	34246.68
741.104	34365.1
741.444	34108.83
741.784	34005.11
742.124	34047.59
742.464	33853.93
742.804	33838.11
743.143	33847.37
743.483	33968.5
743.823	33626.59
744.162	33625.91
744.502	33802.85
744.841	33562.18
745.181	33727.38
745.52	33554.27
745.86	33568.74
746.199	33486.48
746.538	33436.99
746.877	33545.91
747.216	33365.8
747.556	33379.36
747.895	33328.52
748.234	33064.79
748.573	33236.99
748.911	33109.54
749.25	33055.08
749.589	33021.18
749.928	33019.6
750.267	33098.47
750.605	32984.34
750.944	32803.78
751.283	32646.27
751.621	32867.29
751.96	32735.99
752.298	32667.29
752.636	32598.14
752.975	32465.94
753.313	32402.89
753.651	32535.09
753.989	32365.83
754.327	32375.77
754.666	32275.66
755.004	32280.41
755.342	32127.87
755.679	32151.82
756.017	31904.15
756.355	32066.63
756.693	31766.52
757.031	31837.03
757.368	31692.18
757.706	31707.54
