Data from hue_280_FLMS001491_00011.txt Node
Date: Tue Feb 07 15:54:53 GMT 2017
User: dcchb
Spectrometer: FLMS00149
Trigger mode: 0
Integration Time (sec): 2.000000E-2
Scans to average: 10
Electric dark correction enabled: true
Nonlinearity correction enabled: false
Boxcar width: 0
XAxis mode: Wavelengths
Number of Pixels in Spectrum: 2048
>>>>>Begin Spectral Data<<<<<
341.393	-29.87
341.776	-29.87
342.16	-29.87
342.543	-56.76
342.927	-72.58
343.31	-68.06
343.693	-59.93
344.077	-65.35
344.46	-43.88
344.843	-56.09
345.226	-44.56
345.61	-27.39
345.993	-9.53
346.376	-25.13
346.759	5.16
347.142	32.5
347.525	36.57
347.908	51.93
348.291	77.02
348.674	83.35
349.057	113.4
349.44	127.64
349.823	140.74
350.206	167.18
350.588	186.85
350.971	189.11
351.354	217.58
351.737	203.57
352.119	246.73
352.502	262.55
352.884	292.15
353.267	274.07
353.65	288.76
354.032	276.79
354.414	292.38
354.797	280.18
355.179	309.55
355.562	329.89
355.944	307.52
356.326	337.8
356.709	335.09
357.091	335.09
357.473	331.7
357.855	308.65
358.238	347.52
358.62	321.31
359.002	317.24
359.384	336.67
359.766	319.72
360.148	329.89
360.53	341.42
360.912	345.49
361.294	332.15
361.676	338.25
362.057	310.46
362.439	338.03
362.821	321.08
363.203	310.91
363.584	323.34
363.966	319.95
364.348	312.04
364.729	314.3
365.111	290.35
365.493	332.6
365.874	320.18
366.256	293.51
366.637	316.56
367.019	308.65
367.4	305.94
367.781	313.62
368.163	296.22
368.544	319.5
368.925	292.61
369.306	324.92
369.688	305.49
370.069	319.05
370.45	291.25
370.831	315.88
371.212	315.43
371.593	284.24
371.974	297.58
372.355	299.38
372.736	305.26
373.117	291.93
373.498	293.51
373.879	312.04
374.26	324.02
374.641	314.98
375.021	290.8
375.402	309.78
375.783	328.76
376.163	310.68
376.544	312.04
376.925	320.4
377.305	303.9
377.686	323.34
378.066	324.47
378.447	323.79
378.827	327.41
379.208	300.06
379.588	323.11
379.968	326.95
380.349	327.41
380.729	342.77
381.109	340.06
381.489	322.89
381.87	347.52
382.25	324.47
382.63	341.64
383.01	330.12
383.39	327.18
383.77	333.73
384.15	354.52
384.53	357.01
384.91	349.78
385.29	351.36
385.67	333.96
386.049	351.59
386.429	338.03
386.809	357.46
387.189	354.3
387.568	359.27
387.948	371.25
388.328	348.88
388.707	359.95
389.087	368.08
389.466	361.08
389.846	349.33
390.225	382.55
390.605	374.86
390.984	366.73
391.363	360.85
391.743	356.11
392.122	363.56
392.501	364.24
392.881	375.99
393.26	382.55
393.639	373.73
394.018	375.99
394.397	385.03
394.776	397.91
395.155	407.18
395.534	372.38
395.913	396.33
396.292	383.9
396.671	418.03
397.05	383.45
397.429	397.69
397.808	380.51
398.186	382.09
398.565	419.38
398.944	398.37
399.323	405.6
399.701	399.95
400.08	429.55
400.458	431.58
400.837	435.43
401.215	444.69
401.594	437.01
401.972	439.72
402.351	428.87
402.729	428.65
403.107	442.21
403.486	446.5
403.864	456.89
404.242	439.95
404.62	447.18
404.999	465.93
405.377	445.37
405.755	453.51
406.133	462.77
406.511	460.96
406.889	467.74
407.267	484.69
407.645	476.33
408.023	480.85
408.401	484.92
408.779	496.44
409.156	508.64
409.534	492.37
409.912	490.79
410.29	519.04
410.667	491.7
411.045	527.18
411.422	552.49
411.8	545.48
412.178	546.16
412.555	565.82
412.933	580.51
413.31	574.41
413.687	578.93
414.065	604.24
414.442	593.39
414.819	587.29
415.197	572.82
415.574	611.69
415.951	615.08
416.328	630.9
416.705	633.84
417.082	655.53
417.46	670.9
417.837	644.23
418.214	659.15
418.591	667.06
418.967	691.24
419.344	696.21
419.721	699.15
420.098	702.31
420.475	696.89
420.852	713.84
421.228	716.55
421.605	745.93
421.982	750.22
422.358	735.53
422.735	784.57
423.111	776.66
423.488	787.51
423.864	802.42
424.241	812.82
424.617	810.56
424.994	824.34
425.37	814.63
425.746	840.84
426.123	843.33
426.499	876.77
426.875	895.08
427.251	898.01
427.627	904.79
428.003	898.47
428.379	919.03
428.756	922.19
429.132	933.04
429.507	965.13
429.883	961.97
430.259	977.33
430.635	974.4
431.011	1000.38
431.387	1008.07
431.763	1038.57
432.138	1055.98
432.514	1041.29
432.89	1065.69
433.265	1079.48
433.641	1111.34
434.016	1083.32
434.392	1129.42
434.767	1130.1
435.143	1138.46
435.518	1160.61
435.894	1145.69
436.269	1192.92
436.644	1231.34
437.02	1234.5
437.395	1225.91
437.77	1236.08
438.145	1296.65
438.52	1285.8
438.895	1306.36
439.271	1309.75
439.646	1332.8
440.021	1357.66
440.395	1347.27
440.77	1315.86
441.145	1332.35
441.52	1397.89
441.895	1396.53
442.27	1420.49
442.645	1380.49
443.019	1417.1
443.394	1422.29
443.769	1449.86
444.143	1430.2
444.518	1452.35
444.892	1472.24
445.267	1477.66
445.641	1478.79
446.016	1490.77
446.39	1476.75
446.764	1506.13
447.139	1504.32
447.513	1524.89
447.887	1557.43
448.262	1506.13
448.636	1529.86
449.01	1525.57
449.384	1540.26
449.758	1556.07
450.132	1604.21
450.506	1596.3
450.88	1613.25
451.254	1603.76
451.628	1618.45
452.002	1626.36
452.376	1644.66
452.75	1640.82
453.123	1662.51
453.497	1693.92
453.871	1679.69
454.244	1702.51
454.618	1712.45
454.992	1732.57
455.365	1715.62
455.739	1807.14
456.112	1799.91
456.486	1815.05
456.859	1830.42
457.232	1856.41
457.606	1835.16
457.979	1849.4
458.352	1886.01
458.725	1894.15
459.099	1930.53
459.472	1939.34
459.845	1955.61
460.218	1981.37
460.591	1989.74
460.964	1978.44
461.337	2067.25
461.71	2053.24
462.083	2069.51
462.456	2045.33
462.829	2083.97
463.201	2107.02
463.574	2110.18
463.947	2117.64
464.32	2191.09
464.692	2169.84
465.065	2182.73
465.438	2237.64
465.81	2241.48
466.183	2284.19
466.555	2289.39
466.928	2314.25
467.3	2327.35
467.672	2363.29
468.045	2412.1
468.417	2428.59
468.789	2411.42
469.161	2423.62
469.534	2416.17
469.906	2501.36
470.278	2559.21
470.65	2506.33
471.022	2542.26
471.394	2626.78
471.766	2603.5
472.138	2629.27
472.51	2693.67
472.882	2719.89
473.253	2733.9
473.625	2765.53
473.997	2821.8
474.369	2782.48
474.74	2853.44
475.112	2882.14
475.484	2904.97
475.855	2978.64
476.227	3007.56
476.598	3063.83
476.97	3112.42
477.341	3120.1
477.713	3179.76
478.084	3180.89
478.455	3248.23
478.827	3239.87
479.198	3344.28
479.569	3323.49
479.94	3420.43
480.311	3450.94
480.682	3499.98
481.053	3506.08
481.424	3589.69
481.795	3580.43
482.166	3620.88
482.537	3685.06
482.908	3755.11
483.279	3802.57
483.65	3817.26
484.021	3878.27
484.391	3900.65
484.762	3926.41
485.133	3951.49
485.503	3977.25
485.874	4047.53
486.244	4079.62
486.615	4164.14
486.985	4209.11
487.356	4260.86
487.726	4253.63
488.097	4326.85
488.467	4329.34
488.837	4413.17
489.207	4456.11
489.578	4503.79
489.948	4518.71
490.318	4545.37
490.688	4605.49
491.058	4652.72
491.428	4709.44
491.798	4737.69
492.168	4797.35
492.538	4803.45
492.908	4812.71
493.278	4890.22
493.648	4937.91
494.017	5000.05
494.387	4940.62
494.757	5008.41
495.126	5029.2
495.496	5058.36
495.866	5125.7
496.235	5165.7
496.605	5187.39
496.974	5201.18
497.344	5243.66
497.713	5315.98
498.082	5251.12
498.452	5348.74
498.821	5319.14
499.19	5343.32
499.559	5398.69
499.928	5344.22
500.298	5423.54
500.667	5433.94
501.036	5493.15
501.405	5503.32
501.774	5449.98
502.143	5513.26
502.512	5547.16
502.88	5627.83
503.249	5615.4
503.618	5623.99
503.987	5659.7
504.356	5711.9
504.724	5680.03
505.093	5701.95
505.462	5754.61
505.83	5736.98
506.199	5778.11
506.567	5816.08
506.936	5781.5
507.304	5871.89
507.672	5856.75
508.041	5850.43
508.409	5896.98
508.777	5899.01
509.145	5958.45
509.514	5965.22
509.882	5990.08
510.25	6025.79
510.618	6019.69
510.986	6077.31
511.354	6049.97
511.722	6139.01
512.09	6149.63
512.458	6120.25
512.826	6200.92
513.193	6141.04
513.561	6177.2
513.929	6230.75
514.297	6210.19
514.664	6287.25
515.032	6291.09
515.4	6328.6
515.767	6332.45
516.135	6362.5
516.502	6310.07
516.869	6387.81
517.237	6385.33
517.604	6392.56
517.972	6427.59
518.339	6435.04
518.706	6431.2
519.073	6499.22
519.44	6501.26
519.808	6517.3
520.175	6519.56
520.542	6578.54
520.909	6623.06
521.276	6600.91
521.643	6678.2
522.009	6650.63
522.376	6732.44
522.743	6739.44
523.11	6799.1
523.477	6797.97
523.843	6768.59
524.21	6905.54
524.577	6887.46
524.943	6897.18
525.31	6897.63
525.676	6952.77
526.043	6972.88
526.409	6998.19
526.776	7039.09
527.142	7037.29
527.508	7028.7
527.874	7192.76
528.241	7164.52
528.607	7155.02
528.973	7194.34
529.339	7177.62
529.705	7282.25
530.071	7297.39
530.437	7285.19
530.803	7408.8
531.169	7417.39
531.535	7347.56
531.901	7397.5
532.267	7421.91
532.632	7418.97
532.998	7485.64
533.364	7481.57
533.73	7551.62
534.095	7540.32
534.461	7567.89
534.826	7604.28
535.192	7641.56
535.557	7659.19
535.923	7644.95
536.288	7642.02
536.653	7755.46
537.019	7599.08
537.384	7733.99
537.749	7678.17
538.114	7751.62
538.479	7681.11
538.845	7822.12
539.21	7771.28
539.575	7813.54
539.94	7830.71
540.305	7911.61
540.67	7868.23
541.034	7883.14
541.399	7901.22
541.764	7910.48
542.129	7916.59
542.494	7940.99
542.858	7903.7
543.223	7981.22
543.587	8069.35
543.952	8031.84
544.316	7950.03
544.681	8014.21
545.045	8042.91
545.41	8076.36
545.774	8075.68
546.138	8119.29
546.503	8091.5
546.867	8121.1
547.231	8149.12
547.595	8182.79
547.959	8166.07
548.324	8187.99
548.688	8190.48
549.052	8178.73
549.416	8256.01
549.779	8258.5
550.143	8239.29
550.507	8279.51
550.871	8282.23
551.235	8254.66
551.599	8359.96
551.962	8350.25
552.326	8366.29
552.689	8417.36
553.053	8316.8
553.417	8439.28
553.78	8509.56
554.143	8417.82
554.507	8442
554.87	8439.28
555.234	8552.5
555.597	8484.25
555.96	8504.37
556.323	8515.89
556.686	8498.72
557.05	8574.2
557.413	8593.4
557.776	8573.52
558.139	8684.48
558.502	8715.21
558.865	8647.64
559.228	8715.21
559.59	8739.16
559.953	8796.79
560.316	8844.47
560.679	8827.3
561.041	8846.28
561.404	8922.43
561.767	8931.7
562.129	8888.54
562.492	9014.41
562.854	8986.16
563.217	8940.74
563.579	8977.57
563.941	9095.31
564.304	9076.78
564.666	9182.09
565.028	9127.63
565.39	9151.58
565.753	9218.92
566.115	9217.34
566.477	9314.29
566.839	9294.63
567.201	9336.21
567.563	9370.56
567.925	9432.03
568.287	9448.75
568.648	9468.18
569.01	9476.09
569.372	9515.87
569.734	9566.71
570.095	9615.3
570.457	9563.77
570.819	9662.75
571.18	9673.6
571.542	9737.78
571.903	9674.05
572.265	9785.01
572.626	9719.7
572.987	9830.89
573.349	9801.96
573.71	9947.04
574.071	9886.93
574.432	9936.87
574.794	10076.3
575.155	9956.76
575.516	10022.07
575.877	10154.27
576.238	10099.58
576.599	10190.42
576.96	10220.93
577.32	10203.31
577.681	10354.49
578.042	10306.13
578.403	10279.01
578.763	10407.14
579.124	10468.83
579.485	10446.69
579.845	10570.53
580.206	10481.26
580.566	10590.87
580.927	10674.93
581.287	10749.73
581.648	10731.43
582.008	10845.77
582.368	10806.68
582.728	10959.22
583.089	10939.56
583.449	11012.32
583.809	11038.09
584.169	11149.95
584.529	11106.33
584.889	11247.8
585.249	11292.54
585.609	11281.47
585.969	11363.95
586.329	11372.99
586.688	11514.46
587.048	11586.55
587.408	11557.62
587.768	11630.61
588.127	11728.24
588.487	11743.83
588.846	11964.39
589.206	11840.55
589.565	11963.94
589.925	12139.3
590.284	12104.95
590.643	12155.12
591.003	12234.44
591.362	12387.88
591.721	12413.42
592.08	12466.75
592.44	12560.98
592.799	12622
593.158	12650.7
593.517	12724.82
593.876	12800.98
594.235	12744.93
594.593	12933.18
594.952	13009.11
595.311	12964.36
595.67	13088.88
596.029	13224.69
596.387	13278.25
596.746	13335.88
597.104	13330
597.463	13349.21
597.822	13486.61
598.18	13479.38
598.538	13514.63
598.897	13649.99
599.255	13653.38
599.613	13860.61
599.972	13821.06
600.33	13918.24
600.688	13925.24
601.046	13963.88
601.404	14035.52
601.762	14036.2
602.12	14230.77
602.478	14169.53
602.836	14276.42
603.194	14199.13
603.552	14259.7
603.91	14240.94
604.268	14387.6
604.625	14359.58
604.983	14419.01
605.341	14414.49
605.698	14562.96
606.056	14568.39
606.413	14504.44
606.771	14655.62
607.128	14701.94
607.485	14677.31
607.843	14664.2
608.2	14768.38
608.557	14829.4
608.914	14837.53
609.272	14932.22
609.629	14875.27
609.986	15050.64
610.343	15011.31
610.7	15141.03
611.057	15033.23
611.414	15164.98
611.771	15119.79
612.127	15271.87
612.484	15151.2
612.841	15291.76
613.198	15241.36
613.554	15299.44
613.911	15380.12
614.267	15328.37
614.624	15349.16
614.98	15421.25
615.337	15566.78
615.693	15483.84
616.05	15571.98
616.406	15628.7
616.762	15595.71
617.118	15577.63
617.475	15592.99
617.831	15621.02
618.187	15654.69
618.543	15698.08
618.899	15757.06
619.255	15716.61
619.611	15725.19
619.967	15793.89
620.323	15793.67
620.678	15772.88
621.034	15774.23
621.39	15716.15
621.746	15724.52
622.101	15929.26
622.457	15749.15
622.812	15873.89
623.168	15963.15
623.523	15947.11
623.879	15992.98
624.234	15893.78
624.589	15875.92
624.945	15991.18
625.3	16018.07
625.655	15990.05
626.01	16062.13
626.365	16030.04
626.72	15960.22
627.075	16010.84
627.43	15949.37
627.785	15922.48
628.14	16035.02
628.495	16070.72
628.85	15946.43
629.205	15979.88
629.559	15976.49
629.914	15933.1
630.269	15990.95
630.623	15959.54
630.978	15845.87
631.332	15952.53
631.687	15942.82
632.041	15911.18
632.396	16035.92
632.75	15854
633.104	15800.22
633.459	15764.29
633.813	15686.78
634.167	15876.83
634.521	15828.69
634.875	15776.49
635.229	15854.68
635.583	15656.27
635.937	15763.38
636.291	15643.61
636.645	15745.08
636.999	15756.38
637.352	15689.26
637.706	15592.09
638.06	15687.45
638.413	15665.76
638.767	15610.39
639.121	15607.68
639.474	15532.66
639.828	15516.16
640.181	15585.76
640.534	15574.01
640.888	15529.27
641.241	15498.31
641.594	15580.56
641.947	15503.05
642.301	15550.06
642.654	15518.87
643.007	15551.19
643.36	15476.39
643.713	15392.1
644.066	15496.5
644.419	15360.68
644.771	15331.31
645.124	15090.18
645.477	15059.67
645.83	15067.36
646.182	15002.5
646.535	14934.48
646.888	14933.58
647.24	14950.3
647.593	14961.15
647.945	14951.65
648.298	14960.24
648.65	14894.03
649.002	14892.45
649.355	14924.08
649.707	14932.45
650.059	15113.46
650.411	15255.83
650.763	15179.45
651.115	15343.28
651.467	15335.83
651.819	15334.24
652.171	15343.28
652.523	15197.98
652.875	15329.72
653.227	15247.92
653.578	15395.26
653.93	15266.45
654.282	15294.92
654.633	15280.01
654.985	15302.38
655.337	15383.06
655.688	15254.7
656.039	15422.83
656.391	15203.85
656.742	15280.01
657.094	15252.44
657.445	15359.1
657.796	15333.34
658.147	15314.81
658.498	15287.92
658.849	15316.84
659.2	15282.27
659.551	15196.62
659.902	15280.01
660.253	15245.66
660.604	15316.62
660.955	15307.13
661.306	15368.82
661.656	15296.28
662.007	15326.11
662.358	15298.54
662.708	15280.23
663.059	15294.02
663.409	15270.97
663.76	15384.19
664.11	15296.05
664.461	15400.23
664.811	15418.76
665.161	15409.95
665.511	15369.5
665.862	15376.73
666.212	15450.62
666.562	15459.66
666.912	15407.91
667.262	15393.45
667.612	15360.68
667.962	15398.87
668.312	15354.81
668.662	15474.8
669.011	15371.53
669.361	15403.85
669.711	15417.41
670.06	15334.47
670.41	15298.76
670.76	15365.88
671.109	15325.66
671.459	15364.53
671.808	15252.66
672.157	15288.14
672.507	15184.87
672.856	15211.31
673.205	15212.66
673.554	15253.34
673.904	15226.22
674.253	15250.86
674.602	15210.41
674.951	15055.61
675.3	14997.08
675.649	15148.94
675.998	15142.84
676.346	15210.18
676.695	15165.89
677.044	15084.08
677.393	15049.96
677.741	15085.21
678.09	15098.09
678.438	15064.42
678.787	15150.52
679.135	15047.02
679.484	15040.24
679.832	15052.22
680.181	14860.36
680.529	14933.58
680.877	14917.08
681.225	14834.6
681.573	15045.44
681.922	14828.27
682.27	14900.81
682.618	14828.72
682.966	14815.61
683.314	14806.8
683.661	14743.98
684.009	14715.28
684.357	14627.14
684.705	14625.11
685.053	14562.96
685.4	14590.99
685.748	14583.08
686.095	14544.21
686.443	14421.95
686.79	14465.11
687.138	14381.27
687.485	14374.49
687.832	14334.04
688.18	14315.51
688.527	14339.92
688.874	14230.54
689.221	14209.53
689.568	14213.14
689.915	14167.49
690.262	14144.44
690.609	14108.06
690.956	14033.49
691.303	14032.81
691.65	14022.19
691.997	14007.95
692.344	13829.65
692.69	13910.1
693.037	13839.14
693.383	13708.98
693.73	13747.17
694.077	13660.16
694.423	13624.01
694.769	13614.74
695.116	13511.01
695.462	13497.91
695.808	13492.71
696.155	13419.94
696.501	13407.51
696.847	13425.82
697.193	13185.83
697.539	13265.82
697.885	13153.51
698.231	13071.48
698.577	13171.81
698.923	13051.37
699.269	12951.03
699.614	12866.29
699.96	12869.45
700.306	12888.66
700.651	12800.3
700.997	12791.03
701.342	12693.18
701.688	12646.86
702.033	12658.61
702.379	12649.57
702.724	12587.65
703.069	12616.58
703.415	12386.52
703.76	12420.2
704.105	12365.73
704.45	12353.53
704.795	12267.21
705.14	12180.2
705.485	12234.89
705.83	12177.72
706.175	12130.71
706.52	12128.9
706.865	12089.81
707.209	12008.23
707.554	12055.91
707.899	12018.62
708.243	11969.36
708.588	11945.18
708.932	11808.23
709.277	11878.74
709.621	11880.78
709.966	11758.97
710.31	11750.61
710.654	11656.15
710.998	11669.71
711.342	11678.52
711.687	11641.23
712.031	11582.03
712.375	11523.5
712.719	11590.39
713.063	11492.31
713.407	11568.02
713.75	11467.45
714.094	11444.4
714.438	11455.7
714.782	11483.95
715.125	11382.94
715.469	11420.9
715.812	11300
716.156	11295.93
716.499	11269.94
716.843	11311.52
717.186	11241.47
717.53	11291.41
717.873	11278.98
718.216	11206.89
718.559	11171.87
718.902	11103.62
719.246	11158.53
719.589	11106.11
719.932	11048.71
720.275	11093.23
720.617	11064.75
720.96	11007.8
721.303	10987.24
721.646	11092.1
721.989	11012.32
722.331	10977.07
722.674	10943.4
723.016	10967.8
723.359	10868.82
723.701	11002.83
724.044	10858.43
724.386	10750.64
724.729	10876.73
725.071	10886.68
725.413	10867.92
725.755	10841.03
726.097	10810.75
726.439	10858.88
726.782	10826.79
727.124	10859.56
727.465	10767.36
727.807	10849.16
728.149	10777.75
728.491	10770.97
728.833	10802.61
729.175	10789.5
729.516	10781.6
729.858	10706.79
730.199	10754.48
730.541	10802.16
730.882	10813.46
731.224	10782.72
731.565	10751.31
731.906	10705.89
732.248	10746.34
732.589	10741.14
732.93	10686.46
733.271	10647.81
733.612	10693.91
733.953	10781.14
734.294	10718.09
734.635	10686.23
734.976	10701.37
735.317	10686.91
735.658	10714.25
735.999	10646.91
736.339	10728.26
736.68	10679.9
737.021	10713.12
737.361	10639.68
737.702	10816.62
738.042	10692.78
738.383	10730.07
738.723	10719.9
739.063	10690.98
739.404	10728.26
739.744	10766
740.084	10722.61
740.424	10800.58
740.764	10810.07
741.104	10817.98
741.444	10721.26
741.784	10720.81
742.124	10843.51
742.464	10808.04
742.804	10885.55
743.143	10899.56
743.483	10873.57
743.823	10933.68
744.162	10952.89
744.502	10952.21
744.841	10967.35
745.181	11015.04
745.52	11064.98
745.86	11136.39
746.199	11149.04
746.538	11193.34
746.877	11207.8
747.216	11255.25
747.556	11327.12
747.895	11359.21
748.234	11410.05
748.573	11518.75
748.911	11595.81
749.25	11678.97
749.589	11705.64
749.928	11735.69
750.267	11824.96
750.605	11881.23
750.944	11999.19
751.283	12008
751.621	12178.62
751.96	12229.24
752.298	12313.98
752.636	12352.4
752.975	12450.03
753.313	12523.47
753.651	12750.13
753.989	12838.04
754.327	12874.2
754.666	12980.41
755.004	13110.57
755.342	13202.77
755.679	13337.23
756.017	13381.3
756.355	13698.35
756.693	13670.56
757.031	13860.61
757.368	13974.05
757.706	14135.63
758.044	14176.08
758.381	14386.92
758.719	14526.58
