Data from hue_34_FLMS001491_00024.txt Node
Date: Tue Feb 07 17:25:23 GMT 2017
User: dcchb
Spectrometer: FLMS00149
Trigger mode: 0
Integration Time (sec): 2.000000E-2
Scans to average: 10
Electric dark correction enabled: true
Nonlinearity correction enabled: false
Boxcar width: 0
XAxis mode: Wavelengths
Number of Pixels in Spectrum: 2048
>>>>>Begin Spectral Data<<<<<
341.393	-23.62
341.776	-23.62
342.16	-23.62
342.543	-65.65
342.927	-57.96
343.31	-59.77
343.693	-76.5
344.077	-72.65
344.46	-73.56
344.843	-30.17
345.226	-43.05
345.61	-51.64
345.993	-17.29
346.376	-6.44
346.759	15.25
347.142	20.23
347.525	33.78
347.908	71.75
348.291	86.21
348.674	81.92
349.057	121.92
349.44	138.19
349.823	149.71
350.206	161.69
350.588	213.89
350.971	210.5
351.354	227.23
351.737	226.32
352.119	255.7
352.502	241.01
352.884	281.69
353.267	299.31
353.65	285.76
354.032	290.27
354.414	300.67
354.797	292.76
355.179	310.84
355.562	323.49
355.944	336.15
356.326	331.18
356.709	318.52
357.091	329.14
357.473	340.67
357.855	356.49
358.238	358.75
358.62	341.12
359.002	353.55
359.384	321.91
359.766	367.33
360.148	337.28
360.53	351.06
360.912	322.82
361.294	342.25
361.676	332.76
362.057	341.57
362.439	323.49
362.821	328.92
363.203	336.38
363.584	332.76
363.966	319.2
364.348	337.05
364.729	322.59
365.111	331.18
365.493	324.17
365.874	323.04
366.256	317.17
366.637	319.65
367.019	299.54
367.4	316.04
367.781	304.29
368.163	308.58
368.544	313.1
368.925	311.07
369.306	323.27
369.688	324.85
370.069	314.23
370.45	305.64
370.831	339.99
371.212	328.24
371.593	317.39
371.974	312.87
372.355	306.09
372.736	321.46
373.117	320.56
373.498	306.55
373.879	328.24
374.26	305.42
374.641	310.39
375.021	320.78
375.402	342.02
375.783	330.05
376.163	329.37
376.544	315.81
376.925	336.38
377.305	331.63
377.686	337.73
378.066	304.51
378.447	336.15
378.827	331.18
379.208	328.69
379.588	333.44
379.968	301.35
380.349	315.81
380.729	328.47
381.109	352.42
381.489	356.49
381.87	355.58
382.25	326.66
382.63	321.91
383.01	349.03
383.39	341.35
383.77	341.57
384.15	366.66
384.53	343.83
384.91	340.67
385.29	354.68
385.67	369.14
386.049	333.21
386.429	347.22
386.809	368.69
387.189	347.67
387.568	360.33
387.948	342.48
388.328	371.4
388.707	342.25
389.087	339.77
389.466	359.2
389.846	372.76
390.225	361.01
390.605	368.24
390.984	353.55
391.363	348.13
391.743	356.26
392.122	368.46
392.501	354.23
392.881	375.7
393.26	373.66
393.639	372.08
394.018	384.06
394.397	372.08
394.776	381.12
395.155	371.4
395.534	365.53
395.913	373.21
396.292	361.91
396.671	382.93
397.05	380.44
397.429	376.37
397.808	412.53
398.186	383.38
398.565	375.02
398.944	404.85
399.323	379.76
399.701	393.32
400.08	381.57
400.458	405.3
400.837	390.16
401.215	396.26
401.594	388.8
401.972	400.1
402.351	407.33
402.729	403.72
403.107	403.04
403.486	403.94
403.864	407.79
404.242	416.83
404.62	424.73
404.999	413.21
405.377	436.49
405.755	414.34
406.133	425.86
406.511	430.38
406.889	426.54
407.267	416.15
407.645	435.58
408.023	427.67
408.401	433.55
408.779	427.67
409.156	421.57
409.534	429.93
409.912	438.52
410.29	457.28
410.667	442.14
411.045	454.11
411.422	474.68
411.8	448.46
412.178	435.58
412.555	452.08
412.933	469.93
413.31	478.52
413.687	477.39
414.065	483.94
414.442	488.46
414.819	453.89
415.197	495.69
415.574	466.99
415.951	474.22
416.328	482.36
416.705	488.24
417.082	490.5
417.46	497.28
417.837	502.92
418.214	501.57
418.591	479.42
418.967	487.56
419.344	509.93
419.721	502.25
420.098	506.99
420.475	538.18
420.852	495.69
421.228	512.64
421.605	521
421.982	506.99
422.358	519.2
422.735	528.23
423.111	541.79
423.488	535.01
423.864	523.49
424.241	551.28
424.617	553.32
424.994	563.04
425.37	554.45
425.746	558.97
426.123	562.81
426.499	549.25
426.875	585.41
427.251	570.72
427.627	568.69
428.003	564.17
428.379	584.73
428.756	559.19
429.132	579.98
429.507	580.89
429.883	606.42
430.259	616.37
430.635	608.46
431.011	619.53
431.387	614.11
431.763	612.3
432.138	617.5
432.514	627.22
432.89	625.63
433.265	642.81
433.641	643.03
434.016	641.9
434.392	658.17
434.767	653.2
435.143	644.62
435.518	630.15
435.894	683.26
436.269	671.06
436.644	672.41
437.02	676.48
437.395	676.03
437.77	708.34
438.145	690.72
438.52	693.88
438.895	718.96
439.271	709.92
439.646	719.87
440.021	722.35
440.395	721.45
440.77	739.75
441.145	711.96
441.52	749.25
441.895	747.89
442.27	746.99
442.645	738.85
443.019	744.5
443.394	761
443.769	786.31
444.143	767.55
444.518	763.93
444.892	764.84
445.267	763.26
445.641	758.29
446.016	784.27
446.39	795.57
446.764	795.57
447.139	793.31
447.513	792.86
447.887	796.93
448.262	805.97
448.636	807.78
449.01	803.03
449.384	814.33
449.758	834.89
450.132	827.44
450.506	835.8
450.88	858.62
451.254	856.59
451.628	833.31
452.002	874.89
452.376	871.28
452.75	845.29
453.123	877.83
453.497	876.47
453.871	894.55
454.244	903.82
454.618	887.77
454.992	913.54
455.365	925.96
455.739	939.07
456.112	954.44
456.486	979.3
456.859	981.1
457.232	989.92
457.606	974.55
457.979	996.47
458.352	998.73
458.725	1013.42
459.099	1022.46
459.472	1041.89
459.845	1026.98
460.218	1058.84
460.591	1067.66
460.964	1059.52
461.337	1072.18
461.71	1094.32
462.083	1110.37
462.456	1106.52
462.829	1102.23
463.201	1160.53
463.574	1137.03
463.947	1163.92
464.32	1168.9
464.692	1179.97
465.065	1188.1
465.438	1186.97
465.81	1223.13
466.183	1231.95
466.555	1272.4
466.928	1264.49
467.3	1238.05
467.672	1297.25
468.045	1331.83
468.417	1320.76
468.789	1365.27
469.161	1366.18
469.534	1402.56
469.906	1390.58
470.278	1418.83
470.65	1445.72
471.022	1482.56
471.394	1506.29
471.766	1510.13
472.138	1548.55
472.51	1541.32
472.882	1621.54
473.253	1649.34
473.625	1626.96
473.997	1705.38
474.369	1737.24
474.74	1748.09
475.112	1755.1
475.484	1802.55
475.855	1837.13
476.227	1886.84
476.598	1946.05
476.97	1981.98
477.341	2008.42
477.713	2056.33
478.084	2082.54
478.455	2185.37
478.827	2195.31
479.198	2282.99
479.569	2311.92
479.94	2341.29
480.311	2421.97
480.682	2500.84
481.053	2516.66
481.424	2595.98
481.795	2634.17
482.166	2718.69
482.537	2789.64
482.908	2853.6
483.279	2901.51
483.65	2999.81
484.021	3078.68
484.391	3149.41
484.762	3181.05
485.133	3245.23
485.503	3286.58
485.874	3406.35
486.244	3466.69
486.615	3579.23
486.985	3632.56
487.356	3733.35
487.726	3827.58
488.097	3938.77
488.467	3988.71
488.837	4091.98
489.207	4121.36
489.578	4253.79
489.948	4305.31
490.318	4377.17
490.688	4522.93
491.058	4583.5
491.428	4669.82
491.798	4759.54
492.168	4908.68
492.538	4967.67
492.908	5015.8
493.278	5170.6
493.648	5197.72
494.017	5306.19
494.387	5335.34
494.757	5435
495.126	5523.58
495.496	5616.46
495.866	5657.82
496.235	5795.67
496.605	5881.31
496.974	5935.1
497.344	5987.07
497.713	6044.25
498.082	6114.98
498.452	6226.62
498.821	6283.79
499.19	6300.96
499.559	6372.83
499.928	6508.87
500.298	6524.24
500.667	6620.28
501.036	6653.27
501.405	6740.27
501.774	6817.33
502.143	6855.07
502.512	6909.76
502.88	7005.35
503.249	7100.72
503.618	7083.99
503.987	7177.1
504.356	7203.31
504.724	7281.05
505.093	7301.62
505.462	7364.89
505.83	7512.68
506.199	7555.85
506.567	7662.51
506.936	7692.79
507.304	7748.61
507.672	7782.96
508.041	7811.66
508.409	7914.71
508.777	7980.02
509.145	8034.7
509.514	7996.96
509.882	8082.39
510.25	8134.59
510.618	8288.03
510.986	8274.02
511.354	8341.14
511.722	8415.71
512.09	8436.73
512.458	8432.66
512.826	8530.74
513.193	8659.32
513.561	8580.23
513.929	8723.95
514.297	8761.01
514.664	8784.97
515.032	8862.7
515.4	8888.47
515.767	9058.86
516.135	8987.22
516.502	8980.22
516.869	9182.47
517.237	9109.03
517.604	9145.41
517.972	9200.78
518.339	9293.65
518.706	9255.69
519.073	9330.72
519.44	9356.93
519.808	9426.76
520.175	9461.79
520.542	9603.02
520.909	9640.09
521.276	9682.57
521.643	9754.43
522.009	9799.63
522.376	9768.67
522.743	9915.56
523.11	10001.88
523.477	10075.55
523.843	10116.68
524.21	10195.55
524.577	10301.54
524.943	10353.74
525.31	10302.67
525.676	10495.66
526.043	10514.64
526.409	10578.37
526.776	10605.26
527.142	10636.67
527.508	10718.7
527.874	10802.54
528.241	10821.75
528.607	10908.3
528.973	10949.66
529.339	10966.15
529.705	11071.23
530.071	11185.58
530.437	11223.77
530.803	11283.88
531.169	11391
531.535	11309.87
531.901	11397.1
532.267	11430.77
532.632	11466.7
532.998	11562.29
533.364	11621.73
533.73	11687.49
534.095	11805.23
534.461	11772.68
534.826	11868.73
535.192	11871.67
535.557	12011.1
535.923	11987.59
536.288	12011.55
536.653	12146.23
537.019	12067.59
537.384	12182.39
537.749	12243.86
538.114	12224.2
538.479	12273.91
538.845	12330.18
539.21	12354.14
539.575	12445.44
539.94	12483.4
540.305	12594.81
540.67	12581.25
541.034	12595.49
541.399	12664.64
541.764	12659.67
542.129	12734.69
542.494	12726.78
542.858	12921.58
543.223	12803.62
543.587	12931.75
543.952	12954.57
544.316	13023.05
544.681	13095.14
545.045	13107.79
545.41	13205.42
545.774	13251.52
546.138	13343.94
546.503	13321.8
546.867	13314.79
547.231	13460.55
547.595	13484.5
547.959	13495.58
548.324	13502.13
548.688	13575.35
549.052	13557.5
549.416	13649.47
549.779	13616.93
550.143	13727.89
550.507	13826.19
550.871	13858.73
551.235	13867.32
551.599	13912.06
551.962	14044.26
552.326	14041.33
552.689	14127.65
553.053	14064.6
553.417	14123.13
553.78	14341.66
554.143	14216.24
554.507	14331.94
554.87	14311.38
555.234	14515.66
555.597	14461.88
555.96	14526.06
556.323	14554.98
556.686	14585.27
557.05	14703.23
557.413	14761.53
557.776	14758.37
558.139	14890.34
558.502	14805.37
558.865	14885.37
559.228	14893.28
559.59	15085.59
559.953	15051.47
560.316	15236.55
560.679	15147.96
561.041	15308.86
561.404	15429.99
561.767	15474.51
562.129	15388.18
562.492	15507.28
562.854	15446.26
563.217	15528.29
563.579	15600.15
563.941	15678.57
564.304	15640.61
564.666	15816.42
565.028	15824.56
565.39	15843.09
565.753	15960.15
566.115	16105.23
566.477	16126.47
566.839	16066.81
567.201	16203.08
567.563	16290.98
567.925	16277.2
568.287	16429.51
568.648	16386.8
569.01	16481.49
569.372	16613.69
569.734	16647.81
570.095	16730.97
570.457	16867.69
570.819	16890.97
571.18	16999.21
571.542	16959.22
571.903	17012.32
572.265	17149.04
572.626	17238.08
572.987	17360.33
573.349	17312.43
573.71	17477.85
574.071	17585.87
574.432	17540.22
574.794	17881.45
575.155	17783.15
575.516	17833.09
575.877	17987.44
576.238	18049.13
576.599	18196.47
576.96	18285.96
577.32	18300.65
577.681	18454.77
578.042	18571.15
578.403	18664.26
578.763	18847.3
579.124	18934.76
579.485	19013.85
579.845	19344.24
580.206	19332.49
580.566	19519.83
580.927	19637.79
581.287	19864.45
581.648	19902.87
582.008	20254.72
582.368	20302.63
582.728	20499.24
583.089	20546.01
583.449	20811.09
583.809	21072.1
584.169	21192.78
584.529	21323.17
584.889	21714.34
585.249	21825.08
585.609	22018.52
585.969	22324.27
586.329	22475.45
586.688	22729.01
587.048	22915.67
587.408	22992.5
587.768	23391.14
588.127	23561.75
588.487	23697.57
588.846	24154.05
589.206	24150.66
589.565	24535.97
589.925	24724.21
590.284	24883.07
590.643	25194.93
591.003	25437.18
591.362	25818.42
591.721	25957.4
592.08	26102.25
592.44	26412.75
592.799	26686.19
593.158	26909.01
593.517	27174.99
593.876	27292.05
594.235	27619.05
594.593	27843.22
594.952	28235.75
595.311	28291.57
595.67	28626.03
596.029	29002.29
596.387	29344.2
596.746	29438.66
597.104	29736.96
597.463	29888.37
597.822	30176.04
598.18	30385.3
598.538	30504.85
598.897	30873.43
599.255	30915.01
599.613	31545.27
599.972	31573.97
600.33	31829.56
600.688	31734.42
601.046	32373.73
601.404	32449.88
601.762	32647.39
602.12	32925.57
602.478	33086.7
602.836	33229.3
603.194	33421.83
603.552	33481.04
603.91	33594.03
604.268	33955.15
604.625	33992.67
604.983	34318.31
605.341	34435.59
605.698	34705.19
606.056	34896.37
606.413	35142.01
606.771	35278.96
607.128	35547.43
607.485	35425.85
607.843	35707.87
608.2	36148.32
608.557	36291.59
608.914	36333.17
609.272	36566.84
609.629	36622.2
609.986	36840.95
610.343	36907.39
610.7	37417.89
611.057	37433.03
611.414	37373.59
611.771	37696.97
612.127	37869.63
612.484	37975.39
612.841	38086.34
613.198	38077.98
613.554	38300.57
613.911	38490.17
614.267	38730.62
614.624	38612.43
614.98	38945.98
615.337	39071.85
615.693	39166.77
616.05	39100.55
616.406	39533.99
616.762	39429.58
617.118	39435.69
617.475	39647.88
617.831	39759.07
618.187	39947.99
618.543	39951.6
618.899	40240.18
619.255	40322.22
619.611	40287.87
619.967	40473.4
620.323	40752.49
620.678	40522.44
621.034	40453.51
621.39	40583.9
621.746	40725.37
622.101	41011.69
622.457	40846.27
622.812	41025.02
623.168	41007.62
623.523	41039.03
623.879	41354.28
624.234	41119.94
624.589	41388.4
624.945	41363.55
625.3	41582.97
625.655	41363.32
626.01	41617.1
626.365	41702.75
626.72	41580.04
627.075	41645.35
627.43	41513.37
627.785	41682.86
628.14	41785.45
628.495	41875.85
628.85	41660.26
629.205	41737.55
629.559	41990.65
629.914	41749.75
630.269	41905.45
630.623	41806.7
630.978	41804.89
631.332	41977.31
631.687	41992.68
632.041	41789.75
632.396	42071.55
632.75	41898.67
633.104	41977.31
633.459	41855.74
633.813	41869.97
634.167	41950.42
634.521	41947.48
634.875	41916.3
635.229	41871.78
635.583	41853.48
635.937	41815.74
636.291	41827.49
636.645	41789.52
636.999	41630.88
637.352	41877.66
637.706	41658.9
638.06	41843.98
638.413	41816.19
638.767	41722.18
639.121	41715.85
639.474	41571.45
639.828	41620.71
640.181	41722.41
640.534	41639.92
640.888	41489.87
641.241	41423.2
641.594	41401.96
641.947	41578.23
642.301	41412.58
642.654	41491
643.007	41549.08
643.36	41304.11
643.713	41424.11
644.066	41526.93
644.419	41305.24
644.771	41116.09
645.124	40784.35
645.477	40768.98
645.83	40615.54
646.182	40350.46
646.535	40310.24
646.888	40387.3
647.24	40140.53
647.593	40421.2
647.945	40234.99
648.298	40147.31
648.65	40013.07
649.002	39925.16
649.355	40287.42
649.707	40028.89
650.059	40254.42
650.411	40772.15
650.763	40689.66
651.115	41115.19
651.467	40841.3
651.819	40971.47
652.171	40843.78
652.523	40892.6
652.875	40820.51
653.227	40629.1
653.578	40874.97
653.93	40759.95
654.282	40749.55
654.633	40503.23
654.985	40692.38
655.337	40763.33
655.688	40710.23
656.039	40873.39
656.391	40430.91
656.742	40706.39
657.094	40525.83
657.445	40685.82
657.796	40693.73
658.147	40601.08
658.498	40517.24
658.849	40667.97
659.2	40525.83
659.551	40474.53
659.902	40538.26
660.253	40556.79
660.604	40671.36
660.955	40263.24
661.306	40585.49
661.656	40429.11
662.007	40463.23
662.358	40419.84
662.708	40490.8
663.059	40447.41
663.409	40263.69
663.76	40541.42
664.11	40487.64
664.461	40603.34
664.811	40566.96
665.161	40490.12
665.511	40420.97
665.862	40473.17
666.212	40433.63
666.562	40515.43
666.912	40381.42
667.262	40356.57
667.612	40314.76
667.962	40361.54
668.312	40240.86
668.662	40480.4
669.011	40373.74
669.361	40288.09
669.711	40301.88
670.06	40242.22
670.41	40197.47
670.76	40209.9
671.109	40267.53
671.459	40247.42
671.808	40194.08
672.157	40239.05
672.507	39993.64
672.856	39992.73
673.205	40164.93
673.554	40220.98
673.904	40163.35
674.253	40223.01
674.602	40223.91
674.951	39594.55
675.3	39349.36
675.649	40015.11
675.998	40004.26
676.346	40021.66
676.695	40155.67
677.044	39849.91
677.393	39919.74
677.741	39956.35
678.09	39773.98
678.438	39653.76
678.787	39977.14
679.135	39832.29
679.484	39624.16
679.832	39645.85
680.181	39552.07
680.529	39658.28
680.877	39493.09
681.225	39457.38
681.573	39529.47
681.922	39435.91
682.27	39184.17
682.618	39363.6
682.966	39313.2
683.314	39346.65
683.661	39119.99
684.009	39089.25
684.357	38970.61
684.705	39002.93
685.053	39066.2
685.4	39018.52
685.748	38708.02
686.095	38718.19
686.443	38495.15
686.79	38551.64
687.138	38716.84
687.485	38635.26
687.832	38345.09
688.18	38443.4
688.527	38179.22
688.874	38310.52
689.221	38149.84
689.568	37963.86
689.915	38024.88
690.262	37952.79
690.609	37832.79
690.956	37656.98
691.303	37648.16
691.65	37422.41
691.997	37607.03
692.344	37278.45
692.69	37235.97
693.037	37355.29
693.383	37082.08
693.73	37225.57
694.077	36947.62
694.423	36916.43
694.769	36868.52
695.116	36750.11
695.462	36793.04
695.808	36642.54
696.155	36728.41
696.501	36443.45
696.847	36455.65
697.193	36115.77
697.539	36402.55
697.885	36045.49
698.231	35885.05
698.577	35968.21
698.923	35859.74
699.269	35755.78
699.614	35623.58
699.96	35583.13
700.306	35589.69
700.651	35436.7
700.997	35158.96
701.342	35155.12
701.688	35116.7
702.033	35020.66
702.379	35065.63
702.724	34802.59
703.069	34846.43
703.415	34537.28
703.76	34549.94
704.105	34492.77
704.45	34551.97
704.795	34232.43
705.14	34178.65
705.485	34207.12
705.83	34081.48
706.175	34070.4
706.52	34011.65
706.865	33796.96
707.209	33873.57
707.554	33767.59
707.899	33857.75
708.243	33579.34
708.588	33551.32
708.932	33312.23
709.277	33338.22
709.621	33395.62
709.966	33185.46
710.31	33232.01
710.654	32909.98
710.998	32894.39
711.342	33097.77
711.687	32865.24
712.031	32822.75
712.375	32754.51
712.719	32695.52
713.063	32743.88
713.407	32661.18
713.75	32580.05
714.094	32419.6
714.438	32355.87
714.782	32343.22
715.125	32279.26
715.469	32350
715.812	32037.01
716.156	31887.64
716.499	31923.57
716.843	31938.26
717.186	31782.78
717.53	31896.68
717.873	31901.42
718.216	31778.71
718.559	31648.77
718.902	31490.58
719.246	31541.2
719.589	31572.16
719.932	31348.44
720.275	31410.36
720.617	31451.04
720.96	31274.77
721.303	31225.96
721.646	31261.21
721.989	30983.25
722.331	31119.07
722.674	31025.74
723.016	31053.08
723.359	31016.25
723.701	31049.24
724.044	30776.7
724.386	30544.85
724.729	30786.42
725.071	30695.35
725.413	30669.59
725.755	30638.18
726.097	30547.11
726.439	30466.43
726.782	30525.41
727.124	30478.41
727.465	30444.06
727.807	30240.22
728.149	30171.3
728.491	30214.69
728.833	30314.57
729.175	30145.08
729.516	30049.72
729.858	30011.08
730.199	29960.68
730.541	29847.92
730.882	29883.62
731.224	30057.4
731.565	29770.18
731.906	29863.51
732.248	29799.1
732.589	29612.22
732.93	29552.56
733.271	29505.55
733.612	29572.44
733.953	29610.63
734.294	29428.49
734.635	29456.29
734.976	29531.99
735.317	29318.44
735.658	29343.07
735.999	29226.46
736.339	29160.02
736.68	29299
737.021	29050.87
737.361	29103.53
737.702	29197.31
738.042	29030.76
738.383	29037.77
738.723	29104.66
739.063	29047.71
739.404	28986.02
739.744	28958.9
740.084	28711.67
740.424	28806.81
740.764	28700.38
741.104	28798.68
741.444	28721.62
741.784	28652.47
742.124	28851.56
742.464	28540.61
742.804	28582.41
743.143	28396.2
743.483	28491.34
743.823	28279.6
744.162	28312.14
744.502	28336.09
744.841	28185.81
745.181	28280.27
745.52	28184.23
745.86	28209.54
746.199	28202.54
746.538	27999.38
746.877	28169.32
747.216	28019.26
747.556	28055.87
747.895	28013.39
748.234	27934.52
748.573	27779.72
748.911	27831.7
749.25	27767.74
749.589	27616.79
749.928	27681.19
750.267	27591.03
750.605	27625.6
750.944	27464.02
751.283	27500.18
751.621	27527.75
751.96	27375.66
752.298	27372.95
752.636	27388.77
752.975	27258.83
753.313	27080.98
753.651	27045.96
753.989	27111.49
754.327	27051.38
754.666	26892.06
755.004	26979.52
755.342	26998.95
755.679	26949.46
756.017	26769.35
756.355	26887.32
756.693	26641.45
757.031	26737.04
757.368	26591.28
