Data from hue_170_FLMS001491_00099.txt Node
Date: Tue Feb 07 16:49:32 GMT 2017
User: dcchb
Spectrometer: FLMS00149
Trigger mode: 0
Integration Time (sec): 2.000000E-2
Scans to average: 10
Electric dark correction enabled: true
Nonlinearity correction enabled: false
Boxcar width: 0
XAxis mode: Wavelengths
Number of Pixels in Spectrum: 2048
>>>>>Begin Spectral Data<<<<<
341.393	-13.02
341.776	-13.02
342.16	-13.02
342.543	-80.14
342.927	-70.65
343.31	-71.78
343.693	-68.39
344.077	-69.52
344.46	-64.09
344.843	-45.34
345.226	-50.76
345.61	-40.59
345.993	-16.64
346.376	-4.89
346.759	9.58
347.142	34.21
347.525	54.77
347.908	62.91
348.291	64.26
348.674	106.3
349.057	99.97
349.44	109.23
349.823	160.31
350.206	165.73
350.588	189.46
350.971	221.77
351.354	202.11
351.737	220.19
352.119	231.49
352.502	273.75
352.884	276.24
353.267	259.06
353.65	284.15
354.032	301.55
354.414	312.17
354.797	322.11
355.179	295.22
355.562	307.2
355.944	318.72
356.326	302
356.709	312.62
357.091	304.26
357.473	329.57
357.855	351.04
358.238	341.54
358.62	335.22
359.002	327.53
359.384	325.95
359.766	331.15
360.148	344.03
360.53	318.49
360.912	313.07
361.294	325.05
361.676	339.51
362.057	322.34
362.439	334.99
362.821	340.64
363.203	331.38
363.584	322.34
363.966	326.86
364.348	303.58
364.729	317.82
365.111	298.38
365.493	316.01
365.874	281.66
366.256	324.14
366.637	280.53
367.019	301.32
367.4	306.97
367.781	309
368.163	301.55
368.544	314.43
368.925	298.61
369.306	325.5
369.688	299.74
370.069	304.48
370.45	306.29
370.831	305.61
371.212	314.43
371.593	306.52
371.974	301.55
372.355	304.94
372.736	313.52
373.117	315.1
373.498	309.68
373.879	313.52
374.26	303.81
374.641	314.2
375.021	327.08
375.402	332.51
375.783	302.9
376.163	323.24
376.544	307.65
376.925	303.58
377.305	307.42
377.686	306.52
378.066	310.81
378.447	335.44
378.827	321.66
379.208	324.14
379.588	323.69
379.968	337.48
380.349	318.27
380.729	307.87
381.109	329.34
381.489	338.15
381.87	350.13
382.25	330.47
382.63	325.05
383.01	331.38
383.39	314.2
383.77	315.78
384.15	319.62
384.53	330.7
384.91	349.45
385.29	346.52
385.67	327.31
386.049	350.13
386.429	328.21
386.809	349.45
387.189	351.49
387.568	349.68
387.948	349.91
388.328	343.13
388.707	355.78
389.087	354.43
389.466	349
389.846	347.19
390.225	373.63
390.605	374.99
390.984	383.35
391.363	357.36
391.743	350.81
392.122	370.47
392.501	345.39
392.881	380.41
393.26	364.14
393.639	365.05
394.018	351.94
394.397	377.25
394.776	373.18
395.155	382
395.534	374.31
395.913	375.89
396.292	376.12
396.671	374.09
397.05	392.16
397.429	386.97
397.808	367.53
398.186	391.49
398.565	383.13
398.944	382.67
399.323	381.54
399.701	388.78
400.08	381.32
400.458	370.47
400.837	386.74
401.215	387.65
401.594	391.03
401.972	386.29
402.351	416.8
402.729	380.64
403.107	414.99
403.486	409.34
403.864	404.82
404.242	401.43
404.62	416.34
404.999	448.21
405.377	410.47
405.755	431.26
406.133	425.16
406.511	420.19
406.889	434.65
407.267	415.67
407.645	452.05
408.023	452.28
408.401	418.15
408.779	427.87
409.156	446.4
409.534	457.93
409.912	466.29
410.29	456.57
410.667	469
411.045	472.84
411.422	471.26
411.8	462.22
412.178	479.39
412.555	499.51
412.933	484.37
413.31	501.77
413.687	488.21
414.065	507.64
414.442	493.18
414.819	533.18
415.197	532.27
415.574	541.99
415.951	529.11
416.328	532.5
416.705	534.99
417.082	533.63
417.46	550.13
417.837	570.47
418.214	555.55
418.591	582.89
418.967	570.69
419.344	575.66
419.721	577.02
420.098	573.63
420.475	596.91
420.852	596.45
421.228	578.6
421.605	614.08
421.982	604.36
422.358	620.41
422.735	626.06
423.111	632.61
423.488	652.05
423.864	648.2
424.241	651.82
424.617	680.07
424.994	657.92
425.37	657.69
425.746	652.72
426.123	687.75
426.499	672.38
426.875	698.6
427.251	702.67
427.627	708.54
428.003	712.83
428.379	750.57
428.756	730.91
429.132	730.91
429.507	757.13
429.883	763.45
430.259	777.24
430.635	762.32
431.011	774.08
431.387	786.28
431.763	808.65
432.138	774.75
432.514	810.68
432.89	810.46
433.265	840.51
433.641	838.48
434.016	855.88
434.392	872.83
434.767	873.51
435.143	880.29
435.518	895.88
435.894	914.41
436.269	926.39
436.644	926.61
437.02	928.65
437.395	928.42
437.77	957.12
438.145	977.69
438.52	959.38
438.895	972.94
439.271	1000.96
439.646	1022.88
440.021	1058.81
440.395	1050.68
440.77	1027.85
441.145	1037.35
441.52	1080.06
441.895	1071.92
442.27	1073.73
442.645	1062.88
443.019	1073.28
443.394	1087.06
443.769	1101.52
444.143	1127.96
444.518	1125.03
444.892	1143.56
445.267	1146.95
445.641	1160.51
446.016	1113.5
446.39	1175.87
446.764	1180.39
447.139	1210.45
447.513	1187.62
447.887	1188.53
448.262	1188.75
448.636	1221.75
449.01	1251.58
449.384	1243.22
449.758	1272.37
450.132	1264.91
450.506	1264.91
450.88	1279.15
451.254	1264.68
451.628	1271.24
452.002	1307.4
452.376	1318.02
452.75	1343.33
453.123	1355.53
453.497	1367.28
453.871	1381.97
454.244	1413.15
454.618	1402.53
454.992	1435.08
455.365	1442.08
455.739	1475.75
456.112	1465.81
456.486	1504.23
456.859	1513.04
457.232	1524.79
457.606	1566.37
457.979	1556.65
458.352	1598.01
458.725	1608.63
459.099	1649.76
459.472	1679.81
459.845	1671.45
460.218	1677.1
460.591	1716.2
460.964	1704.22
461.337	1762.07
461.71	1767.27
462.083	1806.36
462.456	1791
462.829	1833.71
463.201	1864.67
463.574	1856.31
463.947	1896.08
464.32	1949.86
464.692	1950.09
465.065	1992.12
465.438	2012.91
465.81	2087.49
466.183	2054.95
466.555	2138.79
466.928	2150.31
467.3	2165.9
467.672	2184.89
468.045	2216.98
468.417	2309.85
468.789	2316.63
469.161	2305.33
469.534	2363.86
469.906	2462.84
470.278	2453.35
470.65	2455.61
471.022	2555.95
471.394	2611.09
471.766	2629.39
472.138	2682.95
472.51	2722.95
472.882	2813.34
473.253	2830.97
473.625	2866.68
473.997	2962.27
474.369	2999.33
474.74	3015.37
475.112	3160.68
475.484	3193.45
475.855	3293.56
476.227	3301.47
476.598	3388.7
476.97	3417.62
477.341	3592.53
477.713	3635.47
478.084	3672.98
478.455	3804.5
478.827	3811.96
479.198	3973.31
479.569	3971.96
479.94	4139.41
480.311	4188.45
480.682	4299.86
481.053	4443.36
481.424	4526.75
481.795	4646.29
482.166	4709.79
482.537	4829.56
482.908	4978.03
483.279	5015.55
483.65	5158.59
484.021	5268.87
484.391	5399.49
484.762	5425.03
485.133	5546.38
485.503	5628.41
485.874	5813.72
486.244	5886.94
486.615	6068.17
486.985	6147.95
487.356	6317.88
487.726	6374.38
488.097	6556.97
488.467	6664.32
488.837	6773.92
489.207	6913.12
489.578	7048.71
489.948	7170.74
490.318	7318.99
490.688	7341.81
491.058	7528.02
491.428	7585.65
491.798	7743.61
492.168	7978.41
492.538	8029.03
492.908	8170.49
493.278	8208.23
493.648	8352.63
494.017	8454.55
494.387	8569.58
494.757	8645.73
495.126	8806.86
495.496	8800.08
495.866	8933.41
496.235	9062.9
496.605	9153.97
496.974	9246.85
497.344	9352.16
497.713	9492.04
498.082	9494.52
498.452	9669.89
498.821	9705.37
499.19	9724.35
499.559	9971.35
499.928	9982.2
500.298	10023.1
500.667	10191.91
501.036	10169.08
501.405	10241.4
501.774	10280.49
502.143	10419.02
502.512	10411.34
502.88	10466.48
503.249	10471.9
503.618	10588.73
503.987	10672.12
504.356	10696.98
504.724	10820.14
505.093	10781.04
505.462	10920.02
505.83	10906.92
506.199	11038.44
506.567	11122.96
506.936	11144.65
507.304	11242.95
507.672	11254.48
508.041	11287.7
508.409	11421.25
508.777	11434.36
509.145	11552.1
509.514	11480.01
509.882	11590.29
510.25	11517.97
510.618	11672.09
510.986	11688.14
511.354	11782.83
511.722	11762.26
512.09	11870.96
512.458	11884.52
512.826	11968.13
513.193	11969.04
513.561	12006.77
513.929	12024.18
514.297	11994.12
514.664	12195.92
515.032	12148.92
515.4	12185.3
515.767	12273.66
516.135	12294.22
516.502	12143.27
516.869	12423.26
517.237	12340.1
517.604	12261.01
517.972	12416.03
518.339	12425.29
518.706	12414.67
519.073	12415.8
519.44	12435.46
519.808	12588.45
520.175	12534.22
520.542	12628.91
520.909	12631.84
521.276	12543.48
521.643	12678.4
522.009	12698.51
522.376	12805.85
522.743	12821.22
523.11	12849.01
523.477	12829.58
523.843	12900.54
524.21	12884.94
524.577	12977.37
524.943	12895.11
525.31	13014.66
525.676	13043.13
526.043	13082.23
526.409	13034.09
526.776	13212.39
527.142	13083.81
527.508	13108.21
527.874	13111.83
528.241	13045.62
528.607	13157.25
528.973	13268.44
529.339	13152.96
529.705	13211.71
530.071	13231.6
530.437	13228.44
530.803	13239.96
531.169	13218.27
531.535	13122.23
531.901	13123.13
532.267	13103.7
532.632	13108.89
532.998	13163.13
533.364	13175.78
533.73	13206.29
534.095	13106.18
534.461	13166.74
534.826	13116.8
535.192	13138.95
535.557	13137.37
535.923	13049.46
536.288	13096.92
536.653	13028.22
537.019	12926.07
537.384	12947.77
537.749	12921.1
538.114	12848.33
538.479	12813.31
538.845	12808.11
539.21	12718.62
539.575	12737.38
539.94	12659.41
540.305	12776.02
540.67	12614.22
541.034	12635.46
541.399	12643.59
541.764	12526.99
542.129	12578.74
542.494	12499.19
542.858	12475.69
543.223	12392.75
543.587	12349.14
543.952	12378.06
544.316	12386.2
544.681	12299.65
545.045	12303.49
545.41	12268.24
545.774	12221.68
546.138	12119.54
546.503	12180.33
546.867	12030.05
547.231	12078.86
547.595	12049.94
547.959	12037.73
548.324	12038.64
548.688	11920.9
549.052	11884.97
549.416	11884.97
549.779	11793.22
550.143	11759.55
550.507	11791.64
550.871	11789.38
551.235	11688.59
551.599	11743.5
551.962	11662.15
552.326	11633
552.689	11681.36
553.053	11575.37
553.417	11553.68
553.78	11663.73
554.143	11491.31
554.507	11595.49
554.87	11525.21
555.234	11552.78
555.597	11476.17
555.96	11414.93
556.323	11465.55
556.686	11424.64
557.05	11405.43
557.413	11335.38
557.776	11326.11
558.139	11378.54
558.502	11296.28
558.865	11310.75
559.228	11272.56
559.59	11298.54
559.953	11286.34
560.316	11343.06
560.679	11313.91
561.041	11314.14
561.404	11270.52
561.767	11301.03
562.129	11193.46
562.492	11339.67
562.854	11272.33
563.217	11216.96
563.579	11222.39
563.941	11367.92
564.304	11376.51
564.666	11297.41
565.028	11259.45
565.39	11296.96
565.753	11288.38
566.115	11275.04
566.477	11341.48
566.839	11367.47
567.201	11362.27
567.563	11367.02
567.925	11381.03
568.287	11401.37
568.648	11383.74
569.01	11407.02
569.372	11453.12
569.734	11322.5
570.095	11421.25
570.457	11370.18
570.819	11442.72
571.18	11406.79
571.542	11395.27
571.903	11387.58
572.265	11413.12
572.626	11432.55
572.987	11411.31
573.349	11427.13
573.71	11465.09
574.071	11462.61
574.432	11423.29
574.794	11496.28
575.155	11460.12
575.516	11454.02
575.877	11483.62
576.238	11435.49
576.599	11536.5
576.96	11443.63
577.32	11458.54
577.681	11544.41
578.042	11494.25
578.403	11468.48
578.763	11442.5
579.124	11483.17
579.485	11477.98
579.845	11463.29
580.206	11438.43
580.566	11482.49
580.927	11516.39
581.287	11519.33
581.648	11431.65
582.008	11482.04
582.368	11450.41
582.728	11480.46
583.089	11478.43
583.449	11376.51
583.809	11494.47
584.169	11480.69
584.529	11313.01
584.889	11524.98
585.249	11371.54
585.609	11399.33
585.969	11433
586.329	11343.97
586.688	11434.13
587.048	11361.82
587.408	11383.74
587.768	11351.2
588.127	11243.63
588.487	11292.44
588.846	11383.97
589.206	11266.23
589.565	11292.22
589.925	11337.64
590.284	11243.86
590.643	11239.11
591.003	11294.25
591.362	11259.22
591.721	11300.58
592.08	11303.74
592.44	11327.02
592.799	11266.46
593.158	11302.16
593.517	11208.38
593.876	11186.46
594.235	11184.42
594.593	11188.04
594.952	11196.4
595.311	11140.58
595.67	11165.21
596.029	11198.21
596.387	11186.23
596.746	11202.73
597.104	11183.07
597.463	11115.95
597.822	11179.23
598.18	11129.96
598.538	11176.06
598.897	11159.57
599.255	11085.89
599.613	11229.62
599.972	11167.7
600.33	11197.08
600.688	11127.25
601.046	11137.65
601.404	11222.61
601.762	11180.36
602.12	11182.39
602.478	11217.87
602.836	11140.13
603.194	11103.97
603.552	11120.47
603.91	11112.56
604.268	11103.97
604.625	11070.53
604.983	11128.61
605.341	11146.68
605.698	11136.06
606.056	11071.66
606.413	11075.95
606.771	11119.57
607.128	11096.06
607.485	11025.56
607.843	11056.52
608.2	11150.98
608.557	11144.88
608.914	11168.83
609.272	11210.41
609.629	11081.6
609.986	11208.83
610.343	11171.99
610.7	11240.02
611.057	11199.11
611.414	11116.4
611.771	11190.3
612.127	11150.53
612.484	11219.45
612.841	11251.99
613.198	11223.52
613.554	11197.53
613.911	11329.5
614.267	11230.75
614.624	11339.22
614.98	11273.91
615.337	11313.91
615.693	11291.77
616.05	11253.8
616.406	11320.01
616.762	11266
617.118	11278.21
617.475	11266.23
617.831	11297.64
618.187	11326.79
618.543	11309.84
618.899	11314.36
619.255	11368.83
619.611	11339.9
619.967	11413.34
620.323	11437.52
620.678	11384.87
621.034	11329.73
621.39	11394.81
621.746	11360.92
622.101	11485.88
622.457	11390.75
622.812	11332.22
623.168	11451.54
623.523	11425.77
623.879	11393.46
624.234	11362.27
624.589	11395.94
624.945	11406.34
625.3	11363.4
625.655	11351.2
626.01	11374.02
626.365	11336.06
626.72	11418.54
627.075	11335.38
627.43	11360.92
627.785	11330.41
628.14	11339
628.495	11388.03
628.85	11364.76
629.205	11256.06
629.559	11290.64
629.914	11259.22
630.269	11275.72
630.623	11322.05
630.978	11227.81
631.332	11293.57
631.687	11355.04
632.041	11205.89
632.396	11279.34
632.75	11244.31
633.104	11231.2
633.459	11198.89
633.813	11126.35
634.167	11181.94
634.521	11214.25
634.875	11190.07
635.229	11199.34
635.583	11076.86
635.937	11141.49
636.291	11085.44
636.645	11149.17
636.999	11094.71
637.352	11083.41
637.706	10969.51
638.06	11030.53
638.413	11026.91
638.767	11027.82
639.121	10962.73
639.474	10887.48
639.828	10946.46
640.181	10976.75
640.534	10982.85
640.888	10906.46
641.241	10928.16
641.594	10892.45
641.947	10947.59
642.301	10871.66
642.654	10917.31
643.007	10899.91
643.36	10844.55
643.713	10848.39
644.066	10955.28
644.419	10774.94
644.771	10748.05
645.124	10696.07
645.477	10683.42
645.83	10583.76
646.182	10600.94
646.535	10524.55
646.888	10519.13
647.24	10530.66
647.593	10596.42
647.945	10537.21
648.298	10504.22
648.65	10520.71
649.002	10457.44
649.355	10491.56
649.707	10559.81
650.059	10576.53
650.411	10653.82
650.763	10674.38
651.115	10854.49
651.467	10715.96
651.819	10786.92
652.171	10717.54
652.523	10735.62
652.875	10683.42
653.227	10718.22
653.578	10782.85
653.93	10781.95
654.282	10653.14
654.633	10705.79
654.985	10720.48
655.337	10762.74
655.688	10740.59
656.039	10773.81
656.391	10665.34
656.742	10725.9
657.094	10760.93
657.445	10747.6
657.796	10709.63
658.147	10815.62
658.498	10828.05
658.849	10808.84
659.2	10830.31
659.551	10718.9
659.902	10794.38
660.253	10797.77
660.604	10793.93
660.955	10773.81
661.306	10754.83
661.656	10811.1
662.007	10846.81
662.358	10850.65
662.708	10858.56
663.059	10832.12
663.409	10764.1
663.76	10875.28
664.11	10846.58
664.461	10926.58
664.811	10847.03
665.161	10925.9
665.511	10825.11
665.862	10830.53
666.212	10884.77
666.562	10877.31
666.912	10786.47
667.262	10834.38
667.612	10830.99
667.962	10878.44
668.312	10840.93
668.662	10910.31
669.011	10887.93
669.361	10795.73
669.711	10857.88
670.06	10802.51
670.41	10778.56
670.76	10733.59
671.109	10801.38
671.459	10821.5
671.808	10787.6
672.157	10804.09
672.507	10780.59
672.856	10697.88
673.205	10795.51
673.554	10798.22
673.904	10699.46
674.253	10747.15
674.602	10758.9
674.951	10565.46
675.3	10509.86
675.649	10761.16
675.998	10745.34
676.346	10663.99
676.695	10779.46
677.044	10614.04
677.393	10701.72
677.741	10682.29
678.09	10641.16
678.438	10601.84
678.787	10641.39
679.135	10603.65
679.484	10553.25
679.832	10576.53
680.181	10565.91
680.529	10557.77
680.877	10427.83
681.225	10503.76
681.573	10581.28
681.922	10418.79
682.27	10412.01
682.618	10470.54
682.966	10435.06
683.314	10423.77
683.661	10415.63
684.009	10266.93
684.357	10329.08
684.705	10288.85
685.053	10250.44
685.4	10222.64
685.748	10236.2
686.095	10264.67
686.443	10107.62
686.79	10201.4
687.138	10177.67
687.485	10177.67
687.832	10142.87
688.18	10141.29
688.527	10089.76
688.874	10010.89
689.221	9965.92
689.568	9953.27
689.915	9988.07
690.262	9970.9
690.609	9881.41
690.956	9836.21
691.303	9829.66
691.65	9741.3
691.997	9737.46
692.344	9685.03
692.69	9660.17
693.037	9694.52
693.383	9543.11
693.73	9598.25
694.077	9579.72
694.423	9480.06
694.769	9455.43
695.116	9494.52
695.462	9446.84
695.808	9382.21
696.155	9358.71
696.501	9346.28
696.847	9277.58
697.193	9358.93
697.539	9311.7
697.885	9198.03
698.231	9184.02
698.577	9156
698.923	9177.47
699.269	9126.62
699.614	9020.19
699.96	9026.74
700.306	9043.24
700.651	8961.66
700.997	8885.27
701.342	8885.27
701.688	8879.85
702.033	8869.68
702.379	8781.77
702.724	8756.24
703.069	8836.24
703.415	8665.62
703.76	8629.24
704.105	8676.24
704.45	8589.92
704.795	8574.1
705.14	8607.54
705.485	8503.82
705.83	8506.98
706.175	8509.92
706.52	8524.83
706.865	8484.38
707.209	8433.54
707.554	8434.44
707.899	8440.31
708.243	8301.56
708.588	8319.41
708.932	8351.28
709.277	8240.77
709.621	8247.78
709.966	8205.07
710.31	8245.97
710.654	8148.12
710.998	8185.63
711.342	8183.37
711.687	8193.32
712.031	8089.14
712.375	8073.54
712.719	8150.38
713.063	8046.65
713.407	8046.2
713.75	8032.42
714.094	8013.21
714.438	7982.7
714.782	7951.06
715.125	8009.37
715.469	7924.17
715.812	7905.87
716.156	7864.51
716.499	7834.46
716.843	7842.36
717.186	7807.56
717.53	7903.38
717.873	7855.02
718.216	7860.44
718.559	7763.04
718.902	7774.12
719.246	7738.64
719.589	7786.77
719.932	7763.5
720.275	7718.3
720.617	7713.33
720.96	7691.86
721.303	7680.33
721.646	7660.45
721.989	7649.38
722.331	7695.25
722.674	7680.11
723.016	7656.61
723.359	7664.06
723.701	7670.62
724.044	7618.19
724.386	7531.41
724.729	7556.95
725.071	7598.76
725.413	7604.4
725.755	7567.8
726.097	7560.79
726.439	7523.95
726.782	7563.5
727.124	7561.24
727.465	7519.21
727.807	7499.55
728.149	7555.37
728.491	7505.2
728.833	7553.78
729.175	7523.5
729.516	7534.8
729.858	7587.23
730.199	7542.71
730.541	7454.35
730.882	7475.14
731.224	7551.07
731.565	7478.76
731.906	7500.23
732.248	7504.29
732.589	7506.33
732.93	7439.21
733.271	7471.98
733.612	7535.71
733.953	7542.03
734.294	7501.13
734.635	7503.62
734.976	7496.16
735.317	7529.15
735.658	7509.49
735.999	7528.02
736.339	7452.09
736.68	7573.9
737.021	7491.19
737.361	7459.32
737.702	7559.43
738.042	7528.47
738.383	7569.15
738.723	7530.06
739.063	7500.9
739.404	7620.45
739.744	7571.64
740.084	7580.9
740.424	7620.68
740.764	7646.21
741.104	7670.39
741.444	7634.01
741.784	7690.5
742.124	7704.29
742.464	7713.55
742.804	7730.05
743.143	7721.46
743.483	7743.84
743.823	7821.57
744.162	7798.07
744.502	7822.03
744.841	7856.15
745.181	7899.99
745.52	7890.72
745.86	8029.7
746.199	8015.69
746.538	8025.18
746.877	8123.49
747.216	8182.92
747.556	8168.46
747.895	8290.71
748.234	8210.49
748.573	8260.21
748.911	8422.69
749.25	8441.44
749.589	8469.01
749.928	8532.74
750.267	8602.57
750.605	8645.28
750.944	8805.28
751.283	8798.72
751.621	8914.88
751.96	8939.96
752.298	9111.03
752.636	9224.93
752.975	9252.27
753.313	9305.6
753.651	9485.03
753.989	9549.44
754.327	9636.22
754.666	9748.98
755.004	9869.66
755.342	9986.71
755.679	10130.89
756.017	10199.59
756.355	10360.94
756.693	10481.62
757.031	10705.79
757.368	10668.5
757.706	10848.84
758.044	11039.34
758.381	11182.16
758.719	11320.47
759.056	11568.82
