Data from hue_230_FLMS001491_00030.txt Node
Date: Tue Feb 07 16:37:01 GMT 2017
User: dcchb
Spectrometer: FLMS00149
Trigger mode: 0
Integration Time (sec): 2.000000E-2
Scans to average: 10
Electric dark correction enabled: true
Nonlinearity correction enabled: false
Boxcar width: 0
XAxis mode: Wavelengths
Number of Pixels in Spectrum: 2048
>>>>>Begin Spectral Data<<<<<
341.393	-21.02
341.776	-21.02
342.16	-21.02
342.543	-72.77
342.927	-64.41
343.31	-66.89
343.693	-70.96
344.077	-60.79
344.46	-64.41
344.843	-34.58
345.226	-52.43
345.61	-5.65
345.993	-32.54
346.376	-3.39
346.759	28.02
347.142	5.2
347.525	37.29
347.908	54.69
348.291	49.26
348.674	97.4
349.057	119.77
349.44	127.23
349.823	147.79
350.206	145.98
350.588	181.92
350.971	228.24
351.354	235.47
351.737	212.65
352.119	253.33
352.502	246.55
352.884	261.69
353.267	270.28
353.65	272.99
354.032	300.78
354.414	296.04
354.797	294.68
355.179	287
355.562	308.69
355.944	313.89
356.326	307.11
356.709	329.03
357.091	344.17
357.473	352.31
357.855	317.73
358.238	327.22
358.62	328.8
359.002	327.45
359.384	335.58
359.766	340.1
360.148	317.05
360.53	331.74
360.912	347.11
361.294	333.55
361.676	340.78
362.057	323.16
362.439	324.51
362.821	312.08
363.203	337.39
363.584	306.88
363.966	325.64
364.348	307.79
364.729	310.5
365.111	312.99
365.493	292.2
365.874	323.38
366.256	299.43
366.637	304.17
367.019	302.14
367.4	307.79
367.781	301.91
368.163	309.82
368.544	312.08
368.925	306.43
369.306	308.24
369.688	297.39
370.069	294.46
370.45	326.55
370.831	297.62
371.212	310.05
371.593	304.62
371.974	303.49
372.355	309.82
372.736	305.98
373.117	327
373.498	294.91
373.879	320.9
374.26	306.88
374.641	312.99
375.021	325.42
375.402	296.26
375.783	321.35
376.163	316.15
376.544	303.04
376.925	324.51
377.305	319.31
377.686	320.44
378.066	313.21
378.447	315.47
378.827	339.88
379.208	340.78
379.588	321.35
379.968	314.57
380.349	314.34
380.729	321.8
381.109	330.16
381.489	325.19
381.87	329.26
382.25	327.9
382.63	335.36
383.01	338.3
383.39	325.64
383.77	334.91
384.15	331.29
384.53	351.18
384.91	332.87
385.29	347.79
385.67	340.56
386.049	314.57
386.429	334.68
386.809	371.52
387.189	347.34
387.568	359.54
387.948	349.6
388.328	351.4
388.707	341.23
389.087	351.86
389.466	365.64
389.846	334.23
390.225	354.79
390.605	339.65
390.984	354.34
391.363	351.86
391.743	350.5
392.122	374.45
392.501	369.26
392.881	357.96
393.26	378.3
393.639	367.45
394.018	376.04
394.397	372.87
394.776	394.34
395.155	385.98
395.534	367.9
395.913	383.94
396.292	390.05
396.671	370.84
397.05	378.75
397.429	373.55
397.808	399.09
398.186	399.09
398.565	389.14
398.944	387.79
399.323	406.77
399.701	395.02
400.08	417.39
400.458	401.35
400.837	429.82
401.215	420.78
401.594	428.01
401.972	411.97
402.351	421.91
402.729	424.62
403.107	443.38
403.486	430.95
403.864	399.31
404.242	423.27
404.62	414.68
404.999	432.98
405.377	432.98
405.755	428.46
406.133	441.57
406.511	452.19
406.889	450.61
407.267	448.58
407.645	447.22
408.023	464.85
408.401	452.42
408.779	463.04
409.156	478.86
409.534	493.55
409.912	470.72
410.29	503.49
410.667	497.61
411.045	509.37
411.422	529.25
411.8	530.83
412.178	522.7
412.555	530.16
412.933	530.38
413.31	534.68
413.687	540.55
414.065	552.3
414.442	555.24
414.819	555.01
415.197	562.92
415.574	583.04
415.951	572.87
416.328	614.22
416.705	600.21
417.082	575.58
417.46	621.23
417.837	623.03
418.214	596.82
418.591	616.03
418.967	605.41
419.344	632.75
419.721	640.66
420.098	656.25
420.475	657.16
420.852	664.62
421.228	681.79
421.605	674.33
421.982	741
422.358	723.6
422.735	713.2
423.111	720.66
423.488	708.68
423.864	733.54
424.241	788.23
424.617	778.74
424.994	773.54
425.37	771.28
425.746	771.05
426.123	810.83
426.499	824.61
426.875	826.19
427.251	818.74
427.627	834.33
428.003	888.11
428.379	851.05
428.756	877.04
429.132	881.56
429.507	891.28
429.883	893.76
430.259	920.43
430.635	893.54
431.011	918.17
431.387	934.89
431.763	966.08
432.138	948
432.514	977.15
432.89	980.09
433.265	984.38
433.641	1031.84
434.016	1016.7
434.392	1067.54
434.767	1068.67
435.143	1088.11
435.518	1068.45
435.894	1101.44
436.269	1117.94
436.644	1141.66
437.02	1154.32
437.395	1161.1
437.77	1174.43
438.145	1190.7
438.52	1226.41
438.895	1232.74
439.271	1231.83
439.646	1276.58
440.021	1293.53
440.395	1296.46
440.77	1312.06
441.145	1291.04
441.52	1363.13
441.895	1357.03
442.27	1390.02
442.645	1369.68
443.019	1401.55
443.394	1427.53
443.769	1427.08
444.143	1398.38
444.518	1463.24
444.892	1425.27
445.267	1447.87
445.641	1458.94
446.016	1459.4
446.39	1477.02
446.764	1515.44
447.139	1469.11
447.513	1501.2
447.887	1521.99
448.262	1525.84
448.636	1506.18
449.01	1570.13
449.384	1612.61
449.758	1572.84
450.132	1615.32
450.506	1587.53
450.88	1594.99
451.254	1601.31
451.628	1630.47
452.002	1671.59
452.376	1649
452.75	1698.71
453.123	1697.81
453.497	1738.71
453.871	1716.57
454.244	1758.15
454.618	1750.01
454.992	1795.43
455.365	1753.63
455.739	1817.81
456.112	1860.74
456.486	1823.68
456.859	1898.03
457.232	1929.44
457.606	1872.27
457.979	1939.84
458.352	1972.15
458.725	1978.25
459.099	2005.6
459.472	2037.23
459.845	2037.23
460.218	2046.05
460.591	2079.04
460.964	2104.13
461.337	2125.82
461.71	2154.07
462.083	2150.9
462.456	2148.19
462.829	2203.56
463.201	2220.51
463.574	2209.89
463.947	2227.51
464.32	2321.29
464.692	2338.24
465.065	2296.89
465.438	2352.25
465.81	2402.2
466.183	2418.47
466.555	2451.01
466.928	2446.04
467.3	2469.09
467.672	2516.32
468.045	2535.98
468.417	2574.85
468.789	2579.82
469.161	2597.22
469.534	2637.67
469.906	2692.58
470.278	2728.52
470.65	2757.89
471.022	2799.47
471.394	2824.56
471.766	2853.71
472.138	2886.03
472.51	2949.75
472.882	2974.61
473.253	2951.79
473.625	3024.55
473.997	3067.49
474.369	3131.9
474.74	3145.68
475.112	3157.21
475.484	3252.12
475.855	3250.54
476.227	3280.59
476.598	3401.27
476.97	3381.61
477.341	3480.59
477.713	3512
478.084	3524.88
478.455	3570.53
478.827	3645.33
479.198	3726.91
479.569	3710.64
479.94	3824.76
480.311	3862.5
480.682	3892.55
481.053	4016.17
481.424	4026.11
481.795	4086.67
482.166	4108.82
482.537	4112.43
482.908	4205.31
483.279	4268.81
483.65	4321.02
484.021	4382.94
484.391	4428.58
484.762	4478.75
485.133	4528.02
485.503	4542.71
485.874	4611.18
486.244	4633.32
486.615	4755.36
486.985	4793.77
487.356	4833.55
487.726	4891.85
488.097	4956.93
488.467	4984.05
488.837	5045.29
489.207	5053.43
489.578	5197.38
489.948	5210.26
490.318	5265.62
490.688	5239.86
491.058	5384.72
491.428	5445.51
491.798	5423.59
492.168	5560.76
492.538	5522.11
492.908	5630.81
493.278	5676.46
493.648	5636.01
494.017	5795.33
494.387	5812.05
494.757	5828.1
495.126	5854.99
495.496	5869.45
495.866	5902.9
496.235	5963.91
496.605	5994.64
496.974	5958.71
497.344	5995.77
497.713	6134.75
498.082	6108.54
498.452	6173.85
498.821	6204.36
499.19	6164.13
499.559	6261.76
499.928	6276.45
500.298	6298.59
500.667	6328.42
501.036	6300.4
501.405	6390.57
501.774	6425.82
502.143	6407.74
502.512	6449.32
502.88	6461.98
503.249	6494.52
503.618	6539.72
503.987	6506.04
504.356	6585.36
504.724	6570.45
505.093	6556.66
505.462	6618.13
505.83	6676.21
506.199	6703.1
506.567	6740.84
506.936	6719.6
507.304	6778.35
507.672	6802.53
508.041	6805.7
508.409	6846.37
508.777	6886.6
509.145	6904
509.514	6868.52
509.882	6883.89
510.25	6920.5
510.618	6926.15
510.986	6979.48
511.354	7018.8
511.722	7073.49
512.09	7018.12
512.458	6988.97
512.826	7054.05
513.193	7058.12
513.561	7099.47
513.929	7136.76
514.297	7172.92
514.664	7171.79
515.032	7208.17
515.4	7238.23
515.767	7247.72
516.135	7223.31
516.502	7160.49
516.869	7303.08
517.237	7293.37
517.604	7249.3
517.972	7286.81
518.339	7334.95
518.706	7299.24
519.073	7309.19
519.44	7277.1
519.808	7328.85
520.175	7311.45
520.542	7423.31
520.909	7377.66
521.276	7373.37
521.643	7424.89
522.009	7441.84
522.376	7511.89
522.743	7476.19
523.11	7516.86
523.477	7578.56
523.843	7588.28
524.21	7593.02
524.577	7627.14
524.943	7591.66
525.31	7557.99
525.676	7702.4
526.043	7661.95
526.409	7618.56
526.776	7756.63
527.142	7715.05
527.508	7737.88
527.874	7774.71
528.241	7736.52
528.607	7722.73
528.973	7779.46
529.339	7729.74
529.705	7794.6
530.071	7856.74
530.437	7830.75
530.803	7814.03
531.169	7841.83
531.535	7777.87
531.901	7835.05
532.267	7809.06
532.632	7835.73
532.998	7839.34
533.364	7828.49
533.73	7828.49
534.095	7791.43
534.461	7841.83
534.826	7857.19
535.192	7866.01
535.557	7855.84
535.923	7814.71
536.288	7875.5
536.653	7837.53
537.019	7784.65
537.384	7858.1
537.749	7854.03
538.114	7850.42
538.479	7790.53
538.845	7766.8
539.21	7742.4
539.575	7749.63
539.94	7800.02
540.305	7726.35
540.67	7760.47
541.034	7733.58
541.399	7716.18
541.764	7710.31
542.129	7720.25
542.494	7743.98
542.858	7740.81
543.223	7708.95
543.587	7749.63
543.952	7678.67
544.316	7706.24
544.681	7716.86
545.045	7662.62
545.41	7683.41
545.774	7691.55
546.138	7626.92
546.503	7616.97
546.867	7633.02
547.231	7622.62
547.595	7630.08
547.959	7606.13
548.324	7535.62
548.688	7551.21
549.052	7610.87
549.416	7541.5
549.779	7565.22
550.143	7574.04
550.507	7571.78
550.871	7590.31
551.235	7563.87
551.599	7542.4
551.962	7572.23
552.326	7550.31
552.689	7554.15
553.053	7539.69
553.417	7510.31
553.78	7570.65
554.143	7481.61
554.507	7488.84
554.87	7471.89
555.234	7581.72
555.597	7474.83
555.96	7537.43
556.323	7553.25
556.686	7554.15
557.05	7561.38
557.413	7513.25
557.776	7567.94
558.139	7549.18
558.502	7562.96
558.865	7578.56
559.228	7571.78
559.59	7601.83
559.953	7533.59
560.316	7602.74
560.679	7597.31
561.041	7601.38
561.404	7712.34
561.767	7724.99
562.129	7682.96
562.492	7704.2
562.854	7669.85
563.217	7663.08
563.579	7715.28
563.941	7773.58
564.304	7725.67
564.666	7781.49
565.028	7750.53
565.39	7757.99
565.753	7755.28
566.115	7840.02
566.477	7863.97
566.839	7840.25
567.201	7870.3
567.563	7849.96
567.925	7888.15
568.287	7924.76
568.648	7852.22
569.01	7955.72
569.372	7974.48
569.734	7956.4
570.095	8050.41
570.457	8000.47
570.819	8053.35
571.18	8060.13
571.542	8032.33
571.903	8088.83
572.265	8094.25
572.626	8139.9
572.987	8115.27
573.349	8172.89
573.71	8169.05
574.071	8207.47
574.432	8210.41
574.794	8256.28
575.155	8302.38
575.516	8211.54
575.877	8287.47
576.238	8263.29
576.599	8304.64
576.96	8289.05
577.32	8353.45
577.681	8364.07
578.042	8409.27
578.403	8394.36
578.763	8364.07
579.124	8374.92
579.485	8430.96
579.845	8461.7
580.206	8487.01
580.566	8479.1
580.927	8454.47
581.287	8488.59
581.648	8460.79
582.008	8569.04
582.368	8464.64
582.728	8608.81
583.089	8543.28
583.449	8572.43
583.809	8586.67
584.169	8615.37
584.529	8651.3
584.889	8669.15
585.249	8639.77
585.609	8630.28
585.969	8705.08
586.329	8631.19
586.688	8681.13
587.048	8666.66
587.408	8719.09
587.768	8667.57
588.127	8712.31
588.487	8744.63
588.846	8758.41
589.206	8721.58
589.565	8699.43
589.925	8780.33
590.284	8783.72
590.643	8812.88
591.003	8803.16
591.362	8787.57
591.721	8852.42
592.08	8867.56
592.44	8788.02
592.799	8878.41
593.158	8927.45
593.517	8928.58
593.876	8874.34
594.235	8842.03
594.593	8892.87
594.952	8883.16
595.311	8910.05
595.67	8918.86
596.029	8978.52
596.387	8938.97
596.746	8982.59
597.104	8890.16
597.463	8941.01
597.822	9042.02
598.18	8933.1
598.538	8935.58
598.897	9036.15
599.255	8940.33
599.613	9041.12
599.972	8995.47
600.33	8986.66
600.688	9011.29
601.046	9063.26
601.404	9027.79
601.762	9075.69
602.12	9067.11
602.478	9058.52
602.836	9080.89
603.194	9028.01
603.552	9081.8
603.91	9109.59
604.268	9051.29
604.625	9008.8
604.983	9131.96
605.341	9075.47
605.698	9116.6
606.056	9161.12
606.413	9115.01
606.771	9144.84
607.128	9176.93
607.485	9089.48
607.843	9101
608.2	9153.66
608.557	9231.62
608.914	9182.36
609.272	9263.26
609.629	9279.76
609.986	9260.32
610.343	9168.8
610.7	9326.76
611.057	9188.91
611.414	9208.8
611.771	9349.36
612.127	9288.8
612.484	9270.72
612.841	9280.21
613.198	9305.52
613.554	9244.95
613.911	9331.73
614.267	9342.13
614.624	9255.35
614.98	9301.22
615.337	9313.65
615.693	9316.59
616.05	9387.32
616.406	9371.51
616.762	9364.95
617.118	9343.03
617.475	9398.17
617.831	9425.29
618.187	9388.91
618.543	9457.15
618.899	9388.91
619.255	9416.25
619.611	9404.72
619.967	9457.15
620.323	9452.18
620.678	9477.94
621.034	9436.81
621.39	9462.58
621.746	9417.83
622.101	9493.31
622.457	9396.14
622.812	9449.7
623.168	9466.64
623.523	9459.19
623.879	9471.39
624.234	9389.81
624.589	9432.75
624.945	9480.65
625.3	9483.37
625.655	9444.27
626.01	9465.51
626.365	9472.29
626.72	9419.87
627.075	9438.85
627.43	9406.53
627.785	9384.39
628.14	9499.86
628.495	9406.53
628.85	9429.13
629.205	9373.09
629.559	9466.19
629.914	9429.13
630.269	9392.97
630.623	9375.57
630.978	9362.24
631.332	9362.47
631.687	9390.71
632.041	9399.75
632.396	9306.87
632.75	9359.75
633.104	9316.14
633.459	9275.24
633.813	9318.63
634.167	9234.11
634.521	9288.12
634.875	9312.98
635.229	9281.56
635.583	9237.72
635.937	9294.9
636.291	9205.41
636.645	9176.03
636.999	9191.17
637.352	9223.03
637.706	9143.94
638.06	9157.95
638.413	9172.64
638.767	9164.73
639.121	9170.83
639.474	9123.83
639.828	9139.87
640.181	9151.17
640.534	9108.01
640.888	9030.5
641.241	9067.11
641.594	9086.99
641.947	9053.32
642.301	9087.22
642.654	9025.75
643.007	9055.36
643.36	9086.31
643.713	8994.34
644.066	9050.16
644.419	8988.69
644.771	8850.84
645.124	8917.96
645.477	8818.53
645.83	8911.4
646.182	8711.64
646.535	8740.34
646.888	8729.71
647.24	8675.7
647.593	8734.01
647.945	8737.4
648.298	8657.63
648.65	8667.12
649.002	8606.1
649.355	8700.34
649.707	8671.41
650.059	8710.28
650.411	8858.98
650.763	8843.61
651.115	8881.8
651.467	8820.11
651.819	8898.3
652.171	8875.47
652.523	8882.03
652.875	8917.73
653.227	8844.06
653.578	8908.92
653.93	8873.44
654.282	8816.72
654.633	8778.75
654.985	8848.13
655.337	8845.19
655.688	8842.48
656.039	8879.54
656.391	8830.28
656.742	8866.21
657.094	8822.37
657.445	8849.48
657.796	8843.61
658.147	8857.85
658.498	8818.98
658.849	8867.11
659.2	8889.48
659.551	8817.62
659.902	8909.37
660.253	8842.93
660.604	8908.47
660.955	8793.44
661.306	8910.05
661.656	8863.72
662.007	8898.75
662.358	8850.16
662.708	8887.68
663.059	8869.6
663.409	8866.43
663.76	8915.47
664.11	8859.2
664.461	8908.69
664.811	8904.17
665.161	8886.09
665.511	8836.15
665.862	8887
666.212	8871.18
666.562	8909.82
666.912	8883.16
667.262	8883.16
667.612	8827.79
667.962	8871.86
668.312	8861.46
668.662	8915.47
669.011	8869.37
669.361	8809.49
669.711	8843.38
670.06	8754.12
670.41	8802.71
670.76	8776.27
671.109	8790.05
671.459	8792.99
671.808	8747.57
672.157	8815.59
672.507	8757.96
672.856	8791.18
673.205	8747.79
673.554	8803.61
673.904	8774.23
674.253	8836.6
674.602	8778.53
674.951	8656.04
675.3	8629.38
675.649	8749.83
675.998	8738.08
676.346	8743.05
676.695	8745.98
677.044	8648.13
677.393	8690.39
677.741	8743.95
678.09	8625.99
678.438	8736.49
678.787	8622.6
679.135	8672.77
679.484	8558.87
679.832	8671.86
680.181	8579.21
680.529	8608.59
680.877	8557.29
681.225	8568.14
681.573	8570.17
681.922	8508.25
682.27	8560.68
682.618	8491.53
682.966	8492.43
683.314	8500.12
683.661	8529.04
684.009	8460.79
684.357	8395.71
684.705	8420.8
685.053	8392.1
685.4	8402.04
685.748	8297.86
686.095	8294.7
686.443	8311.65
686.79	8243.4
687.138	8311.87
687.485	8296.96
687.832	8291.53
688.18	8246.34
688.527	8163.4
688.874	8204.53
689.221	8202.5
689.568	8159.79
689.915	8166.11
690.262	8121.59
690.609	8059.22
690.956	8051.09
691.303	8055.16
691.65	8043.86
691.997	7991.43
692.344	7946.91
692.69	7920.47
693.037	7939.45
693.383	7879.79
693.73	7877.31
694.077	7936.74
694.423	7829.85
694.769	7869.4
695.116	7790.98
695.462	7811.32
695.808	7713.47
696.155	7741.72
696.501	7747.14
696.847	7698.1
697.193	7650.65
697.539	7624.88
697.885	7661.49
698.231	7525.23
698.577	7560.03
698.923	7540.37
699.269	7510.99
699.614	7408.39
699.96	7390.54
700.306	7435.51
700.651	7383.08
700.997	7346.7
701.342	7344.89
701.688	7314.38
702.033	7257.21
702.379	7276.19
702.724	7257.21
703.069	7252.46
703.415	7210.88
703.76	7154.84
704.105	7158.91
704.45	7175.63
704.795	7073.26
705.14	7133.82
705.485	7045.01
705.83	7015.41
706.175	7024
706.52	7003.43
706.865	6969.31
707.209	6948.07
707.554	6953.04
707.899	6926.15
708.243	6858.35
708.588	6872.36
708.932	6824.68
709.277	6823.55
709.621	6856.09
709.966	6796.43
710.31	6871.23
710.654	6761.4
710.998	6788.97
711.342	6750.11
711.687	6740.84
712.031	6662.65
712.375	6708.52
712.719	6704.91
713.063	6686.15
713.407	6757.56
713.75	6620.62
714.094	6716.89
714.438	6660.39
714.782	6625.14
715.125	6584.69
715.469	6629.88
715.812	6567.96
716.156	6579.71
716.499	6515.53
716.843	6583.56
717.186	6510.34
717.53	6534.07
717.873	6560.73
718.216	6504.69
718.559	6466.72
718.902	6473.73
719.246	6516.89
719.589	6485.25
719.932	6429.44
720.275	6432.83
720.617	6427.18
720.96	6459.04
721.303	6415.2
721.646	6438.02
721.989	6422.2
722.331	6400.51
722.674	6387.63
723.016	6385.82
723.359	6358.7
723.701	6401.87
724.044	6336.78
724.386	6323.9
724.729	6365.48
725.071	6395.54
725.413	6388.53
725.755	6363.67
726.097	6314.64
726.439	6285.03
726.782	6321.42
727.124	6332.26
727.465	6332.71
727.807	6310.12
728.149	6235.77
728.491	6309.44
728.833	6305.14
729.175	6250.91
729.516	6283.22
729.858	6247.07
730.199	6273.28
730.541	6258.82
730.882	6271.93
731.224	6235.77
731.565	6261.53
731.906	6282.55
732.248	6247.07
732.589	6217.01
732.93	6235.54
733.271	6258.14
733.612	6217.46
733.953	6277.12
734.294	6254.3
734.635	6221.98
734.976	6248.88
735.317	6217.01
735.658	6211.36
735.999	6254.3
736.339	6219.72
736.68	6269.67
737.021	6224.7
737.361	6217.69
737.702	6313.05
738.042	6246.84
738.383	6231.47
738.723	6239.16
739.063	6270.8
739.404	6299.95
739.744	6266.73
740.084	6278.7
740.424	6264.02
740.764	6311.25
741.104	6332.26
741.444	6248.65
741.784	6285.03
742.124	6341.75
742.464	6318.93
742.804	6284.13
743.143	6362.77
743.483	6348.53
743.823	6359.38
744.162	6407.74
744.502	6403
744.841	6426.05
745.181	6474.63
745.52	6468.3
745.86	6478.93
746.199	6483.9
746.538	6530.22
746.877	6540.84
747.216	6598.47
747.556	6628.53
747.895	6656.55
748.234	6671.01
748.573	6700.84
748.911	6701.52
749.25	6736.77
749.589	6801.86
749.928	6849.54
750.267	6903.55
750.605	6913.26
750.944	6948.52
751.283	6977.9
751.621	7091.79
751.96	7123.88
752.298	7148.74
752.636	7233.48
752.975	7271.22
753.313	7377.21
753.651	7486.36
753.989	7587.37
754.327	7622.17
754.666	7651.78
755.004	7656.75
755.342	7880.24
755.679	7910.3
756.017	8005.89
756.355	8088.83
756.693	8143.06
757.031	8308.93
757.368	8338.31
757.706	8475.03
758.044	8622.15
758.381	8682.94
758.719	8817.85
759.056	8882.25
759.394	9018.29
759.731	9041.34
760.068	9159.99
760.405	9268.68
760.743	9388.23
761.08	9579.41
761.417	9698.73
761.754	9738.73
762.091	9872.96
762.428	9931.04
762.765	10083.12
763.102	10310.46
763.438	10318.37
763.775	10432.27
764.112	10519.72
764.449	10707.97
764.785	10777.8
765.122	10802.88
765.458	10916.1
765.795	11067.73
766.131	11112.02
766.467	11173.94
766.804	11388.4
767.14	11516.99
767.476	11502.52
767.812	11603.99
768.148	11737.09
768.485	11753.14
768.821	11856.86
769.157	11914.26
