Data from hue_220_FLMS001491_00031.txt Node
Date: Tue Feb 07 16:39:21 GMT 2017
User: dcchb
Spectrometer: FLMS00149
Trigger mode: 0
Integration Time (sec): 2.000000E-2
Scans to average: 10
Electric dark correction enabled: true
Nonlinearity correction enabled: false
Boxcar width: 0
XAxis mode: Wavelengths
Number of Pixels in Spectrum: 2048
>>>>>Begin Spectral Data<<<<<
341.393	-26.79
341.776	-26.79
342.16	-26.79
342.543	-57.07
342.927	-79
343.31	-77.64
343.693	-86.68
344.077	-66.79
344.46	-43.97
344.843	-88.03
345.226	-53.23
345.61	-43.97
345.993	14.34
346.376	9.59
346.759	17.73
347.142	28.57
347.525	52.98
347.908	54.56
348.291	76.71
348.674	87.1
349.057	118.74
349.44	118.51
349.823	136.37
350.206	183.6
350.588	194.44
350.971	223.6
351.354	234.44
351.737	222.01
352.119	250.04
352.502	266.98
352.884	277.61
353.267	274.67
353.65	290.94
354.032	284.61
354.414	277.15
354.797	313.54
355.179	293.42
355.562	320.09
355.944	308.11
356.326	347.21
356.709	322.8
357.091	327.77
357.473	338.4
357.855	339.07
358.238	339.75
358.62	346.3
359.002	314.89
359.384	339.3
359.766	334.1
360.148	340.65
360.53	320.99
360.912	332.97
361.294	304.05
361.676	325.97
362.057	317.6
362.439	315.57
362.821	307.89
363.203	309.02
363.584	305.18
363.966	318.06
364.348	321.67
364.729	294.55
365.111	305.4
365.493	317.83
365.874	316.47
366.256	313.08
366.637	306.53
367.019	309.24
367.4	282.58
367.781	301.33
368.163	290.03
368.544	318.06
368.925	287.55
369.306	328.23
369.688	296.36
370.069	307.21
370.45	294.55
370.831	321.9
371.212	323.03
371.593	283.71
371.974	318.51
372.355	310.6
372.736	312.63
373.117	309.24
373.498	323.93
373.879	293.42
374.26	307.89
374.641	298.17
375.021	304.95
375.402	310.83
375.783	316.47
376.163	308.34
376.544	327.77
376.925	326.42
377.305	311.96
377.686	327.32
378.066	315.34
378.447	332.29
378.827	302.01
379.208	340.88
379.588	315.34
379.968	317.15
380.349	319.64
380.729	338.17
381.109	320.32
381.489	338.62
381.87	328.23
382.25	332.75
382.63	340.2
383.01	338.4
383.39	350.82
383.77	349.02
384.15	324.61
384.53	335.01
384.91	345.4
385.29	347.43
385.67	333.42
386.049	326.64
386.429	335.91
386.809	347.89
387.189	346.08
387.568	322.8
387.948	335.46
388.328	337.27
388.707	347.43
389.087	337.72
389.466	344.72
389.846	352.86
390.225	354.67
390.605	345.85
390.984	346.76
391.363	359.41
391.743	367.32
392.122	366.19
392.501	352.63
392.881	374.1
393.26	337.49
393.639	372.52
394.018	358.96
394.397	382.01
394.776	355.8
395.155	364.61
395.534	362.35
395.913	376.36
396.292	363.93
396.671	380.65
397.05	364.38
397.429	392.63
397.808	377.49
398.186	368.22
398.565	368.9
398.944	392.86
399.323	388.79
399.701	384.27
400.08	401.9
400.458	402.12
400.837	391.73
401.215	418.39
401.594	409.58
401.972	424.27
402.351	411.84
402.729	402.8
403.107	393.08
403.486	412.74
403.864	413.2
404.242	420.88
404.62	432.63
404.999	429.47
405.377	415.91
405.755	443.48
406.133	419.3
406.511	435.34
406.889	465.17
407.267	467.21
407.645	431.73
408.023	474.89
408.401	459.07
408.779	484.15
409.156	488.22
409.534	479.18
409.912	485.51
410.29	499.29
410.667	499.07
411.045	509.69
411.422	511.05
411.8	511.5
412.178	551.27
412.555	529.8
412.933	550.37
413.31	540.88
413.687	546.75
414.065	554.89
414.442	601.21
414.819	573.87
415.197	580.2
415.574	595.11
415.951	605.05
416.328	588.56
416.705	609.57
417.082	624.49
417.46	635.11
417.837	632.4
418.214	631.27
418.591	652.29
418.967	642.12
419.344	655.45
419.721	685.96
420.098	688.89
420.475	689.57
420.852	701.1
421.228	713.07
421.605	726.63
421.982	730.02
422.358	764.15
422.735	740.87
423.111	773.19
423.488	799.85
423.864	803.24
424.241	809.34
424.617	817.25
424.994	824.71
425.37	836.01
425.746	852.28
426.123	839.4
426.499	877.59
426.875	880.75
427.251	924.37
427.627	907.65
428.003	930.7
428.379	938.83
428.756	951.49
429.132	946.06
429.507	962.33
429.883	990.13
430.259	963.92
430.635	1001.43
431.011	984.03
431.387	1038.72
431.763	1034.87
432.138	1051.14
432.514	1052.05
432.89	1081.2
433.265	1122.33
433.641	1137.47
434.016	1148.54
434.392	1172.05
434.767	1178.6
435.143	1184.47
435.518	1192.61
435.894	1226.73
436.269	1262.89
436.644	1272.61
437.02	1283
437.395	1326.84
437.77	1343.11
438.145	1359.61
438.52	1336.56
438.895	1397.12
439.271	1400.74
439.646	1432.83
440.021	1453.85
440.395	1483
440.77	1482.55
441.145	1480.74
441.52	1524.58
441.895	1506.27
442.27	1513.51
442.645	1578.59
443.019	1593.96
443.394	1626.72
443.769	1579.72
444.143	1630.34
444.518	1642.99
444.892	1627.85
445.267	1651.13
445.641	1652.94
446.016	1677.12
446.39	1698.13
446.764	1711.24
447.139	1696.78
447.513	1753.5
447.887	1731.8
448.262	1761.86
448.636	1770.22
449.01	1768.87
449.384	1793.5
449.758	1816.32
450.132	1860.84
450.506	1850.45
450.88	1848.19
451.254	1849.32
451.628	1900.61
452.002	1889.77
452.376	1913.72
452.75	1929.77
453.123	1940.84
453.497	1971.8
453.871	2001.18
454.244	1996.66
454.618	2048.63
454.992	2078.46
455.365	2066.03
455.739	2129.76
456.112	2105.35
456.486	2111
456.859	2162.08
457.232	2179.25
457.606	2204.11
457.979	2202.75
458.352	2268.97
458.725	2273.26
459.099	2273.94
459.472	2340.83
459.845	2355.07
460.218	2348.29
460.591	2356.65
460.964	2364.78
461.337	2454.95
461.71	2451.56
462.083	2541.73
462.456	2507.6
462.829	2549.86
463.201	2570.65
463.574	2562.29
463.947	2584.89
464.32	2647.26
464.692	2653.59
465.065	2682.51
465.438	2677.09
465.81	2761.83
466.183	2760.93
466.555	2816.3
466.928	2835.5
467.3	2868.72
467.672	2896.07
468.045	2906.01
468.417	2949.63
468.789	2967.03
469.161	3026.91
469.534	3059.23
469.906	3083.18
470.278	3110.07
470.65	3165.21
471.022	3234.36
471.394	3249.96
471.766	3273.01
472.138	3320.24
472.51	3371.76
472.882	3401.37
473.253	3450.18
473.625	3484.98
473.997	3581.02
474.369	3599.1
474.74	3611.08
475.112	3682.49
475.484	3754.12
475.855	3798.42
476.227	3793.22
476.598	3881.8
476.97	3908.92
477.341	3935.81
477.713	4058.75
478.084	4065.75
478.455	4166.99
478.827	4186.2
479.198	4282.02
479.569	4259.42
479.94	4399.08
480.311	4401.57
480.682	4488.12
481.053	4585.52
481.424	4625.97
481.795	4674.33
482.166	4724.95
482.537	4776.02
482.908	4856.69
483.279	4912.06
483.65	4967.43
484.021	5058.04
484.391	5110.7
484.762	5129
485.133	5139.4
485.503	5209
485.874	5354.53
486.244	5391.37
486.615	5418.71
486.985	5479.5
487.356	5588.65
487.726	5627.07
488.097	5704.58
488.467	5690.34
488.837	5801.3
489.207	5891.92
489.578	5928.08
489.948	6011.47
490.318	6059.6
490.688	6019.15
491.058	6126.49
491.428	6211.23
491.798	6227.73
492.168	6365.13
492.538	6404.45
492.908	6413.49
493.278	6468.86
493.648	6502.98
494.017	6564.22
494.387	6613.26
494.757	6640.15
495.126	6712.69
495.496	6725.35
495.866	6755.85
496.235	6773.48
496.605	6908.17
496.974	6870.88
497.344	6912.01
497.713	6981.84
498.082	6995.4
498.452	7015.28
498.821	7088.73
499.19	7041.27
499.559	7104.09
499.928	7087.82
500.298	7202.85
500.667	7210.3
501.036	7222.73
501.405	7234.71
501.774	7299.12
502.143	7290.3
502.512	7314.26
502.88	7343.63
503.249	7321.04
503.618	7410.75
503.987	7451.88
504.356	7420.02
504.724	7485.1
505.093	7471.09
505.462	7432.67
505.83	7505.21
506.199	7512.67
506.567	7631.99
506.936	7519.9
507.304	7681.25
507.672	7611.2
508.041	7633.57
508.409	7717.41
508.777	7762.38
509.145	7744.08
509.514	7704.76
509.882	7808.71
510.25	7785.66
510.618	7774.58
510.986	7830.4
511.354	7931.42
511.722	7872.89
512.09	7897.74
512.458	7884.41
512.826	7944.3
513.193	7934.81
513.561	7896.16
513.929	7970.06
514.297	8019.1
514.664	7983.39
515.032	8032.43
515.4	8082.82
515.767	8087.34
516.135	8022.03
516.502	7935.48
516.869	8035.14
517.237	8101.13
517.604	8078.76
517.972	8118.3
518.339	8125.76
518.706	8142.26
519.073	8107.23
519.44	8102.94
519.808	8191.52
520.175	8099.55
520.542	8161.01
520.909	8144.74
521.276	8144.74
521.643	8164.63
522.009	8182.26
522.376	8157.17
522.743	8224.74
523.11	8265.87
523.477	8267.68
523.843	8277.62
524.21	8286.66
524.577	8340.9
524.943	8350.61
525.31	8311.07
525.676	8386.09
526.043	8358.52
526.409	8366.43
526.776	8373.66
527.142	8349.71
527.508	8386.77
527.874	8406.43
528.241	8414.57
528.607	8441.91
528.973	8465.86
529.339	8343.16
529.705	8425.41
530.071	8431.74
530.437	8378.64
530.803	8443.49
531.169	8471.97
531.535	8378.18
531.901	8424.06
532.267	8349.48
532.632	8379.77
532.998	8357.85
533.364	8362.14
533.73	8298.41
534.095	8369.14
534.461	8343.83
534.826	8372.31
535.192	8362.82
535.557	8275.36
535.923	8383.16
536.288	8350.61
536.653	8321.01
537.019	8215.93
537.384	8260.9
537.749	8252.99
538.114	8224.06
538.479	8226.78
538.845	8218.87
539.21	8149.26
539.575	8140.22
539.94	8167.34
540.305	8132.99
540.67	8038.31
541.034	8004.41
541.399	8053.45
541.764	8057.06
542.129	8026.33
542.494	8015.26
542.858	7997.18
543.223	8011.41
543.587	8036.5
543.952	7929.61
544.316	7944.52
544.681	7787.24
545.045	7876.28
545.41	7862.04
545.774	7820.46
546.138	7844.19
546.503	7836.73
546.867	7740.01
547.231	7820.01
547.595	7725.55
547.959	7700.01
548.324	7741.14
548.688	7693.46
549.052	7687.58
549.416	7671.08
549.779	7648.26
550.143	7615.27
550.507	7621.14
550.871	7579.11
551.235	7567.13
551.599	7643.51
551.962	7482.39
552.326	7569.39
552.689	7525.32
553.053	7470.86
553.417	7434.48
553.78	7499.11
554.143	7441.49
554.507	7489.39
554.87	7424.31
555.234	7474.25
555.597	7439.68
555.96	7413.24
556.323	7418.21
556.686	7326.69
557.05	7385.67
557.413	7441.94
557.776	7319.45
558.139	7333.47
558.502	7330.98
558.865	7321.71
559.228	7372.11
559.59	7323.3
559.953	7347.93
560.316	7359.68
560.679	7266.35
561.041	7368.94
561.404	7429.06
561.767	7399
562.129	7306.35
562.492	7364.88
562.854	7368.94
563.217	7296.63
563.579	7404.88
563.941	7385.67
564.304	7348.83
564.666	7339.79
565.028	7369.17
565.39	7374.37
565.753	7380.47
566.115	7391.99
566.477	7405.1
566.839	7383.63
567.201	7426.34
567.563	7423.86
567.925	7465.44
568.287	7387.48
568.648	7411.2
569.01	7454.82
569.372	7453.01
569.734	7442.16
570.095	7551.99
570.457	7556.74
570.819	7467.02
571.18	7499.11
571.542	7514.03
571.903	7486.23
572.265	7587.7
572.626	7501.14
572.987	7513.57
573.349	7606.23
573.71	7572.1
574.071	7567.36
574.432	7615.49
574.794	7627.24
575.155	7636.28
575.516	7620.24
575.877	7701.82
576.238	7665.66
576.599	7783.17
576.96	7736.39
577.32	7793.11
577.681	7783.4
578.042	7810.74
578.403	7741.82
578.763	7780.91
579.124	7760.57
579.485	7765.77
579.845	7799.22
580.206	7825.2
580.566	7806
580.927	7862.49
581.287	7899.33
581.648	7884.41
582.008	7925.09
582.368	7870.63
582.728	7936.39
583.089	7971.41
583.449	7925.31
583.809	7988.82
584.169	7996.5
584.529	7953.79
584.889	8088.93
585.249	8023.16
585.609	8039.21
585.969	8090.73
586.329	8017.06
586.688	8063.62
587.048	8118.53
587.408	8038.98
587.768	8145.42
588.127	8082.82
588.487	8108.13
588.846	8221.58
589.206	8155.14
589.565	8094.35
589.925	8228.58
590.284	8173.9
590.643	8215.7
591.003	8156.72
591.362	8308.81
591.721	8169.15
592.08	8236.72
592.44	8234.23
592.799	8275.59
593.158	8294.8
593.517	8292.54
593.876	8320.11
594.235	8325.3
594.593	8357.17
594.952	8276.49
595.311	8355.59
595.67	8372.08
596.029	8365.75
596.387	8439.42
596.746	8421.57
597.104	8345.87
597.463	8448.69
597.822	8404.85
598.18	8349.71
598.538	8377.28
598.897	8491.4
599.255	8400.33
599.613	8488.24
599.972	8471.97
600.33	8495.92
600.688	8440.55
601.046	8469.93
601.404	8527.11
601.762	8457.28
602.12	8562.13
602.478	8570.04
602.836	8558.52
603.194	8529.37
603.552	8448.92
603.91	8450.5
604.268	8525.52
604.625	8536.37
604.983	8546.09
605.341	8549.48
605.698	8581.34
606.056	8570.72
606.413	8585.41
606.771	8637.16
607.128	8594.9
607.485	8638.97
607.843	8552.87
608.2	8610.95
608.557	8585.64
608.914	8593.77
609.272	8624.73
609.629	8635.58
609.986	8628.8
610.343	8641
610.7	8628.35
611.057	8687.33
611.414	8675.8
611.771	8721.45
612.127	8659.31
612.484	8717.61
612.841	8742.02
613.198	8721.45
613.554	8766.42
613.911	8793.99
614.267	8813.43
614.624	8704.95
614.98	8757.38
615.337	8830.15
615.693	8838.28
616.05	8755.57
616.406	8836.25
616.762	8807.55
617.118	8803.48
617.475	8836.48
617.831	8888.9
618.187	8860.66
618.543	8850.71
618.899	8909.24
619.255	8826.31
619.611	8899.53
619.967	8913.08
620.323	8941.78
620.678	8869.47
621.034	8889.36
621.39	8880.54
621.746	8848.91
622.101	8956.25
622.457	8899.07
622.812	8901.33
623.168	8904.5
623.523	8937.04
623.879	8919.41
624.234	8864.95
624.589	8873.76
624.945	8911.73
625.3	8889.81
625.655	8848
626.01	8870.83
626.365	8888.45
626.72	8913.08
627.075	8875.57
627.43	8891.39
627.785	8794.9
628.14	8882.13
628.495	8891.16
628.85	8924.61
629.205	8827.44
629.559	8879.41
629.914	8832.63
630.269	8853.88
630.623	8873.76
630.978	8836.02
631.332	8854.78
631.687	8813.2
632.041	8750.6
632.396	8805.52
632.75	8750.38
633.104	8853.88
633.459	8734.56
633.813	8737.04
634.167	8664.5
634.521	8763.48
634.875	8735.24
635.229	8701.79
635.583	8748.8
635.937	8666.54
636.291	8634.9
636.645	8666.76
636.999	8683.94
637.352	8664.05
637.706	8649.81
638.06	8620.89
638.413	8615.47
638.767	8597.84
639.121	8589.93
639.474	8593.09
639.828	8564.62
640.181	8594.9
640.534	8560.55
640.888	8505.19
641.241	8499.08
641.594	8526.88
641.947	8617.95
642.301	8530.27
642.654	8541.57
643.007	8523.26
643.36	8502.93
643.713	8489.59
644.066	8512.19
644.419	8502.93
644.771	8374.57
645.124	8361.01
645.477	8367.79
645.83	8312.2
646.182	8332.99
646.535	8257.73
646.888	8249.83
647.24	8244.4
647.593	8250.73
647.945	8283.5
648.298	8233.78
648.65	8227.68
649.002	8250.96
649.355	8232.2
649.707	8216.38
650.059	8242.82
650.411	8282.37
650.763	8385.42
651.115	8433.32
651.467	8435.81
651.819	8453.66
652.171	8490.05
652.523	8381.8
652.875	8374.12
653.227	8383.83
653.578	8443.04
653.93	8423.15
654.282	8422.48
654.633	8374.34
654.985	8411.86
655.337	8357.39
655.688	8420.67
656.039	8460.89
656.391	8389.71
656.742	8386.09
657.094	8419.31
657.445	8456.6
657.796	8405.08
658.147	8403.27
658.498	8433.55
658.849	8473.55
659.2	8401.69
659.551	8421.35
659.902	8427.9
660.253	8410.73
660.604	8525.3
660.955	8420.44
661.306	8545.86
661.656	8465.41
662.007	8436.49
662.358	8415.47
662.708	8463.38
663.059	8437.62
663.409	8414.34
663.76	8439.2
664.11	8505.64
664.461	8506.99
664.811	8542.47
665.161	8543.83
665.511	8486.43
665.862	8511.97
666.212	8547.44
666.562	8539.54
666.912	8494.34
667.262	8456.6
667.612	8528.01
667.962	8490.05
668.312	8520.33
668.662	8546.77
669.011	8451.18
669.361	8502.47
669.711	8478.97
670.06	8412.53
670.41	8450.5
670.76	8437.84
671.109	8518.74
671.459	8390.84
671.808	8474.9
672.157	8489.59
672.507	8408.47
672.856	8407.11
673.205	8440.55
673.554	8424.28
673.904	8389.71
674.253	8477.16
674.602	8423.15
674.951	8331.86
675.3	8283.27
675.649	8431.97
675.998	8357.17
676.346	8414.79
676.695	8366.66
677.044	8355.13
677.393	8360.78
677.741	8401.69
678.09	8284.85
678.438	8278.98
678.787	8334.12
679.135	8332.76
679.484	8238.3
679.832	8255.25
680.181	8236.04
680.529	8224.29
680.877	8202.37
681.225	8229.71
681.573	8301.8
681.922	8190.39
682.27	8197.85
682.618	8192.2
682.966	8156.04
683.314	8175.25
683.661	8114.01
684.009	8112.2
684.357	8021.58
684.705	8031.98
685.053	8058.64
685.4	8015.71
685.748	8010.28
686.095	7984.75
686.443	7913.56
686.79	7902.04
687.138	7931.42
687.485	7894.58
687.832	7916.05
688.18	7921.47
688.527	7884.86
688.874	7828.37
689.221	7822.72
689.568	7779.78
689.915	7743.62
690.262	7744.08
690.609	7741.59
690.956	7700.01
691.303	7709.5
691.65	7679.22
691.997	7644.42
692.344	7544.76
692.69	7554.7
693.037	7618.2
693.383	7468.6
693.73	7535.27
694.077	7420.24
694.423	7439
694.769	7462.73
695.116	7358.78
695.462	7398.1
695.808	7317.19
696.155	7325.1
696.501	7301.38
696.847	7345.89
697.193	7231.55
697.539	7272.22
697.885	7221.38
698.231	7192.23
698.577	7168.27
698.923	7181.38
699.269	7141.83
699.614	7096.18
699.96	7014.6
700.306	7085.11
700.651	7013.02
700.997	6992.01
701.342	6969.18
701.688	6985.45
702.033	6923.31
702.379	6955.4
702.724	6886.47
703.069	6839.24
703.415	6749.98
703.76	6773.25
704.105	6814.16
704.45	6754.27
704.795	6702.52
705.14	6685.57
705.485	6682.41
705.83	6610.77
706.175	6631.11
706.52	6618.23
706.865	6559.47
707.209	6553.6
707.554	6580.94
707.899	6535.52
708.243	6479.7
708.588	6523.54
708.932	6478.57
709.277	6492.81
709.621	6430.89
709.966	6395.86
710.31	6432.25
710.654	6386.6
710.998	6365.13
711.342	6377.78
711.687	6342.98
712.031	6325.81
712.375	6295.53
712.719	6354.73
713.063	6298.01
713.407	6307.05
713.75	6220.5
714.094	6254.62
714.438	6274.74
714.782	6219.14
715.125	6215.98
715.469	6212.14
715.812	6197.45
716.156	6183.21
716.499	6209.88
716.843	6162.42
717.186	6159.71
717.53	6164.68
717.873	6122.2
718.216	6187.73
718.559	6118.13
718.902	6134.17
719.246	6071.35
719.589	6067.96
719.932	6038.58
720.275	6077
720.617	6055.98
720.96	6047.85
721.303	6044.46
721.646	6056.66
721.989	6016.66
722.331	6030
722.674	6013.95
723.016	6023.9
723.359	5979.83
723.701	6020.28
724.044	6030
724.386	5947.51
724.729	6000.62
725.071	5975.76
725.413	5982.99
725.755	5959.94
726.097	5921.98
726.439	5946.16
726.782	5952.03
727.124	5950.9
727.465	5932.15
727.807	5946.61
728.149	5916.33
728.491	5898.25
728.833	5994.29
729.175	5976.44
729.516	5917.01
729.858	5976.21
730.199	5943.9
730.541	5996.55
730.882	5921.98
731.224	6009.66
731.565	5904.12
731.906	5961.07
732.248	5922.2
732.589	5886.27
732.93	5910.9
733.271	5920.17
733.612	5931.47
733.953	5924.91
734.294	5932.6
734.635	5956.78
734.976	5932.37
735.317	5903.45
735.658	5936.21
735.999	5935.54
736.339	5915.88
736.68	5953.16
737.021	5946.61
737.361	5915.2
737.702	5931.02
738.042	5917.46
738.383	5972.6
738.723	5960.62
739.063	5950.68
739.404	5982.77
739.744	6036.1
740.084	6008.08
740.424	6020.05
740.764	6030.22
741.104	6047.17
741.444	5985.25
741.784	6017.57
742.124	6040.84
742.464	6090.33
742.804	6132.37
743.143	6117.45
743.483	6170.11
743.823	6186.15
744.162	6187.51
744.502	6270.67
744.841	6258.47
745.181	6293.49
745.52	6226.83
745.86	6318.35
746.199	6329.42
746.538	6356.99
746.877	6446.94
747.216	6416.88
747.556	6533.94
747.895	6552.69
748.234	6646.93
748.573	6606.03
748.911	6650.55
749.25	6781.16
749.589	6800.15
749.928	6801.73
750.267	6947.94
750.605	6984.77
750.944	7054.83
751.283	7116.97
751.621	7208.72
751.96	7263.64
752.298	7413.92
752.636	7437.19
752.975	7479.9
753.313	7601.25
753.651	7702.95
753.989	7843.28
754.327	7937.07
754.666	7989.49
755.004	8131.41
755.342	8221.13
755.679	8389.26
756.017	8539.54
756.355	8631.74
756.693	8777.5
757.031	8903.82
757.368	8984.72
757.706	9149.46
758.044	9290.25
758.381	9388.55
758.719	9599.62
759.056	9758.49
759.394	9807.52
759.731	9967.97
760.068	10191.02
760.405	10319.83
760.743	10505.59
761.08	10601.18
761.417	10805.46
761.754	10889.98
762.091	11191.44
762.428	11295.17
762.765	11414.94
763.102	11597.08
763.438	11698.55
763.775	11838.43
764.112	12028.94
764.449	12222.38
764.785	12397.29
765.122	12594.34
765.458	12676.6
765.795	12881.57
766.131	12982.13
766.467	13147.1
766.804	13241.56
767.14	13308
767.476	13642.45
767.812	13682
768.148	13888.1
768.485	13934.2
768.821	14082.89
769.157	14265.94
769.492	14392.26
769.828	14522.65
