Data from hue_28_FLMS001491_00007.txt Node
Date: Tue Feb 07 17:16:47 GMT 2017
User: dcchb
Spectrometer: FLMS00149
Trigger mode: 0
Integration Time (sec): 2.000000E-2
Scans to average: 10
Electric dark correction enabled: true
Nonlinearity correction enabled: false
Boxcar width: 0
XAxis mode: Wavelengths
Number of Pixels in Spectrum: 2048
>>>>>Begin Spectral Data<<<<<
341.393	-4.45
341.776	-4.45
342.16	-4.45
342.543	-50.1
342.927	-59.36
343.31	-55.97
343.693	-54.62
344.077	-52.36
344.46	-63.43
344.843	-73.6
345.226	-40.83
345.61	-25.69
345.993	-14.84
346.376	-0.61
346.759	-3.55
347.142	14.99
347.525	36.68
347.908	65.61
348.291	70.58
348.674	97.92
349.057	99.73
349.44	110.35
349.823	131.82
350.206	158.26
350.588	179.73
350.971	204.59
351.354	214.3
351.737	236.9
352.119	254.3
352.502	259.05
352.884	292.94
353.267	294.98
353.65	290.23
354.032	315.09
354.414	308.54
354.797	315.77
355.179	305.83
355.562	308.09
355.944	301.53
356.326	338.37
356.709	346.5
357.091	334.53
357.473	338.14
357.855	360.51
358.238	318.48
358.62	344.47
359.002	349.89
359.384	341.08
359.766	355.99
360.148	341.76
360.53	365.48
360.912	338.82
361.294	330.68
361.676	343.79
362.057	332.04
362.439	336.11
362.821	322.1
363.203	348.08
363.584	336.78
363.966	318.93
364.348	320.97
364.729	331.14
365.111	315.77
365.493	336.11
365.874	315.09
366.256	321.64
366.637	323.68
367.019	323
367.4	316.9
367.781	321.19
368.163	295.66
368.544	305.83
368.925	320.29
369.306	318.03
369.688	316.45
370.069	314.86
370.45	329.33
370.831	334.75
371.212	312.6
371.593	330.91
371.974	312.83
372.355	311.25
372.736	335.2
373.117	318.25
373.498	309.89
373.879	301.08
374.26	323.23
374.641	299.95
375.021	315.99
375.402	312.38
375.783	333.17
376.163	334.07
376.544	328.65
376.925	309.22
377.305	331.59
377.686	313.28
378.066	328.65
378.447	326.62
378.827	339.27
379.208	303.79
379.588	335.66
379.968	341.3
380.349	330.46
380.729	342.43
381.109	340.85
381.489	355.09
381.87	344.69
382.25	345.82
382.63	330.68
383.01	348.76
383.39	341.08
383.77	342.89
384.15	347.18
384.53	357.8
384.91	351.93
385.29	365.94
385.67	370.23
386.049	373.62
386.429	344.24
386.809	351.02
387.189	357.12
387.568	370
387.948	360.97
388.328	367.97
388.707	378.59
389.087	365.03
389.466	353.73
389.846	388.76
390.225	366.84
390.605	359.16
390.984	388.08
391.363	367.74
391.743	373.39
392.122	344.69
392.501	367.97
392.881	373.17
393.26	403.45
393.639	400.96
394.018	369.78
394.397	378.59
394.776	386.28
395.155	394.18
395.534	395.99
395.913	382.21
396.292	414.75
396.671	374.07
397.05	378.14
397.429	429.21
397.808	393.73
398.186	397.8
398.565	398.03
398.944	409.78
399.323	415.88
399.701	403
400.08	397.35
400.458	390.34
400.837	429.89
401.215	431.7
401.594	419.27
401.972	412.94
402.351	419.04
402.729	408.87
403.107	424.92
403.486	410.68
403.864	420.85
404.242	425.6
404.62	436.22
404.999	434.41
405.377	445.48
405.755	454.97
406.133	440.74
406.511	456.56
406.889	453.17
407.267	449.78
407.645	445.48
408.023	438.25
408.401	463.79
408.779	471.02
409.156	456.56
409.534	471.24
409.912	498.81
410.29	465.6
410.667	468.98
411.045	473.5
411.422	472.37
411.8	505.82
412.178	480.51
412.555	494.07
412.933	478.25
413.31	509.21
413.687	506.05
414.065	504.46
414.442	499.27
414.819	496.78
415.197	517.35
415.574	517.8
415.951	490.91
416.328	531.81
416.705	508.76
417.082	522.99
417.46	524.8
417.837	524.35
418.214	560.06
418.591	543.56
418.967	555.31
419.344	548.98
419.721	551.24
420.098	557.34
420.475	563.67
420.852	586.95
421.228	561.64
421.605	548.76
421.982	548.3
422.358	570.23
422.735	587.85
423.111	598.02
423.488	595.31
423.864	579.26
424.241	602.31
424.617	609.09
424.994	598.25
425.37	598.7
425.746	593.95
426.123	619.72
426.499	647.51
426.875	620.17
427.251	624.23
427.627	624.23
428.003	632.6
428.379	645.48
428.756	638.7
429.132	646.61
429.507	651.35
429.883	656.1
430.259	673.05
430.635	688.64
431.011	679.37
431.387	668.3
431.763	675.31
432.138	696.32
432.514	720.05
432.89	696.55
433.265	722.99
433.641	746.49
434.016	723.22
434.392	762.99
434.767	745.14
435.143	762.76
435.518	744.68
435.894	763.44
436.269	771.12
436.644	778.58
437.02	765.02
437.395	784.91
437.77	799.37
438.145	809.09
438.52	805.02
438.895	799.15
439.271	821.74
439.646	827.17
440.021	836.21
440.395	832.14
440.77	817.68
441.145	852.7
441.52	838.24
441.895	845.25
442.27	837.34
442.645	871.91
443.019	826.94
443.394	870.56
443.769	880.95
444.143	871.91
444.518	897.22
444.892	856.77
445.267	900.84
445.641	877.34
446.016	902.42
446.39	922.98
446.764	927.96
447.139	927.5
447.513	928.18
447.887	909.65
448.262	945.81
448.636	934.51
449.01	945.81
449.384	939.25
449.758	981.29
450.132	956.2
450.506	944.45
450.88	969.99
451.254	998.01
451.628	1005.24
452.002	1000.5
452.376	990.78
452.75	1037.11
453.123	1031.91
453.497	1012.7
453.871	1026.26
454.244	1070.55
454.618	1084.56
454.992	1082.3
455.365	1060.83
455.739	1076.2
456.112	1112.81
456.486	1127.72
456.859	1118.01
457.232	1128.4
457.606	1142.19
457.979	1152.58
458.352	1167.27
458.725	1157.1
459.099	1195.75
459.472	1220.38
459.845	1223.54
460.218	1249.76
460.591	1220.6
460.964	1258.79
461.337	1290.43
461.71	1288.17
462.083	1294.73
462.456	1301.73
462.829	1326.36
463.201	1346.25
463.574	1340.6
463.947	1409.75
464.32	1412.46
464.692	1412.24
465.065	1414.72
465.438	1445
465.81	1452.91
466.183	1484.78
466.555	1488.62
466.928	1526.58
467.3	1513.25
467.672	1516.87
468.045	1536.08
468.417	1569.29
468.789	1557.09
469.161	1592.57
469.534	1635.06
469.906	1620.82
470.278	1680.93
470.65	1717.77
471.022	1732.45
471.394	1759.8
471.766	1793.24
472.138	1815.16
472.51	1821.49
472.882	1876.63
473.253	1897.2
473.625	1882.73
473.997	1951.88
474.369	1992.11
474.74	2000.02
475.112	2018.77
475.484	2059
475.855	2100.81
476.227	2135.83
476.598	2181.93
476.97	2194.14
477.341	2265.1
477.713	2293.34
478.084	2321.59
478.455	2379.22
478.827	2407.01
479.198	2501.93
479.569	2524.75
479.94	2591.41
480.311	2577.4
480.682	2696.95
481.053	2726.78
481.424	2735.37
481.795	2797.29
482.166	2879.99
482.537	2879.32
482.908	2954.57
483.279	3020.78
483.65	3073.21
484.021	3142.81
484.391	3222.36
484.762	3218.74
485.133	3277.72
485.503	3329.93
485.874	3419.19
486.244	3461.9
486.615	3528.57
486.985	3611.28
487.356	3643.14
487.726	3658.05
488.097	3759.75
488.467	3796.81
488.837	3851.04
489.207	3946.18
489.578	3970.14
489.948	4060.75
490.318	4133.07
490.688	4131.94
491.058	4227.98
491.428	4250.81
491.798	4371.71
492.168	4439.73
492.538	4491.93
492.908	4488.77
493.278	4567.63
493.648	4583.68
494.017	4643.11
494.387	4723.11
494.757	4788.19
495.126	4830.45
495.496	4849.89
495.866	4903.44
496.235	4987.51
496.605	5035.64
496.974	5048.3
497.344	5103.21
497.713	5161.52
498.082	5252.59
498.452	5274.51
498.821	5283.32
499.19	5333.94
499.559	5429.08
499.928	5423.2
500.298	5443.54
500.667	5536.2
501.036	5524.67
501.405	5598.79
501.774	5587.04
502.143	5687.6
502.512	5675.63
502.88	5744.1
503.249	5744.55
503.618	5793.82
503.987	5819.8
504.356	5848.5
504.724	5882.63
505.093	5956.98
505.462	5975.73
505.83	6008.05
506.199	6083.3
506.567	6127.14
506.936	6130.53
507.304	6171.43
507.672	6201.26
508.041	6249.4
508.409	6276.97
508.777	6365.33
509.145	6365.1
509.514	6349.28
509.882	6405.33
510.25	6450.97
510.618	6494.59
510.986	6488.04
511.354	6610.29
511.722	6625.89
512.09	6637.18
512.458	6664.08
512.826	6718.99
513.193	6718.99
513.561	6770.51
513.929	6841.92
514.297	6850.96
514.664	6946.1
515.032	6886.9
515.4	6951.53
515.767	6970.51
516.135	7039.66
516.502	6961.7
516.869	7137.74
517.237	7099.77
517.604	7068.13
517.972	7178.64
518.339	7182.93
518.706	7227.9
519.073	7272.87
519.44	7280.78
519.808	7396.03
520.175	7346.09
520.542	7409.82
520.909	7440.55
521.276	7458.63
521.643	7541.12
522.009	7535.47
522.376	7577.05
522.743	7637.38
523.11	7693.43
523.477	7755.35
523.843	7835.12
524.21	7848.23
524.577	7919.86
524.943	8028.11
525.31	7939.97
525.676	8080.76
526.043	8080.31
526.409	8137.48
526.776	8211.38
527.142	8180.65
527.508	8201.44
527.874	8305.61
528.241	8397.36
528.607	8398.49
528.973	8462.22
529.339	8413.63
529.705	8538.6
530.071	8589.9
530.437	8658.6
530.803	8665.38
531.169	8693.63
531.535	8734.76
531.901	8747.86
532.267	8854.08
532.632	8784.7
532.998	8888.65
533.364	8946.05
533.73	8951.47
534.095	8974.75
534.461	9076.22
534.826	9128.64
535.192	9181.07
535.557	9216.1
535.923	9211.58
536.288	9216.1
536.653	9338.81
537.019	9310.56
537.384	9326.61
537.749	9435.53
538.114	9425.36
538.479	9446.38
538.845	9503.1
539.21	9516.2
539.575	9560.5
539.94	9571.8
540.305	9674.62
540.67	9708.74
541.034	9644.11
541.399	9750.77
541.764	9795.75
542.129	9758.01
542.494	9816.08
542.858	9920.04
543.223	9850.21
543.587	10015.63
543.952	9933.82
544.316	10004.78
544.681	10030.99
545.045	10114.83
545.41	10190.54
545.774	10218.33
546.138	10186.24
546.503	10249.52
546.867	10258.78
547.231	10377.42
547.595	10361.83
547.959	10395.5
548.324	10447.25
548.688	10447.93
549.052	10498.1
549.416	10621.26
549.779	10563.86
550.143	10607.02
550.507	10651.54
550.871	10628.72
551.235	10670.75
551.599	10825.55
551.962	10869.39
552.326	10872.33
552.689	10905.32
553.053	10862.16
553.417	10920.24
553.78	10994.13
554.143	10985.32
554.507	11048.37
554.87	11046.11
555.234	11131.76
555.597	11058.76
555.96	11220.57
556.323	11209.72
556.686	11231.87
557.05	11285.88
557.413	11303.5
557.776	11272.99
558.139	11426.89
558.502	11529.94
558.865	11440.22
559.228	11512.31
559.59	11575.59
559.953	11565.42
560.316	11672.31
560.679	11676.6
561.041	11708.01
561.404	11724.73
561.767	11866.88
562.129	11846.54
562.492	11927.44
562.854	11955.69
563.217	11980.55
563.579	11970.6
563.941	12027.55
564.304	12163.37
564.666	12250.37
565.028	12307.09
565.39	12281.33
565.753	12273.87
566.115	12343.47
566.477	12363.36
566.839	12393.19
567.201	12551.38
567.563	12551.83
567.925	12678.38
568.287	12670.7
568.648	12715.67
569.01	12841.31
569.372	12822.56
569.734	12749.79
570.095	12837.25
570.457	12881.09
570.819	12985.04
571.18	13021.65
571.542	13127.86
571.903	13013.29
572.265	13115.66
572.626	13207.18
572.987	13329.89
573.349	13387.52
573.71	13378.02
574.071	13479.94
574.432	13578.92
574.794	13728.3
575.155	13663.67
575.516	13739.6
575.877	13842.19
576.238	13942.53
576.599	13940.5
576.96	14136.2
577.32	14078.57
577.681	14263.2
578.042	14325.34
578.403	14439.01
578.763	14564.66
579.124	14657.09
579.485	14763.3
579.845	14966.91
580.206	15038.55
580.566	15112.89
580.927	15268.82
581.287	15422.49
581.648	15573.67
582.008	15749.04
582.368	15852.31
582.728	16055.47
583.089	16202.58
583.449	16404.61
583.809	16574.32
584.169	16813.87
584.529	16869.23
584.889	17245.72
585.249	17253.63
585.609	17444.36
585.969	17807.96
586.329	17938.58
586.688	18129.99
587.048	18426.48
587.408	18583.08
587.768	18867.15
588.127	19079.57
588.487	19349.17
588.846	19677.97
589.206	19736.5
589.565	20060.11
589.925	20414.9
590.284	20645.18
590.643	20920.88
591.003	21187.31
591.362	21489
591.721	21795.43
592.08	22074.07
592.44	22428.63
592.799	22646.25
593.158	22970.54
593.517	23216.64
593.876	23510.64
594.235	23822.72
594.593	24057.52
594.952	24447.79
595.311	24586.77
595.67	24956.48
596.029	25323.92
596.387	25687.76
596.746	25948.54
597.104	26218.59
597.463	26453.84
597.822	26929.08
598.18	26935.41
598.538	27376.98
598.897	27700.36
599.255	27780.81
599.613	28544.63
599.972	28572.65
600.33	28904.85
600.688	29114.79
601.046	29522.91
601.404	29810.36
601.762	30036.34
602.12	30501.87
602.478	30726.95
602.836	31021.63
603.194	31115.64
603.552	31440.83
603.91	31645.34
604.268	32051.43
604.625	32140.02
604.983	32647.35
605.341	32610.96
605.698	32914.91
606.056	33330.49
606.413	33549.92
606.771	33793.98
607.128	34132.51
607.485	34169.57
607.843	34426.06
608.2	34827.4
608.557	35061.75
608.914	35278.69
609.272	35508.29
609.629	35831.67
609.986	36183.3
610.343	36058.56
610.7	36586
611.057	36486.57
611.414	36828.48
611.771	37046.55
612.127	37468.92
612.484	37448.35
612.841	37799.08
613.198	37836.59
613.554	38036.13
613.911	38543.69
614.267	38534.2
614.624	38679.05
614.98	39002.43
615.337	39263.9
615.693	39355.87
616.05	39376.21
616.406	39622.76
616.762	39711.57
617.118	39707.95
617.475	40036.98
617.831	40172.12
618.187	40322.17
618.543	40493.7
618.899	40844.87
619.255	40735.72
619.611	40820.47
619.967	41028.14
620.323	41279.44
620.678	41191.98
621.034	41174.58
621.39	41337.29
621.746	41254.58
622.101	41998.06
622.457	41752.19
622.812	41891.17
623.168	42079.87
623.523	42150.37
623.879	42279.41
624.234	42114.9
624.589	42364.83
624.945	42400.99
625.3	42682.79
625.655	42571.38
626.01	42757.59
626.365	42932.28
626.72	42852.28
627.075	42968.21
627.43	42962.33
627.785	42891.6
628.14	42921.2
628.495	43094.76
628.85	43083.46
629.205	43005.27
629.559	43389.66
629.914	43064.48
630.269	43244.36
630.623	43246.84
630.978	43141.76
631.332	43464.46
631.687	43631.24
632.041	43463.33
632.396	43654.06
632.75	43440.96
633.104	43520.73
633.459	43274.64
633.813	43422.88
634.167	43380.85
634.521	43442.54
634.875	43554.41
635.229	43502.2
635.583	43365.94
635.937	43398.48
636.291	43490.23
636.645	43570.45
636.999	43416.56
637.352	43537.91
637.706	43453.17
638.06	43611.81
638.413	43487.97
638.767	43432.83
639.121	43512.37
639.474	43245.49
639.828	43452.04
640.181	43486.38
640.534	43423.34
640.888	43351.47
641.241	43204.36
641.594	43203.68
641.947	43313.28
642.301	43206.17
642.654	43228.09
643.007	43327.74
643.36	43311.47
643.713	43167.07
644.066	43262.66
644.419	43182.66
644.771	42950.58
645.124	42596.92
645.477	42548.1
645.83	42495
646.182	42310.82
646.535	42118.96
646.888	42091.85
647.24	41966.88
647.593	42274.21
647.945	42111.96
648.298	41897.73
648.65	41895.01
649.002	41839.65
649.355	42028.57
649.707	41943.37
650.059	42131.17
650.411	42768.89
650.763	42496.35
651.115	43095.21
651.467	42881.43
651.819	42868.77
652.171	42808.21
652.523	42687.54
652.875	42899.51
653.227	42591.72
653.578	42879.17
653.93	42795.56
654.282	42725.27
654.633	42693.86
654.985	42596.24
655.337	42681.43
655.688	42503.36
656.039	42894.54
656.391	42518.95
656.742	42518.73
657.094	42564.83
657.445	42791.49
657.796	42645.95
658.147	42536.13
658.498	42592.4
658.849	42724.6
659.2	42592.17
659.551	42485.51
659.902	42549.23
660.253	42539.29
660.604	42663.13
660.955	42455.23
661.306	42494.55
661.656	42602.11
662.007	42456.36
662.358	42532.96
662.708	42570.48
663.059	42568.67
663.409	42254.33
663.76	42517.6
664.11	42445.06
664.461	42597.59
664.811	42509.69
665.161	42455.23
665.511	42397.6
665.862	42410.71
666.212	42610.48
666.562	42556.47
666.912	42427.2
667.262	42388.56
667.612	42445.28
667.962	42507.65
668.312	42340.88
668.662	42456.58
669.011	42477.82
669.361	42362.57
669.711	42362.8
670.06	42301.11
670.41	42109.92
670.76	42179.75
671.109	42339.3
671.459	42294.33
671.808	42089.36
672.157	42392.63
672.507	41975.92
672.856	42078.96
673.205	42036.93
673.554	42217.49
673.904	42190.15
674.253	42252.97
674.602	42208.68
674.951	41491.64
675.3	41450.51
675.649	41990.6
675.998	42063.15
676.346	42058.85
676.695	42060.21
677.044	41881.23
677.393	42111.05
677.741	42003.26
678.09	41874.9
678.438	41860.89
678.787	42009.81
679.135	41904.73
679.484	41652.99
679.832	41785.86
680.181	41513.1
680.529	41625.42
680.877	41651.18
681.225	41651.4
681.573	41823.83
681.922	41526.44
682.27	41392.43
682.618	41302.94
682.966	41271.3
683.314	41459.32
683.661	41329.15
684.009	41035.15
684.357	40940.69
684.705	40941.82
685.053	41001.03
685.4	40872.44
685.748	40749.51
686.095	40789.96
686.443	40725.78
686.79	40724.65
687.138	40663.18
687.485	40579.34
687.832	40385.9
688.18	40470.19
688.527	40219.35
688.874	40208.05
689.221	40303.42
689.568	40086.47
689.915	40019.13
690.262	40027.49
690.609	39966.93
690.956	39810.32
691.303	39760.61
691.65	39396.55
691.997	39549.77
692.344	39371.01
692.69	39306.16
693.037	39377.79
693.383	39060.74
693.73	39144.58
694.077	38979.38
694.423	38891.48
694.769	38815.77
695.116	38772.61
695.462	38680.64
695.808	38509.57
696.155	38700.52
696.501	38514.76
696.847	38474.31
697.193	38055.34
697.539	38295.79
697.885	37858.96
698.231	37883.37
698.577	37781.9
698.923	37934.89
699.269	37752.98
699.614	37444.06
699.96	37473.66
700.306	37440.67
700.651	37136.27
700.997	37228.47
701.342	37108.7
701.688	37125.42
702.033	37041.36
702.379	36855.15
702.724	36701.48
703.069	36930.62
703.415	36495.38
703.76	36446.57
704.105	36612.67
704.45	36530.41
704.795	36168.61
705.14	36210.19
705.485	36175.39
705.83	36139.23
706.175	36030.54
706.52	35939.24
706.865	35738.34
707.209	35814.72
707.554	35653.37
707.899	35744.89
708.243	35642.75
708.588	35428.29
708.932	35306.26
709.277	35254.51
709.621	35290.22
709.966	35031.69
710.31	35104.91
710.654	34722.55
710.998	34901.98
711.342	34962.09
711.687	34804.13
712.031	34494.53
712.375	34448.66
712.719	34536.56
713.063	34543.34
713.407	34520.52
713.75	34207.08
714.094	34359.39
714.438	34248.89
714.782	34195.78
715.125	34050.7
715.469	34127.99
715.812	33907.88
716.156	33845.28
716.499	33725.29
716.843	33826.75
717.186	33694.55
717.53	33787.66
717.873	33785.17
718.216	33644.61
718.559	33490.04
718.902	33365.3
719.246	33411.62
719.589	33147.22
719.932	33053.44
720.275	33337.73
720.617	33078.3
720.96	33010.5
721.303	33052.53
721.646	32968.92
721.989	32700.45
722.331	32911.07
722.674	32801.69
723.016	32772.99
723.359	32716.72
723.701	32730.51
724.044	32582.94
724.386	32438.54
724.729	32750.4
725.071	32430.63
725.413	32431.99
725.755	32433.12
726.097	32295.27
726.439	32119.23
726.782	32159.68
727.124	32383.85
727.465	32121.49
727.807	32039.45
728.149	31975.28
728.491	31997.65
728.833	32079
729.175	31867.48
729.516	31885.56
729.858	31737.77
730.199	31862.96
730.541	31776.86
730.882	31693.47
731.224	31775.96
731.565	31559.92
731.906	31573.03
732.248	31583.19
732.589	31346.82
732.93	31188.86
733.271	31358.57
733.612	31435.18
733.953	31281.28
734.294	31281.28
734.635	31164.22
734.976	31279.93
735.317	31050.33
735.658	31021.85
735.999	31070.21
736.339	30899.6
736.68	31061.85
737.021	30912.93
737.361	30755.19
737.702	30903.89
738.042	30773.05
738.383	30795.42
738.723	30875.64
739.063	30697.34
739.404	30732.37
739.744	30471.59
740.084	30529.44
740.424	30535.54
740.764	30429.78
741.104	30590
741.444	30380.29
741.784	30339.39
742.124	30406.95
742.464	30334.41
742.804	30312.27
743.143	30156.79
743.483	30226.85
743.823	29906.18
744.162	29975.33
744.502	30088.09
744.841	29865.95
745.181	29997.02
745.52	29820.3
745.86	29903.69
746.199	29875.9
746.538	29658.5
746.877	29782.79
747.216	29842.22
747.556	29752.51
747.895	29712.28
748.234	29600.2
748.573	29601.78
748.911	29529.69
749.25	29531.72
749.589	29331.95
749.928	29399.07
750.267	29529.01
750.605	29243.14
750.944	29264.61
751.283	29120.66
751.621	29127.89
751.96	29099.19
752.298	29005.18
752.636	29101
752.975	28875.24
753.313	28813.78
753.651	29121.79
753.989	28844.74
754.327	28830.05
754.666	28675.47
755.004	28605.65
755.342	28748.92
755.679	28589.15
756.017	28473.9
756.355	28487.68
756.693	28375.37
757.031	28418.98
757.368	28202.49
757.706	28235.03
758.044	28090.18
758.381	28323.85
758.719	28127.24
