Data from hue_300_FLMS001491_00034.txt Node
Date: Tue Feb 07 15:50:38 GMT 2017
User: dcchb
Spectrometer: FLMS00149
Trigger mode: 0
Integration Time (sec): 2.000000E-2
Scans to average: 10
Electric dark correction enabled: true
Nonlinearity correction enabled: false
Boxcar width: 0
XAxis mode: Wavelengths
Number of Pixels in Spectrum: 2048
>>>>>Begin Spectral Data<<<<<
341.393	-10.44
341.776	-10.44
342.16	-10.44
342.543	-56.09
342.927	-76.2
343.31	-62.64
343.693	-76.88
344.077	-61.51
344.46	-44.79
344.843	-57.22
345.226	-64.9
345.61	-24.22
345.993	-17.44
346.376	-1.62
346.759	20.07
347.142	27.3
347.525	31.14
347.908	53.52
348.291	74.98
348.674	83.12
349.057	121.08
349.44	112.27
349.823	142.55
350.206	157.69
350.588	185.26
350.971	199.27
351.354	234.53
351.737	234.98
352.119	251.7
352.502	259.61
352.884	284.02
353.267	290.35
353.65	276.33
354.032	281.76
354.414	291.48
354.797	303.68
355.179	316.79
355.562	317.69
355.944	302.55
356.326	305.94
356.709	330.57
357.091	342.1
357.473	335.54
357.855	324.24
358.238	340.51
358.62	332.15
359.002	343.68
359.384	306.16
359.766	334.86
360.148	322.66
360.53	326.73
360.912	329.21
361.294	326.05
361.676	323.79
362.057	330.34
362.439	337.58
362.821	315.2
363.203	334.64
363.584	328.76
363.966	323.11
364.348	323.79
364.729	322.66
365.111	312.94
365.493	317.01
365.874	312.94
366.256	292.38
366.637	305.71
367.019	301.64
367.4	310.91
367.781	313.62
368.163	297.8
368.544	311.59
368.925	307.97
369.306	304.81
369.688	315.66
370.069	294.41
370.45	298.48
370.831	322.89
371.212	297.35
371.593	319.72
371.974	309.33
372.355	318.82
372.736	315.88
373.117	302.55
373.498	319.27
373.879	297.8
374.26	299.38
374.641	311.59
375.021	308.2
375.402	295.09
375.783	310.01
376.163	313.4
376.544	331.93
376.925	327.86
377.305	306.16
377.686	305.26
378.066	324.02
378.447	298.25
378.827	333.96
379.208	318.59
379.588	316.56
379.968	306.39
380.349	324.47
380.729	318.82
381.109	340.06
381.489	341.64
381.87	332.15
382.25	314.98
382.63	339.84
383.01	342.1
383.39	351.59
383.77	339.61
384.15	340.97
384.53	338.71
384.91	340.06
385.29	350
385.67	328.08
386.049	357.91
386.429	345.49
386.809	359.5
387.189	373.06
387.568	342.55
387.948	350
388.328	344.36
388.707	347.97
389.087	337.58
389.466	341.87
389.846	352.49
390.225	375.31
390.605	357.24
390.984	346.16
391.363	361.53
391.743	361.53
392.122	372.6
392.501	344.13
392.881	373.96
393.26	389.55
393.639	370.12
394.018	362.21
394.397	391.59
394.776	394.98
395.155	378.93
395.534	365.37
395.913	370.34
396.292	370.12
396.671	384.81
397.05	403.11
397.429	378.03
397.808	365.82
398.186	372.38
398.565	370.8
398.944	375.09
399.323	388.65
399.701	386.16
400.08	395.65
400.458	398.82
400.837	395.65
401.215	380.74
401.594	403.79
401.972	404.24
402.351	421.64
402.729	420.51
403.107	415.31
403.486	418.93
403.864	415.31
404.242	434.52
404.62	454.86
404.999	446.95
405.377	454.86
405.755	443.56
406.133	466.39
406.511	428.42
406.889	468.19
407.267	479.27
407.645	470.91
408.023	471.81
408.401	467.97
408.779	490.11
409.156	477.23
409.534	493.5
409.912	498.93
410.29	488.53
410.667	524.46
411.045	527.4
411.422	485.14
411.8	508.42
412.178	533.95
412.555	508.19
412.933	557.01
413.31	544.12
413.687	569.43
414.065	576.21
414.442	571.69
414.819	590.45
415.197	598.59
415.574	611.69
415.951	610.11
416.328	594.74
416.705	602.88
417.082	614.86
417.46	641.3
417.837	635.2
418.214	628.87
418.591	662.99
418.967	673.61
419.344	669.32
419.721	673.16
420.098	685.36
420.475	692.14
420.852	704.12
421.228	706.61
421.605	746.38
421.982	737.34
422.358	741.41
422.735	741.63
423.111	760.84
423.488	753.61
423.864	760.39
424.241	789.77
424.617	792.03
424.994	792.93
425.37	804.23
425.746	795.42
426.123	848.97
426.499	834.29
426.875	833.38
427.251	867.73
427.627	840.39
428.003	887.84
428.379	868.64
428.756	868.86
429.132	909.99
429.507	907.05
429.883	929.65
430.259	930.78
430.635	931.01
431.011	939.82
431.387	972.59
431.763	978.46
432.138	984.11
432.514	1006.48
432.89	986.6
433.265	1029.99
433.641	1047.16
434.016	1051.91
434.392	1052.13
434.767	1069.53
435.143	1079.7
435.518	1095.3
435.894	1085.8
436.269	1100.72
436.644	1141.62
437.02	1145.69
437.395	1115.41
437.77	1151.11
438.145	1177.1
438.52	1162.41
438.895	1178.23
439.271	1188.85
439.646	1211.45
440.021	1208.51
440.395	1219.81
440.77	1220.26
441.145	1242.86
441.52	1235.41
441.895	1231.56
442.27	1249.42
442.645	1274.05
443.019	1287.83
443.394	1256.2
443.769	1277.44
444.143	1275.86
444.518	1291
444.892	1290.09
445.267	1268.4
445.641	1319.02
446.016	1302.52
446.39	1332.58
446.764	1316.53
447.139	1309.75
447.513	1314.27
447.887	1338
448.262	1320.15
448.636	1320.37
449.01	1309.98
449.384	1360.83
449.758	1357.44
450.132	1381.16
450.506	1378.23
450.88	1354.72
451.254	1368.28
451.628	1373.03
452.002	1397.21
452.376	1412.12
452.75	1405.57
453.123	1402.41
453.497	1401.28
453.871	1402.86
454.244	1446.93
454.618	1472.91
454.992	1460.03
455.365	1493.7
455.739	1526.47
456.112	1497.09
456.486	1498.22
456.859	1558.56
457.232	1544.32
457.606	1559.24
457.979	1552.01
458.352	1558.56
458.725	1577.09
459.099	1616.64
459.472	1614.15
459.845	1614.6
460.218	1625.23
460.591	1632.01
460.964	1618.45
461.337	1665.68
461.71	1671.33
462.083	1682.63
462.456	1683.76
462.829	1683.76
463.201	1716.75
463.574	1723.08
463.947	1735.73
464.32	1745.45
464.692	1795.16
465.065	1801.49
465.438	1792.68
465.81	1783.41
466.183	1784.09
466.555	1822.96
466.928	1843.75
467.3	1826.8
467.672	1879.23
468.045	1907.7
468.417	1919
468.789	1905.67
469.161	1937.31
469.534	1987.48
469.906	1985.89
470.278	1992.67
470.65	2002.62
471.022	2011.88
471.394	2052.11
471.766	2021.15
472.138	2022.96
472.51	2104.08
472.882	2121.71
473.253	2114.03
473.625	2147.92
473.997	2196.06
474.369	2201.26
474.74	2193.35
475.112	2230.63
475.484	2261.82
475.855	2306.56
476.227	2288.49
476.598	2336.62
476.97	2319.67
477.341	2362.61
477.713	2420.46
478.084	2403.74
478.455	2441.7
478.827	2450.74
479.198	2525.77
479.569	2519.44
479.94	2520.12
480.311	2558.31
480.682	2592.88
481.053	2638.31
481.424	2669.94
481.795	2704.52
482.166	2711.07
482.537	2723.5
482.908	2764.86
483.279	2769.83
483.65	2796.27
484.021	2851.63
484.391	2846.44
484.762	2914.91
485.133	2925.08
485.503	2937.28
485.874	2946.09
486.244	3027.67
486.615	3016.38
486.985	3043.49
487.356	3097.73
487.726	3114.45
488.097	3154.9
488.467	3123.49
488.837	3234.45
489.207	3220.44
489.578	3254.11
489.948	3251.85
490.318	3292.07
490.688	3308.57
491.058	3329.81
491.428	3364.39
491.798	3383.37
492.168	3439.42
492.538	3463.14
492.908	3517.83
493.278	3506.53
493.648	3505.85
494.017	3557.38
494.387	3560.54
494.757	3572.29
495.126	3577.94
495.496	3631.5
495.866	3618.39
496.235	3600.09
496.605	3650.48
496.974	3673.76
497.344	3698.39
497.713	3672.18
498.082	3735.23
498.452	3748.33
498.821	3764.15
499.19	3743.81
499.559	3787.43
499.928	3794.89
500.298	3825.62
500.667	3857.71
501.036	3825.62
501.405	3859.97
501.774	3855.9
502.143	3917.82
502.512	3879.4
502.88	3932.06
503.249	3893.41
503.618	3943.81
503.987	3937.48
504.356	3977.25
504.724	4022.9
505.093	4012.28
505.462	4010.47
505.83	4039.63
506.199	4069
506.567	4047.08
506.936	4072.39
507.304	4118.27
507.672	4118.49
508.041	4119.62
508.409	4148.1
508.777	4114.88
509.145	4217.25
509.514	4166.63
509.882	4196.91
510.25	4181.09
510.618	4195.55
510.986	4217.93
511.354	4253.86
511.722	4261.77
512.09	4292.73
512.458	4275.78
512.826	4277.36
513.193	4338.15
513.561	4320.52
513.929	4323.46
514.297	4350.35
514.664	4385.83
515.032	4347.64
515.4	4407.07
515.767	4392.61
516.135	4420.41
516.502	4395.32
516.869	4419.73
517.237	4409.79
517.604	4476.22
517.972	4441.65
518.339	4478.03
518.706	4479.84
519.073	4478.71
519.44	4563
519.808	4487.75
520.175	4557.8
520.542	4538.37
520.909	4573.17
521.276	4560.06
521.643	4602.32
522.009	4589.22
522.376	4631.25
522.743	4631.47
523.11	4690.68
523.477	4711.02
523.843	4678.7
524.21	4774.52
524.577	4739.27
524.943	4789.44
525.31	4791.02
525.676	4860.39
526.043	4814.07
526.409	4884.35
526.776	4896.55
527.142	4939.94
527.508	4898.36
527.874	4964.57
528.241	4978.81
528.607	4967.28
528.973	5007.28
529.339	5010.45
529.705	5054.97
530.071	5103.33
530.437	5142.2
530.803	5169.77
531.169	5132.25
531.535	5157.56
531.901	5196.88
532.267	5181.06
532.632	5223.55
532.998	5307.39
533.364	5299.03
533.73	5278.91
534.095	5314.85
534.461	5307.61
534.826	5348.52
535.192	5371.79
535.557	5413.15
535.923	5339.7
536.288	5380.61
536.653	5434.62
537.019	5449.08
537.384	5496.31
537.749	5522.07
538.114	5507.38
538.479	5540.83
538.845	5546.48
539.21	5549.19
539.575	5579.02
539.94	5624.22
540.305	5618.79
540.67	5587.16
541.034	5699.02
541.399	5676.64
541.764	5692.24
542.129	5705.8
542.494	5765.68
542.858	5834.38
543.223	5769.75
543.587	5815.17
543.952	5835.96
544.316	5879.8
544.681	5866.7
545.045	5916.19
545.41	5957.77
545.774	5992.79
546.138	5981.72
546.503	6005
546.867	6021.95
547.231	6060.14
547.595	6076.86
547.959	6077.99
548.324	6154.82
548.688	6106.46
549.052	6146.46
549.416	6108.27
549.779	6186.69
550.143	6194.6
550.507	6228.04
550.871	6271.21
551.235	6254.03
551.599	6304.65
551.962	6292
552.326	6300.13
552.689	6297.65
553.053	6327.25
553.417	6368.38
553.78	6423.74
554.143	6377.19
554.507	6439.79
554.87	6446.57
555.234	6454.7
555.597	6476.17
555.96	6437.75
556.323	6500.8
556.686	6516.17
557.05	6590.29
557.413	6600.01
557.776	6616.51
558.139	6628.71
558.502	6612.67
558.865	6616.73
559.228	6678.43
559.59	6692.89
559.953	6738.31
560.316	6802.94
560.679	6789.61
561.041	6736.96
561.404	6866.22
561.767	6837.29
562.129	6780.57
562.492	6893.79
562.854	6871.87
563.217	6892.66
563.579	6890.85
563.941	6947.8
564.304	6990.06
564.666	6975.82
565.028	7011.52
565.39	7005.65
565.753	7043.39
566.115	7068.7
566.477	7035.25
566.839	7127.23
567.201	7124.29
567.563	7154.35
567.925	7192.99
568.287	7231.63
568.648	7244.96
569.01	7295.13
569.372	7428.46
569.734	7294.91
570.095	7401.57
570.457	7434.34
570.819	7503.26
571.18	7462.36
571.542	7597.72
571.903	7540.1
572.265	7515.92
572.626	7602.47
572.987	7624.62
573.349	7728.79
573.71	7754.56
574.071	7780.77
574.432	7898.28
574.794	7956.58
575.155	7961.33
575.516	7991.84
575.877	8063.25
576.238	8137.82
576.599	8134.66
576.96	8263.24
577.32	8348.89
577.681	8388.66
578.042	8490.81
578.403	8533.52
578.763	8693.51
579.124	8753.85
579.485	8848.31
579.845	9022.32
580.206	9059.38
580.566	9161.52
580.927	9273.39
581.287	9408.52
581.648	9571.01
582.008	9717.89
582.368	9856.87
582.728	10000.6
583.089	10141.84
583.449	10303.87
583.809	10459.8
584.169	10735.27
584.529	10748.6
584.889	11034.92
585.249	11133.68
585.609	11336.16
585.969	11525.76
586.329	11761.68
586.688	12022.01
587.048	12220.65
587.408	12372.29
587.768	12659.74
588.127	12903.57
588.487	13053.63
588.846	13352.6
589.206	13653.61
589.565	13843.66
589.925	14086.59
590.284	14362.97
590.643	14628.95
591.003	14842.96
591.362	15193.68
591.721	15496.05
592.08	15738.75
592.44	16053.77
592.799	16342.35
593.158	16565.17
593.517	16909.8
593.876	17178.71
594.235	17355.21
594.593	17784.12
594.952	18001.07
595.311	18232.25
595.67	18536.87
596.029	19012.34
596.387	19345.21
596.746	19594.02
597.104	19869.04
597.463	20086.66
597.822	20410.27
598.18	20669.92
598.538	20783.37
598.897	21304.48
599.255	21415.89
599.613	22002.77
599.972	22165.7
600.33	22528.63
600.688	22635.97
601.046	22965.91
601.404	23395.95
601.762	23511.43
602.12	23944.19
602.478	24143.28
602.836	24428.02
603.194	24575.81
603.552	24835.69
603.91	25117.72
604.268	25402.91
604.625	25493.07
604.983	25819.62
605.341	25974.19
605.698	26324.24
606.056	26592.7
606.413	26804
606.771	27057.55
607.128	27426.81
607.485	27286.92
607.843	27513.58
608.2	27996.96
608.557	28349.49
608.914	28351.08
609.272	28665.42
609.629	28886.43
609.986	29217.49
610.343	29203.94
610.7	29608.22
611.057	29713.3
611.414	29859.51
611.771	30126.17
612.127	30345.83
612.484	30393.06
612.841	30692.94
613.198	30684.8
613.554	30938.81
613.911	31353.48
614.267	31394.84
614.624	31497.21
614.98	31742.63
615.337	32066.23
615.693	32021.71
616.05	32199.11
616.406	32463.28
616.762	32489.05
617.118	32701.02
617.475	32705.54
617.831	32953.67
618.187	32998.64
618.543	33143.49
618.899	33404.28
619.255	33494.9
619.611	33505.52
619.967	33804.49
620.323	33895.79
620.678	33958.84
621.034	33986.86
621.39	34103.69
621.746	34081.55
622.101	34623.68
622.457	34524.47
622.812	34638.59
623.168	34749.1
623.523	34926.27
623.879	35007.4
624.234	34959.72
624.589	35135.3
624.945	35102.09
625.3	35282.65
625.655	35343.21
626.01	35457.33
626.365	35618.46
626.72	35341.85
627.075	35632.92
627.43	35572.81
627.785	35567.61
628.14	35607.61
628.495	35827.26
628.85	35808.51
629.205	35759.47
629.559	35924.66
629.914	35922.18
630.269	36056.86
630.623	35877.21
630.978	35903.42
631.332	36102.51
631.687	36193.36
632.041	36094.83
632.396	36083.75
632.75	36083.3
633.104	36146.58
633.459	36042.4
633.813	36148.61
634.167	36070.42
634.521	36120.14
634.875	36161.49
635.229	36146.8
635.583	35946.81
635.937	36183.41
636.291	36200.14
636.645	36101.61
636.999	36124.21
637.352	36134.37
637.706	35963.08
638.06	36128.27
638.413	36063.64
638.767	36106.8
639.121	36139.57
639.474	36095.51
639.828	36076.07
640.181	36151.55
640.534	36193.13
640.888	36062.06
641.241	35934.15
641.594	35994.72
641.947	36204.43
642.301	36156.3
642.654	36057.99
643.007	36126.01
643.36	36069.29
643.713	36092.79
644.066	36075.85
644.419	35964.44
644.771	35755.85
645.124	35375.98
645.477	35228.64
645.83	35227.96
646.182	35015.76
646.535	34930.11
646.888	35157.45
647.24	34881.98
647.593	35029.09
647.945	35103.89
648.298	34936.89
648.65	34855.09
649.002	34732.6
649.355	34936.44
649.707	35033.61
650.059	35028.42
650.411	35435.41
650.763	35594.73
651.115	35822.97
651.467	35815.51
651.819	35792.01
652.171	35726.48
652.523	35665.69
652.875	35672.01
653.227	35569.19
653.578	35692.58
653.93	35621.17
654.282	35521.96
654.633	35459.36
654.985	35567.38
655.337	35593.6
655.688	35629.53
656.039	35771.45
656.391	35458.46
656.742	35500.27
657.094	35608.51
657.445	35753.59
657.796	35515.63
658.147	35480.15
658.498	35620.49
658.849	35651.9
659.2	35551.57
659.551	35512.47
659.902	35687.38
660.253	35551.79
660.604	35506.14
660.955	35398.35
661.306	35502.53
661.656	35356.09
662.007	35511.57
662.358	35455.75
662.708	35418.69
663.059	35412.13
663.409	35121.52
663.76	35545.46
664.11	35414.17
664.461	35547.95
664.811	35502.53
665.161	35473.83
665.511	35361.74
665.862	35310.22
666.212	35406.71
666.562	35438.35
666.912	35425.01
667.262	35330.55
667.612	35365.58
667.962	35471.79
668.312	35389.76
668.662	35437.44
669.011	35394.28
669.361	35417.78
669.711	35410.78
670.06	35229.09
670.41	35246.71
670.76	35086.49
671.109	35298.69
671.459	35233.61
671.808	35077.68
672.157	35310.89
672.507	35095.98
672.856	35183.21
673.205	35141.18
673.554	35177.11
673.904	35060.96
674.253	35310.89
674.602	35115.42
674.951	34565.6
675.3	34477.7
675.649	35091.69
675.998	34867.29
676.346	35061.18
676.695	35200.16
677.044	34854.18
677.393	35086.49
677.741	35145.93
678.09	34967.4
678.438	34799.72
678.787	34931.92
679.135	34862.32
679.484	34720.17
679.832	34754.75
680.181	34496.45
680.529	34674.98
680.877	34637.46
681.225	34512.72
681.573	34793.85
681.922	34533.51
682.27	34376.68
682.618	34478.15
682.966	34370.81
683.314	34434.98
683.661	34378.04
684.009	34028.89
684.357	34179.85
684.705	34055.56
685.053	34072.28
685.4	34026.18
685.748	33819.41
686.095	33969.46
686.443	33755.23
686.79	33761.1
687.138	33803.36
687.485	33783.02
687.832	33647.66
688.18	33588.68
688.527	33462.81
688.874	33318.4
689.221	33313.88
689.568	33264.17
689.915	33214.9
690.262	33246.32
690.609	33209.03
690.956	32950.05
691.303	32978.3
691.65	32905.08
691.997	32851.3
692.344	32642.49
692.69	32741.24
693.037	32707.35
693.383	32304.87
693.73	32515.49
694.077	32391.2
694.423	32333.57
694.769	32318.88
695.116	32121.82
695.462	32117.98
695.808	32054.71
696.155	32057.65
696.501	31957.76
696.847	31915.95
697.193	31537.43
697.539	31774.49
697.885	31493.59
698.231	31492.91
698.577	31412.47
698.923	31341.51
699.269	31199.36
699.614	31235.52
699.96	31115.07
700.306	31160.49
700.651	30936.32
700.997	30750.34
701.342	30741.07
701.688	30677.8
702.033	30579.72
702.379	30601.19
702.724	30473.73
703.069	30593.05
703.415	30218.15
703.76	30281.65
704.105	30185.15
704.45	30161.88
704.795	29840.98
705.14	29821.32
705.485	29852.51
705.83	29771.6
706.175	29873.97
706.52	29684.83
706.865	29564.6
707.209	29583.13
707.554	29520.54
707.899	29486.19
708.243	29302.69
708.588	29282.35
708.932	29139.98
709.277	29065.86
709.621	29099.08
709.966	28906.54
710.31	29130.72
710.654	28773.21
710.998	28837.84
711.342	28813.21
711.687	28784.51
712.031	28633.56
712.375	28458.87
712.719	28581.8
713.063	28579.32
713.407	28499.32
713.75	28395.82
714.094	28304.75
714.438	28239.22
714.782	28379.55
715.125	28105.66
715.469	28228.59
715.812	28050.52
716.156	27799
716.499	27963.97
716.843	28049.39
717.186	27757.65
717.53	27956.51
717.873	27918.55
718.216	27858.21
718.559	27744.31
718.902	27434.94
719.246	27528.27
719.589	27587.03
719.932	27363.76
720.275	27309.75
720.617	27351.1
720.96	27366.24
721.303	27396.98
721.646	27295.74
721.989	27139.36
722.331	27302.74
722.674	27104.1
723.016	27152.46
723.359	26979.14
723.701	27042.64
724.044	26801.74
724.386	26733.94
724.729	26880.38
725.071	26767.39
725.413	26820.72
725.755	26819.82
726.097	26682.87
726.439	26524.91
726.782	26623.44
727.124	26738.69
727.465	26474.06
727.807	26500.73
728.149	26476.1
728.491	26425.7
728.833	26520.39
729.175	26390.9
729.516	26214.41
729.858	26300.51
730.199	26191.36
730.541	26287.18
730.882	26197.23
731.224	26293.5
731.565	26035.88
731.906	26116.56
732.248	26033.62
732.589	25926.96
732.93	25850.58
733.271	25901.65
733.612	26047.18
733.953	25938.94
734.294	25858.49
734.635	25736
734.976	25769.9
735.317	25657.81
735.658	25622.79
735.999	25595.22
736.339	25652.39
736.68	25710.24
737.021	25622.56
737.361	25530.36
737.702	25548.89
738.042	25533.3
738.383	25467.08
738.723	25456.01
739.063	25384.6
739.404	25384.83
739.744	25338.05
740.084	25191.16
740.424	25231.61
740.764	25188.45
741.104	25193.42
741.444	25114.1
741.784	25077.94
742.124	25095.12
742.464	25093.99
742.804	24985.06
743.143	24970.83
743.483	24997.49
743.823	24827.33
744.162	24865.07
744.502	24782.36
744.841	24805.18
745.181	24865.29
745.52	24727.67
745.86	24817.38
746.199	24639.99
746.538	24724.73
746.877	24809.25
747.216	24757.72
747.556	24614.45
747.895	24608.12
748.234	24562.02
748.573	24562.48
748.911	24544.85
749.25	24489.48
749.589	24399.09
749.928	24504.85
750.267	24449.71
750.605	24430.95
750.944	24410.84
751.283	24351.86
751.621	24408.81
751.96	24234.8
752.298	24190.96
752.636	24215.14
752.975	24079.78
753.313	24089.27
753.651	24212.88
753.989	24010.85
754.327	23989.84
754.666	23789.39
755.004	23974.02
755.342	24046.78
755.679	23867.8
756.017	23826.68
756.355	23720.46
756.693	23762.72
757.031	23764.98
757.368	23666.91
757.706	23660.8
758.044	23600.02
758.381	23637.3
758.719	23496.97
759.056	23496.74
759.394	23519.57
