Data from hue_70_FLMS001491_2.txt Node
Date: Mon Feb 06 15:19:58 GMT 2017
User: dcchb
Spectrometer: FLMS00149
Trigger mode: 0
Integration Time (sec): 2.000000E-2
Scans to average: 10
Electric dark correction enabled: true
Nonlinearity correction enabled: false
Boxcar width: 0
XAxis mode: Wavelengths
Number of Pixels in Spectrum: 2048
>>>>>Begin Spectral Data<<<<<
341.393	10.1
341.776	10.1
342.16	10.1
342.543	-64.7
342.927	-65.15
343.31	-77.58
343.693	-47.98
344.077	-49.33
344.46	-59.5
344.843	-49.56
345.226	-36.91
345.61	-43.46
345.993	-25.38
346.376	1.06
346.759	6.26
347.142	21.4
347.525	33.83
347.908	68.63
348.291	61.4
348.674	82.64
349.057	114.5
349.44	134.39
349.823	148.63
350.206	166.25
350.588	168.06
350.971	221.17
351.354	218.23
351.737	236.08
352.119	249.87
352.502	275.18
352.884	265.69
353.267	242.41
353.65	293.48
354.032	290.32
354.414	321.95
354.797	298.68
355.179	302.75
355.562	313.37
355.944	311.56
356.326	312.24
356.709	332.8
357.091	349.75
357.473	336.87
357.855	344.55
358.238	336.19
358.62	335.97
359.002	340.03
359.384	330.54
359.766	343.42
360.148	331.45
360.53	325.57
360.912	323.08
361.294	328.28
361.676	331.9
362.057	327.83
362.439	337.77
362.821	309.07
363.203	321.5
363.584	335.97
363.966	333.93
364.348	333.71
364.729	323.08
365.111	306.36
365.493	311.11
365.874	318.79
366.256	322.18
366.637	309.98
367.019	318.57
367.4	325.8
367.781	311.11
368.163	305.68
368.544	294.61
368.925	311.79
369.306	325.34
369.688	289.64
370.069	305.01
370.45	294.38
370.831	299.13
371.212	292.58
371.593	316.76
371.974	324.44
372.355	333.03
372.736	322.18
373.117	316.08
373.498	305.01
373.879	319.47
374.26	300.26
374.641	325.8
375.021	322.86
375.402	324.21
375.783	317.66
376.163	326.02
376.544	318.79
376.925	335.74
377.305	344.1
377.686	336.42
378.066	327.6
378.447	315.4
378.827	313.82
379.208	335.74
379.588	335.97
379.968	352.69
380.349	316.31
380.729	323.31
381.109	325.8
381.489	342.29
381.87	317.66
382.25	305.46
382.63	333.93
383.01	339.36
383.39	340.94
383.77	333.48
384.15	326.25
384.53	352.01
384.91	331.67
385.29	357.89
385.67	358.34
386.049	352.91
386.429	342.52
386.809	330.09
387.189	329.86
387.568	338
387.948	354.04
388.328	366.93
388.707	350.65
389.087	362.41
389.466	348.17
389.846	389.3
390.225	355.4
390.605	352.91
390.984	364.89
391.363	358.34
391.743	351.33
392.122	378.68
392.501	347.94
392.881	368.51
393.26	367.38
393.639	380.48
394.018	376.87
394.397	362.41
394.776	380.48
395.155	357.21
395.534	349.3
395.913	384.55
396.292	371.9
396.671	356.98
397.05	394.95
397.429	378.9
397.808	368.51
398.186	391.56
398.565	374.38
398.944	382.52
399.323	388.62
399.701	398.79
400.08	395.17
400.458	375.74
400.837	384.55
401.215	389.07
401.594	371.9
401.972	393.14
402.351	415.96
402.729	403.08
403.107	402.63
403.486	368.96
403.864	402.18
404.242	412.57
404.62	407.38
404.999	404.89
405.377	417.09
405.755	394.27
406.133	414.61
406.511	392.01
406.889	432.91
407.267	425.23
407.645	426.36
408.023	419.81
408.401	422.07
408.779	429.97
409.156	422.29
409.534	445.34
409.912	418.68
410.29	451.44
410.667	439.92
411.045	438.34
411.422	442.86
411.8	447.83
412.178	461.84
412.555	440.6
412.933	435.62
413.31	447.83
413.687	467.71
414.065	479.01
414.442	481.95
414.819	486.02
415.197	467.94
415.574	478.33
415.951	462.29
416.328	480.37
416.705	479.46
417.082	467.71
417.46	492.8
417.837	471.56
418.214	481.27
418.591	508.62
418.967	497.54
419.344	493.25
419.721	503.42
420.098	519.46
420.475	483.08
420.852	490.31
421.228	485.79
421.605	529.18
421.982	501.61
422.358	517.43
422.735	515.4
423.111	517.66
423.488	523.08
423.864	543.19
424.241	533.93
424.617	531.21
424.994	530.76
425.37	533.7
425.746	545.23
426.123	547.94
426.499	535.51
426.875	558.56
427.251	574.6
427.627	536.64
428.003	562.85
428.379	579.58
428.756	582.74
429.132	571.67
429.507	576.41
429.883	597.43
430.259	595.62
430.635	596.07
431.011	603.08
431.387	619.8
431.763	627.03
432.138	612.57
432.514	614.6
432.89	644.88
433.265	641.49
433.641	643.75
434.016	624.55
434.392	669.29
434.767	668.84
435.143	673.13
435.518	648.5
435.894	676.75
436.269	675.39
436.644	694.6
437.02	694.6
437.395	683.08
437.77	689.63
438.145	703.41
438.52	694.15
438.895	710.19
439.271	703.41
439.646	707.48
440.021	719.23
440.395	711.32
440.77	713.81
441.145	738.22
441.52	735.73
441.895	732.79
442.27	725.79
442.645	739.12
443.019	755.39
443.394	741.83
443.769	774.6
444.143	751.32
444.518	770.08
444.892	757.42
445.267	778.44
445.641	761.04
446.016	781.38
446.39	790.64
446.764	773.02
447.139	796.97
447.513	798.1
447.887	768.04
448.262	814.37
448.636	789.29
449.01	803.07
449.384	814.82
449.758	807.14
450.132	821.6
450.506	849.4
450.88	833.58
451.254	836.97
451.628	861.15
452.002	861.6
452.376	876.29
452.75	883.75
453.123	889.85
453.497	902.5
453.871	896.18
454.244	912.45
454.618	908.83
454.992	903.18
455.365	936.18
455.739	942.96
456.112	968.94
456.486	970.98
456.859	968.72
457.232	966.91
457.606	975.72
457.979	1012.56
458.352	995.16
458.725	1037.42
459.099	1011.2
459.472	1036.74
459.845	1060.24
460.218	1062.5
460.591	1084.19
460.964	1090.97
461.337	1092.56
461.71	1108.6
462.083	1142.27
462.456	1141.14
462.829	1160.12
463.201	1180.24
463.574	1161.25
463.947	1207.81
464.32	1201.48
464.692	1230.63
465.065	1232.44
465.438	1245.32
465.81	1290.52
466.183	1260.91
466.555	1314.02
466.928	1330.29
467.3	1330.52
467.672	1380.68
468.045	1381.81
468.417	1389.5
468.789	1408.71
469.161	1416.84
469.534	1465.88
469.906	1504.07
470.278	1522.38
470.65	1533.22
471.022	1574.58
471.394	1602.6
471.766	1619.55
472.138	1637.63
472.51	1692.09
472.882	1729.38
473.253	1783.16
473.625	1773.44
473.997	1822.48
474.369	1867.45
474.74	1881.01
475.112	1920.78
475.484	1950.16
475.855	2020.44
476.227	2062.25
476.598	2097.28
476.97	2146.31
477.341	2255.01
477.713	2274.22
478.084	2323.03
478.455	2422.69
478.827	2450.49
479.198	2541.78
479.569	2580.88
479.94	2703.59
480.311	2725.96
480.682	2829.69
481.053	2939.97
481.424	3020.41
481.795	3053.41
482.166	3129.34
482.537	3196.46
482.908	3297.92
483.279	3407.07
483.65	3441.19
484.021	3587.86
484.391	3718.7
484.762	3764.58
485.133	3889.32
485.503	3922.76
485.874	4058.35
486.244	4205.02
486.615	4340.61
486.985	4433.71
487.356	4591.9
487.726	4629.86
488.097	4817.43
488.467	4896.3
488.837	5071.66
489.207	5192.56
489.578	5299.9
489.948	5362.05
490.318	5568.6
490.688	5648.82
491.058	5803.62
491.428	6011.75
491.798	6073.22
492.168	6277.96
492.538	6319.99
492.908	6482.7
493.278	6658.74
493.648	6719.98
494.017	6896.02
494.387	7025.51
494.757	7136.24
495.126	7395.67
495.496	7446.97
495.866	7554.98
496.235	7726.73
496.605	7891.02
496.974	8022.09
497.344	8125.82
497.713	8346.83
498.082	8414.85
498.452	8571.46
498.821	8639.25
499.19	8724.22
499.559	9007.83
499.928	9090.31
500.298	9180.93
500.667	9337.99
501.036	9417.08
501.405	9527.59
501.774	9596.51
502.143	9808.71
502.512	9921.7
502.88	10047.57
503.249	10183.84
503.618	10289.15
503.987	10395.81
504.356	10552.19
504.724	10632.19
505.093	10778.63
505.462	10886.87
505.83	10992.86
506.199	11156.7
506.567	11310.37
506.936	11359.63
507.304	11514.43
507.672	11618.83
508.041	11671.49
508.409	11871.03
508.777	12021.99
509.145	12129.33
509.514	12145.15
509.882	12274.41
510.25	12341.53
510.618	12535.64
510.986	12635.53
511.354	12651.8
511.722	12825.35
512.09	13006.82
512.458	12950.55
512.826	13096.99
513.193	13233.93
513.561	13290.65
513.929	13468.95
514.297	13599.35
514.664	13717.99
515.032	13808.15
515.4	13982.16
515.767	13932.44
516.135	14106.68
516.502	13970.18
516.869	14193
517.237	14314.58
517.604	14359.1
517.972	14509.15
518.339	14637.51
518.706	14622.37
519.073	14701.46
519.44	14862.14
519.808	14963.15
520.175	14972.42
520.542	15176.93
520.909	15296.25
521.276	15317.72
521.643	15484.95
522.009	15607.2
522.376	15657.14
522.743	15715
523.11	15858.27
523.477	16009
523.843	16072.05
524.21	16197.24
524.577	16343.23
524.943	16368.99
525.31	16536.9
525.676	16675.42
526.043	16712.48
526.409	16706.61
526.776	17004.91
527.142	16993.61
527.508	17081.06
527.874	17138.91
528.241	17161.74
528.607	17269.76
528.973	17443.99
529.339	17398.34
529.705	17546.36
530.071	17663.19
530.437	17712.01
530.803	17854.83
531.169	17911.1
531.535	17868.61
531.901	17935.73
532.267	17969.63
532.632	18056.63
532.998	18076.74
533.364	18129.85
533.73	18162.16
534.095	18330.75
534.461	18414.13
534.826	18426.56
535.192	18417.98
535.557	18533.45
535.923	18453.46
536.288	18599.21
536.653	18589.5
537.019	18464.98
537.384	18661.81
537.749	18687.35
538.114	18774.58
538.479	18742.49
538.845	18811.41
539.21	18762.6
539.575	18843.95
539.94	18887.12
540.305	18944.74
540.67	18902.03
541.034	18936.38
541.399	18975.02
541.764	19067.22
542.129	19114
542.494	19101.35
542.858	19118.97
543.223	19139.77
543.587	19239.2
543.952	19331.62
544.316	19155.58
544.681	19200.78
545.045	19249.37
545.41	19238.07
545.774	19312.64
546.138	19350.83
546.503	19359.19
546.867	19249.37
547.231	19479.87
547.595	19344.28
547.959	19457.27
548.324	19487.78
548.688	19471.28
549.052	19449.81
549.416	19598.96
549.779	19578.85
550.143	19534.33
550.507	19628.11
550.871	19664.72
551.235	19691.16
551.599	19730.03
551.962	19784.95
552.326	19773.87
552.689	19836.24
553.053	19764.83
553.417	19743.37
553.78	20052.51
554.143	19906.52
554.507	19953.76
554.87	19969.12
555.234	20162.79
555.597	19970.03
555.96	20018.84
556.323	20167.76
556.686	20190.13
557.05	20278.94
557.413	20315.33
557.776	20407.08
558.139	20394.42
558.502	20393.29
558.865	20532.72
559.228	20565.72
559.59	20658.14
559.953	20609.11
560.316	20757.35
560.679	20751.47
561.041	20849.78
561.404	20904.46
561.767	21028.3
562.129	20884.13
562.492	21113.72
562.854	21030.11
563.217	21004.57
563.579	21042.99
563.941	21237.79
564.304	21315.08
564.666	21374.73
565.028	21318.92
565.39	21506.48
565.753	21616.54
566.115	21588.74
566.477	21769.98
566.839	21709.19
567.201	21754.39
567.563	21875.06
567.925	21952.8
568.287	21935.17
568.648	21945.34
569.01	22056.07
569.372	22254.49
569.734	22114.38
570.095	22270.98
570.457	22283.19
570.819	22332.45
571.18	22288.38
571.542	22493.58
571.903	22447.47
572.265	22519.11
572.626	22514.14
572.987	22704.19
573.349	22724.53
573.71	22732.89
574.071	22816.05
574.432	22923.17
574.794	22897.41
575.155	22944.18
575.516	22840.23
575.877	23049.27
576.238	23001.36
576.599	23062.6
576.96	23003.84
577.32	23076.16
577.681	23174.01
578.042	23279.54
578.403	23287.23
578.763	23228.02
579.124	23246.1
579.485	23364.96
579.845	23363.16
580.206	23341.46
580.566	23390.73
580.927	23385.08
581.287	23475.7
581.648	23372.87
582.008	23545.3
582.368	23411.07
582.728	23395.47
583.089	23407
583.449	23454.45
583.809	23473.66
584.169	23354.12
584.529	23516.6
584.889	23554.34
585.249	23475.24
585.609	23407
585.969	23578.97
586.329	23405.87
586.688	23487.9
587.048	23441.57
587.408	23417.17
587.768	23476.83
588.127	23456.94
588.487	23360.67
588.846	23557.95
589.206	23343.04
589.565	23350.05
589.925	23543.94
590.284	23463.27
590.643	23443.38
591.003	23558.18
591.362	23514.34
591.721	23487.22
592.08	23476.83
592.44	23520.44
592.799	23644.73
593.158	23525.19
593.517	23564.73
593.876	23612.19
594.235	23499.65
594.593	23567.22
594.952	23688.35
595.311	23507.11
595.67	23609.48
596.029	23641.79
596.387	23651.74
596.746	23737.84
597.104	23593.43
597.463	23581.91
597.822	23641.79
598.18	23544.17
598.538	23550.27
598.897	23782.58
599.255	23584.85
599.613	23873.65
599.972	23748.91
600.33	23703.94
600.688	23769.02
601.046	23724.96
601.404	23830.26
601.762	23754.79
602.12	23785.74
602.478	23898.74
602.836	23770.83
603.194	23817.38
603.552	23821.9
603.91	23688.35
604.268	23776.93
604.625	23768.34
604.983	23854.22
605.341	23764.95
605.698	23962.01
606.056	24011.05
606.413	23828.46
606.771	24072.74
607.128	24114.55
607.485	23929.92
607.843	23915.91
608.2	24078.17
608.557	24224.15
608.914	24166.53
609.272	24268.9
609.629	24158.62
609.986	24360.19
610.343	24183.47
610.7	24407.2
611.057	24408.78
611.414	24308.89
611.771	24371.04
612.127	24405.39
612.484	24467.31
612.841	24499.62
613.198	24535.56
613.554	24590.7
613.911	24591.37
614.267	24657.59
614.624	24686.29
614.98	24659.17
615.337	24761.54
615.693	24697.59
616.05	24692.39
616.406	24945.71
616.762	24815.32
617.118	24886.05
617.475	24803.8
617.831	24910.69
618.187	24928.99
618.543	24966.96
618.899	25105.03
619.255	24978.48
619.611	25018.03
619.967	25104.13
620.323	25124.92
620.678	25060.29
621.034	25015.32
621.39	25005.37
621.746	25059.16
622.101	25341.18
622.457	25044.47
622.812	25074.07
623.168	25186.16
623.523	25182.54
623.879	25260.06
624.234	25172.37
624.589	25224.35
624.945	25202.2
625.3	25237.23
625.655	25274.75
626.01	25330.34
626.365	25410.79
626.72	25317.68
627.075	25351.81
627.43	25292.82
627.785	25246.27
628.14	25295.08
628.495	25293.5
628.85	25321.07
629.205	25224.8
629.559	25369.43
629.914	25262.54
630.269	25380.73
630.623	25196.1
630.978	25184.8
631.332	25318.36
631.687	25323.33
632.041	25221.64
632.396	25255.08
632.75	25133.28
633.104	25087.86
633.459	25004.24
633.813	25058.48
634.167	24947.97
634.521	25035.66
634.875	25146.16
635.229	25109.33
635.583	24985.04
635.937	24938.26
636.291	25099.61
636.645	24933.74
636.999	25009.22
637.352	24882.89
637.706	24816.68
638.06	24996.79
638.413	24807.64
638.767	24799.73
639.121	24805.6
639.474	24682.44
639.828	24699.62
640.181	24788.88
640.534	24768.77
640.888	24660.07
641.241	24626.17
641.594	24568.55
641.947	24737.58
642.301	24592.05
642.654	24674.08
643.007	24511.83
643.36	24628.89
643.713	24472.96
644.066	24490.81
644.419	24510.25
644.771	24327.43
645.124	24188.9
645.477	24115.91
645.83	24019.41
646.182	23830.04
646.535	23845.86
646.888	23920.2
647.24	23663.94
647.593	23880.66
647.945	23731.28
648.298	23718.63
648.65	23599.99
649.002	23628.69
649.355	23674.34
649.707	23645.18
650.059	23778.06
650.411	24045.17
650.763	24054.21
651.115	24264.38
651.467	24164.72
651.819	24208.33
652.171	24225.06
652.523	24211.27
652.875	24055.79
653.227	23985.51
653.578	24115.68
653.93	24207.65
654.282	24108
654.633	23955.68
654.985	24068.22
655.337	24035.91
655.688	24059.86
656.039	24193.19
656.391	23905.74
656.742	24048.56
657.094	24071.16
657.445	24153.87
657.796	24104.38
658.147	24060.99
658.498	24062.12
658.849	24022.8
659.2	24006.3
659.551	23957.72
659.902	24100.99
660.253	24070.26
660.604	24161.33
660.955	23937.83
661.306	24076.36
661.656	23986.19
662.007	24025.06
662.358	23991.61
662.708	23998.62
663.059	24039.75
663.409	23958.85
663.76	24154.55
664.11	24102.35
664.461	24129.92
664.811	24074.78
665.161	24139.86
665.511	24042.91
665.862	24012.18
666.212	24102.35
666.562	24117.49
666.912	24072.52
667.262	24022.35
667.612	24013.76
667.962	24132.85
668.312	23961.11
668.662	24092.86
669.011	23949.36
669.361	23927.21
669.711	23926.53
670.06	24013.99
670.41	23981.45
670.76	23992.29
671.109	23925.4
671.459	23904.84
671.808	23877.95
672.157	23985.51
672.507	23768.57
672.856	23752.07
673.205	23832.3
673.554	23856.7
673.904	23799.53
674.253	23992.97
674.602	23831.39
674.951	23486.32
675.3	23482.93
675.649	23773.99
675.998	23759.53
676.346	23772.41
676.695	23813.99
677.044	23649.48
677.393	23779.64
677.741	23755.24
678.09	23725.41
678.438	23628.46
678.787	23574
679.135	23591.85
679.484	23502.59
679.832	23434.34
680.181	23397.51
680.529	23437.28
680.877	23316.38
681.225	23362.03
681.573	23466.43
681.922	23171.52
682.27	23169.04
682.618	23233.67
682.966	23184.18
683.314	23253.56
683.661	23121.81
684.009	23044.97
684.357	22983.96
684.705	22945.09
685.053	23040.68
685.4	22982.83
685.748	22789.84
686.095	22740.35
686.443	22703.51
686.79	22756.17
687.138	22773.79
687.485	22668.26
687.832	22668.26
688.18	22561.37
688.527	22601.82
688.874	22586.68
689.221	22483.18
689.568	22467.81
689.915	22346.46
690.262	22261.04
690.609	22270.53
690.956	22153.92
691.303	22081.83
691.65	22077.54
691.997	22028.05
692.344	21866.02
692.69	21848.62
693.037	21851.78
693.383	21692.24
693.73	21783.09
694.077	21659.02
694.423	21571.57
694.769	21539.7
695.116	21462.42
695.462	21431
695.808	21381.51
696.155	21423.55
696.501	21265.13
696.847	21097.68
697.193	21056.78
697.539	21107.85
697.885	21023.78
698.231	20916.67
698.577	20760.06
698.923	20713.74
699.269	20772.72
699.614	20677.58
699.96	20459.73
700.306	20538.37
700.651	20426.06
700.997	20398.26
701.342	20327.98
701.688	20373.4
702.033	20238.49
702.379	20166.86
702.724	20175.67
703.069	20142.22
703.415	19979.52
703.76	19974.55
704.105	19880.54
704.45	19894.55
704.795	19861.78
705.14	19746.75
705.485	19750.14
705.83	19664.5
706.175	19690.49
706.52	19540.66
706.865	19474.45
707.209	19393.09
707.554	19301.12
707.899	19370.95
708.243	19230.38
708.588	19269.03
708.932	19036.94
709.277	18995.36
709.621	19015.25
709.966	18924.86
710.31	18921.69
710.654	18783.16
710.998	18853.44
711.342	18789.49
711.687	18754.69
712.031	18747.46
712.375	18598.54
712.719	18628.59
713.063	18585.88
713.407	18651.42
713.75	18572.77
714.094	18509.5
714.438	18454.81
714.782	18457.3
715.125	18400.35
715.469	18408.94
715.812	18359.67
716.156	18273.8
716.499	18277.41
716.843	18251.2
717.186	18201.71
717.53	18263.86
717.873	18187.02
718.216	18151.09
718.559	18078.1
718.902	17987.03
719.246	18017.99
719.589	17944.54
719.932	17912.45
720.275	17911.32
720.617	17866.8
720.96	17858.89
721.303	17838.78
721.646	17672.23
721.989	17703.42
722.331	17756.07
722.674	17763.3
723.016	17735.73
723.359	17741.38
723.701	17601.73
724.044	17648.28
724.386	17450.77
724.729	17554.95
725.071	17494.16
725.413	17431.79
725.755	17450.32
726.097	17409.64
726.439	17370.09
726.782	17352.02
727.124	17467.72
727.465	17375.74
727.807	17330.1
728.149	17339.13
728.491	17271.11
728.833	17380.04
729.175	17193.38
729.516	17247.39
729.858	17230.66
730.199	17242.19
730.541	17325.35
730.882	17224.56
731.224	17258.91
731.565	17073.6
731.906	17181.85
732.248	17213.26
732.589	17005.13
732.93	17010.1
733.271	17027.96
733.612	17085.58
733.953	17043.78
734.294	16965.13
734.635	16949.31
734.976	17033.83
735.317	16888.75
735.658	16982.76
735.999	16966.94
736.339	16829.54
736.68	17016.66
737.021	16966.49
737.361	16911.35
737.702	16969.88
738.042	17004.45
738.383	16928.07
738.723	16940.5
739.063	16855.98
739.404	17033.83
739.744	16886.27
740.084	16855.31
740.424	17020.05
740.764	16846.04
741.104	16890.33
741.444	16865.25
741.784	16823.89
742.124	16851.69
742.464	16876.77
742.804	16728.08
743.143	16896.66
743.483	16962.2
743.823	16850.56
744.162	16769.21
744.502	16908.41
744.841	16786.83
745.181	16932.59
745.52	16842.88
745.86	16928.3
746.199	16906.15
746.538	16984.12
746.877	17105.92
747.216	17047.62
747.556	17009.88
747.895	17066.37
748.234	17034.96
748.573	17058.69
748.911	17171.23
749.25	17115.86
749.589	17232.24
749.928	17153.6
750.267	17262.3
750.605	17371
750.944	17292.58
751.283	17373.03
751.621	17327.38
751.96	17411.9
752.298	17432.24
752.636	17552.24
752.975	17604.89
753.313	17598.11
753.651	17766.02
753.989	17667.04
754.327	17752.23
754.666	17797.88
755.004	17901.38
755.342	17972.11
755.679	18121.03
756.017	17980.02
756.355	18174.82
756.693	18197.42
757.031	18280.58
