Data from hue_130_FLMS001491_00037.txt Node
Date: Tue Feb 07 16:57:32 GMT 2017
User: dcchb
Spectrometer: FLMS00149
Trigger mode: 0
Integration Time (sec): 2.000000E-2
Scans to average: 10
Electric dark correction enabled: true
Nonlinearity correction enabled: false
Boxcar width: 0
XAxis mode: Wavelengths
Number of Pixels in Spectrum: 2048
>>>>>Begin Spectral Data<<<<<
341.393	1.65
341.776	1.65
342.16	1.65
342.543	-60.27
342.927	-77.44
343.31	-75.18
343.693	-85.58
344.077	-62.53
344.46	-52.58
344.843	-55.97
345.226	-53.26
345.61	-22.53
345.993	-8.52
346.376	-0.16
346.759	-8.29
347.142	34.19
347.525	54.08
347.908	63.35
348.291	67.19
348.674	86.85
349.057	118.94
349.44	120.52
349.823	145.83
350.206	168.2
350.588	194.42
350.971	214.53
351.354	221.31
351.737	245.26
352.119	262.89
352.502	281.87
352.884	290.91
353.267	268.09
353.65	288.88
354.032	287.07
354.414	285.03
354.797	309.22
355.179	320.06
355.562	322.32
355.944	318.93
356.326	335.43
356.709	326.62
357.091	337.24
357.473	352.83
357.855	340.63
358.238	344.02
358.62	341.98
359.002	339.5
359.384	355.09
359.766	322.32
360.148	356.67
360.53	340.63
360.912	341.53
361.294	323.45
361.676	340.4
362.057	350.34
362.439	322.32
362.821	334.07
363.203	337.91
363.584	351.47
363.966	346.28
364.348	306.5
364.729	322.55
365.111	328.65
365.493	316.45
365.874	312.83
366.256	323.45
366.637	325.71
367.019	313.06
367.4	315.99
367.781	321.42
368.163	317.8
368.544	311.7
368.925	312.6
369.306	336.33
369.688	319.61
370.069	306.96
370.45	330.01
370.831	327.75
371.212	322.55
371.593	327.75
371.974	320.06
372.355	318.03
372.736	311.02
373.117	304.92
373.498	317.58
373.879	313.06
374.26	327.75
374.641	323.68
375.021	310.12
375.402	321.87
375.783	326.39
376.163	348.99
376.544	311.02
376.925	315.54
377.305	351.7
377.686	325.71
378.066	301.53
378.447	324.58
378.827	337.01
379.208	319.38
379.588	345.82
379.968	337.91
380.349	333.4
380.729	323.9
381.109	329.33
381.489	339.5
381.87	328.42
382.25	326.39
382.63	360.29
383.01	335.88
383.39	349.89
383.77	353.28
384.15	333.85
384.53	360.06
384.91	370.91
385.29	322.1
385.67	353.73
386.049	357.12
386.429	340.17
386.809	344.24
387.189	345.15
387.568	346.28
387.948	355.54
388.328	362.32
388.707	350.57
389.087	357.12
389.466	360.51
389.846	375.65
390.225	389.89
390.605	365.71
390.984	368.65
391.363	375.65
391.743	388.08
392.122	388.31
392.501	357.12
392.881	390.12
393.26	380.85
393.639	388.53
394.018	396.67
394.397	396.44
394.776	370
395.155	407.97
395.534	390.12
395.913	380.17
396.292	381.3
396.671	408.87
397.05	391.92
397.429	378.37
397.808	400.29
398.186	402.77
398.565	391.47
398.944	380.17
399.323	400.06
399.701	404.13
400.08	415.43
400.458	410.91
400.837	395.77
401.215	426.27
401.594	422.66
401.972	398.25
402.351	414.52
402.729	421.3
403.107	417.46
403.486	421.53
403.864	409.33
404.242	429.44
404.62	424.69
404.999	436.67
405.377	431.47
405.755	423.11
406.133	444.58
406.511	426.05
406.889	438.25
407.267	429.89
407.645	453.62
408.023	414.3
408.401	450.91
408.779	464.01
409.156	465.14
409.534	457.69
409.912	468.53
410.29	466.95
410.667	483.45
411.045	456.33
411.422	460.62
411.8	465.14
412.178	474.63
412.555	495.42
412.933	481.64
413.31	482.32
413.687	497.68
414.065	504.01
414.442	501.3
414.819	495.2
415.197	494.52
415.574	513.05
415.951	502.88
416.328	492.49
416.705	522.54
417.082	494.75
417.46	520.73
417.837	510.57
418.214	523.22
418.591	525.48
418.967	492.49
419.344	538.59
419.721	531.81
420.098	540.17
420.475	549.21
420.852	553.95
421.228	552.37
421.605	552.15
421.982	552.6
422.358	547.85
422.735	570.23
423.111	548.76
423.488	582.88
423.864	559.83
424.241	569.77
424.617	562.77
424.994	584.24
425.37	576.1
425.746	596.67
426.123	592.15
426.499	615.87
426.875	598.92
427.251	620.85
427.627	613.16
428.003	626.27
428.379	618.36
428.756	635.08
429.132	652.03
429.507	624.91
429.883	647.74
430.259	646.61
430.635	653.84
431.011	651.13
431.387	659.94
431.763	671.24
432.138	674.18
432.514	671.24
432.89	684.8
433.265	693.16
433.641	707.17
434.016	679.15
434.392	696.55
434.767	719.37
435.143	726.15
435.518	718.7
435.894	720.73
436.269	744.46
436.644	756.21
437.02	741.29
437.395	743.78
437.77	756.66
438.145	767.73
438.52	793.5
438.895	815.19
439.271	791.46
439.646	783.33
440.021	802.31
440.395	817.45
440.77	800.28
441.145	796.66
441.52	817.45
441.895	832.59
442.27	834.4
442.645	844.79
443.019	817.45
443.394	854.51
443.769	840.5
444.143	854.51
444.518	870.1
444.892	867.62
445.267	856.09
445.641	848.86
446.016	869.43
446.39	883.66
446.764	867.62
447.139	898.13
447.513	902.65
447.887	899.93
448.262	913.94
448.636	938.8
449.01	908.07
449.384	941.51
449.758	972.47
450.132	954.62
450.506	943.32
450.88	945.58
451.254	960.05
451.628	971.34
452.002	987.16
452.376	1002.76
452.75	992.59
453.123	1008.18
453.497	1007.95
453.871	1042.08
454.244	1052.92
454.618	1048.4
454.992	1058.12
455.365	1078.91
455.739	1088.18
456.112	1067.16
456.486	1101.28
456.859	1124.33
457.232	1150.55
457.606	1124.33
457.979	1128.18
458.352	1143.32
458.725	1213.82
459.099	1174.28
459.472	1209.3
459.845	1221.51
460.218	1240.49
460.591	1258.79
460.964	1264.44
461.337	1279.13
461.71	1294.95
462.083	1316.65
462.456	1324.1
462.829	1336.08
463.201	1370.88
463.574	1374.05
463.947	1398.23
464.32	1412.69
464.692	1414.72
465.065	1445.68
465.438	1457.66
465.81	1489.97
466.183	1488.39
466.555	1533.82
466.928	1548.28
467.3	1576.3
467.672	1580.82
468.045	1649.07
468.417	1635.73
468.789	1682.29
469.161	1689.74
469.534	1718.9
469.906	1756.18
470.278	1781.27
470.65	1820.59
471.022	1858.33
471.394	1867.37
471.766	1903.3
472.138	1933.13
472.51	2003.63
472.882	2049.51
473.253	2034.14
473.625	2085.89
473.997	2197.53
474.369	2209.73
474.74	2245.89
475.112	2307.58
475.484	2330.4
475.855	2403.4
476.227	2420.12
476.598	2505.32
476.97	2581.7
477.341	2666.44
477.713	2709.38
478.084	2711.41
478.455	2852.42
478.827	2898.3
479.198	2994.12
479.569	3016.04
479.94	3134.68
480.311	3181.91
480.682	3347.78
481.053	3406.08
481.424	3466.19
481.795	3595.23
482.166	3694.44
482.537	3739.18
482.908	3864.15
483.279	3920.42
483.65	4049.46
484.021	4207.87
484.391	4240.19
484.762	4360.41
485.133	4479.5
485.503	4584.13
485.874	4736.67
486.244	4845.37
486.615	4962.65
486.985	5049.66
487.356	5221.18
487.726	5335.75
488.097	5437.44
488.467	5554.73
488.837	5764.21
489.207	5858.45
489.578	5980.25
489.948	6152.23
490.318	6258.21
490.688	6375.72
491.058	6467.02
491.428	6674.47
491.798	6827.46
492.168	6998.3
492.538	7089.15
492.908	7267.45
493.278	7413.44
493.648	7438.75
494.017	7701.11
494.387	7762.13
494.757	7885.06
495.126	8026.53
495.496	8096.13
495.866	8300.42
496.235	8394.2
496.605	8466.06
496.974	8596.68
497.344	8757.35
497.713	8901.08
498.082	9007.29
498.452	9122.99
498.821	9234.86
499.19	9264.01
499.559	9442.76
499.928	9557.33
500.298	9611.12
500.667	9788.74
501.036	9804.56
501.405	9987.6
501.774	10008.4
502.143	10145.34
502.512	10217.66
502.88	10361.38
503.249	10366.58
503.618	10479.12
503.987	10566.8
504.356	10647.47
504.724	10749.62
505.093	10823.74
505.462	10863.51
505.83	10965.66
506.199	11102.6
506.567	11208.14
506.936	11157.74
507.304	11370.39
507.672	11427.57
508.041	11520.67
508.409	11603.61
508.777	11622.36
509.145	11791.62
509.514	11746.43
509.882	11801.57
510.25	11813.32
510.618	11984.61
510.986	11918.63
511.354	12045.4
511.722	12108.68
512.09	12208.56
512.458	12157.49
512.826	12293.08
513.193	12392.97
513.561	12332.63
513.929	12500.31
514.297	12608.78
514.664	12639.74
515.032	12658.95
515.4	12793.86
515.767	12813.29
516.135	12817.59
516.502	12713.63
516.869	12973.06
517.237	12928.09
517.604	12932.84
517.972	12980.52
518.339	13065.26
518.706	13040.41
519.073	13147.97
519.44	13190.68
519.808	13181.64
520.175	13281.98
520.542	13367.63
520.909	13332.83
521.276	13378.02
521.643	13400.4
522.009	13473.61
522.376	13588.87
522.743	13582.54
523.11	13664.57
523.477	13710.44
523.843	13745.02
524.21	13823.66
524.577	13905.69
524.943	13851.46
525.31	13921.96
525.676	13989.53
526.043	14006.48
526.409	14030.89
526.776	14127.38
527.142	14020.94
527.508	14005.58
527.874	14150.66
528.241	14211.22
528.607	14158.34
528.973	14215.74
529.339	14216.65
529.705	14345.91
530.071	14378.9
530.437	14269.98
530.803	14316.3
531.169	14310.2
531.535	14243.54
531.901	14168.29
532.267	14280.15
532.632	14352.91
532.998	14339.13
533.364	14438.56
533.73	14261.39
534.095	14314.95
534.461	14290.99
534.826	14307.72
535.192	14342.07
535.557	14377.77
535.923	14346.36
536.288	14356.08
536.653	14333.93
537.019	14211
537.384	14243.09
537.749	14238.57
538.114	14178
538.479	14156.76
538.845	14082.41
539.21	14096.2
539.575	14154.73
539.94	14104.56
540.305	14094.62
540.67	14051
541.034	14023.43
541.399	13970.78
541.764	14035.41
542.129	13976.2
542.494	13893.04
542.858	13843.77
543.223	13886.49
543.587	13867.95
543.952	13851.01
544.316	13770.33
544.681	13757.67
545.045	13737.56
545.41	13782.53
545.774	13714.29
546.138	13699.37
546.503	13663.21
546.867	13609.66
547.231	13648.75
547.595	13587.96
547.959	13539.38
548.324	13549.54
548.688	13566.72
549.052	13503.44
549.416	13423.67
549.779	13445.59
550.143	13372.83
550.507	13359.49
550.871	13284.47
551.235	13316.78
551.599	13313.62
551.962	13293.51
552.326	13243.79
552.689	13298.93
553.053	13223.9
553.417	13098.26
553.78	13327.86
554.143	13189.78
554.507	13156.11
554.87	13133.28
555.234	13225.26
555.597	13134.64
555.96	13086.28
556.323	13125.15
556.686	13063
557.05	13168.09
557.413	13078.14
557.776	13055.32
558.139	13169.67
558.502	13027.3
558.865	13046.96
559.228	13106.39
559.59	13050.57
559.953	13038.6
560.316	13098.94
560.679	13122.89
561.041	13148.43
561.404	13088.77
561.767	13176
562.129	13058.26
562.492	13147.07
562.854	13128.76
563.217	13053.74
563.579	13110.69
563.941	13140.74
564.304	13239.5
564.666	13211.47
565.028	13233.39
565.39	13257.8
565.753	13241.98
566.115	13273.85
566.477	13289.66
566.839	13269.78
567.201	13363.56
567.563	13305.03
567.925	13334.41
568.287	13302.77
568.648	13269.1
569.01	13430
569.372	13410.79
569.734	13390.45
570.095	13414.41
570.457	13452.15
570.819	13354.75
571.18	13409.21
571.542	13474.52
571.903	13494.86
572.265	13571.92
572.626	13481.98
572.987	13480.17
573.349	13516.55
573.71	13475.42
574.071	13509.32
574.432	13533.73
574.794	13634.51
575.155	13541.41
575.516	13496.44
575.877	13646.94
576.238	13635.87
576.599	13632.25
576.96	13633.16
577.32	13664.57
577.681	13615.98
578.042	13582.54
578.403	13637.68
578.763	13580.96
579.124	13633.16
579.485	13709.99
579.845	13611.69
580.206	13551.13
580.566	13635.42
580.927	13611.01
581.287	13634.97
581.648	13594.74
582.008	13670.67
582.368	13676.77
582.728	13633.84
583.089	13685.81
583.449	13605.59
583.809	13590.67
584.169	13587.74
584.529	13626.83
584.889	13645.36
585.249	13620.5
585.609	13565.59
585.969	13636.55
586.329	13528.3
586.688	13493.95
587.048	13477.46
587.408	13505.48
587.768	13433.16
588.127	13510.22
588.487	13385.71
588.846	13550.9
589.206	13504.35
589.565	13475.2
589.925	13513.16
590.284	13498.02
590.643	13538.7
591.003	13473.61
591.362	13509.32
591.721	13507.06
592.08	13519.04
592.44	13397.01
592.799	13522.2
593.158	13536.44
593.517	13375.99
593.876	13435.2
594.235	13337.8
594.593	13474.07
594.952	13451.69
595.311	13360.17
595.67	13379.15
596.029	13535.99
596.387	13467.51
596.746	13418.02
597.104	13354.97
597.463	13367.63
597.822	13410.34
598.18	13366.72
598.538	13325.37
598.897	13367.85
599.255	13254.19
599.613	13462.99
599.972	13339.83
600.33	13390.9
600.688	13307.29
601.046	13388.19
601.404	13414.86
601.762	13357.01
602.12	13424.8
602.478	13383.45
602.836	13422.54
603.194	13352.49
603.552	13388.42
603.91	13315.43
604.268	13338.93
604.625	13269.55
604.983	13315.43
605.341	13202.66
605.698	13326.05
606.056	13368.08
606.413	13365.14
606.771	13329.21
607.128	13374.41
607.485	13411.7
607.843	13396.1
608.2	13382.77
608.557	13420.28
608.914	13401.53
609.272	13440.4
609.629	13504.57
609.986	13537.12
610.343	13409.44
610.7	13571.47
611.057	13495.08
611.414	13440.85
611.771	13503.22
612.127	13583.22
612.484	13546.16
612.841	13547.51
613.198	13572.6
613.554	13524.91
613.911	13585.7
614.267	13522.88
614.624	13601.29
614.98	13629.77
615.337	13646.94
615.693	13706.6
616.05	13564.46
616.406	13633.84
616.762	13641.97
617.118	13643.55
617.475	13582.99
617.831	13705.25
618.187	13672.03
618.543	13739.6
618.899	13785.7
619.255	13735.3
619.611	13722.42
619.967	13764.45
620.323	13696.21
620.678	13781.18
621.034	13749.77
621.39	13726.04
621.746	13718.13
622.101	13919.48
622.457	13769.43
622.812	13777.34
623.168	13719.94
623.523	13810.1
623.879	13816.66
624.234	13690.33
624.589	13719.71
624.945	13719.26
625.3	13761.52
625.655	13777.56
626.01	13732.36
626.365	13787.28
626.72	13742.76
627.075	13753.16
627.43	13829.54
627.785	13701.63
628.14	13738.47
628.495	13787.05
628.85	13767.84
629.205	13722.87
629.559	13786.37
629.914	13659.37
630.269	13712.93
630.623	13672.71
630.978	13609.66
631.332	13654.17
631.687	13659.6
632.041	13707.73
632.396	13649.66
632.75	13653.04
633.104	13498.47
633.459	13467.97
633.813	13608.53
634.167	13597.23
634.521	13602.2
634.875	13567.4
635.229	13607.4
635.583	13441.3
635.937	13446.04
636.291	13504.12
636.645	13481.75
636.999	13436.55
637.352	13521.52
637.706	13437.68
638.06	13345.93
638.413	13364.24
638.767	13284.02
639.121	13317.91
639.474	13241.08
639.828	13269.55
640.181	13266.39
640.534	13283.34
640.888	13322.88
641.241	13227.97
641.594	13207.41
641.947	13273.85
642.301	13218.48
642.654	13223
643.007	13251.7
643.36	13268.65
643.713	13207.86
644.066	13208.31
644.419	13134.19
644.771	13029.11
645.124	13049.22
645.477	12996.34
645.83	12889.22
646.182	12857.81
646.535	12843.8
646.888	12866.85
647.24	12775.33
647.593	12779.62
647.945	12712.28
648.298	12642.9
648.65	12705.95
649.002	12678.38
649.355	12749.79
649.707	12624.37
650.059	12807.64
650.411	12986.4
650.763	12968.09
651.115	13024.13
651.467	13008.99
651.819	13053.51
652.171	13061.42
652.523	12997.69
652.875	12957.7
653.227	12907.08
653.578	13036.56
653.93	13003.12
654.282	12896.91
654.633	12933.06
654.985	12867.53
655.337	13006.06
655.688	13029.56
656.039	13043.57
656.391	12978.94
656.742	12984.81
657.094	12975.1
657.445	12895.1
657.796	12909.34
658.147	12963.8
658.498	13006.28
658.849	13097.81
659.2	13023.68
659.551	12995.66
659.902	12988.2
660.253	13070.24
660.604	13072.5
660.955	12988.2
661.306	13037.69
661.656	13026.62
662.007	12990.92
662.358	12998.82
662.708	13057.13
663.059	13051.48
663.409	12934.42
663.76	13010.35
664.11	12979.39
664.461	13011.48
664.811	13034.3
665.161	13055.09
665.511	12992.95
665.862	12978.49
666.212	13080.18
666.562	13075.21
666.912	13137.35
667.262	13065.94
667.612	13046.96
667.962	13029.56
668.312	13039.05
668.662	13139.39
669.011	13072.5
669.361	12976
669.711	13080.63
670.06	13034.98
670.41	12968.32
670.76	12938.26
671.109	13082.66
671.459	12956.11
671.808	12959.73
672.157	12990.46
672.507	12950.01
672.856	12925.38
673.205	12858.72
673.554	12955.66
673.904	12884.7
674.253	12913.4
674.602	12922.22
674.951	12744.59
675.3	12687.65
675.649	12869.34
675.998	12861.2
676.346	12937.13
676.695	12926.96
677.044	12755.89
677.393	12761.54
677.741	12783.24
678.09	12778.72
678.438	12772.84
678.787	12828.21
679.135	12775.1
679.484	12671.83
679.832	12766.51
680.181	12608.1
680.529	12711.83
680.877	12656.91
681.225	12618.5
681.573	12790.02
681.922	12586.18
682.27	12571.72
682.618	12540.08
682.966	12561.55
683.314	12525.17
683.661	12517.03
684.009	12510.7
684.357	12429.57
684.705	12427.09
685.053	12397.94
685.4	12359.75
685.748	12293.08
686.095	12327.2
686.443	12264.15
686.79	12239.07
687.138	12287.66
687.485	12193.65
687.832	12110.49
688.18	12100.09
688.527	12095.12
688.874	12051.51
689.221	12011.28
689.568	12034.56
689.915	11974.9
690.262	11957.5
690.609	11993.43
690.956	11845.86
691.303	11819.65
691.65	11822.13
691.997	11865.07
692.344	11714.79
692.69	11738.07
693.037	11637.73
693.383	11596.6
693.73	11641.8
694.077	11567.22
694.423	11510.28
694.769	11477.28
695.116	11440
695.462	11419.43
695.808	11404.74
696.155	11424.63
696.501	11331.75
696.847	11241.36
697.193	11218.98
697.539	11257.63
697.885	11142.6
698.231	11095.15
698.577	11133.79
698.923	11069.38
699.269	11002.95
699.614	10841.37
699.96	10897.19
700.306	10957.3
700.651	10853.34
700.997	10828.71
701.342	10801.37
701.688	10804.98
702.033	10687.47
702.379	10676.63
702.724	10658.77
703.069	10618.32
703.415	10515.95
703.76	10555.05
704.105	10521.15
704.45	10454.48
704.795	10452.9
705.14	10379.23
705.485	10388.5
705.83	10287.94
706.175	10321.83
706.52	10317.77
706.865	10250.42
707.209	10230.99
707.554	10233.7
707.899	10250.87
708.243	10185.11
708.588	10125
708.932	10033.93
709.277	10028.96
709.621	10011.56
709.966	9912.8
710.31	9990.32
710.654	9892.92
710.998	9875.97
711.342	9870.09
711.687	9871.22
712.031	9820.6
712.375	9772.7
712.719	9846.82
713.063	9802.98
713.407	9789.42
713.75	9757.78
714.094	9685.69
714.438	9631.23
714.782	9689.99
715.125	9598.24
715.469	9706.71
715.812	9572.25
716.156	9604.34
716.499	9578.35
716.843	9520.72
717.186	9541.74
717.53	9567.5
717.873	9497.22
718.216	9490.44
718.559	9504.45
718.902	9413.83
719.246	9503.78
719.589	9450.67
719.932	9358.92
720.275	9407.96
720.617	9367.73
720.96	9366.38
721.303	9331.12
721.646	9418.13
721.989	9283.67
722.331	9344.23
722.674	9295.19
723.016	9302.65
723.359	9297.45
723.701	9329.54
724.044	9213.16
724.386	9256.1
724.729	9271.24
725.071	9283.22
725.413	9248.42
725.755	9212.48
726.097	9182.2
726.439	9149.66
726.782	9146.5
727.124	9200.05
727.465	9160.96
727.807	9171.58
728.149	9180.39
728.491	9167.29
728.833	9155.76
729.175	9172.26
729.516	9167.06
729.858	9139.94
730.199	9107.85
730.541	9136.33
730.882	9119.38
731.224	9144.46
731.565	9115.99
731.906	9081.41
732.248	9089.32
732.589	9039.15
732.93	9068.08
733.271	9075.76
733.612	9139.27
733.953	9072.83
734.294	9051.36
734.635	9039.83
734.976	9054.07
735.317	9029.89
735.658	9102.2
735.999	9067.18
736.339	9036.44
736.68	9085.26
737.021	9085.48
737.361	9011.13
737.702	9114.41
738.042	9095.65
738.383	9033.96
738.723	9129.55
739.063	9068.53
739.404	9179.26
739.744	9105.14
740.084	9102.88
740.424	9152.82
740.764	9198.7
741.104	9198.02
741.444	9143.78
741.784	9160.28
742.124	9160.73
742.464	9238.25
742.804	9215.2
743.143	9241.18
743.483	9238.92
743.823	9237.79
744.162	9272.14
744.502	9350.79
744.841	9325.25
745.181	9376.1
745.52	9375.64
745.86	9416.77
746.199	9471.91
746.538	9531.8
746.877	9541.51
747.216	9655.64
747.556	9660.61
747.895	9708.74
748.234	9699.02
748.573	9752.58
748.911	9861.28
749.25	9846.82
749.589	9864.22
749.928	9982.41
750.267	10090.65
750.605	10099.01
750.944	10180.14
751.283	10202.06
751.621	10315.73
751.96	10383.98
752.298	10547.14
752.636	10589.4
752.975	10653.12
753.313	10733.35
753.651	10865.1
753.989	10989.16
754.327	11036.84
754.666	11127.46
755.004	11242.03
755.342	11363.61
755.679	11474.35
756.017	11633.21
756.355	11788.69
756.693	11814.22
757.031	12060.09
757.368	12117.94
757.706	12279.07
758.044	12420.99
758.381	12570.14
758.719	12603.58
759.056	12782.11
