Data from hue_340_FLMS001491_90.txt Node
Date: Mon Feb 06 15:43:45 GMT 2017
User: dcchb
Spectrometer: FLMS00149
Trigger mode: 0
Integration Time (sec): 2.000000E-2
Scans to average: 10
Electric dark correction enabled: true
Nonlinearity correction enabled: false
Boxcar width: 0
XAxis mode: Wavelengths
Number of Pixels in Spectrum: 2048
>>>>>Begin Spectral Data<<<<<
341.393	-12.8
341.776	-12.8
342.16	-12.8
342.543	-68.16
342.927	-65
343.31	-65.9
343.693	-79.24
344.077	-73.13
344.46	-69.07
344.843	-49.41
345.226	-45.11
345.61	-24.77
345.993	-19.12
346.376	-9.86
346.759	31.95
347.142	20.42
347.525	30.59
347.908	58.16
348.291	85.28
348.674	95.22
349.057	113.98
349.44	124.83
349.823	122.12
350.206	156.92
350.588	175.45
350.971	202.34
351.354	218.16
351.737	232.85
352.119	232.17
352.502	250.02
352.884	287.08
353.267	261.32
353.65	295.67
354.032	301.09
354.414	306.07
354.797	320.98
355.179	304.48
355.562	321.66
355.944	330.7
356.326	316.46
356.709	323.47
357.091	325.5
357.473	340.64
357.855	348.32
358.238	350.13
358.62	331.38
359.002	317.36
359.384	337.03
359.766	333.41
360.148	323.69
360.53	337.7
360.912	332.05
361.294	313.3
361.676	309.91
362.057	336.35
362.439	330.92
362.821	305.16
363.203	320.98
363.584	309
363.966	303.13
364.348	316.69
364.729	327.08
365.111	300.19
365.493	336.57
365.874	320.75
366.256	287.08
366.637	296.35
367.019	300.42
367.4	313.97
367.781	318.27
368.163	310.81
368.544	305.16
368.925	304.94
369.306	325.95
369.688	298.83
370.069	292.73
370.45	318.49
370.831	301.55
371.212	304.48
371.593	327.31
371.974	304.94
372.355	298.16
372.736	308.55
373.117	300.64
373.498	297.7
373.879	312.39
374.26	311.49
374.641	339.51
375.021	311.04
375.402	318.72
375.783	321.21
376.163	329.79
376.544	328.21
376.925	337.03
377.305	329.79
377.686	298.61
378.066	319.62
378.447	327.31
378.827	323.47
379.208	324.6
379.588	309.23
379.968	340.64
380.349	345.16
380.729	333.18
381.109	319.4
381.489	314.88
381.87	321.88
382.25	342
382.63	318.27
383.01	341.54
383.39	343.13
383.77	327.76
384.15	327.53
384.53	337.48
384.91	339.96
385.29	356.23
385.67	334.99
386.049	343.8
386.429	348.32
386.809	355.56
387.189	325.05
387.568	376.12
387.948	324.14
388.328	361.21
388.707	355.56
389.087	320.53
389.466	348.1
389.846	346.74
390.225	332.73
390.605	357.59
390.984	349.68
391.363	358.27
391.743	337.48
392.122	348.1
392.501	377.93
392.881	374.09
393.26	333.64
393.639	356.46
394.018	342.45
394.397	368.21
394.776	373.63
395.155	387.19
395.534	362.34
395.913	364.59
396.292	376.35
396.671	353.07
397.05	392.16
397.429	371.15
397.808	374.76
398.186	380.87
398.565	360.75
398.944	397.36
399.323	365.05
399.701	382.22
400.08	387.19
400.458	382.67
400.837	379.06
401.215	388.78
401.594	377.48
401.972	393.97
402.351	383.35
402.729	412.5
403.107	397.36
403.486	385.16
403.864	399.62
404.242	407.31
404.62	407.31
404.999	410.24
405.377	399.62
405.755	384.93
406.133	415.89
406.511	416.8
406.889	435.78
407.267	422.22
407.645	407.76
408.023	431.94
408.401	427.87
408.779	421.32
409.156	431.71
409.534	421.99
409.912	445.5
410.29	456.12
410.667	445.27
411.045	441.43
411.422	444.59
411.8	461.09
412.178	456.34
412.555	460.64
412.933	471.48
413.31	467.19
413.687	457.93
414.065	492.05
414.442	490.69
414.819	481.43
415.197	483.01
415.574	513.52
415.951	517.13
416.328	511.48
416.705	494.76
417.082	504.03
417.46	531.37
417.837	506.74
418.214	531.37
418.591	530.69
418.967	517.36
419.344	525.27
419.721	546.29
420.098	540.18
420.475	564.14
420.852	557.58
421.228	542.44
421.605	536.57
421.982	560.97
422.358	584.7
422.735	584.02
423.111	573.18
423.488	577.7
423.864	583.35
424.241	582.67
424.617	579.05
424.994	578.83
425.37	607.07
425.746	605.72
426.123	633.97
426.499	637.13
426.875	602.33
427.251	630.35
427.627	637.58
428.003	634.42
428.379	632.16
428.756	624.7
429.132	649.56
429.507	648.2
429.883	666.73
430.259	664.25
430.635	668.32
431.011	684.36
431.387	673.97
431.763	676.45
432.138	695.43
432.514	700.63
432.89	722.78
433.265	703.8
433.641	726.85
434.016	714.64
434.392	720.07
434.767	759.16
435.143	728.88
435.518	752.16
435.894	781.53
436.269	745.83
436.644	786.05
437.02	787.18
437.395	774.98
437.77	771.36
438.145	808.2
438.52	793.51
438.895	812.04
439.271	822.66
439.646	820.63
440.021	792.38
440.395	841.87
440.77	818.14
441.145	818.37
441.52	852.72
441.895	865.15
442.27	853.85
442.645	856.11
443.019	856.33
443.394	854.07
443.769	869.21
444.143	858.14
444.518	878.03
444.892	887.75
445.267	878.93
445.641	888.42
446.016	914.64
446.39	914.19
446.764	897.69
447.139	880.51
447.513	920.29
447.887	895.43
448.262	901.98
448.636	915.09
449.01	905.6
449.384	915.54
449.758	942.88
450.132	920.74
450.506	926.84
450.88	911.47
451.254	950.34
451.628	968.42
452.002	979.95
452.376	964.58
452.75	937.46
453.123	974.52
453.497	1010.23
453.871	973.62
454.244	986.5
454.618	1011.58
454.992	1019.94
455.365	1027.63
455.739	1023.56
456.112	1029.66
456.486	1052.03
456.859	1060.62
457.232	1071.02
457.606	1058.59
457.979	1081.41
458.352	1079.15
458.725	1120.51
459.099	1106.27
459.472	1114.86
459.845	1119.15
460.218	1128.42
460.591	1149.66
460.964	1158.25
461.337	1160.73
461.71	1184.23
462.083	1181.52
462.456	1194.86
462.829	1211.8
463.201	1194.4
463.574	1216.78
463.947	1204.8
464.32	1230.56
464.692	1247.06
465.065	1265.59
465.438	1272.59
465.81	1282.99
466.183	1308.52
466.555	1334.74
466.928	1337.9
467.3	1316.66
467.672	1368.64
468.045	1325.25
468.417	1359.6
468.789	1408.86
469.161	1400.05
469.534	1400.95
469.906	1421.74
470.278	1446.15
470.65	1478.24
471.022	1481.63
471.394	1494.96
471.766	1528.86
472.138	1535.19
472.51	1575.18
472.882	1592.81
473.253	1557.33
473.625	1605.47
473.997	1608.4
474.369	1639.36
474.74	1653.6
475.112	1704.67
475.484	1714.84
475.855	1753.26
476.227	1709.87
476.598	1756.42
476.97	1812.01
477.341	1829.42
477.713	1844.33
478.084	1852.01
478.455	1897.44
478.827	1908.74
479.198	1972.69
479.569	2015.85
479.94	2036.19
480.311	2039.13
480.682	2097.43
481.053	2126.36
481.424	2148.73
481.795	2168.62
482.166	2218.56
482.537	2214.49
482.908	2268.27
483.279	2313.24
483.65	2356.18
484.021	2368.61
484.391	2380.36
484.762	2440.25
485.133	2435.27
485.503	2457.2
485.874	2507.36
486.244	2555.27
486.615	2561.6
486.985	2597.3
487.356	2635.5
487.726	2679.34
488.097	2728.6
488.467	2727.24
488.837	2740.58
489.207	2789.39
489.578	2804.76
489.948	2898.77
490.318	2873.23
490.688	2939.44
491.058	2973.34
491.428	2980.57
491.798	3020.8
492.168	3043.62
492.538	3083.17
492.908	3156.61
493.278	3175.37
493.648	3196.84
494.017	3240.45
494.387	3242.71
494.757	3241.13
495.126	3345.99
495.496	3319.55
495.866	3323.61
496.235	3339.88
496.605	3385.31
496.974	3374.23
497.344	3431.63
497.713	3441.58
498.082	3491.07
498.452	3465.98
498.821	3506.43
499.19	3498.75
499.559	3560.9
499.928	3576.49
500.298	3602.48
500.667	3631.63
501.036	3638.18
501.405	3624.62
501.774	3628.69
502.143	3664.4
502.512	3697.16
502.88	3752.3
503.249	3761.57
503.618	3776.26
503.987	3750.72
504.356	3808.57
504.724	3794.56
505.093	3812.87
505.462	3821.91
505.83	3854.67
506.199	3901.68
506.567	3914.11
506.936	3922.92
507.304	3952.98
507.672	3938.06
508.041	3980.09
508.409	3974.9
508.777	3983.03
509.145	4011.5
509.514	4027.55
509.882	4007.89
510.25	4041.11
510.618	4076.14
510.986	4052.63
511.354	4110.26
511.722	4106.19
512.09	4178.28
512.458	4157.72
512.826	4185.06
513.193	4232.52
513.561	4229.35
513.929	4272.97
514.297	4258.28
514.664	4313.64
515.032	4336.24
515.4	4298.05
515.767	4293.76
516.135	4352.29
516.502	4322.91
516.869	4401.55
517.237	4387.99
517.604	4362.23
517.972	4364.26
518.339	4394.77
518.706	4355
519.073	4411.72
519.44	4434.32
519.808	4472.06
520.175	4461.89
520.542	4494.88
520.909	4498.72
521.276	4558.61
521.643	4571.04
522.009	4582.34
522.376	4621.88
522.743	4662.34
523.11	4616.46
523.477	4652.17
523.843	4650.81
524.21	4677.7
524.577	4743.46
524.943	4777.59
525.31	4788.21
525.676	4759.73
526.043	4818.72
526.409	4841.54
526.776	4933.74
527.142	4897.58
527.508	4884.25
527.874	4917.02
528.241	4936.45
528.607	5005.6
528.973	5032.72
529.339	5036.79
529.705	5047.86
530.071	5099.16
530.437	5121.76
530.803	5163.34
531.169	5135.54
531.535	5159.27
531.901	5199.72
532.267	5208.31
532.632	5269.55
532.998	5235.88
533.364	5268.87
533.73	5304.8
534.095	5317.91
534.461	5314.75
534.826	5353.16
535.192	5399.49
535.557	5413.05
535.923	5415.54
536.288	5464.8
536.653	5455.99
537.019	5483.33
537.384	5453.05
537.749	5508.87
538.114	5551.13
538.479	5547.96
538.845	5566.72
539.21	5584.34
539.575	5599.49
539.94	5660.27
540.305	5626.15
540.67	5637
541.034	5665.02
541.399	5745.02
541.764	5722.42
542.129	5775.98
542.494	5836.99
542.858	5849.87
543.223	5822.08
543.587	5843.32
543.952	5920.38
544.316	5943.21
544.681	5894.62
545.045	5958.35
545.41	5980.04
545.774	6013.49
546.138	6008.97
546.503	6073.6
546.867	6005.8
547.231	6117.21
547.595	6109.3
547.959	6135.06
548.324	6147.49
548.688	6125.12
549.052	6173.26
549.416	6199.24
549.779	6249.86
550.143	6257.77
550.507	6312.01
550.871	6295.96
551.235	6310.43
551.599	6357.43
551.962	6401.27
552.326	6388.17
552.689	6361.27
553.053	6336.64
553.417	6406.92
553.78	6492.12
554.143	6480.37
554.507	6479.46
554.87	6528.73
555.234	6613.02
555.597	6592.91
555.96	6530.53
556.323	6558.1
556.686	6577.99
557.05	6687.59
557.413	6660.47
557.776	6673.81
558.139	6709.06
558.502	6669.51
558.865	6732.56
559.228	6793.8
559.59	6839
559.953	6823.41
560.316	6869.96
560.679	6852.56
561.041	6837.87
561.404	6969.62
561.767	6914.93
562.129	6948.15
562.492	6978.21
562.854	7010.52
563.217	6942.5
563.579	7060.69
563.941	7058.88
564.304	7112.89
564.666	7166
565.028	7135.49
565.39	7146.79
565.753	7118.99
566.115	7216.39
566.477	7191.31
566.839	7246
567.201	7332.55
567.563	7238.76
567.925	7351.76
568.287	7379.1
568.648	7371.19
569.01	7463.39
569.372	7433.34
569.734	7406.9
570.095	7499.55
570.457	7551.98
570.819	7572.54
571.18	7540
571.542	7535.03
571.903	7719.2
572.265	7642.82
572.626	7698.87
572.987	7769.6
573.349	7819.99
573.71	7850.27
574.071	7875.13
574.432	7861.8
574.794	8088.01
575.155	8066.31
575.516	8094.34
575.877	8173.88
576.238	8167.55
576.599	8287.78
576.96	8312.18
577.32	8418.85
577.681	8497.94
578.042	8577.49
578.403	8581.33
578.763	8672.17
579.124	8781.1
579.485	8889.57
579.845	9001.66
580.206	9062.67
580.566	9159.39
580.927	9276.45
581.287	9396.9
581.648	9480.97
582.008	9633.05
582.368	9730.68
582.728	9894.06
583.089	9998.01
583.449	10182.64
583.809	10271.91
584.169	10459.02
584.529	10587.83
584.889	10855.39
585.249	10939.01
585.609	11017.2
585.969	11312.33
586.329	11470.29
586.688	11676.84
587.048	11826.89
587.408	12081.57
587.768	12299.87
588.127	12457.16
588.487	12698.51
588.846	13051.94
589.206	13121.32
589.565	13434.08
589.925	13686.5
590.284	13756.79
590.643	14172.37
591.003	14355.64
591.362	14661.85
591.721	14899.58
592.08	15112
592.44	15335.95
592.799	15747.47
593.158	15974.81
593.517	16154.24
593.876	16496.37
594.235	16717.61
594.593	17080.09
594.952	17290.25
595.311	17461.55
595.67	17867.86
596.029	18251.13
596.387	18534.74
596.746	18802.3
597.104	18966.59
597.463	19276.19
597.822	19614.48
598.18	19744.2
598.538	20026.9
598.897	20476.16
599.255	20544.86
599.613	21199.08
599.972	21257.15
600.33	21633.64
600.688	21798.83
601.046	22122.89
601.404	22425.94
601.762	22645.37
602.12	23022.08
602.478	23263.43
602.836	23561.27
603.194	23725.56
603.552	23920.81
603.91	24185.66
604.268	24480.57
604.625	24639.21
604.983	24939.09
605.341	25066.32
605.698	25437.16
606.056	25730.26
606.413	25828.56
606.771	26193.07
607.128	26504.02
607.485	26552.38
607.843	26784.92
608.2	27048.41
608.557	27334.96
608.914	27444.11
609.272	27786.02
609.629	27979.46
609.986	28361.6
610.343	28386.23
610.7	28736.28
611.057	28895.82
611.414	29073.44
611.771	29223.5
612.127	29464.85
612.484	29574.22
612.841	29788.68
613.198	29982.12
613.554	30079.97
613.911	30459.62
614.267	30536.46
614.624	30623.23
614.98	30838.6
615.337	31164.69
615.693	31312.48
616.05	31224.8
616.406	31653.26
616.762	31613.94
617.118	31720.83
617.475	32001.5
617.831	32232.91
618.187	32405.56
618.543	32447.37
618.899	32860.24
619.255	32864.08
619.611	32768.94
619.967	33085.32
620.323	33248.02
620.678	33229.72
621.034	33282.6
621.39	33328.93
621.746	33443.95
622.101	33821.34
622.457	33675.13
622.812	33811.4
623.168	33984.28
623.523	34180.88
623.879	34210.03
624.234	34027.66
624.589	34313.76
624.945	34367.77
625.3	34501.1
625.655	34497.03
626.01	34550.59
626.365	34735.22
626.72	34661.32
627.075	34871.26
627.43	34799.85
627.785	34869.22
628.14	34868.55
628.495	35023.57
628.85	35162.78
629.205	34973.18
629.559	35312.6
629.914	35118.71
630.269	35172.49
630.623	35204.58
630.978	35226.05
631.332	35442.32
631.687	35539.49
632.041	35331.59
632.396	35474.41
632.75	35445.03
633.104	35439.38
633.459	35294.3
633.813	35381.53
634.167	35453.16
634.521	35392.37
634.875	35564.12
635.229	35485.71
635.583	35398.02
635.937	35527.29
636.291	35518.7
636.645	35503.11
636.999	35326.84
637.352	35595.76
637.706	35350.79
638.06	35507.85
638.413	35439.6
638.767	35353.51
639.121	35516.89
639.474	35376.33
639.828	35274.41
640.181	35301.3
640.534	35524.12
640.888	35366.16
641.241	35222.44
641.594	35456.1
641.947	35524.35
642.301	35381.3
642.654	35404.35
643.007	35366.84
643.36	35430.79
643.713	35323.68
644.066	35366.84
644.419	35227.86
644.771	35131.59
645.124	34681.88
645.477	34721.43
645.83	34518.73
646.182	34399.41
646.535	34352.18
646.888	34480.08
647.24	34237.38
647.593	34412.29
647.945	34259.07
648.298	34231.05
648.65	34160.99
649.002	34097.04
649.355	34346.98
649.707	34185.4
650.059	34360.54
650.411	34751.49
650.763	34705.84
651.115	35095.89
651.467	35000.07
651.819	35109.22
652.171	35064.47
652.523	34875.55
652.875	34963.91
653.227	34730.7
653.578	35043.68
653.93	34961.43
654.282	34784.25
654.633	34647.54
654.985	34844.14
655.337	34841.65
655.688	34846.17
656.039	34907.64
656.391	34595.79
656.742	34710.81
657.094	34693.18
657.445	34805.05
657.796	34608.44
658.147	34794.2
658.498	34659.29
658.849	34715.56
659.2	34708.32
659.551	34645.28
659.902	34800.3
660.253	34588.33
660.604	34621.32
660.955	34442.34
661.306	34613.41
661.656	34655.22
662.007	34671.49
662.358	34528.67
662.708	34544.49
663.059	34594.88
663.409	34422
663.76	34609.57
664.11	34570.02
664.461	34680.53
664.811	34650.7
665.161	34626.52
665.511	34408.45
665.862	34451.83
666.212	34680.53
666.562	34718.72
666.912	34432.63
667.262	34378.39
667.612	34603.69
667.962	34458.61
668.312	34542.91
668.662	34657.7
669.011	34531.83
669.361	34400.08
669.711	34458.84
670.06	34331.61
670.41	34404.6
670.76	34360.99
671.109	34408.67
671.459	34394.66
671.808	34363.93
672.157	34264.49
672.507	34129.36
672.856	34264.49
673.205	34260.43
673.554	34339.52
673.904	34315.34
674.253	34356.92
674.602	34379.97
674.951	33894.11
675.3	33661.8
675.649	34230.82
675.998	34216.59
676.346	34249.35
676.695	34332.74
677.044	34013.65
677.393	33994.22
677.741	34161.45
678.09	34011.39
678.438	33945.63
678.787	34040.55
679.135	34049.81
679.484	33824.96
679.832	34109.47
680.181	33836.94
680.529	33882.58
680.877	33800.78
681.225	33718.52
681.573	33871.96
681.922	33690.72
682.27	33588.13
682.618	33741.57
682.966	33445.53
683.314	33591.07
683.661	33503.61
684.009	33361.02
684.357	33254.58
684.705	33236.72
685.053	33251.87
685.4	33189.27
685.748	33072.66
686.095	33002.83
686.443	32944.08
686.79	33004.87
687.138	32926.22
687.485	32941.37
687.832	32734.59
688.18	32815.72
688.527	32646.46
688.874	32634.71
689.221	32545.44
689.568	32455.05
689.915	32474.03
690.262	32409.4
690.609	32333.47
690.956	32231.78
691.303	32174.38
691.65	32048.51
691.997	32079.92
692.344	31898.68
692.69	31806.03
693.037	31885.57
693.383	31625.02
693.73	31840.6
694.077	31584.57
694.423	31664.79
694.769	31491.01
695.116	31422.54
695.462	31416.21
695.808	31245.14
696.155	31302.54
696.501	31133.28
696.847	31162.2
697.193	30707.3
697.539	30961.3
697.885	30816
698.231	30671.82
698.577	30627.98
698.923	30607.19
699.269	30496.68
699.614	30394.77
699.96	30304.82
700.306	30366.97
700.651	30228.44
700.997	30135.11
701.342	30066.86
701.688	30009.69
702.033	29927.43
702.379	29902.35
702.724	29750.04
703.069	29805.85
703.415	29465.52
703.76	29653.32
704.105	29581.68
704.45	29477.95
704.795	29305.53
705.14	29209.03
705.485	29155.93
705.83	29073.9
706.175	29197.74
706.52	29098.08
706.865	28880
707.209	28928.59
707.554	28773.11
707.899	28827.8
708.243	28806.11
708.588	28753.9
708.932	28529.05
709.277	28435.95
709.621	28434.37
709.966	28336.97
710.31	28401.37
710.654	28128.16
710.998	28165.45
711.342	28183.75
711.687	28129.06
712.031	28003.19
712.375	27875.28
712.719	27957.54
713.063	27812.46
713.407	27827.83
713.75	27809.52
714.094	27718.68
714.438	27577.21
714.782	27609.08
715.125	27565.46
715.469	27510.1
715.812	27522.98
716.156	27347.84
716.499	27177.22
716.843	27326.82
717.186	27122.99
717.53	27296.09
717.873	27288.63
718.216	27134.96
718.559	27040.5
718.902	26901.3
719.246	26930
719.589	26903.33
719.932	26757.12
720.275	26713.73
720.617	26727.97
720.96	26671.02
721.303	26815.42
721.646	26647.75
721.989	26504.02
722.331	26538.82
722.674	26476.22
723.016	26619.27
723.359	26367.08
723.701	26568.65
724.044	26325.49
724.386	26172.5
724.729	26231.03
725.071	26195.55
725.413	26127.99
725.755	26130.25
726.097	25974.77
726.439	25915.79
726.782	25925.96
727.124	26053.41
727.465	25827.65
727.807	25915.56
728.149	25804.15
728.491	25692.74
728.833	25872.4
729.175	25688.67
729.516	25724.83
729.858	25529.36
730.199	25645.74
730.541	25513.09
730.882	25446.2
731.224	25643.03
731.565	25308.35
731.906	25427.44
732.248	25454.78
732.589	25294.56
732.93	25220.44
733.271	25191.29
733.612	25210.04
733.953	25335.69
734.294	25213.89
734.635	25088.69
734.976	25070.16
735.317	24911.97
735.658	24944.74
735.999	25027
736.339	24925.76
736.68	25010.27
737.021	24818.87
737.361	24751.98
737.702	24891.63
738.042	24835.82
738.383	24720.34
738.723	24775.48
739.063	24793.11
739.404	24691.19
739.744	24585.43
740.084	24571.87
740.424	24561.7
740.764	24523.73
741.104	24519.21
741.444	24388.14
741.784	24404.87
742.124	24404.64
742.464	24418.2
742.804	24394.47
743.143	24338.2
743.483	24410.97
743.823	24256.4
744.162	24242.16
744.502	24256.85
744.841	24052.56
745.181	24178.66
745.52	24043.97
745.86	24086.23
746.199	23969.62
746.538	23847.82
746.877	23991.09
747.216	23942.73
747.556	23994.71
747.895	23839.23
748.234	23764.21
748.573	23658.9
748.911	23510.88
749.25	23660.48
749.589	23601.5
749.928	23572.12
750.267	23693.02
750.605	23440.82
750.944	23490.99
751.283	23490.31
751.621	23463.65
751.96	23365.8
752.298	23286.7
752.636	23331.22
752.975	23205.35
753.313	23057.78
753.651	23150.89
753.989	23073.38
754.327	22980.95
754.666	22975.07
755.004	22917.45
755.342	23099.59
755.679	22870.9
756.017	22780.05
756.355	22843.1
756.693	22622.09
757.031	22726.72
757.368	22656.89
757.706	22619.6
758.044	22481.98
758.381	22528.98
758.719	22463.9
759.056	22374.86
759.394	22317.69
759.731	22188.2
760.068	22207.86
760.405	22207.41
760.743	22094.19
761.08	22045.15
