Data from hue_110_FLMS001491_00072.txt Node
Date: Tue Feb 07 17:01:47 GMT 2017
User: dcchb
Spectrometer: FLMS00149
Trigger mode: 0
Integration Time (sec): 2.000000E-2
Scans to average: 10
Electric dark correction enabled: true
Nonlinearity correction enabled: false
Boxcar width: 0
XAxis mode: Wavelengths
Number of Pixels in Spectrum: 2048
>>>>>Begin Spectral Data<<<<<
341.393	2.25
341.776	2.25
342.16	2.25
342.543	-83.4
342.927	-65.78
343.31	-61.26
343.693	-68.26
344.077	-87.47
344.46	-68.71
344.843	-67.13
345.226	-29.39
345.61	-35.72
345.993	-21.93
346.376	5.64
346.759	24.39
347.142	31.85
347.525	54
347.908	61
348.291	79.08
348.674	84.73
349.057	99.19
349.44	116.37
349.823	136.93
350.206	144.16
350.588	204.5
350.971	222.58
351.354	218.51
351.737	240.43
352.119	245.63
352.502	259.41
352.884	279.53
353.267	278.17
353.65	288.57
354.032	319.98
354.414	293.31
354.797	303.48
355.179	294.22
355.562	316.36
355.944	341.22
356.326	333.08
356.709	328.34
357.091	320.88
357.473	364.5
357.855	361.78
358.238	355
358.62	334.67
359.002	319.07
359.384	348.23
359.766	348.23
360.148	363.14
360.53	351.16
360.912	357.26
361.294	318.85
361.676	336.25
362.057	321.11
362.439	349.58
362.821	324.72
363.203	334.44
363.584	324.5
363.966	333.99
364.348	329.69
364.729	337.15
365.111	327.89
365.493	333.08
365.874	321.56
366.256	336.7
366.637	321.11
367.019	322.69
367.4	328.79
367.781	309.13
368.163	308.23
368.544	319.3
368.925	321.11
369.306	319.53
369.688	332.63
370.069	292.41
370.45	305.51
370.831	309.58
371.212	302.58
371.593	298.96
371.974	316.59
372.355	296.7
372.736	339.64
373.117	316.36
373.498	337.83
373.879	312.97
374.26	327.89
374.641	312.97
375.021	323.37
375.402	317.94
375.783	326.53
376.163	317.94
376.544	313.2
376.925	325.85
377.305	333.76
377.686	338.96
378.066	319.3
378.447	317.94
378.827	321.79
379.208	341.67
379.588	324.72
379.968	353.2
380.349	331.5
380.729	341.67
381.109	340.32
381.489	377.6
381.87	337.6
382.25	372.41
382.63	353.2
383.01	336.7
383.39	349.81
383.77	347.1
384.15	345.29
384.53	345.29
384.91	358.62
385.29	353.2
385.67	356.59
386.049	366.08
386.429	380.31
386.809	377.83
387.189	390.94
387.568	381.67
387.948	365.17
388.328	378.06
388.707	384.38
389.087	377.6
389.466	366.76
389.846	370.15
390.225	376.47
390.605	386.42
390.984	383.25
391.363	405.85
391.743	389.13
392.122	397.49
392.501	395.91
392.881	369.24
393.26	398.85
393.639	393.42
394.018	397.26
394.397	416.92
394.776	380.09
395.155	383.25
395.534	399.52
395.913	400.88
396.292	404.04
396.671	429.58
397.05	414.44
397.429	412.4
397.808	418.51
398.186	427.77
398.565	407.88
398.944	388.45
399.323	418.05
399.701	410.37
400.08	404.95
400.458	404.27
400.837	415.34
401.215	430.71
401.594	431.61
401.972	431.84
402.351	437.49
402.729	434.78
403.107	441.78
403.486	442.01
403.864	430.03
404.242	420.77
404.62	445.62
404.999	465.74
405.377	438.84
405.755	472.06
406.133	463.48
406.511	446.3
406.889	441.1
407.267	484.27
407.645	463.93
408.023	478.39
408.401	484.72
408.779	490.59
409.156	483.59
409.534	493.08
409.912	481.56
410.29	491.5
410.667	486.3
411.045	488.56
411.422	499.86
411.8	481.33
412.178	499.63
412.555	504.61
412.933	511.61
413.31	495.79
413.687	495.79
414.065	514.1
414.442	525.17
414.819	514.55
415.197	512.74
415.574	541.89
415.951	542.8
416.328	545.73
416.705	539.18
417.082	547.77
417.46	556.13
417.837	548.9
418.214	553.64
418.591	533.53
418.967	571.72
419.344	568.33
419.721	609.91
420.098	581.21
420.475	584.15
420.852	587.77
421.228	578.5
421.605	601.78
421.982	608.56
422.358	588.22
422.735	599.29
423.111	601.78
423.488	629.57
423.864	611.04
424.241	625.28
424.617	633.64
424.994	656.24
425.37	632.74
425.746	653.98
426.123	661.44
426.499	647.65
426.875	644.94
427.251	662.34
427.627	662.79
428.003	660.31
428.379	655.79
428.756	681.1
429.132	678.84
429.507	685.62
429.883	686.52
430.259	708.67
430.635	705.73
431.011	731.04
431.387	722.23
431.763	751.83
432.138	747.99
432.514	749.8
432.89	741.66
433.265	758.84
433.641	758.16
434.016	774.65
434.392	780.3
434.767	791.38
435.143	803.13
435.518	804.03
435.894	803.35
436.269	817.59
436.644	820.98
437.02	831.38
437.395	857.82
437.77	813.07
438.145	887.19
438.52	872.73
438.895	874.77
439.271	895.1
439.646	887.19
440.021	899.85
440.395	897.36
440.77	878.15
441.145	898.27
441.52	929.23
441.895	914.99
442.27	938.72
442.645	929
443.019	932.16
443.394	975.33
443.769	951.15
444.143	953.41
444.518	963.12
444.892	950.24
445.267	973.52
445.641	994.76
446.016	989.11
446.39	1012.16
446.764	1004.71
447.139	1001.77
447.513	1036.57
447.887	1011.03
448.262	1013.97
448.636	1030.92
449.01	1060.3
449.384	1028.43
449.758	1059.62
450.132	1050.13
450.506	1071.82
450.88	1073.18
451.254	1090.13
451.628	1091.48
452.002	1108.66
452.376	1115.44
452.75	1115.89
453.123	1159.73
453.497	1147.3
453.871	1149.33
454.244	1202.21
454.618	1164.02
454.992	1193.63
455.365	1203.57
455.739	1224.81
456.112	1241.99
456.486	1231.59
456.859	1275.21
457.232	1303
457.606	1285.38
457.979	1307.3
458.352	1325.37
458.725	1350.01
459.099	1358.14
459.472	1360.18
459.845	1410.8
460.218	1387.75
460.591	1409.67
460.964	1420.51
461.337	1478.82
461.71	1461.87
462.083	1510.91
462.456	1501.87
462.829	1504.13
463.201	1554.75
463.574	1561.07
463.947	1585.71
464.32	1624.35
464.692	1590.9
465.065	1659.83
465.438	1703.44
465.81	1684.91
466.183	1736.44
466.555	1742.54
466.928	1750.45
467.3	1771.92
467.672	1837.68
468.045	1851.46
468.417	1884.46
468.789	1914.29
469.161	1939.6
469.534	1949.54
469.906	1980.27
470.278	2032.93
470.65	2086.71
471.022	2114.51
471.394	2170.32
471.766	2179.82
472.138	2200.83
472.51	2269.76
472.882	2331.68
473.253	2384.56
473.625	2391.79
473.997	2480.37
474.369	2514.5
474.74	2559.69
475.112	2568.96
475.484	2677.66
475.855	2724.66
476.227	2807.82
476.598	2897.54
476.97	2928.95
477.341	2987.48
477.713	3084.2
478.084	3119.9
478.455	3229.96
478.827	3299.11
479.198	3418.65
479.569	3477.41
479.94	3601.7
480.311	3660.91
480.682	3759.44
481.053	3872.88
481.424	3961.69
481.795	4076.71
482.166	4168.46
482.537	4275.81
482.908	4386.09
483.279	4511.51
483.65	4617.27
484.021	4744.72
484.391	4896.81
484.762	4955.11
485.133	5094.99
485.503	5112.85
485.874	5357.13
486.244	5488.88
486.615	5591.48
486.985	5746.5
487.356	5923.45
487.726	6031.24
488.097	6241.86
488.467	6262.42
488.837	6501.51
489.207	6631.68
489.578	6781.5
489.948	6959.35
490.318	7087.71
490.688	7165
491.058	7345.56
491.428	7582.61
491.798	7665.1
492.168	7922.72
492.538	8044.75
492.908	8180.79
493.278	8430.95
493.648	8506.88
494.017	8650.38
494.387	8804.95
494.757	8921.79
495.126	9083.36
495.496	9115
495.866	9335.79
496.235	9428.89
496.605	9644.48
496.974	9664.59
497.344	9798.37
497.713	10003.56
498.082	10132.15
498.452	10296.21
498.821	10442.88
499.19	10498.01
499.559	10659.59
499.928	10813.94
500.298	10867.95
500.667	10968.96
501.036	11049.19
501.405	11217.09
501.774	11357.65
502.143	11470.87
502.512	11590.87
502.88	11674.71
503.249	11716.29
503.618	11842.39
503.987	11947.69
504.356	12055.94
504.724	12189.27
505.093	12238.99
505.462	12350.62
505.83	12384.52
506.199	12507.45
506.567	12716.71
506.936	12724.17
507.304	12847.33
507.672	12916.71
508.041	12967.78
508.409	13101.79
508.777	13202.58
509.145	13339.97
509.514	13335.91
509.882	13433.3
510.25	13492.96
510.618	13504.26
510.986	13586.75
511.354	13694.99
511.722	13829.45
512.09	13936.34
512.458	13928.89
512.826	14027.87
513.193	14099.28
513.561	14129.33
513.929	14204.36
514.297	14323.68
514.664	14336.33
515.032	14426.95
515.4	14487.29
515.767	14524.12
516.135	14592.14
516.502	14443.9
516.869	14749.2
517.237	14763.21
517.604	14671.24
517.972	14789.88
518.339	14951.23
518.706	14946.71
519.073	14946.71
519.44	15008.86
519.808	15202.98
520.175	15158.23
520.542	15271.22
520.909	15273.26
521.276	15304.22
521.643	15349.86
522.009	15477.77
522.376	15507.6
522.743	15548.05
523.11	15633.25
523.477	15768.61
523.843	15733.13
524.21	15894.03
524.577	15895.16
524.943	16005.89
525.31	15999.79
525.676	16103.52
526.043	16172.67
526.409	16181.71
526.776	16227.13
527.142	16244.53
527.508	16255.15
527.874	16341.25
528.241	16288.82
528.607	16403.85
528.973	16435.94
529.339	16418.09
529.705	16437.97
530.071	16438.2
530.437	16572.21
530.803	16562.04
531.169	16593
531.535	16463.51
531.901	16510.96
532.267	16504.41
532.632	16565.88
532.998	16568.82
533.364	16552.32
533.73	16656.72
534.095	16618.31
534.461	16665.54
534.826	16631.19
535.192	16593.45
535.557	16659.21
535.923	16606.33
536.288	16528.36
536.653	16631.41
537.019	16577.86
537.384	16547.8
537.749	16492.89
538.114	16514.81
538.479	16507.57
538.845	16416.05
539.21	16449.5
539.575	16452.21
539.94	16455.6
540.305	16367.47
540.67	16299.44
541.034	16414.92
541.399	16399.55
541.764	16307.81
542.129	16292.66
542.494	16378.09
542.858	16326.11
543.223	16216.96
543.587	16330.4
543.952	16180.35
544.316	16131.99
544.681	16080.69
545.045	16129.28
545.41	15997.76
545.774	16085.66
546.138	16096.96
546.503	16033.01
546.867	16051.54
547.231	16059
547.595	16010.19
547.959	16022.84
548.324	15862.39
548.688	15953.01
549.052	15948.04
549.416	15930.41
549.779	15847.48
550.143	15786.46
550.507	15872.34
550.871	15818.55
551.235	15768.84
551.599	15889.51
551.962	15773.81
552.326	15794.37
552.689	15781.94
553.053	15669.18
553.417	15713.02
553.78	15823.75
554.143	15674.38
554.507	15692.23
554.87	15667.6
555.234	15770.42
555.597	15614.26
555.96	15604.77
556.323	15588.28
556.686	15522.97
557.05	15615.17
557.413	15566.81
557.776	15570.88
558.139	15621.5
558.502	15496.75
558.865	15636.64
559.228	15647.48
559.59	15615.85
559.953	15587.37
560.316	15680.25
560.679	15597.77
561.041	15706.92
561.404	15735.17
561.767	15708.27
562.129	15655.39
562.492	15798.44
562.854	15727.71
563.217	15777.42
563.579	15759.8
563.941	15780.81
564.304	15858.55
564.666	15860.36
565.028	15818.78
565.39	15849.29
565.753	15858.1
566.115	15947.59
566.477	15902.84
566.839	15994.37
567.201	15966.35
567.563	15926.57
567.925	16129.73
568.287	16120.92
568.648	15957.53
569.01	16042.28
569.372	16059
569.734	16031.88
570.095	16166.34
570.457	16043.86
570.819	16088.6
571.18	16105.33
571.542	16204.98
571.903	16227.58
572.265	16243.85
572.626	16205.89
572.987	16235.49
573.349	16299.44
573.71	16373.79
574.071	16324.53
574.432	16417.86
574.794	16464.41
575.155	16430.06
575.516	16258.77
575.877	16422.83
576.238	16390.97
576.599	16346.9
576.96	16396.62
577.32	16415.83
577.681	16510.96
578.042	16499.21
578.403	16465.32
578.763	16439.1
579.124	16501.7
579.485	16489.27
579.845	16541.7
580.206	16422.38
580.566	16504.86
580.927	16342.38
581.287	16531.08
581.648	16487.46
582.008	16411.31
582.368	16487.69
582.728	16481.13
583.089	16485.65
583.449	16389.16
583.809	16451.98
584.169	16425.54
584.529	16326.79
584.889	16444.75
585.249	16369.72
585.609	16361.14
585.969	16418.54
586.329	16322.04
586.688	16377.41
587.048	16381.25
587.408	16310.07
587.768	16325.43
588.127	16292.21
588.487	16332.44
588.846	16366.11
589.206	16331.08
589.565	16266
589.925	16276.39
590.284	16293.79
590.643	16307.35
591.003	16299.44
591.362	16303.74
591.721	16300.35
592.08	16264.87
592.44	16351.65
592.799	16252.67
593.158	16197.3
593.517	16170.41
593.876	16281.14
594.235	16120.01
594.593	16174.48
594.952	16159.33
595.311	16209.05
595.67	16143.74
596.029	16206.11
596.387	16211.76
596.746	16199.33
597.104	16164.08
597.463	16240.91
597.822	16202.72
598.18	16072.11
598.538	16118.66
598.897	16200.24
599.255	15986.01
599.613	16361.82
599.972	16156.17
600.33	16222.38
600.688	16086.12
601.046	16132.67
601.404	16191.2
601.762	16117.98
602.12	16215.15
602.478	16146
602.836	16196.4
603.194	16127.02
603.552	16123.86
603.91	16059
604.268	16094.03
604.625	15984.65
604.983	16151.43
605.341	16026.46
605.698	16099.22
606.056	16173.35
606.413	16132.22
606.771	16148.04
607.128	16238.43
607.485	16110.75
607.843	16138.54
608.2	16235.94
608.557	16254.93
608.914	16232.33
609.272	16281.59
609.629	16329.27
609.986	16319.78
610.343	16259.45
610.7	16437.29
611.057	16362.04
611.414	16366.56
611.771	16327.69
612.127	16324.98
612.484	16261.25
612.841	16349.61
613.198	16339.22
613.554	16315.72
613.911	16450.85
614.267	16494.92
614.624	16382.38
614.98	16405.43
615.337	16523.17
615.693	16471.42
616.05	16458.99
616.406	16426.67
616.762	16439.55
617.118	16426.67
617.475	16425.09
617.831	16545.31
618.187	16565.88
618.543	16541.02
618.899	16629.38
619.255	16629.15
619.611	16571.08
619.967	16653.56
620.323	16683.39
620.678	16679.1
621.034	16584.18
621.39	16653.79
621.746	16589.38
622.101	16684.07
622.457	16542.6
622.812	16660.11
623.168	16717.51
623.523	16702.82
623.879	16682.71
624.234	16623.05
624.589	16550.29
624.945	16660.11
625.3	16703.5
625.655	16674.35
626.01	16670.28
626.365	16723.84
626.72	16687.91
627.075	16666.67
627.43	16632.54
627.785	16603.62
628.14	16649.94
628.495	16666.67
628.85	16599.1
629.205	16477.07
629.559	16634.8
629.914	16479.1
630.269	16503.05
630.623	16533.56
630.978	16505.31
631.332	16554.8
631.687	16535.14
632.041	16478.2
632.396	16463.51
632.75	16434.36
633.104	16507.57
633.459	16410.18
633.813	16344.64
634.167	16384.64
634.521	16309.61
634.875	16356.17
635.229	16297.41
635.583	16204.08
635.937	16282.5
636.291	16190.52
636.645	16207.92
636.999	16207.24
637.352	16284.53
637.706	16121.37
638.06	16243.85
638.413	16050.64
638.767	16023.07
639.121	16105.1
639.474	15990.75
639.828	15952.11
640.181	16039.79
640.534	16043.41
640.888	15987.81
641.241	15895.61
641.594	15946.91
641.947	16152.78
642.301	15964.09
642.654	15965.44
643.007	15989.62
643.36	15962.28
643.713	15882.96
644.066	15979.9
644.419	15950.53
644.771	15775.62
645.124	15641.16
645.477	15658.56
645.83	15530.88
646.182	15456.98
646.535	15441.61
646.888	15430.99
647.24	15305.12
647.593	15433.7
647.945	15368.85
648.298	15317.32
648.65	15335.63
649.002	15174.73
649.355	15335.4
649.707	15333.37
650.059	15423.54
650.411	15567.49
650.763	15563.42
651.115	15859.91
651.467	15781.94
651.819	15754.37
652.171	15741.49
652.523	15602.06
652.875	15735.39
653.227	15658.78
653.578	15772
653.93	15742.17
654.282	15661.49
654.633	15609.07
654.985	15659.24
655.337	15677.99
655.688	15701.04
656.039	15710.76
656.391	15495.62
656.742	15600.71
657.094	15642.06
657.445	15600.48
657.796	15624.21
658.147	15681.16
658.498	15590.99
658.849	15712.79
659.2	15649.97
659.551	15657.65
659.902	15633.93
660.253	15737.43
660.604	15710.31
660.955	15554.83
661.306	15797.08
661.656	15784.88
662.007	15725.67
662.358	15642.29
662.708	15790.08
663.059	15747.14
663.409	15632.34
663.76	15765.45
664.11	15737.2
664.461	15773.13
664.811	15711.21
665.161	15805.22
665.511	15662.85
665.862	15664.43
666.212	15703.98
666.562	15751.44
666.912	15710.31
667.262	15680.25
667.612	15664.88
667.962	15769.74
668.312	15671.21
668.662	15680.03
669.011	15711.21
669.361	15729.29
669.711	15713.92
670.06	15630.08
670.41	15660.37
670.76	15593.93
671.109	15603.64
671.459	15583.08
671.808	15574.72
672.157	15554.61
672.507	15563.42
672.856	15517.09
673.205	15501.05
673.554	15568.16
673.904	15493.82
674.253	15562.06
674.602	15498.56
674.951	15346.7
675.3	15190.32
675.649	15466.92
675.998	15517.32
676.346	15439.35
676.695	15493.14
677.044	15397.77
677.393	15500.6
677.741	15395.51
678.09	15397.32
678.438	15317.32
678.787	15329.98
679.135	15365.46
679.484	15286.14
679.832	15242.75
680.181	15208.85
680.529	15239.13
680.877	15293.37
681.225	15183.54
681.573	15286.14
681.922	15146.25
682.27	15111
682.618	15133.37
682.966	15058.8
683.314	15015.18
683.661	15048.4
684.009	14892.25
684.357	15013.38
684.705	14898.8
685.053	14970.67
685.4	14948.29
685.748	14746.72
686.095	14755.08
686.443	14657.68
686.79	14668.75
687.138	14753.5
687.485	14681.63
687.832	14572.03
688.18	14611.13
688.527	14499.04
688.874	14494.07
689.221	14454.75
689.568	14409.32
689.915	14473.5
690.262	14309.67
690.609	14376.33
690.956	14213.85
691.303	14238.71
691.65	14154.87
691.997	14191.25
692.344	14117.58
692.69	13969.11
693.037	14066.96
693.383	13966.85
693.73	14105.38
694.077	13803.46
694.423	13917.13
694.769	13825.39
695.116	13857.25
695.462	13773.64
695.808	13743.81
696.155	13624.03
696.501	13645.5
696.847	13589.69
697.193	13474.21
697.539	13538.39
697.885	13396.24
698.231	13356.02
698.577	13349.92
698.923	13339.75
699.269	13199.64
699.614	13106.53
699.96	13114.67
700.306	13121
700.651	13022.47
700.997	12965.29
701.342	12902.92
701.688	12986.76
702.033	12885.52
702.379	12859.99
702.724	12795.13
703.069	12837.84
703.415	12602.82
703.76	12717.84
704.105	12706.77
704.45	12601.69
704.795	12556.72
705.14	12504.06
705.485	12460.68
705.83	12465.42
706.175	12432.2
706.52	12442.6
706.865	12269.04
707.209	12363.73
707.554	12279.44
707.899	12230.17
708.243	12213.45
708.588	12125.54
708.932	12076.73
709.277	12061.59
709.621	12044.64
709.966	11975.72
710.31	11976.62
710.654	11865.66
710.998	11932.78
711.342	11860.01
711.687	11822.95
712.031	11810.07
712.375	11724.2
712.719	11735.95
713.063	11706.34
713.407	11749.73
713.75	11673.35
714.094	11777.76
714.438	11588.16
714.782	11646.01
715.125	11576.63
715.469	11600.13
715.812	11488.72
716.156	11420.48
716.499	11416.86
716.843	11477.2
717.186	11414.83
717.53	11530.3
717.873	11447.82
718.216	11466.35
718.559	11324.89
718.902	11349.29
719.246	11364.88
719.589	11375.73
719.932	11276.3
720.275	11319.24
720.617	11252.8
720.96	11250.09
721.303	11207.6
721.646	11272.46
721.989	11107.26
722.331	11203.53
722.674	11257.09
723.016	11119.02
723.359	11135.51
723.701	11160.14
724.044	11106.81
724.386	11082.41
724.729	11161.05
725.071	11150.88
725.413	11008.51
725.755	11080.37
726.097	11025.01
726.439	11050.09
726.782	11015.06
727.124	11022.75
727.465	10956.76
727.807	11036.53
728.149	10956.53
728.491	10944.33
728.833	10937.55
729.175	10994.73
729.516	10955.63
729.858	10918.57
730.199	10855.29
730.541	10867.95
730.882	10864.11
731.224	10943.2
731.565	10905.91
731.906	10912.02
732.248	10904.11
732.589	10805.8
732.93	10800.38
733.271	10810.32
733.612	10862.3
733.953	10862.53
734.294	10840.15
734.635	10822.3
734.976	10824.33
735.317	10804.45
735.658	10858.23
735.999	10765.58
736.339	10838.57
736.68	10876.76
737.021	10808.29
737.361	10749.99
737.702	10928.74
738.042	10858.91
738.383	10799.02
738.723	10875.41
739.063	10890.1
739.404	10883.32
739.744	10902.07
740.084	10896.65
740.424	10827.27
740.764	10919.25
741.104	10887.38
741.444	10874.05
741.784	10917.21
742.124	10931
742.464	11011
742.804	10986.36
743.143	11038.11
743.483	11068.17
743.823	11021.39
744.162	11093.48
744.502	11145.23
744.841	11113.37
745.181	11233.14
745.52	11299.12
745.86	11260.03
746.199	11296.41
746.538	11354.72
746.877	11367.14
747.216	11413.92
747.556	11475.62
747.895	11510.64
748.234	11564.88
748.573	11558.33
748.911	11612.56
749.25	11790.18
749.589	11750.41
749.928	11890.29
750.267	11947.24
750.605	11966.22
750.944	12172.1
751.283	12130.51
751.621	12315.82
751.96	12284.18
752.298	12466.32
752.636	12593.55
752.975	12615.02
753.313	12711.74
753.651	12941.57
753.989	12962.81
754.327	13044.16
754.666	13203.71
755.004	13290.26
755.342	13463.36
755.679	13594.66
756.017	13667.88
756.355	13873.75
