Data from hue_32_FLMS001491_00090.txt Node
Date: Tue Feb 07 17:24:02 GMT 2017
User: dcchb
Spectrometer: FLMS00149
Trigger mode: 0
Integration Time (sec): 2.000000E-2
Scans to average: 10
Electric dark correction enabled: true
Nonlinearity correction enabled: false
Boxcar width: 0
XAxis mode: Wavelengths
Number of Pixels in Spectrum: 2048
>>>>>Begin Spectral Data<<<<<
341.393	0.68
341.776	0.68
342.16	0.68
342.543	-58.53
342.927	-64.41
343.31	-78.19
343.693	-58.76
344.077	-49.72
344.46	-63.73
344.843	-64.18
345.226	-56.5
345.61	-15.37
345.993	-23.05
346.376	-5.42
346.759	24.86
347.142	15.14
347.525	28.7
347.908	64.41
348.291	82.71
348.674	81.13
349.057	117.96
349.44	132.43
349.823	134.91
350.206	169.71
350.588	183.05
350.971	228.02
351.354	230.05
351.737	250.61
352.119	254.91
352.502	272.99
352.884	276.38
353.267	299.88
353.65	293.55
354.032	287.22
354.414	303.95
354.797	302.14
355.179	311.18
355.562	322.7
355.944	335.81
356.326	350.27
356.709	335.36
357.091	356.37
357.473	353.44
357.855	359.54
358.238	331.97
358.62	344.85
359.002	363.61
359.384	335.13
359.766	352.53
360.148	343.49
360.53	328.13
360.912	339.65
361.294	358.18
361.676	346.21
362.057	341.23
362.439	341.91
362.821	351.4
363.203	322.03
363.584	330.61
363.966	338.97
364.348	330.84
364.729	345.75
365.111	317.96
365.493	355.24
365.874	343.72
366.256	323.61
366.637	328.8
367.019	322.93
367.4	316.15
367.781	324.74
368.163	324.74
368.544	309.14
368.925	311.4
369.306	319.54
369.688	309.14
370.069	313.89
370.45	319.09
370.831	312.99
371.212	323.16
371.593	311.86
371.974	334.23
372.355	348.01
372.736	327.22
373.117	318.18
373.498	302.82
373.879	323.83
374.26	330.84
374.641	314.12
375.021	312.31
375.402	310.73
375.783	338.07
376.163	338.75
376.544	331.52
376.925	319.09
377.305	326.32
377.686	335.81
378.066	340.1
378.447	339.88
378.827	341.01
379.208	333.1
379.588	360.22
379.968	324.29
380.349	350.05
380.729	336.04
381.109	338.75
381.489	336.71
381.87	353.66
382.25	343.49
382.63	364.06
383.01	354.11
383.39	338.97
383.77	332.19
384.15	345.98
384.53	333.1
384.91	358.18
385.29	372.65
385.67	357.05
386.049	367.9
386.429	357.96
386.809	371.29
387.189	365.19
387.568	346.66
387.948	370.39
388.328	374.91
388.707	360.22
389.087	365.64
389.466	354.57
389.846	361.12
390.225	350.05
390.605	378.75
390.984	383.27
391.363	355.92
391.743	363.15
392.122	394.57
392.501	385.3
392.881	387.11
393.26	381.46
393.639	392.08
394.018	374.45
394.397	383.72
394.776	393.66
395.155	395.92
395.534	373.1
395.913	392.53
396.292	405.19
396.671	381.01
397.05	401.57
397.429	402.7
397.808	408.35
398.186	402.02
398.565	395.92
398.944	401.35
399.323	411.51
399.701	409.25
400.08	418.07
400.458	404.74
400.837	410.61
401.215	423.27
401.594	416.94
401.972	396.6
402.351	400.22
402.729	431.4
403.107	422.59
403.486	414.45
403.864	434.34
404.242	411.74
404.62	422.14
404.999	427.56
405.377	429.59
405.755	447.9
406.133	446.54
406.511	449.93
406.889	427.33
407.267	419.88
407.645	440.44
408.023	463.72
408.401	446.32
408.779	453.1
409.156	470.72
409.534	453.32
409.912	462.59
410.29	455.81
410.667	475.69
411.045	463.04
411.422	469.59
411.8	471.4
412.178	500.78
412.555	490.61
412.933	476.6
413.31	487.9
413.687	498.52
414.065	497.39
414.442	492.42
414.819	501.46
415.197	514.79
415.574	509.14
415.951	504.17
416.328	504.39
416.705	510.72
417.082	492.42
417.46	530.61
417.837	517.05
418.214	501.91
418.591	518.63
418.967	535.13
419.344	528.12
419.721	552.75
420.098	523.83
420.475	539.65
420.852	559.08
421.228	569.48
421.605	554.11
421.982	548.23
422.358	550.27
422.735	563.38
423.111	576.71
423.488	575.35
423.864	575.58
424.241	570.15
424.617	564.28
424.994	567.67
425.37	586.88
425.746	604.05
426.123	584.62
426.499	605.86
426.875	609.7
427.251	613.54
427.627	617.16
428.003	617.38
428.379	615.8
428.756	632.3
429.132	627.1
429.507	635.69
429.883	646.99
430.259	637.5
430.635	651.28
431.011	656.25
431.387	666.88
431.763	680.21
432.138	667.33
432.514	676.59
432.89	672.07
433.265	705.52
433.641	696.25
434.016	701.22
434.392	690.6
434.767	734.22
435.143	695.12
435.518	735.12
435.894	736.93
436.269	716.59
436.644	732.41
437.02	772.86
437.395	759.75
437.77	760.88
438.145	776.02
438.52	787.55
438.895	742.13
439.271	785.06
439.646	798.4
440.021	794.78
440.395	803.14
440.77	774.22
441.145	802.46
441.52	817.15
441.895	811.73
442.27	834.78
442.645	805.18
443.019	825.97
443.394	837.49
443.769	835.68
444.143	843.59
444.518	839.3
444.892	835.01
445.267	842.01
445.641	849.24
446.016	881.56
446.39	877.04
446.764	870.94
447.139	851.95
447.513	858.51
447.887	882.46
448.262	878.62
448.636	885.17
449.01	903.48
449.384	882.46
449.758	904.16
450.132	904.61
450.506	926.53
450.88	941.44
451.254	940.54
451.628	945.74
452.002	955.91
452.376	974.21
452.75	979.64
453.123	949.58
453.497	973.08
453.871	963.36
454.244	1006.3
454.618	1016.02
454.992	1004.95
455.365	1027.77
455.739	1034.78
456.112	1082.46
456.486	1071.84
456.859	1077.26
457.232	1078.39
457.606	1083.36
457.979	1105.28
458.352	1101.89
458.725	1116.81
459.099	1129.46
459.472	1142.12
459.845	1159.74
460.218	1163.59
460.591	1160.2
460.964	1211.04
461.337	1217.37
461.71	1217.14
462.083	1227.31
462.456	1252.4
462.829	1282
463.201	1259.4
463.574	1280.42
463.947	1279.06
464.32	1301.21
464.692	1342.34
465.065	1347.54
465.438	1359.29
465.81	1415.56
466.183	1350.25
466.555	1404.03
466.928	1416.69
467.3	1455.78
467.672	1484.48
468.045	1501.2
468.417	1502.33
468.789	1503.01
469.161	1569.68
469.534	1585.72
469.906	1610.58
470.278	1604.7
470.65	1651.03
471.022	1693.51
471.394	1694.64
471.766	1712.72
472.138	1744.59
472.51	1772.61
472.882	1819.39
473.253	1819.16
473.625	1893.74
473.997	1922.89
474.369	1926.95
474.74	1958.14
475.112	2006.27
475.484	2025.71
475.855	2084.69
476.227	2102.32
476.598	2189.55
476.97	2191.35
477.341	2310.9
477.713	2323.1
478.084	2343.67
478.455	2471.8
478.827	2484
479.198	2520.16
479.569	2594.96
479.94	2648.97
480.311	2663.66
480.682	2748.4
481.053	2807.38
481.424	2892.35
481.795	2929.87
482.166	2969.19
482.537	3067.94
482.908	3141.16
483.279	3222.06
483.65	3254.6
484.021	3350.65
484.391	3440.81
484.762	3510.87
485.133	3532.34
485.503	3590.87
485.874	3777.53
486.244	3817.07
486.615	3871.76
486.985	3968.94
487.356	4024.75
487.726	4146.78
488.097	4233.34
488.467	4290.51
488.837	4429.26
489.207	4469.94
489.578	4558.3
489.948	4636.26
490.318	4750.38
490.688	4784.96
491.058	4922.81
491.428	5023.14
491.798	5090.26
492.168	5226.08
492.538	5240.31
492.908	5323.93
493.278	5483.02
493.648	5496.13
494.017	5624.94
494.387	5693.64
494.757	5782.9
495.126	5863.8
495.496	5937.92
495.866	5986.74
496.235	6052.5
496.605	6108.99
496.974	6174.53
497.344	6297.24
497.713	6342.43
498.082	6455.65
498.452	6560.28
498.821	6624.91
499.19	6637.34
499.559	6696.32
499.928	6810.22
500.298	6861.97
500.667	6946.71
501.036	6962.75
501.405	7035.3
501.774	7133.6
502.143	7175.63
502.512	7256.08
502.88	7309.64
503.249	7348.06
503.618	7449.3
503.987	7446.36
504.356	7529.75
504.724	7578.11
505.093	7686.58
505.462	7661.72
505.83	7804.09
506.199	7875.73
506.567	7939
506.936	7947.59
507.304	8042.5
507.672	8118.88
508.041	8175.38
508.409	8251.31
508.777	8234.59
509.145	8350.06
509.514	8351.42
509.882	8397.07
510.25	8453.79
510.618	8529.49
510.986	8567.01
511.354	8656.95
511.722	8715.7
512.09	8770.39
512.458	8820.33
512.826	8883.61
513.193	8936.26
513.561	8983.04
513.929	9002.48
514.297	9081.34
514.664	9149.14
515.032	9192.07
515.4	9247.89
515.767	9256.48
516.135	9422.8
516.502	9248.34
516.869	9444.05
517.237	9479.52
517.604	9465.51
517.972	9588
518.339	9594.78
518.706	9660.08
519.073	9739.63
519.44	9731.72
519.808	9823.24
520.175	9843.13
520.542	9994.77
520.909	10031.83
521.276	10005.39
521.643	10172.16
522.009	10135.1
522.376	10209.68
522.743	10265.94
523.11	10346.85
523.477	10509.55
523.843	10505.03
524.21	10573.28
524.577	10651.25
524.943	10692.37
525.31	10715.2
525.676	10873.84
526.043	10895.53
526.409	10926.94
526.776	11046.49
527.142	11066.83
527.508	11133.49
527.874	11258.24
528.241	11249.2
528.607	11271.34
528.973	11361.06
529.339	11349.08
529.705	11515.18
530.071	11604.67
530.437	11597.21
530.803	11706.81
531.169	11731.67
531.535	11802.63
531.901	11837.2
532.267	11901.38
532.632	11947.26
532.998	12016.41
533.364	12061.38
533.73	12105.9
534.095	12210.75
534.461	12277.64
534.826	12300.02
535.192	12361.93
535.557	12354.7
535.923	12390.18
536.288	12480.58
536.653	12580.23
537.019	12522.61
537.384	12605.09
537.749	12628.82
538.114	12672.89
538.479	12737.97
538.845	12815.71
539.21	12821.58
539.575	12900.45
539.94	12951.98
540.305	13033.33
540.67	13017.28
541.034	13121.91
541.399	13222.93
541.764	13258.18
542.129	13224.29
542.494	13386.77
542.858	13323.49
543.223	13350.16
543.587	13426.54
543.952	13469.48
544.316	13573.88
544.681	13541.56
545.045	13565.07
545.41	13727.55
545.774	13771.39
546.138	13791.28
546.503	13855.68
546.867	13802.12
547.231	13928
547.595	13997.37
547.959	14068.33
548.324	14072.4
548.688	14191.27
549.052	14160.76
549.416	14133.41
549.779	14231.72
550.143	14257.7
550.507	14392.84
550.871	14377.93
551.235	14464.25
551.599	14555.78
551.962	14581.99
552.326	14575.21
552.689	14697.92
553.053	14645.94
553.417	14627.64
553.78	14810.01
554.143	14850.68
554.507	14852.94
554.87	14898.37
555.234	15112.37
555.597	14971.81
555.96	15124.8
556.323	15056.78
556.686	15103.11
557.05	15219.49
557.413	15331.8
557.776	15324.34
558.139	15449.54
558.502	15446.6
558.865	15482.53
559.228	15535.18
559.59	15616.76
559.953	15644.79
560.316	15836.42
560.679	15766.82
561.041	15842.75
561.404	15932.91
561.767	16094.27
562.129	15990.31
562.492	16164.55
562.854	16156.86
563.217	16074.38
563.579	16173.81
563.941	16241.15
564.304	16302.62
564.666	16371.55
565.028	16505.33
565.39	16503.07
565.753	16615.61
566.115	16506.91
566.477	16712.55
566.839	16772.21
567.201	16838.88
567.563	16876.84
567.925	16927.24
568.287	17048.14
568.648	16971.53
569.01	17189.83
569.372	17357.28
569.734	17132.66
570.095	17444.97
570.457	17423.72
570.819	17478.41
571.18	17446.09
571.542	17671.4
571.903	17661
572.265	17705.07
572.626	17811.51
572.987	17898.74
573.349	17940.32
573.71	18094.67
574.071	18120.2
574.432	18286.98
574.794	18503.47
575.155	18548.66
575.516	18573.07
575.877	18632.05
576.238	18684.03
576.599	18916.11
576.96	18822.33
577.32	19066.84
577.681	19235.65
578.042	19393.39
578.403	19417.57
578.763	19536.44
579.124	19698.01
579.485	19863.66
579.845	20004.67
580.206	20104.56
580.566	20263.65
580.927	20390.2
581.287	20634.03
581.648	20650.76
582.008	20979.56
582.368	21087.58
582.728	21237.41
583.089	21426.1
583.449	21598.75
583.809	21817.73
584.169	22062.24
584.529	22196.25
584.889	22536.58
585.249	22757.14
585.609	22784.71
585.969	23195.32
586.329	23241.65
586.688	23575.43
587.048	23683.67
587.408	23921.4
587.768	24086.82
588.127	24367.27
588.487	24458.79
588.846	25002.51
589.206	24953.02
589.565	25249.05
589.925	25727.91
590.284	25787.8
590.643	26125.19
591.003	26412.19
591.362	26672.52
591.721	26953.64
592.08	27136.01
592.44	27380.3
592.799	27658.48
593.158	27982.99
593.517	28084.91
593.876	28420.04
594.235	28575.29
594.593	28928.96
594.952	29261.15
595.311	29241.49
595.67	29798.09
596.029	30189.04
596.387	30298.64
596.746	30577.05
597.104	30703.6
597.463	30970.03
597.822	31250.03
598.18	31503.58
598.538	31594.65
598.897	32069.89
599.255	31977.01
599.613	32683.21
599.972	32605.24
600.33	32913.26
600.688	33018.79
601.046	33415.84
601.404	33656.29
601.762	33701.03
602.12	34259.89
602.478	34247.24
602.836	34487
603.194	34557.96
603.552	34929.03
603.91	34879.76
604.268	35284.72
604.625	35496.02
604.983	35615.33
605.341	35676.35
605.698	36144.81
606.056	36298.03
606.413	36287.63
606.771	36713.38
607.128	36815.76
607.485	36818.47
607.843	37052.13
608.2	37476.08
608.557	37592.23
608.914	37660.48
609.272	38004.2
609.629	38190.63
609.986	38470.4
610.343	38218.2
610.7	38689.38
611.057	38727.57
611.414	38851.41
611.771	38986.77
612.127	39208.23
612.484	39424.5
612.841	39402.35
613.198	39545.63
613.554	39783.81
613.911	40034.65
614.267	40016.57
614.624	39958.95
614.98	40282.78
615.337	40614.53
615.693	40635.77
616.05	40689.78
616.406	40980.39
616.762	40944.69
617.118	40965.25
617.475	40995.31
617.831	41351.91
618.187	41368.4
618.543	41513.48
618.899	41790.77
619.255	41785.34
619.611	41710.32
619.967	41984.43
620.323	42138.78
620.678	42056.75
621.034	42068.95
621.39	42079.12
621.746	42271.2
622.101	42678.88
622.457	42397.98
622.812	42440.69
623.168	42756.62
623.523	42772.21
623.879	42936.27
624.234	42683.62
624.589	42850.4
624.945	43040.22
625.3	42941.02
625.655	43107.79
626.01	43148.92
626.365	43198.86
626.72	43200.45
627.075	43108.92
627.43	43324.96
627.785	43116.61
628.14	43326.09
628.495	43414.45
628.85	43313.89
629.205	43198.64
629.559	43489.03
629.914	43436.6
630.269	43495.35
630.623	43510.04
630.978	43499.2
631.332	43579.65
631.687	43761.11
632.041	43522.47
632.396	43579.19
632.75	43472.08
633.104	43586.2
633.459	43504.39
633.813	43526.54
634.167	43480.89
634.521	43571.51
634.875	43353.44
635.229	43512.3
635.583	43354.79
635.937	43308.69
636.291	43384.85
636.645	43388.69
636.999	43370.39
637.352	43349.59
637.706	43186.21
638.06	43389.14
638.413	43295.13
638.767	43246.32
639.121	43177.17
639.474	43137.4
639.828	43263.04
640.181	43291.29
640.534	43219.65
640.888	43096.49
641.241	42981.02
641.594	43218.3
641.947	43181.92
642.301	43104.86
642.654	43136.27
643.007	43203.84
643.36	43091.75
643.713	43152.54
644.066	43245.19
644.419	43101.92
644.771	42931.3
645.124	42459.22
645.477	42367.02
645.83	42090.19
646.182	42108.27
646.535	41974.72
646.888	41953.93
647.24	41853.14
647.593	41998.22
647.945	41901.72
648.298	41746.47
648.65	41659.47
649.002	41490.89
649.355	41764.55
649.707	41708.06
650.059	41908.73
650.411	42281.37
650.763	42376.29
651.115	42687.47
651.467	42484.53
651.819	42554.36
652.171	42491.99
652.523	42342.84
652.875	42440.69
653.227	42332.67
653.578	42626
653.93	42478.88
654.282	42196.18
654.633	42307.59
654.985	42399.79
655.337	42334.03
655.688	42468.49
656.039	42546.45
656.391	42081.61
656.742	42301.94
657.094	42187.14
657.445	42445.89
657.796	42245.67
658.147	42318.89
658.498	42245.67
658.849	42313.24
659.2	42339.68
659.551	42112.57
659.902	42271.88
660.253	42109.18
660.604	42165.22
660.955	42021.95
661.306	42298.1
661.656	42159.8
662.007	42064.66
662.358	41980.37
662.708	42167.7
663.059	42150.08
663.409	41857.2
663.76	42147.14
664.11	42028.27
664.461	42056.3
664.811	41986.47
665.161	41957.99
665.511	41839.35
665.862	42016.52
666.212	41950.76
666.562	42106.92
666.912	42074.15
667.262	41978.56
667.612	41881.84
667.962	42075.05
668.312	41987.14
668.662	42193.01
669.011	42014.04
669.361	42002.74
669.711	41871.89
670.06	41879.8
670.41	41784.21
670.76	41807.49
671.109	42024.66
671.459	41837.09
671.808	41850.2
672.157	41883.19
672.507	41601.17
672.856	41602.52
673.205	41644.33
673.554	41788.73
673.904	41675.51
674.253	41873.02
674.602	41706.93
674.951	41210.22
675.3	41016.55
675.649	41674.61
675.998	41496.54
676.346	41674.84
676.695	41640.71
677.044	41397.33
677.393	41428.97
677.741	41598.23
678.09	41414.96
678.438	41313.26
678.787	41562.75
679.135	41376.77
679.484	41157.34
679.832	41382.19
680.181	41113.72
680.529	41098.81
680.877	41139.26
681.225	41101.52
681.573	41228.29
681.922	40895.42
682.27	40724.58
682.618	40826.95
682.966	40700.62
683.314	40742.43
683.661	40682.32
684.009	40512.38
684.357	40617.01
684.705	40446.85
685.053	40493.62
685.4	40368.43
685.748	40262.67
686.095	40257.7
686.443	40078.95
686.79	40247.53
687.138	40198.49
687.485	40201.43
687.832	40013.64
688.18	40127.31
688.527	39835.79
688.874	39727.99
689.221	39839.86
689.568	39628.79
689.915	39517.38
690.262	39404.39
690.609	39473.09
690.956	39379.3
691.303	39322.13
691.65	39165.52
691.997	39097.73
692.344	38826.32
692.69	38769.15
693.037	38799.21
693.383	38598.31
693.73	38640.57
694.077	38549.49
694.423	38356.05
694.769	38200.35
695.116	38245.55
695.462	38323.06
695.808	38091.2
696.155	38228.83
696.501	37788.61
696.847	37799.01
697.193	37733.47
697.539	37853.69
697.885	37536.64
698.231	37509.07
698.577	37459.81
698.923	37366.48
699.269	37305.23
699.614	37095.3
699.96	36954.73
700.306	37045.13
700.651	36828.86
700.997	36660.28
701.342	36580.73
701.688	36611.01
702.033	36637
702.379	36425.48
702.724	36319.95
703.069	36513.16
703.415	36027.98
703.76	36043.57
704.105	35960.64
704.45	35963.8
704.795	35722.68
705.14	35660.31
705.485	35698.04
705.83	35410.59
706.175	35606.75
706.52	35484.72
706.865	35357.94
707.209	35294.44
707.554	35238.17
707.899	35236.59
708.243	34954.11
708.588	34899.87
708.932	34739.43
709.277	34754.11
709.621	34883.6
709.966	34598.41
710.31	34662.82
710.654	34250.17
710.998	34406.33
711.342	34334.46
711.687	34390.06
712.031	34201.81
712.375	34014.25
712.719	34004.98
713.063	33924.76
713.407	34057.86
713.75	33789.39
714.094	33873.69
714.438	33598.21
714.782	33682.96
715.125	33534.03
715.469	33580.59
715.812	33446.13
716.156	33208.62
716.499	33363.42
716.843	33270.54
717.186	33105.8
717.53	33226.47
717.873	33259.01
718.216	33013.82
718.559	32928.17
718.902	32857.44
719.246	32842.07
719.589	32734.51
719.932	32652.25
720.275	32755.52
720.617	32544
720.96	32540.16
721.303	32504.68
721.646	32520.95
721.989	32315.76
722.331	32419.94
722.674	32319.15
723.016	32464.91
723.359	32261.07
723.701	32327.96
724.044	32115.77
724.386	31935.43
724.729	32056.11
725.071	31951.48
725.413	31996.45
725.755	32073.73
726.097	31841.65
726.439	31744.7
726.782	31717.81
727.124	31790.35
727.465	31438.95
727.807	31614.54
728.149	31539.51
728.491	31443.02
728.833	31573.18
729.175	31363.47
729.516	31284.6
729.858	31378.16
730.199	31182.46
730.541	31228.78
730.882	31225.85
731.224	31224.49
731.565	31070.37
731.906	31113.76
732.248	31111.95
732.589	30873.31
732.93	30751.96
733.271	30790.83
733.612	30849.58
733.953	30850.49
734.294	30698.85
734.635	30622.02
734.976	30669.48
735.317	30542.93
735.658	30465.41
735.999	30586.54
736.339	30499.54
736.68	30658.18
737.021	30415.02
737.361	30285.31
737.702	30437.62
738.042	30180.45
738.383	30130.06
738.723	30369.14
739.063	30085.99
739.404	30168.92
739.744	30020.23
740.084	30062.71
740.424	30025.88
740.764	29919.21
741.104	30128.47
741.444	29857.97
741.784	29654.36
742.124	29833.79
742.464	29696.39
742.804	29604.87
743.143	29692.33
743.483	29598.32
743.823	29469.28
744.162	29390.87
744.502	29543.18
744.841	29266.35
745.181	29486.46
745.52	29335.95
745.86	29346.12
746.199	29367.36
746.538	29293.02
746.877	29329.17
747.216	29394.71
747.556	29192.9
747.895	29182.96
748.234	29084.43
748.573	29055.96
748.911	29100.25
749.25	29035.39
749.589	28822.52
749.928	28853.93
750.267	28963.31
750.605	28787.27
750.944	28870.88
751.283	28750.66
751.621	28656.2
751.96	28476.77
752.298	28542.3
752.636	28554.28
752.975	28436.31
753.313	28256.88
753.651	28517.67
753.989	28314.06
754.327	28285.36
754.666	28215.3
755.004	28184.12
755.342	28243.33
755.679	28068.41
756.017	27925.37
756.355	28001.75
756.693	27871.81
757.031	27947.29
757.368	27672.27
