Data from hue_36_FLMS001491_00026.txt Node
Date: Tue Feb 07 17:29:35 GMT 2017
User: dcchb
Spectrometer: FLMS00149
Trigger mode: 0
Integration Time (sec): 2.000000E-2
Scans to average: 10
Electric dark correction enabled: true
Nonlinearity correction enabled: false
Boxcar width: 0
XAxis mode: Wavelengths
Number of Pixels in Spectrum: 2048
>>>>>Begin Spectral Data<<<<<
341.393	-42.34
341.776	-42.34
342.16	-42.34
342.543	-59.74
342.927	-69.01
343.31	-64.04
343.693	-90.93
344.077	-64.94
344.46	-56.35
344.843	-61.78
345.226	-41.89
345.61	-23.81
345.993	-11.16
346.376	-3.47
346.759	5.11
347.142	43.3
347.525	53.7
347.908	51.44
348.291	69.52
348.674	74.04
349.057	121.27
349.44	136.41
349.823	156.52
350.206	147.03
350.588	194.94
350.971	208.5
351.354	210.76
351.737	248.95
352.119	239.01
352.502	278.78
352.884	276.52
353.267	287.59
353.65	300.02
354.032	318.1
354.414	297.76
354.797	311.32
355.179	308.16
355.562	330.98
355.944	330.08
356.326	343.18
356.709	325.78
357.091	343.86
357.473	347.7
357.855	350.19
358.238	330.53
358.62	345.22
359.002	355.84
359.384	342.51
359.766	343.86
360.148	334.14
360.53	350.41
360.912	349.96
361.294	333.47
361.676	335.95
362.057	342.51
362.439	339.79
362.821	342.73
363.203	331.21
363.584	340.25
363.966	323.75
364.348	335.05
364.729	328.27
365.111	319.68
365.493	301.15
365.874	330.3
366.256	308.16
366.637	296.63
367.019	298.89
367.4	307.48
367.781	314.71
368.163	345.22
368.544	324.88
368.925	317.42
369.306	297.08
369.688	307.93
370.069	300.47
370.45	304.77
370.831	289.63
371.212	307.7
371.593	312.68
371.974	312.22
372.355	314.48
372.736	320.13
373.117	336.86
373.498	310.87
373.879	313.58
374.26	304.31
374.641	307.03
375.021	318.1
375.402	324.2
375.783	331.88
376.163	325.78
376.544	312.45
376.925	340.92
377.305	329.85
377.686	299.79
378.066	309.29
378.447	332.79
378.827	328.95
379.208	324.2
379.588	334.82
379.968	322.84
380.349	343.86
380.729	328.04
381.109	348.61
381.489	340.47
381.87	346.57
382.25	332.34
382.63	325.78
383.01	337.76
383.39	348.83
383.77	322.17
384.15	351.09
384.53	346.12
384.91	334.82
385.29	340.7
385.67	345.22
386.049	371.43
386.429	352.45
386.809	348.15
387.189	353.13
387.568	347.93
387.948	354.93
388.328	346.8
388.707	331.88
389.087	369.17
389.466	352.45
389.846	350.41
390.225	371.88
390.605	349.28
390.984	358.1
391.363	367.59
391.743	373.46
392.122	364.2
392.501	354.93
392.881	362.84
393.26	370.53
393.639	366.46
394.018	361.04
394.397	366.01
394.776	342.05
395.155	382.05
395.534	369.4
395.913	370.98
396.292	382.73
396.671	372.33
397.05	373.46
397.429	374.82
397.808	396.97
398.186	380.92
398.565	384.99
398.944	378.66
399.323	386.35
399.701	390.19
400.08	388.83
400.458	410.53
400.837	376.4
401.215	382.05
401.594	383.18
401.972	402.39
402.351	382.73
402.729	393.58
403.107	388.61
403.486	406.91
403.864	385.67
404.242	410.3
404.62	422.28
404.999	426.34
405.377	401.49
405.755	399.23
406.133	418.66
406.511	406.46
406.889	431.77
407.267	416.4
407.645	407.59
408.023	401.49
408.401	426.8
408.779	427.7
409.156	448.04
409.534	424.31
409.912	430.86
410.29	430.86
410.667	448.04
411.045	454.14
411.422	451.2
411.8	464.31
412.178	457.98
412.555	455.04
412.933	455.5
413.31	437.42
413.687	454.82
414.065	480.35
414.442	474.03
414.819	450.07
415.197	478.55
415.574	456.4
415.951	468.38
416.328	480.35
416.705	482.61
417.082	500.92
417.46	490.3
417.837	484.65
418.214	471.32
418.591	502.05
418.967	499.11
419.344	495.04
419.721	513.8
420.098	489.85
420.475	505.89
420.852	494.59
421.228	511.77
421.605	506.34
421.982	502.73
422.358	539.11
422.735	526.46
423.111	534.82
423.488	520.58
423.864	523.74
424.241	521.71
424.617	531.88
424.994	547.7
425.37	556.28
425.746	545.44
426.123	562.39
426.499	552.44
426.875	554.02
427.251	567.13
427.627	548.38
428.003	579.34
428.379	563.29
428.756	551.77
429.132	580.46
429.507	586.79
429.883	573.46
430.259	588.37
430.635	593.12
431.011	595.83
431.387	620.46
431.763	634.02
432.138	616.4
432.514	614.14
432.89	606.45
433.265	620.01
433.641	637.86
434.016	627.7
434.392	646.9
434.767	640.58
435.143	633.12
435.518	657.3
435.894	644.87
436.269	688.26
436.644	699.78
437.02	690.74
437.395	688.48
437.77	680.12
438.145	688.26
438.52	703.4
438.895	694.59
439.271	694.81
439.646	710.86
440.021	707.02
440.395	720.57
440.77	722.61
441.145	697.75
441.52	727.58
441.895	735.49
442.27	723.06
442.645	721.93
443.019	750.63
443.394	758.31
443.769	762.83
444.143	758.54
444.518	761.03
444.892	742.95
445.267	771.65
445.641	757.64
446.016	789.27
446.39	775.71
446.764	763.74
447.139	779.1
447.513	814.13
447.887	792.44
448.262	768.93
448.636	804.41
449.01	805.77
449.384	831.31
449.758	807.8
450.132	809.16
450.506	827.46
450.88	858.42
451.254	843.96
451.628	871.3
452.002	867.92
452.376	867.92
452.75	850.97
453.123	848.71
453.497	872.66
453.871	883.73
454.244	890.06
454.618	925.09
454.992	925.77
455.365	923.51
455.739	935.03
456.112	928.48
456.486	934.35
456.859	964.18
457.232	964.64
457.606	958.99
457.979	951.98
458.352	978.65
458.725	992.66
459.099	1003.73
459.472	1042.15
459.845	999.66
460.218	1061.13
460.591	1012.77
460.964	1061.13
461.337	1084.41
461.71	1085.76
462.083	1071.75
462.456	1091.64
462.829	1091.41
463.201	1124.86
463.574	1120.79
463.947	1155.59
464.32	1151.52
464.692	1164.63
465.065	1181.58
465.438	1213.89
465.81	1213.67
466.183	1226.55
466.555	1245.08
466.928	1282.37
467.3	1261.13
467.672	1282.37
468.045	1315.81
468.417	1325.08
468.789	1359.43
469.161	1363.95
469.534	1404.4
469.906	1420.67
470.278	1428.35
470.65	1448.92
471.022	1497.5
471.394	1487.56
471.766	1548.12
472.138	1566.43
472.51	1588.57
472.882	1601.68
473.253	1637.61
473.625	1667.22
473.997	1725.29
474.369	1728.46
474.74	1771.17
475.112	1792.86
475.484	1810.26
475.855	1867.66
476.227	1918.06
476.598	1943.14
476.97	1983.37
477.341	2063.36
477.713	2073.76
478.084	2101.33
478.455	2155.11
478.827	2225.62
479.198	2325.73
479.569	2321.66
479.94	2387.42
480.311	2427.65
480.682	2512.62
481.053	2591.71
481.424	2684.36
481.795	2716.23
482.166	2800.52
482.537	2828.32
482.908	2936.79
483.279	2965.49
483.65	3090.91
484.021	3206.38
484.391	3247.29
484.762	3313.73
485.133	3355.76
485.503	3439.15
485.874	3527.96
486.244	3632.36
486.615	3740.38
486.985	3791.45
487.356	3892.92
487.726	3958.46
488.097	4084.33
488.467	4186.7
488.837	4239.13
489.207	4356.86
489.578	4462.17
489.948	4541.04
490.318	4646.57
490.688	4704.2
491.058	4810.18
491.428	4882.95
491.798	5093.57
492.168	5121.36
492.538	5227.57
492.908	5338.98
493.278	5412.88
493.648	5484.74
494.017	5641.8
494.387	5636.38
494.757	5774.9
495.126	5883.15
495.496	5898.74
495.866	6020.32
496.235	6109.59
496.605	6268.23
496.974	6313.42
497.344	6393.87
497.713	6525.62
498.082	6576.47
498.452	6665.5
498.821	6762
499.19	6814.43
499.559	6927.19
499.928	7009.67
500.298	7110.01
500.667	7177.81
501.036	7200.18
501.405	7266.16
501.774	7305.03
502.143	7424.35
502.512	7494.18
502.88	7577.12
503.249	7623.22
503.618	7656.89
503.987	7766.49
504.356	7896.66
504.724	7968.29
505.093	8022.53
505.462	8054.84
505.83	8117.89
506.199	8228.85
506.567	8340.03
506.936	8374.84
507.304	8427.94
507.672	8523.53
508.041	8580.03
508.409	8670.42
508.777	8737.99
509.145	8789.97
509.514	8811.66
509.882	8840.13
510.25	8951.09
510.618	8960.81
510.986	9041.94
511.354	9180.69
511.722	9236.28
512.09	9380.46
512.458	9348.82
512.826	9432.44
513.193	9462.94
513.561	9513.79
513.929	9605.99
514.297	9762.14
514.664	9790.84
515.032	9860.67
515.4	9904.51
515.767	9978.86
516.135	9937.28
516.502	9886.89
516.869	10113.77
517.237	10189.25
517.604	10128.24
517.972	10245.52
518.339	10394.44
518.706	10344.95
519.073	10386.31
519.44	10492.75
519.808	10587.89
520.175	10495.91
520.542	10649.13
520.909	10746.75
521.276	10711.72
521.643	10879.18
522.009	10881.44
522.376	11027.87
522.743	11025.61
523.11	11132.05
523.477	11246.17
523.843	11281.43
524.21	11422.21
524.577	11487.52
524.943	11514.87
525.31	11640.97
525.676	11747.4
526.043	11730.91
526.409	11876.67
526.776	11920.28
527.142	11884.12
527.508	12038.69
527.874	12157.56
528.241	12219.48
528.607	12277.56
528.973	12370.44
529.339	12310.33
529.705	12504.9
530.071	12555.07
530.437	12582.86
530.803	12736.76
531.169	12824.21
531.535	12764.33
531.901	12794.61
532.267	12921.61
532.632	12946.47
532.998	13023.08
533.364	13049.06
533.73	13110.98
534.095	13274.59
534.461	13312.33
534.826	13356.63
535.192	13400.24
535.557	13450.64
535.923	13447.25
536.288	13512.78
536.653	13587.13
537.019	13641.14
537.384	13572.89
537.749	13692.21
538.114	13741.25
538.479	13828.7
538.845	13915.03
539.21	13854.69
539.575	13974.01
539.94	13992.32
540.305	14043.61
540.67	14085.87
541.034	14127.68
541.399	14293.78
541.764	14243.16
542.129	14345.53
542.494	14392.53
542.858	14492.42
543.223	14449.25
543.587	14555.92
543.952	14590.04
544.316	14713.2
544.681	14638.17
545.045	14767.44
545.41	14875.91
545.774	14870.71
546.138	14857.15
546.503	14940.54
546.867	15050.37
547.231	15126.3
547.595	15169.01
547.959	15246.97
548.324	15226.63
548.688	15305.5
549.052	15336.24
549.416	15311.38
549.779	15404.26
550.143	15488.32
550.507	15524.25
550.871	15539.17
551.235	15606.96
551.599	15760.18
551.962	15600.41
552.326	15837.69
552.689	15867.07
553.053	15808.54
553.417	15925.37
553.78	16124.01
554.143	15950.46
554.507	16160.85
554.87	16171.47
555.234	16336.89
555.597	16263.22
555.96	16345.25
556.323	16406.26
556.686	16449.65
557.05	16532.59
557.413	16542.98
557.776	16646.48
558.139	16665.01
558.502	16770.1
558.865	16702.98
559.228	16914.5
559.59	16896.65
559.953	16981.39
560.316	17128.28
560.679	17177.09
561.041	17262.06
561.404	17296.18
561.767	17443.75
562.129	17342.74
562.492	17579.57
562.854	17519.91
563.217	17519.45
563.579	17612.33
563.941	17700.92
564.304	17711.77
564.666	17916.05
565.028	17935.94
565.39	17911.53
565.753	18077.86
566.115	18145.88
566.477	18197.63
566.839	18284.18
567.201	18374.12
567.563	18325.76
567.925	18450.5
568.287	18510.61
568.648	18624.74
569.01	18694.11
569.372	18785.64
569.734	18809.82
570.095	18852.98
570.457	18917.84
570.819	18944.28
571.18	19042.58
571.542	19192.86
571.903	19207.32
572.265	19320.31
572.626	19314.21
572.987	19450.25
573.349	19521.21
573.71	19702.9
574.071	19723.01
574.432	19849.34
574.794	20015.43
575.155	19972.27
575.516	19951.71
575.877	20140.85
576.238	20233.06
576.599	20420.85
576.96	20499.72
577.32	20566.38
577.681	20735.42
578.042	20812.7
578.403	21007.95
578.763	21006.59
579.124	21250.2
579.485	21425.57
579.845	21544.66
580.206	21612.23
580.566	21800.7
580.927	21882.5
581.287	22072.33
581.648	22183.74
582.008	22324.53
582.368	22439.1
582.728	22645.87
583.089	22794.12
583.449	22845.64
583.809	23215.35
584.169	23341.67
584.529	23476.81
584.889	23854.66
585.249	23798.39
585.609	24014.65
585.969	24321.76
586.329	24434.98
586.688	24559.27
587.048	24826.83
587.408	24957.45
587.768	25193.15
588.127	25408.96
588.487	25568.96
588.846	26160.81
589.206	25958.1
589.565	26318.55
589.925	26573.23
590.284	26833.79
590.643	26967.12
591.003	27277.84
591.362	27523.49
591.721	27714.89
592.08	27978.16
592.44	28186.52
592.799	28420.18
593.158	28485.27
593.517	28761.64
593.876	28975.2
594.235	29046.61
594.593	29453.15
594.952	29653.15
595.311	29594.17
595.67	29957.32
596.029	30394.14
596.387	30508.04
596.746	30822.61
597.104	30819.9
597.463	31055.14
597.822	31321.8
598.18	31297.4
598.538	31493.32
598.897	31952.97
599.255	31915.91
599.613	32472.96
599.972	32499.63
600.33	32663.46
600.688	32819.17
601.046	33153.39
601.404	33316.33
601.762	33456.21
602.12	33729.65
602.478	33922.64
602.836	34069.53
603.194	34128.06
603.552	34321.5
603.91	34373.02
604.268	34660.25
604.625	34659.57
604.983	34869.51
605.341	34915.38
605.698	35252.55
606.056	35472.2
606.413	35558.53
606.771	35892.53
607.128	35990.16
607.485	35906.99
607.843	36120.77
608.2	36379.07
608.557	36563.02
608.914	36414.1
609.272	36877.36
609.629	36937.48
609.986	37123.01
610.343	37104.25
610.7	37551.47
611.057	37442.32
611.414	37586.5
611.771	37760.5
612.127	37882.99
612.484	38108.74
612.841	38203.43
613.198	38302.41
613.554	38202.3
613.911	38608.84
614.267	38725.68
614.624	38673.25
614.98	38683.19
615.337	39086.8
615.693	38983.3
616.05	39043.63
616.406	39321.59
616.762	39269.84
617.118	39502.38
617.475	39466.22
617.831	39766.78
618.187	39798.64
618.543	39851.75
618.899	40122.93
619.255	40093.78
619.611	39896.49
619.967	40249.7
620.323	40432.07
620.678	40271.85
621.034	40323.37
621.39	40344.17
621.746	40532.63
622.101	40987.09
622.457	40660.99
622.812	40789.13
623.168	40956.58
623.523	40955.22
623.879	40986.63
624.234	40817.15
624.589	41108.89
624.945	41109.34
625.3	41224.14
625.655	41198.15
626.01	41283.12
626.365	41215.1
626.72	41259.4
627.075	41403.12
627.43	41310.92
627.785	41287.64
628.14	41345.49
628.495	41511.82
628.85	41393.63
629.205	41364.48
629.559	41695.54
629.914	41411.93
630.269	41627.3
630.623	41334.65
630.978	41326.51
631.332	41575.32
631.687	41650.35
632.041	41383.01
632.396	41593.4
632.75	41608.54
633.104	41735.54
633.459	41523.57
633.813	41383.01
634.167	41469.56
634.521	41430.92
634.875	41552.95
635.229	41496.23
635.583	41231.6
635.937	41436.34
636.291	41439.5
636.645	41537.13
636.999	41368.32
637.352	41480.18
637.706	41311.6
638.06	41459.39
638.413	41290.81
638.767	41283.35
639.121	41286.06
639.474	41142.56
639.828	41108.89
640.181	41325.83
640.534	41168.78
640.888	41055.11
641.241	40995.67
641.594	41177.14
641.947	41158.38
642.301	41027.99
642.654	41167.19
643.007	41179.4
643.36	41059.63
643.713	40980.08
644.066	41132.62
644.419	40866.64
644.771	40684.27
645.124	40289.48
645.477	40218.07
645.83	39976.94
646.182	39946.44
646.535	39746.89
646.888	39871.64
647.24	39607.01
647.593	39903.05
647.945	39862.37
648.298	39627.8
648.65	39568.59
649.002	39576.05
649.355	39665.54
649.707	39652.88
650.059	39846.33
650.411	40294
650.763	40271.17
651.115	40717.49
651.467	40583.71
651.819	40613.31
652.171	40384.84
652.523	40437.04
652.875	40260.33
653.227	40207.22
653.578	40525.4
653.93	40348.68
654.282	40203.83
654.633	40084.29
654.985	40231.63
655.337	40273.88
655.688	40131.97
656.039	40446.76
656.391	40098.75
656.742	40095.81
657.094	40165.86
657.445	40383.71
657.796	40157.5
658.147	40046.55
658.498	40106.88
658.849	40225.07
659.2	39986.66
659.551	40055.36
659.902	40224.85
660.253	40129.26
660.604	40047.68
660.955	39914.35
661.306	40161.35
661.656	40085.41
662.007	40140.1
662.358	40088.8
662.708	40033.21
663.059	40042.7
663.409	39749.15
663.76	40046.32
664.11	40015.36
664.461	40122.7
664.811	39869.83
665.161	39999.09
665.511	39891.07
665.862	39985.76
666.212	39970.62
666.562	39886.55
666.912	39925.42
667.262	39888.13
667.612	39866.21
667.962	39876.61
668.312	39821.69
668.662	40007
669.011	39931.97
669.361	39709.38
669.711	39877.51
670.06	39714.8
670.41	39628.03
670.76	39783.5
671.109	39702.6
671.459	39619.21
671.808	39703.96
672.157	39728.81
672.507	39455.37
672.856	39604.75
673.205	39643.84
673.554	39742.83
673.904	39526.11
674.253	39689.27
674.602	39523.62
674.951	39078.89
675.3	38792.57
675.649	39629.16
675.998	39460.57
676.346	39501.48
676.695	39548.48
677.044	39339.67
677.393	39538.08
677.741	39489.27
678.09	39410.4
678.438	39344.42
678.787	39482.27
679.135	39352.33
679.484	39239.56
679.832	39337.19
680.181	39111.88
680.529	39119.11
680.877	39089.51
681.225	39070.98
681.573	39252.67
681.922	39033.24
682.27	38805.67
682.618	38932
682.966	38754.15
683.314	38873.24
683.661	38828.95
684.009	38590.76
684.357	38350.32
684.705	38361.62
685.053	38460.82
685.4	38405.23
685.748	38192.58
686.095	38264.45
686.443	38111.68
686.79	38064.23
687.138	38155.75
687.485	38175.18
687.832	37906.72
688.18	38059.25
688.527	37806.83
688.874	37900.16
689.221	37804.8
689.568	37657.91
689.915	37607.51
690.262	37558.02
690.609	37517.35
690.956	37286.39
691.303	37336.79
691.65	37213.63
691.997	37176.79
692.344	36921.88
692.69	37011.6
693.037	36914.88
693.383	36699.52
693.73	36870.13
694.077	36604.38
694.423	36637.6
694.769	36418.17
695.116	36344.04
695.462	36283.93
695.808	36218.4
696.155	36357.83
696.501	36040.78
696.847	35937.05
697.193	35721.69
697.539	35938.63
697.885	35691.63
698.231	35598.53
698.577	35685.98
698.923	35499.77
699.269	35374.8
699.614	35290.06
699.96	35167.8
700.306	35252.77
700.651	35102.95
700.997	34907.47
701.342	34790.86
701.688	34850.07
702.033	34583.86
702.379	34676.97
702.724	34589.29
703.069	34655.05
703.415	34318.11
703.76	34254.61
704.105	34263.42
704.45	34150.66
704.795	33946.37
705.14	33959.7
705.485	33754.96
705.83	33765.13
706.175	33835.41
706.52	33712.7
706.865	33557
707.209	33536.21
707.554	33361.52
707.899	33408.3
708.243	33155.65
708.588	33219.83
708.932	33023.23
709.277	33032.49
709.621	33053.06
709.966	32827.98
710.31	33074.75
710.654	32572.84
710.998	32644.03
711.342	32625.72
711.687	32581.88
712.031	32512.28
712.375	32334.88
712.719	32394.09
713.063	32332.85
713.407	32439.29
713.75	32189.8
714.094	32195.45
714.438	32001.56
714.782	32015.8
715.125	31869.36
715.469	32008.11
715.812	31870.72
716.156	31767.44
716.499	31654.68
716.843	31615.13
717.186	31549.37
717.53	31663.72
717.873	31681.57
718.216	31474.12
718.559	31339.2
718.902	31285.65
719.246	31348.24
719.589	31198.87
719.932	31111.64
720.275	31094.92
720.617	31056.73
720.96	30943.28
721.303	31002.04
721.646	31053.56
721.989	30810.18
722.331	30859.22
722.674	30733.8
723.016	30696.28
723.359	30757.52
723.701	30691.31
724.044	30497.19
724.386	30453.13
724.729	30420.13
725.071	30479.11
725.413	30449.28
725.755	30341.04
726.097	30197.09
726.439	30095.4
726.782	30134.49
727.124	30207.71
727.465	30028.05
727.807	30059.92
728.149	29869.19
728.491	29830.32
728.833	29928.39
729.175	29797.1
729.516	29683.43
729.858	29728.85
730.199	29677.55
730.541	29524.56
730.882	29607.27
731.224	29647.05
731.565	29344.45
731.906	29486.37
732.248	29553.94
732.589	29284.12
732.93	29230.56
733.271	29292.7
733.612	29251.12
733.953	29158.47
734.294	29196.89
734.635	29123.9
734.976	29191.92
735.317	28864.69
735.658	29081.64
735.999	28993.73
736.339	28971.36
736.68	28996.44
737.021	28827.63
737.361	28670.57
737.702	28892.49
738.042	28836.45
738.383	28692.49
738.723	28769.1
739.063	28631.25
739.404	28701.31
739.744	28593.97
740.084	28427.87
740.424	28524.81
740.764	28401.88
741.104	28414.54
741.444	28363.24
741.784	28248.21
742.124	28389
742.464	28332.28
742.804	28194.43
743.143	28065.39
743.483	28139.51
743.823	27982.91
744.162	27876.47
744.502	27922.57
744.841	27869.24
745.181	28054.32
745.52	27753.54
745.86	27876.02
746.199	27808.45
746.538	27681.45
746.877	27787.43
747.216	27752.18
747.556	27761.9
747.895	27636.02
748.234	27568.91
748.573	27577.72
748.911	27472.41
749.25	27483.49
749.589	27383.38
749.928	27432.19
750.267	27498.85
750.605	27289.14
750.944	27210.27
751.283	27161.23
751.621	27193.32
751.96	26983.16
752.298	26989.26
752.636	26988.36
752.975	26906.78
753.313	26797.4
753.651	26941.58
753.989	26789.04
754.327	26652.77
754.666	26540.91
755.004	26567.8
755.342	26594.92
755.679	26595.15
756.017	26421.59
756.355	26451.65
756.693	26302.5
757.031	26354.02
757.368	26293.46
