Data from hue_120_FLMS001491_00041.txt Node
Date: Tue Feb 07 16:59:25 GMT 2017
User: dcchb
Spectrometer: FLMS00149
Trigger mode: 0
Integration Time (sec): 2.000000E-2
Scans to average: 10
Electric dark correction enabled: true
Nonlinearity correction enabled: false
Boxcar width: 0
XAxis mode: Wavelengths
Number of Pixels in Spectrum: 2048
>>>>>Begin Spectral Data<<<<<
341.393	-24.07
341.776	-24.07
342.16	-24.07
342.543	-71.75
342.927	-83.95
343.31	-85.08
343.693	-74.46
344.077	-69.94
344.46	-70.39
344.843	-72.65
345.226	-36.27
345.61	-31.3
345.993	-3.05
346.376	8.02
346.759	15.93
347.142	26.78
347.525	46.21
347.908	59.09
348.291	85.31
348.674	87.79
349.057	114.01
349.44	121.92
349.823	143.84
350.206	150.39
350.588	197.62
350.971	195.59
351.354	219.77
351.737	248.92
352.119	241.01
352.502	234.68
352.884	261.58
353.267	278.98
353.65	304.96
354.032	318.52
354.414	320.1
354.797	309.71
355.179	309.03
355.562	317.84
355.944	309.48
356.326	327.11
356.709	326.21
357.091	355.81
357.473	341.57
357.855	330.95
358.238	331.86
358.62	330.73
359.002	332.08
359.384	316.26
359.766	327.56
360.148	332.99
360.53	351.97
360.912	321.01
361.294	339.99
361.676	325.53
362.057	333.44
362.439	337.28
362.821	321.46
363.203	325.3
363.584	324.17
363.966	336.83
364.348	337.51
364.729	321.46
365.111	322.14
365.493	331.63
365.874	333.66
366.256	316.26
366.637	331.86
367.019	331.86
367.4	343.38
367.781	307.68
368.163	329.6
368.544	310.61
368.925	327.34
369.306	347
369.688	313.1
370.069	336.6
370.45	319.43
370.831	321.01
371.212	325.53
371.593	317.39
371.974	318.3
372.355	324.62
372.736	338.64
373.117	310.61
373.498	333.89
373.879	325.98
374.26	335.02
374.641	304.74
375.021	328.01
375.402	324.62
375.783	330.5
376.163	332.99
376.544	314.68
376.925	327.11
377.305	337.05
377.686	336.6
378.066	330.73
378.447	348.35
378.827	340.44
379.208	318.97
379.588	348.8
379.968	327.11
380.349	343.15
380.729	359.43
381.109	355.36
381.489	345.87
381.87	323.95
382.25	337.28
382.63	339.54
383.01	347.45
383.39	329.37
383.77	338.64
384.15	354
384.53	349.03
384.91	351.74
385.29	373.66
385.67	372.98
386.049	366.43
386.429	353.55
386.809	356.26
387.189	361.01
387.568	351.29
387.948	375.24
388.328	378.63
388.707	366.43
389.087	374.57
389.466	363.72
389.846	384.74
390.225	394.45
390.605	389.26
390.984	383.38
391.363	379.31
391.743	379.99
392.122	375.7
392.501	369.14
392.881	360.56
393.26	410.95
393.639	389.48
394.018	403.72
394.397	393.55
394.776	375.92
395.155	396.94
395.534	402.36
395.913	396.94
396.292	397.39
396.671	400.1
397.05	394
397.429	422.47
397.808	406.88
398.186	402.14
398.565	409.14
398.944	412.98
399.323	425.41
399.701	437.84
400.08	404.85
400.458	429.93
400.837	431.97
401.215	421.34
401.594	425.41
401.972	421.8
402.351	441.01
402.729	421.57
403.107	430.38
403.486	434.9
403.864	434.68
404.242	453.66
404.62	424.51
404.999	449.37
405.377	445.53
405.755	470.38
406.133	467.9
406.511	441.23
406.889	488.46
407.267	475.81
407.645	475.35
408.023	478.52
408.401	506.31
408.779	466.54
409.156	475.58
409.534	501.12
409.912	485.52
410.29	503.83
410.667	517.84
411.045	516.48
411.422	499.08
411.8	495.24
412.178	497.28
412.555	527.78
412.933	533.88
413.31	511.51
413.687	524.84
414.065	537.73
414.442	527.1
414.819	550.38
415.197	539.76
415.574	532.75
415.951	572.08
416.328	550.61
416.705	574.79
417.082	550.83
417.46	569.82
417.837	573.88
418.214	603.94
418.591	585.18
418.967	594.9
419.344	582.47
419.721	598.74
420.098	574.11
420.475	590.61
420.852	577.95
421.228	591.06
421.605	610.94
421.982	618.18
422.358	618.63
422.735	610.49
423.111	640.32
423.488	619.08
423.864	648.01
424.241	633.77
424.617	657.27
424.994	660.43
425.37	639.19
425.746	638.06
426.123	674.9
426.499	669.25
426.875	670.83
427.251	697.27
427.627	661.56
428.003	689.81
428.379	688
428.756	695.69
429.132	705.63
429.507	711.73
429.883	718.29
430.259	750.83
430.635	757.16
431.011	728.23
431.387	728.23
431.763	754.9
432.138	759.87
432.514	774.1
432.89	766.87
433.265	771.84
433.641	792.86
434.016	785.86
434.392	817.72
434.767	829.24
435.143	835.12
435.518	840.09
435.894	841.22
436.269	859.75
436.644	855.91
437.02	863.59
437.395	862.46
437.77	888
438.145	862.92
438.52	893.2
438.895	891.61
439.271	919.41
439.646	927.09
440.021	916.7
440.395	898.17
440.77	928.68
441.145	930.94
441.52	938.62
441.895	919.64
442.27	976.81
442.645	929.13
443.019	992.4
443.394	1002.12
443.769	970.26
444.143	991.05
444.518	1011.84
444.892	1007.54
445.267	1016.36
445.641	1046.41
446.016	1005.28
446.39	1026.75
446.764	1051.84
447.139	1030.14
447.513	1045.51
447.887	1037.83
448.262	1028.11
448.636	1062.68
449.01	1074.66
449.384	1103.13
449.758	1061.55
450.132	1092.51
450.506	1073.76
450.88	1129.12
451.254	1130.48
451.628	1115.11
452.002	1142.23
452.376	1172.51
452.75	1172.74
453.123	1190.36
453.497	1198.73
453.871	1192.17
454.244	1207.76
454.618	1222.68
454.992	1237.14
455.365	1258.84
455.739	1272.62
456.112	1300.87
456.486	1300.19
456.859	1317.14
457.232	1344.94
457.606	1337.03
457.979	1368.44
458.352	1373.41
458.725	1399.85
459.099	1407.76
459.472	1427.87
459.845	1454.31
460.218	1487.08
460.591	1493.41
460.964	1505.38
461.337	1526.63
461.71	1565.27
462.083	1570.24
462.456	1577.25
462.829	1567.98
463.201	1599.84
463.574	1635.32
463.947	1644.14
464.32	1672.84
464.692	1704.7
465.065	1723.68
465.438	1777.47
465.81	1790.12
466.183	1803.68
466.555	1856.34
466.928	1837.8
467.3	1864.47
467.672	1904.92
468.045	1948.31
468.417	1957.8
468.789	1949.44
469.161	1982.43
469.534	2049.1
469.906	2065.6
470.278	2106.5
470.65	2177.68
471.022	2183.11
471.394	2261.07
471.766	2278.7
472.138	2313.95
472.51	2358.24
472.882	2413.83
473.253	2461.52
473.625	2503.32
473.997	2597.56
474.369	2638.69
474.74	2662.87
475.112	2712.58
475.484	2794.84
475.855	2865.8
476.227	2900.15
476.598	3014.95
476.97	3061.05
477.341	3146.47
477.713	3176.98
478.084	3274.6
478.455	3412.23
478.827	3447.03
479.198	3615.39
479.569	3633.92
479.94	3779.22
480.311	3814.93
480.682	3944.42
481.053	4072.77
481.424	4161.59
481.795	4237.74
482.166	4342.37
482.537	4457.4
482.908	4574.91
483.279	4696.26
483.65	4798.86
484.021	4999.3
484.391	5072.07
484.762	5172.41
485.133	5268.68
485.503	5460.31
485.874	5550.93
486.244	5680.64
486.615	5896
486.985	5948.66
487.356	6090.8
487.726	6263.68
488.097	6455.08
488.467	6523.56
488.837	6742.53
489.207	6867.5
489.578	7028.63
489.948	7163.77
490.318	7356.08
490.688	7473.59
491.058	7593.59
491.428	7865.67
491.798	7966.23
492.168	8221.82
492.538	8322.38
492.908	8399.67
493.278	8650.73
493.648	8732.09
494.017	8919.88
494.387	9089.37
494.757	9187.22
495.126	9356.25
495.496	9416.59
495.866	9585.62
496.235	9725.73
496.605	9871.72
496.974	10066.06
497.344	10245.95
497.713	10279.84
498.082	10455.88
498.452	10552.15
498.821	10666.73
499.19	10753.73
499.559	10972.71
499.928	11038.47
500.298	11194.85
500.667	11377.21
501.036	11303.32
501.405	11470.09
501.774	11474.84
502.143	11710.54
502.512	11805.68
502.88	11895.85
503.249	12022.62
503.618	12131.32
503.987	12141.94
504.356	12228.27
504.724	12331.99
505.093	12449.05
505.462	12532.21
505.83	12632.55
506.199	12684.75
506.567	12851.53
506.936	12898.76
507.304	13108.92
507.672	13138.98
508.041	13123.16
508.409	13332.64
508.777	13398.63
509.145	13465.07
509.514	13502.58
509.882	13572.64
510.25	13637.72
510.618	13858.96
510.986	13720.2
511.354	14015.34
511.722	14051.49
512.09	14043.36
512.458	14136.69
512.826	14271.38
513.193	14192.96
513.561	14264.82
513.929	14414.2
514.297	14492.61
514.664	14537.36
515.032	14603.57
515.4	14634.53
515.767	14746.84
516.135	14749.33
516.502	14699.84
516.869	14876.33
517.237	15013.28
517.604	14785.71
517.972	15049.66
518.339	15042.43
518.706	15017.8
519.073	15107.29
519.44	15182.76
519.808	15268.41
520.175	15226.83
520.542	15403.78
520.909	15413.72
521.276	15393.15
521.643	15511.8
522.009	15557.67
522.376	15625.01
522.743	15678.34
523.11	15720.83
523.477	15862.29
523.843	15874.27
524.21	15960.6
524.577	16008.51
524.943	15896.87
525.31	15971.22
525.676	16121.72
526.043	16176.18
526.409	16098.9
526.776	16216.41
527.142	16239.01
527.508	16233.58
527.874	16411.66
528.241	16347.48
528.607	16364.88
528.973	16578.89
529.339	16406.46
529.705	16514.93
530.071	16596.06
530.437	16570.07
530.803	16626.34
531.169	16661.37
531.535	16532.11
531.901	16577.53
532.267	16562.16
532.632	16690.07
532.998	16547.47
533.364	16568.49
533.73	16583.41
534.095	16678.54
534.461	16666.57
534.826	16720.8
535.192	16647.81
535.557	16815.94
535.923	16589.06
536.288	16654.14
536.653	16633.57
537.019	16562.39
537.384	16612.78
537.749	16640.13
538.114	16556.51
538.479	16494.14
538.845	16499.34
539.21	16345.22
539.575	16443.52
539.94	16359.46
540.305	16483.97
540.67	16424.77
541.034	16309.06
541.399	16445.78
541.764	16372.56
542.129	16247.37
542.494	16386.12
542.858	16351.77
543.223	16333.69
543.587	16209.63
543.952	16234.04
544.316	16221.61
544.681	16221.83
545.045	16166.02
545.41	16201.95
545.774	16139.58
546.138	16074.72
546.503	16091.22
546.867	16037.88
547.231	16097.09
547.595	16090.54
547.959	16013.48
548.324	15966.25
548.688	15958.79
549.052	15896.87
549.416	15905.46
549.779	15906.81
550.143	15882.86
550.507	15863.2
550.871	15851
551.235	15734.84
551.599	15882.86
551.962	15873.37
552.326	15756.08
552.689	15743.43
553.053	15724.22
553.417	15739.13
553.78	15771.45
554.143	15732.13
554.507	15769.19
554.87	15639.48
555.234	15810.09
555.597	15581.85
555.96	15639.02
556.323	15605.35
556.686	15645.13
557.05	15691
557.413	15718.8
557.776	15542.3
558.139	15660.27
558.502	15670.89
558.865	15701.17
559.228	15702.07
559.59	15774.39
559.953	15731
560.316	15868.17
560.679	15712.02
561.041	15726.71
561.404	15720.6
561.767	15825.23
562.129	15717.44
562.492	15895.97
562.854	15780.04
563.217	15828.62
563.579	15866.14
563.941	15905.68
564.304	15904.78
564.666	15930.09
565.028	15991.1
565.39	16043.53
565.753	16017.09
566.115	16021.39
566.477	16093.7
566.839	15989.07
567.201	16159.46
567.563	16121.72
567.925	16180.03
568.287	16141.38
568.648	16124.43
569.01	16262.06
569.372	16273.81
569.734	16261.61
570.095	16301.83
570.457	16295.28
570.819	16223.87
571.18	16377.54
571.542	16277.2
571.903	16275.84
572.265	16370.98
572.626	16450.08
572.987	16437.19
573.349	16399.23
573.71	16472.22
574.071	16523.07
574.432	16514.93
574.794	16594.48
575.155	16591.09
575.516	16504.99
575.877	16606.46
576.238	16616.17
576.599	16619.34
576.96	16676.51
577.32	16652.33
577.681	16614.14
578.042	16724.19
578.403	16657.98
578.763	16683.74
579.124	16747.02
579.485	16707.47
579.845	16797.41
580.206	16734.81
580.566	16695.95
580.927	16748.15
581.287	16830.18
581.648	16636.96
582.008	16737.3
582.368	16731.88
582.728	16760.58
583.089	16667.92
583.449	16709.73
583.809	16824.76
584.169	16694.59
584.529	16660.47
584.889	16695.72
585.249	16579.56
585.609	16603.29
585.969	16677.41
586.329	16606
586.688	16646.45
587.048	16641.26
587.408	16561.71
587.768	16644.87
588.127	16614.37
588.487	16550.41
588.846	16662.73
589.206	16482.39
589.565	16488.49
589.925	16582.28
590.284	16540.02
590.643	16622.73
591.003	16633.12
591.362	16586.34
591.721	16506.8
592.08	16600.35
592.44	16548.38
592.799	16615.5
593.158	16456.4
593.517	16549.51
593.876	16606.91
594.235	16512.9
594.593	16453.24
594.952	16543.86
595.311	16477.42
595.67	16490.75
596.029	16556.29
596.387	16503.18
596.746	16534.14
597.104	16497.31
597.463	16482.39
597.822	16454.82
598.18	16455.05
598.538	16462.05
598.897	16416.18
599.255	16399.91
599.613	16609.17
599.972	16490.3
600.33	16480.58
600.688	16413.92
601.046	16429.29
601.404	16553.58
601.762	16476.97
602.12	16528.04
602.478	16490.53
602.836	16460.02
603.194	16389.06
603.552	16476.52
603.91	16369.17
604.268	16420.92
604.625	16450.3
604.983	16512.45
605.341	16323.75
605.698	16436.07
606.056	16521.49
606.413	16510.41
606.771	16450.53
607.128	16576.85
607.485	16454.14
607.843	16451.21
608.2	16552.22
608.557	16604.87
608.914	16525.78
609.272	16714.48
609.629	16619.56
609.986	16753.34
610.343	16625.89
610.7	16751.54
611.057	16667.92
611.414	16673.57
611.771	16632.9
612.127	16717.19
612.484	16747.24
612.841	16731.42
613.198	16717.41
613.554	16767.81
613.911	16875.6
614.267	16785.21
614.624	16622.5
614.98	16846.9
615.337	16938.65
615.693	16775.04
616.05	16813
616.406	16947.69
616.762	16776.17
617.118	16819.11
617.475	16875.83
617.831	16987.91
618.187	17055.03
618.543	16941.59
618.899	17066.33
619.255	17018.2
619.611	16905.66
619.967	17020.68
620.323	16924.41
620.678	16935.26
621.034	16961.25
621.39	17036.73
621.746	16984.07
622.101	17169.83
622.457	16963.96
622.812	16974.81
623.168	17091.87
623.523	17045.31
623.879	17096.16
624.234	16967.8
624.589	17092.77
624.945	17045.77
625.3	17100.23
625.655	17094.58
626.01	16969.61
626.365	16987.46
626.72	16968.48
627.075	16914.7
627.43	16997.41
627.785	16970.51
628.14	17064.3
628.495	17043.96
628.85	16977.52
629.205	16997.86
629.559	16995.37
629.914	16926.9
630.269	17010.29
630.623	16949.5
630.978	16888.03
631.332	16951.08
631.687	17019.1
632.041	16865.43
632.396	16889.61
632.75	16823.4
633.104	16883.28
633.459	16760.8
633.813	16736.17
634.167	16772.78
634.521	16738.66
634.875	16729.39
635.229	16790.18
635.583	16640.81
635.937	16613.01
636.291	16650.52
636.645	16586.12
636.999	16621.14
637.352	16620.92
637.706	16468.38
638.06	16552.22
638.413	16566.68
638.767	16443.07
639.121	16504.54
639.474	16340.02
639.828	16399.23
640.181	16536.63
640.534	16449.85
640.888	16337.54
641.241	16394.26
641.594	16350.87
641.947	16400.36
642.301	16403.3
642.654	16394.71
643.007	16369.63
643.36	16441.94
643.713	16215.05
644.066	16260.02
644.419	16248.27
644.771	16142.06
645.124	15953.37
645.477	15981.39
645.83	15870.2
646.182	15850.09
646.535	15765.12
646.888	15856.65
647.24	15691.23
647.593	15760.6
647.945	15735.74
648.298	15657.1
648.65	15674.5
649.002	15725.35
649.355	15742.07
649.707	15755.18
650.059	15849.64
650.411	16069.75
650.763	15949.52
651.115	16143.19
651.467	16049.63
651.819	16095.73
652.171	16053.7
652.523	15947.49
652.875	16071.78
653.227	15971.44
653.578	16113.81
653.93	16119.24
654.282	15994.49
654.633	15926.93
654.985	16080.37
655.337	16033.59
655.688	15937.1
656.039	16141.84
656.391	15980.94
656.742	15996.08
657.094	16047.15
657.445	16047.37
657.796	15977.09
658.147	16006.47
658.498	15981.61
658.849	16072.68
659.2	16094.38
659.551	15952.01
659.902	16046.7
660.253	16029.97
660.604	15996.98
660.955	16014.61
661.306	16136.64
661.656	16056.64
662.007	16110.88
662.358	16077.2
662.708	16031.33
663.059	16070.88
663.409	16056.87
663.76	16192.23
664.11	16203.75
664.461	16102.06
664.811	16177.09
665.161	16112.23
665.511	16068.84
665.862	16016.87
666.212	16083.53
666.562	16215.51
666.912	15975.51
667.262	16031.1
667.612	16020.71
667.962	16040.6
668.312	16035.62
668.662	16184.55
669.011	16003.76
669.361	15976.19
669.711	15959.92
670.06	16020.71
670.41	16014.61
670.76	15844.89
671.109	16027.26
671.459	15967.6
671.808	15915.63
672.157	16008.28
672.507	15866.59
672.856	15898.68
673.205	15936.64
673.554	15873.37
673.904	15900.49
674.253	15953.37
674.602	15881.96
674.951	15691.45
675.3	15660.72
675.649	15880.37
675.998	15792.24
676.346	15792.92
676.695	15883.31
677.044	15762.18
677.393	15847.83
677.741	15843.09
678.09	15755.18
678.438	15799.7
678.787	15785.69
679.135	15650.77
679.484	15585.92
679.832	15652.58
680.181	15594.51
680.529	15577.33
680.877	15485.13
681.225	15519.7
681.573	15524.22
681.922	15437.9
682.27	15432.48
682.618	15429.99
682.966	15363.55
683.314	15375.3
683.661	15378.69
684.009	15295.76
684.357	15229.32
684.705	15170.56
685.053	15296.66
685.4	15258.92
685.748	15152.48
686.095	15128.08
686.443	15079.49
686.79	15080.85
687.138	15080.39
687.485	15021.41
687.832	14983.45
688.18	15037.01
688.527	14892.6
688.874	14822.1
689.221	14750.69
689.568	14704.13
689.915	14691.7
690.262	14745.71
690.609	14609.67
690.956	14616
691.303	14473.18
691.65	14585.94
691.997	14527.64
692.344	14402.22
692.69	14351.37
693.037	14385.05
693.383	14185.95
693.73	14334.65
694.077	14185.05
694.423	14139.63
694.769	14161.32
695.116	14151.38
695.462	14050.14
695.808	13965.4
696.155	13987.09
696.501	13904.38
696.847	13903.7
697.193	13778.73
697.539	13807.89
697.885	13699.19
698.231	13747.55
698.577	13638.85
698.923	13699.64
699.269	13577.84
699.614	13452.19
699.96	13372.87
700.306	13361.12
700.651	13339.2
700.997	13326.09
701.342	13301.46
701.688	13256.04
702.033	13159.32
702.379	13090.16
702.724	13122.25
703.069	13147.34
703.415	12933.33
703.76	12973.11
704.105	13046.78
704.45	12908.02
704.795	12869.83
705.14	12949.15
705.485	12830.74
705.83	12779.89
706.175	12704.41
706.52	12746.9
706.865	12688.37
707.209	12620.35
707.554	12554.36
707.899	12574.47
708.243	12567.47
708.588	12557.75
708.932	12370.41
709.277	12407.47
709.621	12347.81
709.966	12354.82
710.31	12363.18
710.654	12160.47
710.998	12204.09
711.342	12191.88
711.687	12179.91
712.031	12061.26
712.375	12123.86
712.719	12161.6
713.063	12024.2
713.407	12131.77
713.75	12032.11
714.094	12021.72
714.438	12000.93
714.782	11999.8
715.125	11931.55
715.469	11922.51
715.812	11848.84
716.156	11807.94
716.499	11834.6
716.843	11773.81
717.186	11745.11
717.53	11803.42
717.873	11645
718.216	11772.23
718.559	11756.87
718.902	11677.09
719.246	11639.13
719.589	11608.85
719.932	11624.89
720.275	11592.35
720.617	11548.74
720.96	11546.7
721.303	11547.15
721.646	11500.6
721.989	11519.58
722.331	11551.67
722.674	11497.89
723.016	11488.85
723.359	11483.65
723.701	11479.36
724.044	11431.45
724.386	11405.91
724.729	11415.41
725.071	11377.89
725.413	11321.4
725.755	11313.26
726.097	11306.03
726.439	11248.63
726.782	11269.2
727.124	11263.77
727.465	11254.73
727.807	11188.29
728.149	11279.82
728.491	11231
728.833	11324.11
729.175	11255.64
729.516	11292.47
729.858	11228.29
730.199	11228.74
730.541	11166.83
730.882	11184.68
731.224	11276.65
731.565	11179.48
731.906	11159.59
732.248	11224.9
732.589	11166.6
732.93	11132.48
733.271	11146.49
733.612	11158.69
733.953	11096.77
734.294	11078.01
734.635	11182.87
734.976	11128.63
735.317	11033.95
735.658	11073.04
735.999	11090.22
736.339	11175.19
736.68	11074.85
737.021	11182.64
737.361	11019.03
737.702	11213.6
738.042	11123.89
738.383	11100.16
738.723	11177.22
739.063	11144.68
739.404	11176.99
739.744	11199.14
740.084	11137.67
740.424	11188.07
740.764	11085.7
741.104	11208.63
741.444	11195.75
741.784	11174.73
742.124	11195.07
742.464	11195.98
742.804	11169.31
743.143	11256.77
743.483	11366.14
743.823	11236.2
744.162	11287.95
744.502	11416.08
744.841	11283.21
745.181	11434.39
745.52	11397.78
745.86	11392.58
746.199	11470.77
746.538	11511.67
746.877	11545.57
747.216	11639.81
747.556	11616.3
747.895	11702.63
748.234	11685.68
748.573	11780.14
748.911	11896.3
749.25	11983.98
749.589	11996.18
749.928	12094.94
750.267	12168.38
750.605	12240.02
750.944	12273.46
751.283	12317.53
751.621	12487.92
751.96	12451.54
752.298	12562.95
752.636	12671.87
752.975	12694.69
753.313	12797.97
753.651	13046.32
753.989	12964.29
754.327	13131.75
754.666	13245.87
755.004	13427.78
755.342	13585.97
755.679	13675.01
756.017	13666.87
