Data from hue_150_FLMS001491_00069.txt Node
Date: Tue Feb 07 16:54:22 GMT 2017
User: dcchb
Spectrometer: FLMS00149
Trigger mode: 0
Integration Time (sec): 2.000000E-2
Scans to average: 10
Electric dark correction enabled: true
Nonlinearity correction enabled: false
Boxcar width: 0
XAxis mode: Wavelengths
Number of Pixels in Spectrum: 2048
>>>>>Begin Spectral Data<<<<<
341.393	-5.47
341.776	-5.47
342.16	-5.47
342.543	-84.56
342.927	-65.35
343.31	-53.83
343.693	-64
344.077	-50.89
344.46	-59.25
344.843	-37.33
345.226	-24.45
345.61	-28.52
345.993	-28.74
346.376	-28.29
346.759	17.81
347.142	13.29
347.525	28.21
347.908	41.54
348.291	65.04
348.674	87.41
349.057	121.99
349.44	142.55
349.823	150.46
350.206	168.54
350.588	197.47
350.971	185.94
351.354	227.75
351.737	245.83
352.119	250.8
352.502	266.84
352.884	294.87
353.267	297.58
353.65	284.24
354.032	306.62
354.414	317.01
354.797	317.69
355.179	329.44
355.562	323.79
355.944	317.01
356.326	319.05
356.709	315.88
357.091	331.93
357.473	338.25
357.855	327.63
358.238	357.01
358.62	350.46
359.002	337.12
359.384	340.29
359.766	334.19
360.148	345.03
360.53	323.56
360.912	340.29
361.294	353.39
361.676	349.33
362.057	338.93
362.439	321.53
362.821	336.45
363.203	335.99
363.584	329.89
363.966	316.11
364.348	323.56
364.729	326.05
365.111	321.31
365.493	336.9
365.874	314.07
366.256	317.46
366.637	305.49
367.019	321.08
367.4	292.61
367.781	320.18
368.163	339.61
368.544	332.15
368.925	303.9
369.306	325.82
369.688	321.31
370.069	314.75
370.45	307.07
370.831	301.87
371.212	328.08
371.593	293.28
371.974	326.73
372.355	320.18
372.736	308.65
373.117	344.81
373.498	329.89
373.879	321.76
374.26	320.85
374.641	319.5
375.021	335.77
375.402	326.28
375.783	331.47
376.163	328.99
376.544	344.58
376.925	349.33
377.305	313.85
377.686	320.4
378.066	316.56
378.447	320.63
378.827	306.84
379.208	344.13
379.588	319.5
379.968	324.02
380.349	322.44
380.729	339.84
381.109	348.65
381.489	336.9
381.87	355.2
382.25	336.45
382.63	362.66
383.01	349.1
383.39	341.87
383.77	331.47
384.15	350.68
384.53	330.57
384.91	358.82
385.29	354.3
385.67	347.07
386.049	358.37
386.429	365.15
386.809	359.04
387.189	368.08
387.568	365.37
387.948	379.61
388.328	355.43
388.707	383
389.087	365.37
389.466	387.29
389.846	358.14
390.225	359.04
390.605	375.77
390.984	387.52
391.363	384.58
391.743	381.19
392.122	384.35
392.501	375.99
392.881	370.8
393.26	391.36
393.639	393.85
394.018	386.84
394.397	393.85
394.776	410.12
395.155	393.17
395.534	380.96
395.913	400.4
396.292	385.94
396.671	399.27
397.05	395.2
397.429	387.74
397.808	412.15
398.186	411.47
398.565	413.73
398.944	398.59
399.323	420.06
399.701	401.75
400.08	399.72
400.458	415.09
400.837	449.89
401.215	419.16
401.594	412.15
401.972	414.86
402.351	421.19
402.729	438.36
403.107	411.02
403.486	432.26
403.864	423.45
404.242	418.03
404.62	442.66
404.999	437.91
405.377	426.16
405.755	442.21
406.133	442.88
406.511	431.81
406.889	447.4
407.267	481.98
407.645	449.44
408.023	459.15
408.401	446.05
408.779	455.76
409.156	461.87
409.534	470.23
409.912	471.36
410.29	484.01
410.667	461.87
411.045	479.72
411.422	488.53
411.8	513.39
412.178	504.58
412.555	497.12
412.933	503.22
413.31	514.52
413.687	518.14
414.065	499.61
414.442	520.85
414.819	516.1
415.197	545.03
415.574	540.06
415.951	553.84
416.328	534.86
416.705	538.25
417.082	547.06
417.46	558.81
417.837	549.55
418.214	554.52
418.591	555.2
418.967	577.12
419.344	572.15
419.721	572.82
420.098	577.8
420.475	559.72
420.852	579.15
421.228	603.78
421.605	571.02
421.982	576.21
422.358	599.04
422.735	585.93
423.111	611.02
423.488	605.14
423.864	606.5
424.241	609.21
424.617	624.57
424.994	648.75
425.37	626.16
425.746	638.36
426.123	617.12
426.499	635.42
426.875	634.74
427.251	660.05
427.627	664.12
428.003	668.64
428.379	670.67
428.756	682.88
429.132	673.61
429.507	689.21
429.883	690.79
430.259	685.59
430.635	710
431.011	735.53
431.387	723.78
431.763	747.51
432.138	741.63
432.514	719.26
432.89	725.14
433.265	761.07
433.641	770.56
434.016	772.82
434.392	778.47
434.767	775.08
435.143	794.74
435.518	802.42
435.894	805.81
436.269	807.39
436.644	818.47
437.02	846.04
437.395	824.12
437.77	833.16
438.145	839.26
438.52	869.99
438.895	897.34
439.271	897.79
439.646	874.96
440.021	889.65
440.395	890.78
440.77	886.49
441.145	895.3
441.52	911.8
441.895	920.61
442.27	906.15
442.645	914.28
443.019	968.75
443.394	938.24
443.769	920.84
444.143	940.72
444.518	933.94
444.892	939.59
445.267	944.34
445.641	985.92
446.016	950.89
446.39	994.06
446.764	979.82
447.139	1009.42
447.513	984.34
447.887	1012.59
448.262	1023.89
448.636	1008.74
449.01	1034.05
449.384	1021.4
449.758	1050.33
450.132	1076.09
450.506	1063.21
450.88	1060.27
451.254	1072.47
451.628	1098.46
452.002	1098.23
452.376	1100.27
452.75	1133.94
453.123	1126.26
453.497	1144.11
453.871	1174.84
454.244	1179.36
454.618	1208.74
454.992	1181.4
455.365	1214.39
455.739	1240.15
456.112	1240.6
456.486	1253.48
456.859	1261.17
457.232	1281.28
457.606	1285.8
457.979	1300.94
458.352	1319.47
458.725	1340.94
459.099	1358.79
459.472	1379.13
459.845	1362.86
460.218	1381.39
460.591	1412.8
460.964	1431.78
461.337	1473.14
461.71	1477.66
462.083	1497.32
462.456	1508.17
462.829	1539.58
463.201	1537.09
463.574	1575.96
463.947	1568.73
464.32	1641.27
464.692	1617.99
465.065	1651.44
465.438	1695.51
465.81	1694.38
466.183	1725.34
466.555	1755.84
466.928	1780.02
467.3	1783.64
467.672	1812.11
468.045	1836.29
468.417	1847.37
468.789	1920.81
469.161	1906.8
469.534	1968.49
469.906	2013.46
470.278	2034.48
470.65	2049.17
471.022	2095.5
471.394	2127.59
471.766	2206.68
472.138	2210.52
472.51	2266.11
472.882	2325.09
473.253	2351.31
473.625	2407.8
473.997	2455.26
474.369	2486.67
474.74	2548.59
475.112	2593.34
475.484	2651.41
475.855	2730.73
476.227	2755.14
476.598	2868.81
476.97	2882.59
477.341	3008.92
477.713	3042.82
478.084	3106.54
478.455	3190.38
478.827	3251.85
479.198	3383.82
479.569	3384.95
479.94	3505.4
480.311	3605.74
480.682	3698.39
481.053	3808.45
481.424	3945.16
481.795	3992.62
482.166	4087.31
482.537	4147.65
482.908	4312.61
483.279	4390.8
483.65	4500.18
484.021	4620.63
484.391	4747.63
484.762	4840.28
485.133	4944.23
485.503	5038.92
485.874	5178.8
486.244	5327.73
486.615	5431.23
486.985	5543.31
487.356	5734.95
487.726	5795.96
488.097	5960.7
488.467	6074.6
488.837	6266.91
489.207	6383.97
489.578	6504.42
489.948	6620.12
490.318	6757.52
490.688	6833.45
491.058	7024.18
491.428	7242.71
491.798	7288.58
492.168	7452.87
492.538	7581.68
492.908	7797.27
493.278	7957.94
493.648	8013.31
494.017	8183.47
494.387	8320.19
494.757	8425.27
495.126	8585.04
495.496	8642.67
495.866	8813.51
496.235	8928.99
496.605	9049.21
496.974	9139.38
497.344	9257.57
497.713	9450.78
498.082	9477.67
498.452	9661.62
498.821	9760.38
499.19	9807.38
499.559	9892.58
499.928	10108.39
500.298	10206.24
500.667	10298.67
501.036	10332.79
501.405	10533.47
501.774	10569.85
502.143	10689.85
502.512	10734.59
502.88	10831.31
503.249	10825.44
503.618	11008.03
503.987	11089.61
504.356	11143.85
504.724	11270.17
505.093	11297.51
505.462	11419.09
505.83	11440.56
506.199	11609.14
506.567	11708.35
506.936	11723.27
507.304	11865.86
507.672	11987.21
508.041	12089.36
508.409	12067.44
508.777	12223.37
509.145	12247.32
509.514	12308.56
509.882	12364.6
510.25	12406.19
510.618	12476.24
510.986	12581.32
511.354	12666.97
511.722	12678.27
512.09	12829
512.458	12734.54
512.826	12909.22
513.193	12932.27
513.561	12942.22
513.929	13033.51
514.297	13080.74
514.664	13221.08
515.032	13148.54
515.4	13291.13
515.767	13285.26
516.135	13389.21
516.502	13242.32
516.869	13563.89
517.237	13525.48
517.604	13498.36
517.972	13633.5
518.339	13712.59
518.706	13684.34
519.073	13704
519.44	13745.81
519.808	13860.16
520.175	13793.72
520.542	13900.16
520.909	13921.17
521.276	13935.86
521.643	14077.78
522.009	14105.58
522.376	14100.83
522.743	14204.1
523.11	14304.21
523.477	14397.32
523.843	14386.7
524.21	14461.05
524.577	14483.42
524.943	14475.96
525.31	14561.83
525.676	14564.55
526.043	14664.2
526.409	14680.48
526.776	14807.7
527.142	14726.12
527.508	14793.24
527.874	14879.79
528.241	14915.27
528.607	14831.66
528.973	14922.28
529.339	14814.48
529.705	14931.32
530.071	15057.87
530.437	15036.62
530.803	14969.06
531.169	14989.39
531.535	15023.07
531.901	14989.17
532.267	14989.62
532.632	14969.06
532.998	14947.36
533.364	15011.77
533.73	14988.49
534.095	15109.16
534.461	15020.58
534.826	15038.88
535.192	15087.7
535.557	15128.6
535.923	15072.56
536.288	15041.37
536.653	15045.21
537.019	14939
537.384	14905.1
537.749	15008.83
538.114	14965.21
538.479	14965.89
538.845	15015.16
539.21	14870.53
539.575	14824.65
539.94	14818.55
540.305	14906.68
540.67	14725.9
541.034	14812.22
541.399	14703.53
541.764	14667.37
542.129	14685.9
542.494	14720.02
542.858	14655.84
543.223	14648.61
543.587	14652.45
543.952	14567.26
544.316	14568.16
544.681	14576.3
545.045	14479.12
545.41	14527.49
545.774	14507.15
546.138	14427.83
546.503	14451.1
546.867	14344.21
547.231	14390.99
547.595	14434.83
547.959	14409.75
548.324	14281.84
548.688	14291.11
549.052	14236.65
549.416	14302.41
549.779	14199.36
550.143	14130.66
550.507	14273.93
550.871	14317.77
551.235	14179.47
551.599	14183.99
551.962	14117.33
552.326	14094.73
552.689	14136.99
553.053	14010.66
553.417	13999.36
553.78	14183.31
554.143	13996.88
554.507	14010.21
554.87	14007.72
555.234	14039.36
555.597	13953.26
555.96	13979.93
556.323	13924.56
556.686	13999.82
557.05	14023.77
557.413	13981.51
557.776	14016.99
558.139	13950.78
558.502	13945.13
558.865	13939.25
559.228	14105.58
559.59	13964.11
559.953	14005.92
560.316	14079.14
560.679	14056.76
561.041	14120.49
561.404	14143.09
561.767	14091.79
562.129	14022.64
562.492	14123.2
562.854	14081.85
563.217	14000.27
563.579	14119.13
563.941	14199.81
564.304	14149.87
564.666	14195.06
565.028	14193.26
565.39	14242.07
565.753	14218.11
566.115	14228.28
566.477	14273.48
566.839	14158
567.201	14272.58
567.563	14318.9
567.925	14347.6
568.287	14312.35
568.648	14342.41
569.01	14423.99
569.372	14424.44
569.734	14368.39
570.095	14484.1
570.457	14571.1
570.819	14512.8
571.18	14444.78
571.542	14458.56
571.903	14505.11
572.265	14626.24
572.626	14549.41
572.987	14620.59
573.349	14548.05
573.71	14638.89
574.071	14617.88
574.432	14595.28
574.794	14739.23
575.155	14744.65
575.516	14736.75
575.877	14822.17
576.238	14740.14
576.599	14809.74
576.96	14726.58
577.32	14714.37
577.681	14753.47
578.042	14808.83
578.403	14710.98
578.763	14817.65
579.124	14778.55
579.485	14812
579.845	14893.8
580.206	14836.63
580.566	14896.97
580.927	14788.72
581.287	14852.67
581.648	14790.3
582.008	14906.01
582.368	14788.27
582.728	14800.7
583.089	14762.51
583.449	14639.35
583.809	14858.78
584.169	14685.45
584.529	14741.26
584.889	14823.97
585.249	14714.37
585.609	14720.02
585.969	14794.37
586.329	14713.24
586.688	14739.23
587.048	14697.65
587.408	14661.72
587.768	14694.26
588.127	14729.97
588.487	14609.07
588.846	14660.36
589.206	14568.61
589.565	14661.04
589.925	14710.98
590.284	14652.68
590.643	14641.61
591.003	14675.73
591.362	14701.94
591.721	14682.06
592.08	14616.97
592.44	14760.25
592.799	14704.43
593.158	14542.17
593.517	14544.89
593.876	14756.18
594.235	14594.83
594.593	14579.01
594.952	14558.44
595.311	14558.9
595.67	14607.48
596.029	14781.94
596.387	14588.05
596.746	14677.76
597.104	14530.87
597.463	14515.51
597.822	14651.55
598.18	14565.68
598.538	14534.04
598.897	14601.38
599.255	14538.56
599.613	14698.33
599.972	14647.48
600.33	14671.89
600.688	14526.13
601.046	14631.44
601.404	14570.87
601.762	14574.04
602.12	14684.32
602.478	14639.57
602.836	14657.65
603.194	14579.91
603.552	14566.13
603.91	14525.23
604.268	14626.47
604.625	14569.97
604.983	14624.21
605.341	14587.14
605.698	14546.69
606.056	14766.35
606.413	14616.3
606.771	14680.93
607.128	14670.08
607.485	14619.69
607.843	14599.12
608.2	14661.04
608.557	14736.97
608.914	14673.47
609.272	14823.07
609.629	14743.3
609.986	14865.78
610.343	14743.75
610.7	14719.8
611.057	14857.65
611.414	14787.82
611.771	14784.88
612.127	14779.46
612.484	14676.18
612.841	14901.03
613.198	14835.5
613.554	14768.38
613.911	14826.69
614.267	14845.22
614.624	14816.52
614.98	14821.04
615.337	14823.97
615.693	14911.43
616.05	14826.91
616.406	14980.35
616.762	14928.38
617.118	14900.36
617.475	14893.8
617.831	14941.03
618.187	14986.23
618.543	15024.87
618.899	15065.1
619.255	15000.24
619.611	15047.92
619.967	15146
620.323	15031.65
620.678	14984.2
621.034	14973.8
621.39	14931.32
621.746	14997.08
622.101	15189.16
622.457	15046.79
622.812	14965.44
623.168	14958.89
623.523	15078.21
623.879	15141.93
624.234	14971.99
624.589	15017.42
624.945	15102.39
625.3	15073.91
625.655	15099.9
626.01	15089.96
626.365	15121.14
626.72	15048.15
627.075	15103.52
627.43	15000.02
627.785	15037.98
628.14	15063.97
628.495	15121.59
628.85	15109.84
629.205	14972.9
629.559	15021.48
629.914	14977.64
630.269	15006.12
630.623	14981.94
630.978	14945.1
631.332	15035.49
631.687	15021.03
632.041	14995.04
632.396	14978.55
632.75	14897.65
633.104	14939.68
633.459	14803.18
633.813	14855.16
634.167	14821.71
634.521	14868.72
634.875	14897.42
635.229	14862.17
635.583	14645.45
635.937	14692
636.291	14715.28
636.645	14614.94
636.999	14596.18
637.352	14647.26
637.706	14593.92
638.06	14745.33
638.413	14639.57
638.767	14603.19
639.121	14616.75
639.474	14535.17
639.828	14560.03
640.181	14481.61
640.534	14521.38
640.888	14517.54
641.241	14407.49
641.594	14376.75
641.947	14427.37
642.301	14435.96
642.654	14348.51
643.007	14426.7
643.36	14470.31
643.713	14431.67
644.066	14438.22
644.419	14345.8
644.771	14262.86
645.124	14177.66
645.477	14139.7
645.83	14085.69
646.182	13979.93
646.535	13958.01
646.888	13944.9
647.24	13891.8
647.593	13974.28
647.945	13861.51
648.298	13857.67
648.65	13790.1
649.002	13814.51
649.355	13787.39
649.707	13860.84
650.059	13914.85
650.411	14078.68
650.763	14056.09
651.115	14250.66
651.467	14178.34
651.819	14173.6
652.171	14124.78
652.523	14049.76
652.875	14195.74
653.227	14110.1
653.578	14188.74
653.93	14135.18
654.282	14038.23
654.633	14033.94
654.985	14071.23
655.337	14181.96
655.688	14144.22
656.039	14159.13
656.391	14049.31
656.742	14129.53
657.094	14179.02
657.445	14207.04
657.796	14123.65
658.147	14174.95
658.498	14082.53
658.849	14123.65
659.2	14181.73
659.551	14130.43
659.902	14183.54
660.253	14148.74
660.604	14104.22
660.955	14161.39
661.306	14092.24
661.656	14066.25
662.007	14172.47
662.358	14148.29
662.708	14141.05
663.059	14157.1
663.409	14040.49
663.76	14222.86
664.11	14192.58
664.461	14215.63
664.811	14265.12
665.161	14157.55
665.511	14234.39
665.862	14197.78
666.212	14198
666.562	14223.54
666.912	14164.78
667.262	14205.91
667.612	14136.99
667.962	14298.56
668.312	14213.14
668.662	14208.62
669.011	14191.9
669.361	14192.8
669.711	14137.89
670.06	14112.81
670.41	14147.83
670.76	14124.56
671.109	14085.91
671.459	14129.08
671.808	14033.49
672.157	14112.13
672.507	14101.28
672.856	13995.52
673.205	13990.55
673.554	14093.37
673.904	14041.62
674.253	14005.69
674.602	14006.59
674.951	13762.76
675.3	13791.69
675.649	13956.43
675.998	14067.16
676.346	14001.4
676.695	13969.53
677.044	13856.09
677.393	13927.73
677.741	13929.76
678.09	13878.46
678.438	13889.31
678.787	13841.4
679.135	13887.05
679.484	13787.62
679.832	13763.89
680.181	13730.22
680.529	13795.53
680.877	13656.77
681.225	13642.99
681.573	13700.61
681.922	13698.58
682.27	13611.13
682.618	13537.91
682.966	13550.34
683.314	13565.93
683.661	13522.77
684.009	13412.71
684.357	13468.3
684.705	13485.03
685.053	13433.5
685.4	13456.55
685.748	13443.22
686.095	13374.3
686.443	13323.45
686.79	13304.69
687.138	13302.88
687.485	13341.53
687.832	13289.33
688.18	13204.13
688.527	13067.86
688.874	13110.35
689.221	13112.61
689.568	13092.04
689.915	13005.27
690.262	12972.95
690.609	13000.97
690.956	12869
691.303	12893.63
691.65	12875.55
691.997	12824.71
692.344	12720.53
692.69	12713.07
693.037	12599.63
693.383	12582.68
693.73	12586.52
694.077	12532.51
694.423	12603.02
694.769	12460.87
695.116	12408.9
695.462	12397.15
695.808	12364.38
696.155	12297.94
696.501	12290.93
696.847	12312.4
697.193	12187.21
697.539	12294.78
697.885	12091.17
698.231	12090.49
698.577	12090.94
698.923	12011.85
699.269	11950.83
699.614	11888.68
699.96	11859.76
700.306	11882.58
700.651	11783.83
700.997	11751.74
701.342	11728.24
701.688	11670.16
702.033	11642.82
702.379	11597.62
702.724	11560.33
703.069	11562.59
703.415	11474.01
703.76	11438.3
704.105	11438.53
704.45	11389.71
704.795	11374.8
705.14	11311.3
705.485	11265.2
705.83	11190.85
706.175	11228.81
706.52	11185.2
706.865	11149.72
707.209	11182.94
707.554	11104.3
707.899	11078.31
708.243	11059.33
708.588	11020.01
708.932	10893.68
709.277	10865.21
709.621	10944.53
709.966	10828.83
710.31	10869.05
710.654	10709.73
710.998	10762.61
711.342	10733.01
711.687	10755.83
712.031	10692.56
712.375	10642.39
712.719	10672.67
713.063	10625.21
713.407	10662.05
713.75	10645.1
714.094	10631.77
714.438	10566.23
714.782	10527.14
715.125	10478.1
715.469	10477.65
715.812	10512.22
716.156	10342.28
716.499	10406.92
716.843	10457.99
717.186	10307.26
717.53	10387.03
717.873	10403.3
718.216	10383.87
718.559	10316.97
718.902	10199.69
719.246	10268.84
719.589	10278.78
719.932	10175.51
720.275	10163.53
720.617	10228.16
720.96	10218.45
721.303	10161.72
721.646	10223.42
721.989	10125.12
722.331	10148.17
722.674	10127.83
723.016	10076.75
723.359	10159.92
723.701	10147.94
724.044	10075.62
724.386	10078.11
724.729	10048.06
725.071	10006.25
725.413	9998.56
725.755	10054.83
726.097	9962.86
726.439	9948.17
726.782	9938.68
727.124	10046.7
727.465	9987.04
727.807	9945.23
728.149	9940.71
728.491	9881.96
728.833	9913.14
729.175	9901.17
729.516	9900.26
729.858	9889.19
730.199	9935.97
730.541	9853.03
730.882	9895.97
731.224	9887.61
731.565	9892.13
731.906	9862.52
732.248	9929.87
732.589	9817.55
732.93	9875.18
733.271	9780.27
733.612	9902.3
733.953	9805.8
734.294	9835.86
734.635	9788.63
734.976	9899.13
735.317	9809.42
735.658	9808.06
735.999	9753.83
736.339	9735.97
736.68	9822.52
737.021	9730.78
737.361	9747.27
737.702	9799.7
738.042	9771
738.383	9833.6
738.723	9810.1
739.063	9774.16
739.404	9959.7
739.744	9886.25
740.084	9829.98
740.424	9902.75
740.764	9828.17
741.104	9905.69
741.444	9818
741.784	9815.97
742.124	9928.28
742.464	9915.63
742.804	9927.83
743.143	9973.71
743.483	10016.87
743.823	9887.61
744.162	9989.98
744.502	10043.31
744.841	9948.4
745.181	10101.39
745.52	10050.99
745.86	10163.98
746.199	10126.02
746.538	10186.13
746.877	10319.01
747.216	10241.95
747.556	10330.99
747.895	10421.15
748.234	10378.44
748.573	10440.36
748.911	10453.02
749.25	10623.18
749.589	10596.52
749.928	10653.01
750.267	10749.96
750.605	10828.15
750.944	10785.44
751.283	10866.34
751.621	11001.48
751.96	11017.52
752.298	11145.43
752.636	11205.09
752.975	11269.04
753.313	11327.8
753.651	11517.39
753.989	11553.33
754.327	11537.51
754.666	11717.62
755.004	11809.82
755.342	12029.25
755.679	12172.97
756.017	12135.91
756.355	12346.3
756.693	12292.97
757.031	12541.55
757.368	12687.08
