Data from hue_140_FLMS001491_00086.txt Node
Date: Tue Feb 07 16:56:32 GMT 2017
User: dcchb
Spectrometer: FLMS00149
Trigger mode: 0
Integration Time (sec): 2.000000E-2
Scans to average: 10
Electric dark correction enabled: true
Nonlinearity correction enabled: false
Boxcar width: 0
XAxis mode: Wavelengths
Number of Pixels in Spectrum: 2048
>>>>>Begin Spectral Data<<<<<
341.393	-34.43
341.776	-34.43
342.16	-34.43
342.543	-59.07
342.927	-65.17
343.31	-88.22
343.693	-60.87
344.077	-92.96
344.46	-55
344.843	-57.03
345.226	-37.15
345.61	-38.05
345.993	-9.35
346.376	-5.51
346.759	7.82
347.142	43.08
347.525	36.98
347.908	52.34
348.291	78.11
348.674	92.79
349.057	133.02
349.44	129.86
349.823	131.66
350.206	165.33
350.588	194.26
350.971	209.85
351.354	205.56
351.737	234.49
352.119	234.03
352.502	247.37
352.884	245.11
353.267	271.77
353.65	277.2
354.032	306.12
354.414	302.05
354.797	293.69
355.179	331.43
355.562	330.3
355.944	318.1
356.326	338.66
356.709	339.57
357.091	333.24
357.473	348.61
357.855	330.08
358.238	330.75
358.62	340.02
359.002	326.91
359.384	337.99
359.766	335.73
360.148	320.81
360.53	352.22
360.912	344.09
361.294	324.65
361.676	324.2
362.057	315.39
362.439	336.18
362.821	296.4
363.203	312.45
363.584	339.34
363.966	312.45
364.348	328.95
364.729	309.06
365.111	314.26
365.493	303.86
365.874	318.1
366.256	295.5
366.637	292.56
367.019	313.13
367.4	310.87
367.781	319.45
368.163	287.14
368.544	309.29
368.925	326.46
369.306	315.16
369.688	303.86
370.069	296.86
370.45	323.3
370.831	322.39
371.212	319.68
371.593	340.92
371.974	329.85
372.355	318.32
372.736	313.35
373.117	317.65
373.498	312.22
373.879	306.57
374.26	295.05
374.641	311.09
375.021	321.26
375.402	310.42
375.783	317.2
376.163	299.34
376.544	326.01
376.925	284.88
377.305	309.29
377.686	333.47
378.066	317.65
378.447	330.98
378.827	314.94
379.208	308.16
379.588	316.07
379.968	338.89
380.349	323.75
380.729	334.37
381.109	332.56
381.489	333.47
381.87	335.05
382.25	327.59
382.63	341.15
383.01	333.24
383.39	351.32
383.77	349.74
384.15	341.38
384.53	353.13
384.91	342.28
385.29	350.87
385.67	345.67
386.049	344.99
386.429	338.66
386.809	342.05
387.189	370.53
387.568	348.83
387.948	344.31
388.328	339.79
388.707	330.08
389.087	334.6
389.466	349.28
389.846	354.93
390.225	335.95
390.605	368.72
390.984	370.53
391.363	352.45
391.743	361.26
392.122	352.9
392.501	363.3
392.881	365.1
393.26	370.75
393.639	347.93
394.018	368.04
394.397	361.94
394.776	373.69
395.155	370.98
395.534	378.89
395.913	367.59
396.292	381.83
396.671	370.98
397.05	363.52
397.429	368.04
397.808	380.47
398.186	371.43
398.565	396.74
398.944	366.01
399.323	383.86
399.701	397.42
400.08	409.17
400.458	414.82
400.837	408.04
401.215	417.76
401.594	406.91
401.972	402.62
402.351	374.82
402.729	409.17
403.107	411.66
403.486	398.77
403.864	420.47
404.242	416.85
404.62	389.06
404.999	411.43
405.377	405.78
405.755	424.54
406.133	411.66
406.511	401.49
406.889	432.22
407.267	428.83
407.645	408.27
408.023	444.88
408.401	417.31
408.779	418.66
409.156	428.15
409.534	434.71
409.912	430.41
410.29	436.06
410.667	437.42
411.045	450.07
411.422	471.32
411.8	462.28
412.178	459.11
412.555	458.89
412.933	456.17
413.31	471.77
413.687	457.98
414.065	451.65
414.442	470.19
414.819	461.15
415.197	490.75
415.574	484.42
415.951	491.65
416.328	477.64
416.705	469.73
417.082	508.38
417.46	479.45
417.837	502.73
418.214	487.13
418.591	503.63
418.967	494.82
419.344	514.48
419.721	515.61
420.098	508.38
420.475	516.51
420.852	503.63
421.228	519.45
421.605	512.9
421.982	529.17
422.358	523.74
422.735	547.92
423.111	526.46
423.488	551.99
423.864	551.09
424.241	563.74
424.617	530.97
424.994	541.14
425.37	550.86
425.746	554.48
426.123	547.25
426.499	573.46
426.875	583.18
427.251	577.3
427.627	580.01
428.003	576.85
428.379	608.26
428.756	600.35
429.132	603.06
429.507	583.63
429.883	607.81
430.259	605.32
430.635	623.85
431.011	633.34
431.387	621.82
431.763	615.27
432.138	642.16
432.514	628.83
432.89	635.6
433.265	656.62
433.641	665.43
434.016	652.55
434.392	688.48
434.767	674.7
435.143	692.55
435.518	694.36
435.894	685.32
436.269	693.68
436.644	702.95
437.02	699.11
437.395	714.92
437.77	721.48
438.145	720.57
438.52	719.9
438.895	730.74
439.271	731.42
439.646	749.5
440.021	760.12
440.395	770.74
440.77	776.17
441.145	771.87
441.52	763.29
441.895	778.65
442.27	770.29
442.645	774.36
443.019	779.33
443.394	791.08
443.769	784.98
444.143	790.18
444.518	789.72
444.892	785.43
445.267	798.31
445.641	842.38
446.016	812.55
446.39	835.37
446.764	849.61
447.139	820.91
447.513	840.12
447.887	843.96
448.262	840.12
448.636	855.03
449.01	839.67
449.384	883.96
449.758	881.02
450.132	891.42
450.506	874.24
450.88	887.8
451.254	886.9
451.628	921.92
452.002	884.64
452.376	918.76
452.75	934.13
453.123	936.39
453.497	948.59
453.871	972.32
454.244	951.75
454.618	971.19
454.992	975.26
455.365	1002.15
455.739	976.84
456.112	1024.3
456.486	1015.26
456.859	1018.65
457.232	1050.96
457.606	1048.48
457.979	1065.42
458.352	1103.39
458.725	1064.97
459.099	1093.22
459.472	1130.73
459.845	1149.94
460.218	1150.17
460.591	1160.79
460.964	1167.34
461.337	1208.7
461.71	1222.48
462.083	1220
462.456	1228.36
462.829	1230.62
463.201	1276.04
463.574	1262.03
463.947	1299.09
464.32	1309.03
464.692	1321.01
465.065	1322.14
465.438	1354.91
465.81	1366.88
466.183	1392.2
466.555	1422.25
466.928	1430.16
467.3	1440.1
467.672	1454.57
468.045	1499.54
468.417	1483.27
468.789	1538.63
469.161	1580.66
469.534	1589.25
469.906	1624.05
470.278	1639.87
470.65	1681.45
471.022	1700.21
471.394	1716.93
471.766	1756.93
472.138	1791.28
472.51	1830.38
472.882	1882.13
473.253	1907.21
473.625	1934.55
473.997	1973.87
474.369	2058.17
474.74	2065.85
475.112	2109.69
475.484	2160.31
475.855	2211.16
476.227	2252.29
476.598	2303.81
476.97	2355.56
477.341	2418.16
477.713	2459.29
478.084	2541.32
478.455	2652.05
478.827	2685.95
479.198	2782.44
479.569	2811.37
479.94	2921.87
480.311	2963.23
480.682	3052.49
481.053	3144.24
481.424	3267.85
481.795	3303.56
482.166	3386.94
482.537	3490.44
482.908	3596.43
483.279	3661.06
483.65	3789.19
484.021	3851.79
484.391	3983.77
484.762	4085.46
485.133	4151.9
485.503	4287.71
485.874	4403.42
486.244	4446.35
486.615	4593.47
486.985	4740.81
487.356	4854.7
487.726	4961.82
488.097	5101.25
488.467	5161.81
488.837	5360.9
489.207	5447.91
489.578	5547.34
489.948	5689.94
490.318	5870.5
490.688	5918.63
491.058	6052.64
491.428	6248.56
491.798	6348.67
492.168	6523.59
492.538	6586.86
492.908	6749.34
493.278	6915.44
493.648	6965.83
494.017	7119.05
494.387	7235.66
494.757	7375.31
495.126	7523.56
495.496	7622.99
495.866	7705.48
496.235	7867.05
496.605	7989.99
496.974	7985.69
497.344	8165.12
497.713	8258.23
498.082	8428.62
498.452	8520.82
498.821	8575.73
499.19	8677.43
499.559	8799.01
499.928	8946.8
500.298	8976.85
500.667	9139.79
501.036	9172.78
501.405	9295.49
501.774	9340.46
502.143	9453.68
502.512	9485.99
502.88	9671.07
503.249	9670.62
503.618	9771.41
503.987	9845.31
504.356	9932.76
504.724	9975.25
505.093	10052.53
505.462	10180.21
505.83	10257.5
506.199	10308.34
506.567	10454.78
506.936	10458.17
507.304	10593.31
507.672	10608.68
508.041	10679.86
508.409	10766.41
508.777	10823.59
509.145	10907.65
509.514	10947.42
509.882	10995.78
510.25	11047.53
510.618	11113.52
510.986	11199.85
511.354	11287.3
511.722	11265.38
512.09	11382.89
512.458	11333.85
512.826	11478.48
513.193	11413.17
513.561	11457.47
513.929	11523
514.297	11637.12
514.664	11705.6
515.032	11703.56
515.4	11792.83
515.767	11801.41
516.135	11900.39
516.502	11732.94
516.869	11930.22
517.237	11965.7
517.604	11896.78
517.972	12009.99
518.339	12085.7
518.706	12007.06
519.073	12030.11
519.44	12105.13
519.808	12161.4
520.175	12177.22
520.542	12268.52
520.909	12267.84
521.276	12254.96
521.643	12379.02
522.009	12322.08
522.376	12384
522.743	12462.41
523.11	12535.4
523.477	12613.59
523.843	12513.94
524.21	12612.24
524.577	12613.59
524.943	12645.91
525.31	12760.94
525.676	12777.66
526.043	12814.72
526.409	12746.47
526.776	12880.93
527.142	12804.78
527.508	12859.69
527.874	12961.61
528.241	12807.04
528.607	12822.85
528.973	12909.18
529.339	12928.39
529.705	12946.24
530.071	12911.67
530.437	12927.71
530.803	12982.4
531.169	13009.29
531.535	12853.36
531.901	12963.64
532.267	13019.69
532.632	12955.05
532.998	12963.19
533.364	12980.36
533.73	12942.4
534.095	12938.11
534.461	12927.48
534.826	12991.89
535.192	12899.01
535.557	12976.52
535.923	12906.92
536.288	12885.9
536.653	12929.52
537.019	12741.73
537.384	12784.89
537.749	12839.35
538.114	12733.37
538.479	12672.8
538.845	12681.62
539.21	12642.29
539.575	12643.88
539.94	12667.38
540.305	12693.82
540.67	12682.97
541.034	12520.26
541.399	12557.78
541.764	12481.85
542.129	12500.6
542.494	12472.36
542.858	12436.42
543.223	12414.73
543.587	12402.98
543.952	12380.15
544.316	12307.84
544.681	12266.71
545.045	12235.75
545.41	12186.49
545.774	12259.71
546.138	12164.79
546.503	12117.11
546.867	12073.27
547.231	12147.17
547.595	12082.76
547.959	12080.28
548.324	12061.52
548.688	11923.44
549.052	12011.58
549.416	11942.2
549.779	11927.29
550.143	11829.43
550.507	11857.68
550.871	11845.71
551.235	11829.66
551.599	11811.81
551.962	11659.5
552.326	11654.52
552.689	11766.61
553.053	11661.3
553.417	11641.42
553.78	11664.92
554.143	11684.13
554.507	11547.86
554.87	11547.41
555.234	11680.51
555.597	11603.68
555.96	11601.19
556.323	11548.31
556.686	11562.32
557.05	11601.87
557.413	11495.21
557.776	11518.93
558.139	11559.84
558.502	11513.28
558.865	11478.26
559.228	11492.72
559.59	11438.03
559.953	11480.74
560.316	11525.71
560.679	11500.63
561.041	11463.57
561.404	11508.77
561.767	11500.63
562.129	11486.39
562.492	11559.84
562.854	11555.32
563.217	11446.85
563.579	11581.76
563.941	11578.82
564.304	11553.74
564.666	11671.25
565.028	11608.88
565.39	11612.94
565.753	11616.33
566.115	11711.7
566.477	11630.8
566.839	11628.99
567.201	11584.47
567.563	11638.25
567.925	11710.12
568.287	11714.41
568.648	11702.88
569.01	11653.85
569.372	11702.43
569.734	11687.74
570.095	11784.69
570.457	11752.83
570.819	11735.65
571.18	11720.96
571.542	11767.97
571.903	11754.63
572.265	11816.78
572.626	11826.5
572.987	11878.25
573.349	11846.38
573.71	11793.73
574.071	11796.89
574.432	11890.9
574.794	11887.51
575.155	11894.97
575.516	11786.95
575.877	11891.81
576.238	11857.91
576.599	11863.11
576.96	11825.82
577.32	11926.16
577.681	11927.51
578.042	11916.66
578.403	11900.39
578.763	11888.42
579.124	11939.94
579.485	11937.91
579.845	12001.86
580.206	11845.03
580.566	11971.35
580.927	11946.49
581.287	11986.72
581.648	11897.23
582.008	11966.61
582.368	11898.13
582.728	11932.93
583.089	11975.65
583.449	11920.51
583.809	11948.75
584.169	11877.12
584.529	11907.62
584.889	11951.69
585.249	11856.78
585.609	11783.33
585.969	11965.25
586.329	11848.19
586.688	11913.5
587.048	11855.2
587.408	11839.15
587.768	11850.9
588.127	11851.81
588.487	11753.73
588.846	11794.18
589.206	11739.04
589.565	11741.53
589.925	11794.18
590.284	11740.17
590.643	11805.71
591.003	11795.31
591.362	11766.61
591.721	11721.19
592.08	11774.97
592.44	11713.73
592.799	11743.11
593.158	11695.88
593.517	11789.89
593.876	11723.45
594.235	11707.63
594.593	11694.52
594.952	11728.19
595.311	11618.59
595.67	11726.39
596.029	11776.1
596.387	11701.3
596.746	11771.58
597.104	11677.12
597.463	11656.11
597.822	11690
598.18	11591.7
598.538	11595.54
598.897	11722.77
599.255	11624.24
599.613	11716.67
599.972	11652.49
600.33	11629.89
600.688	11626.5
601.046	11647.52
601.404	11710.57
601.762	11696.1
602.12	11714.86
602.478	11696.33
602.836	11779.72
603.194	11606.84
603.552	11649.1
603.91	11586.5
604.268	11649.33
604.625	11625.37
604.983	11619.95
605.341	11628.99
605.698	11686.61
606.056	11731.13
606.413	11723.9
606.771	11697.01
607.128	11694.97
607.485	11567.97
607.843	11689.78
608.2	11741.3
608.557	11777.01
608.914	11702.21
609.272	11725.93
609.629	11723
609.986	11752.83
610.343	11752.6
610.7	11833.73
611.057	11749.21
611.414	11799.15
611.771	11804.12
612.127	11821.53
612.484	11800.96
612.841	11858.13
613.198	11762.32
613.554	11786.5
613.911	11895.65
614.267	11797.12
614.624	11818.81
614.98	11834.63
615.337	11912.82
615.693	11912.37
616.05	11903.11
616.406	11907.17
616.762	11946.04
617.118	11905.14
617.475	11878.25
617.831	12008.64
618.187	11914.18
618.543	11994.63
618.899	12000.5
619.255	11993.72
619.611	11918.02
619.967	12014.51
620.323	12004.12
620.678	11984.91
621.034	11879.83
621.39	12080.05
621.746	11896.55
622.101	12075.98
622.457	11960.96
622.812	12019.03
623.168	12014.51
623.523	12064.68
623.879	12068.07
624.234	11977.68
624.589	12060.84
624.945	12040.5
625.3	12033.05
625.655	12054.06
626.01	12014.06
626.365	12036.89
626.72	12005.48
627.075	12026.72
627.43	11972.71
627.785	11977.45
628.14	12085.93
628.495	11988.3
628.85	12090.44
629.205	11937.68
629.559	12055.42
629.914	11949.88
630.269	11906.27
630.623	11915.99
630.978	11931.35
631.332	11987.17
631.687	11952.37
632.041	11847.51
632.396	11985.81
632.75	11792.6
633.104	11774.29
633.459	11814.75
633.813	11762.09
634.167	11808.64
634.521	11832.15
634.875	11881.18
635.229	11818.81
635.583	11772.26
635.937	11783.11
636.291	11660.85
636.645	11768.65
636.999	11702.66
637.352	11648.2
637.706	11691.81
638.06	11654.98
638.413	11629.67
638.767	11619.95
639.121	11613.62
639.474	11550.57
639.828	11619.27
640.181	11502.89
640.534	11528.43
640.888	11537.24
641.241	11532.04
641.594	11505.38
641.947	11580.63
642.301	11504.92
642.654	11524.36
643.007	11437.58
643.36	11474.64
643.713	11444.13
644.066	11543.34
644.419	11384.47
644.771	11385.38
645.124	11274.2
645.477	11301.76
645.83	11252.73
646.182	11091.6
646.535	11120.53
646.888	11199.85
647.24	11103.8
647.593	11156.46
647.945	11109.23
648.298	11072.62
648.65	11039.85
649.002	11049.79
649.355	11089.34
649.707	11093.86
650.059	11186.97
650.411	11245.27
650.763	11312.84
651.115	11341.99
651.467	11336.79
651.819	11345.61
652.171	11347.64
652.523	11283.23
652.875	11340.86
653.227	11285.04
653.578	11403.68
653.93	11282.78
654.282	11217.7
654.633	11264.7
654.985	11356.9
655.337	11307.41
655.688	11387.86
656.039	11321.65
656.391	11349.67
656.742	11333.63
657.094	11279.17
657.445	11413.63
657.796	11353.06
658.147	11325.27
658.498	11363.91
658.849	11372.27
659.2	11382.44
659.551	11340.41
659.902	11354.87
660.253	11335.44
660.604	11336.34
660.955	11243.69
661.306	11410.91
661.656	11328.66
662.007	11355.1
662.358	11335.89
662.708	11304.02
663.059	11334.98
663.409	11273.97
663.76	11379.96
664.11	11466.51
664.461	11405.72
664.811	11407.52
665.161	11396.9
665.511	11359.62
665.862	11412.5
666.212	11365.04
666.562	11361.65
666.912	11314.19
667.262	11432.83
667.612	11385.15
667.962	11404.81
668.312	11450.91
668.662	11454.53
669.011	11389.9
669.361	11403.46
669.711	11430.35
670.06	11354.64
670.41	11383.34
670.76	11361.65
671.109	11400.29
671.459	11279.17
671.808	11331.59
672.157	11395.55
672.507	11268.77
672.856	11267.87
673.205	11246.17
673.554	11306.74
673.904	11244.59
674.253	11286.17
674.602	11252.73
674.951	11137.7
675.3	11036.46
675.649	11254.53
675.998	11245.72
676.346	11245.04
676.695	11278.71
677.044	11115.1
677.393	11132.5
677.741	11182.45
678.09	11150.58
678.438	11007.54
678.787	11121.43
679.135	11115.78
679.484	11025.84
679.832	11113.97
680.181	11078.49
680.529	11066.29
680.877	10972.51
681.225	10977.25
681.573	11062.9
681.922	11010.93
682.27	10948.55
682.618	10958.95
682.966	10937.71
683.314	10930.7
683.661	10992.17
684.009	10807.09
684.357	10785.39
684.705	10908.1
685.053	10760.76
685.4	10843.92
685.748	10714.89
686.095	10761.44
686.443	10714.21
686.79	10686.19
687.138	10658.39
687.485	10665.62
687.832	10648
688.18	10596.92
688.527	10488.23
688.874	10560.09
689.221	10487.1
689.568	10457.04
689.915	10466.76
690.262	10458.85
690.609	10414.1
690.956	10358.74
691.303	10359.19
691.65	10286.65
691.997	10301.34
692.344	10215.69
692.69	10217.27
693.037	10195.58
693.383	10117.84
693.73	10154
694.077	10053.44
694.423	10058.63
694.769	10050.27
695.116	9989.48
695.462	9962.37
695.808	9935.93
696.155	9966.43
696.501	9884.63
696.847	9816.61
697.193	9796.27
697.539	9786.55
697.885	9673.11
698.231	9636.27
698.577	9748.36
698.923	9614.35
699.269	9551.3
699.614	9505.2
699.96	9481.02
700.306	9487.8
700.651	9437.41
700.997	9370.74
701.342	9394.02
701.688	9390.18
702.033	9356.05
702.379	9312.44
702.724	9283.96
703.069	9294.59
703.415	9153.57
703.76	9215.49
704.105	9152.22
704.45	9140.01
704.795	9126.68
705.14	9079
705.485	9046.23
705.83	9026.12
706.175	9007.81
706.52	8986.35
706.865	8942.05
707.209	8882.85
707.554	8931.66
707.899	8906.12
708.243	8903.18
708.588	8837.65
708.932	8762.85
709.277	8717.65
709.621	8715.39
709.966	8612.8
710.31	8714.26
710.654	8627.03
710.998	8597.43
711.342	8625
711.687	8625.23
712.031	8569.18
712.375	8581.16
712.719	8571.89
713.063	8550.42
713.407	8589.75
713.75	8495.29
714.094	8496.19
714.438	8411.45
714.782	8465.91
715.125	8445.34
715.469	8477.66
715.812	8397.89
716.156	8376.64
716.499	8405.57
716.843	8311.79
717.186	8366.47
717.53	8325.57
717.873	8408.51
718.216	8290.54
718.559	8314.72
718.902	8238.57
719.246	8238.79
719.589	8288.28
719.932	8176.88
720.275	8219.36
720.617	8136.42
720.96	8135.29
721.303	8165.35
721.646	8180.49
721.989	8211
722.331	8199.93
722.674	8149.08
723.016	8120.61
723.359	8168.97
723.701	8147.5
724.044	8089.42
724.386	8148.18
724.729	8132.36
725.071	8098.23
725.413	8130.32
725.755	8120.38
726.097	8063.88
726.439	8086.03
726.782	8050.1
727.124	8097.1
727.465	8063.66
727.807	8118.12
728.149	7997.45
728.491	8061.17
728.833	8036.54
729.175	7951.57
729.516	8015.75
729.858	7965.58
730.199	7999.03
730.541	8003.32
730.882	8012.59
731.224	8049.2
731.565	7931.91
731.906	7979.82
732.248	7996.32
732.589	7963.32
732.93	7939.82
733.271	7955.64
733.612	7968.52
733.953	7926.49
734.294	7978.69
734.635	7965.13
734.976	7976.43
735.317	7903.66
735.658	7942.98
735.999	7973.72
736.339	8015.75
736.68	7984.56
737.021	7932.14
737.361	7942.76
737.702	7999.25
738.042	7967.39
738.383	7947.28
738.723	7985.69
739.063	7987.5
739.404	8052.36
739.744	8023.21
740.084	7975.98
740.424	7981.85
740.764	8042.64
741.104	8043.77
741.444	8071.34
741.784	8039.03
742.124	8081.74
742.464	8098.01
742.804	8103.21
743.143	8096.43
743.483	8148.4
743.823	8140.72
744.162	8223.88
744.502	8208.51
744.841	8211
745.181	8272.47
745.52	8279.92
745.86	8325.12
746.199	8363.99
746.538	8421.61
746.877	8468.62
747.216	8458.45
747.556	8482.18
747.895	8592.23
748.234	8546.58
748.573	8627.49
748.911	8707.48
749.25	8744.54
749.589	8727.82
749.928	8853.02
750.267	8919.45
750.605	8992
750.944	9007.81
751.283	9087.13
751.621	9175.72
751.96	9291.42
752.298	9361.7
752.636	9389.72
752.975	9458.2
753.313	9607.12
753.651	9701.58
753.989	9820.45
754.327	9910.39
754.666	9904.29
755.004	10109.93
755.342	10240.78
755.679	10341.79
756.017	10478.06
756.355	10561.45
756.693	10760.31
757.031	10813.64
757.368	10985.84
757.706	11120.07
758.044	11279.84
758.381	11419.5
758.719	11607.29
759.056	11654.07
759.394	11890
759.731	11860.62
760.068	12078.92
