Data from hue_180_FLMS001491_00010.txt Node
Date: Tue Feb 07 16:46:30 GMT 2017
User: dcchb
Spectrometer: FLMS00149
Trigger mode: 0
Integration Time (sec): 2.000000E-2
Scans to average: 10
Electric dark correction enabled: true
Nonlinearity correction enabled: false
Boxcar width: 0
XAxis mode: Wavelengths
Number of Pixels in Spectrum: 2048
>>>>>Begin Spectral Data<<<<<
341.393	-25.39
341.776	-25.39
342.16	-25.39
342.543	-51.16
342.927	-62
343.31	-54.77
343.693	-80.53
344.077	-78.5
344.46	-68.56
344.843	-43.02
345.226	-27.65
345.61	-20.42
345.993	-27.65
346.376	-22.68
346.759	10.54
347.142	32.91
347.525	47.37
347.908	69.29
348.291	68.84
348.674	74.72
349.057	120.14
349.44	113.58
349.823	130.31
350.206	156.75
350.588	164.2
350.971	222.06
351.354	223.64
351.737	216.41
352.119	251.43
352.502	250.76
352.884	280.59
353.267	285.78
353.65	260.25
354.032	302.73
354.414	314.26
354.797	329.17
355.179	304.09
355.562	321.94
355.944	329.62
356.326	312
356.709	329.4
357.091	335.73
357.473	352.9
357.855	339.12
358.238	351.32
358.62	348.15
359.002	352.67
359.384	332.79
359.766	349.96
360.148	348.83
360.53	358.55
360.912	335.05
361.294	338.66
361.676	344.54
362.057	339.12
362.439	316.07
362.821	329.17
363.203	314.03
363.584	334.6
363.966	316.97
364.348	316.52
364.729	325.78
365.111	328.04
365.493	309.96
365.874	331.66
366.256	315.39
366.637	313.13
367.019	320.36
367.4	314.71
367.781	316.52
368.163	307.48
368.544	310.42
368.925	322.84
369.306	336.4
369.688	324.88
370.069	319.23
370.45	319.23
370.831	307.03
371.212	316.97
371.593	302.73
371.974	315.16
372.355	293.92
372.736	311.32
373.117	320.81
373.498	329.85
373.879	296.4
374.26	307.93
374.641	320.13
375.021	330.98
375.402	310.19
375.783	333.47
376.163	339.34
376.544	338.89
376.925	342.51
377.305	329.62
377.686	317.42
378.066	316.07
378.447	310.19
378.827	330.53
379.208	337.08
379.588	312
379.968	353.35
380.349	351.77
380.729	343.64
381.109	330.08
381.489	336.63
381.87	323.97
382.25	334.14
382.63	353.35
383.01	341.15
383.39	351.54
383.77	334.14
384.15	332.11
384.53	341.6
384.91	354.26
385.29	359
385.67	353.35
386.049	367.36
386.429	357.87
386.809	343.18
387.189	345.44
387.568	336.18
387.948	360.36
388.328	363.3
388.707	339.79
389.087	369.85
389.466	367.36
389.846	358.32
390.225	373.24
390.605	379.79
390.984	358.1
391.363	377.08
391.743	364.65
392.122	366.91
392.501	390.64
392.881	404.2
393.26	379.57
393.639	373.69
394.018	379.34
394.397	395.16
394.776	384.54
395.155	381.37
395.534	381.83
395.913	398.77
396.292	389.74
396.671	404.88
397.05	404.2
397.429	407.81
397.808	394.71
398.186	433.12
398.565	408.04
398.944	417.53
399.323	387.25
399.701	428.38
400.08	405.78
400.458	433.8
400.837	410.98
401.215	422.5
401.594	408.27
401.972	427.47
402.351	429.96
402.729	435.16
403.107	448.49
403.486	424.76
403.864	437.42
404.242	450.07
404.62	467.7
404.999	434.48
405.377	455.72
405.755	465.67
406.133	468.15
406.511	455.27
406.889	477.19
407.267	489.39
407.645	478.09
408.023	494.14
408.401	482.39
408.779	482.39
409.156	496.63
409.534	502.27
409.912	511.99
410.29	524.2
410.667	536.85
411.045	540.01
411.422	566.68
411.8	563.97
412.178	539.79
412.555	572.56
412.933	556.06
413.31	551.77
413.687	586.11
414.065	600.13
414.442	606
414.819	617.53
415.197	606
415.574	625.66
415.951	624.53
416.328	667.02
416.705	672.44
417.082	668.82
417.46	664.76
417.837	686.68
418.214	686
418.591	698.43
418.967	723.96
419.344	707.92
419.721	728.71
420.098	730.52
420.475	740.23
420.852	740.46
421.228	741.14
421.605	760.12
421.982	790.18
422.358	802.15
422.735	806.9
423.111	811.65
423.488	845.77
423.864	847.35
424.241	850.06
424.617	847.12
424.994	875.37
425.37	891.87
425.746	893.68
426.123	911.53
426.499	905.43
426.875	930.06
427.251	969.38
427.627	987.46
428.003	980.45
428.379	971.19
428.756	1005.09
429.132	1029.72
429.507	1030.4
429.883	1019.78
430.259	1051.86
430.635	1037.4
431.011	1038.08
431.387	1066.1
431.763	1102.71
432.138	1109.04
432.514	1152.2
432.89	1141.81
433.265	1169.83
433.641	1184.52
434.016	1191.97
434.392	1214.12
434.767	1257.96
435.143	1258.19
435.518	1277.85
435.894	1322.82
436.269	1324.63
436.644	1352.87
437.02	1366.88
437.395	1374.12
437.77	1389.03
438.145	1417.73
438.52	1425.64
438.895	1448.01
439.271	1452.53
439.646	1493.66
440.021	1532.08
440.395	1525.98
440.77	1546.09
441.145	1539.76
441.52	1577.27
441.895	1590.83
442.27	1620.89
442.645	1614.56
443.019	1641.91
443.394	1649.14
443.769	1689.59
444.143	1676.71
444.518	1720.77
444.892	1697.72
445.267	1721.9
445.641	1785.18
446.016	1788.12
446.39	1798.29
446.764	1793.09
447.139	1804.61
447.513	1823.82
447.887	1854.78
448.262	1811.62
448.636	1872.41
449.01	1872.18
449.384	1919.64
449.758	1896.81
450.132	1941.33
450.506	1928.45
450.88	1988.56
451.254	1978.85
451.628	2010.71
452.002	2041.22
452.376	2062.01
452.75	2048.67
453.123	2066.53
453.497	2118.5
453.871	2164.83
454.244	2201.67
454.618	2174.55
454.992	2219.97
455.365	2186.98
455.739	2267.43
456.112	2304.94
456.486	2332.51
456.859	2334.32
457.232	2384.49
457.606	2373.86
457.979	2421.32
458.352	2468.78
458.725	2487.53
459.099	2482.34
459.472	2559.17
459.845	2604.82
460.218	2627.19
460.591	2640.98
460.964	2636.46
461.337	2715.55
461.71	2777.92
462.083	2790.12
462.456	2823.12
462.829	2833.06
463.201	2872.38
463.574	2885.72
463.947	2917.8
464.32	3017.91
464.692	3038.25
465.065	3051.81
465.438	3087.52
465.81	3152.37
466.183	3188.53
466.555	3242.32
466.928	3288.42
467.3	3335.19
467.672	3361.86
468.045	3453.84
468.417	3466.49
468.789	3536.77
469.161	3561.18
469.534	3650.89
469.906	3701.29
470.278	3709.42
470.65	3734.73
471.022	3824.67
471.394	3939.47
471.766	3951.9
472.138	4070.32
472.51	4099.47
472.882	4189.64
473.253	4246.13
473.625	4306.47
473.997	4458.56
474.369	4477.54
474.74	4500.59
475.112	4582.62
475.484	4737.87
475.855	4801.14
476.227	4873.69
476.598	4948.49
476.97	4992.55
477.341	5133.79
477.713	5240.23
478.084	5283.62
478.455	5450.85
478.827	5527.91
479.198	5697.62
479.569	5665.98
479.94	5843.38
480.311	5937.39
480.682	6075.91
481.053	6225.51
481.424	6304.16
481.795	6421.22
482.166	6527.88
482.537	6644.49
482.908	6842.22
483.279	6853.07
483.65	7030.46
484.021	7148.88
484.391	7204.02
484.762	7307.97
485.133	7450.57
485.503	7545.93
485.874	7697.79
486.244	7904.11
486.615	8025.01
486.985	8093.26
487.356	8243.09
487.726	8371.9
488.097	8516.08
488.467	8587.26
488.837	8761.04
489.207	8883.3
489.578	8977.31
489.948	9151.54
490.318	9255.94
490.688	9254.59
491.058	9432.44
491.428	9625.42
491.798	9772.09
492.168	9907.9
492.538	9911.07
492.908	10085.3
493.278	10212.53
493.648	10248.23
494.017	10340.89
494.387	10498.17
494.757	10634.44
495.126	10639.41
495.496	10709.46
495.866	10794.21
496.235	10891.83
496.605	10976.8
496.974	11050.25
497.344	11251.6
497.713	11226.06
498.082	11269.45
498.452	11390.8
498.821	11396.23
499.19	11459.5
499.559	11628.54
499.928	11630.57
500.298	11739.95
500.667	11814.07
501.036	11766.16
501.405	11850.68
501.774	11893.16
502.143	12064.23
502.512	12025.14
502.88	12125.7
503.249	12115.75
503.618	12133.38
503.987	12212.02
504.356	12292.02
504.724	12333.15
505.093	12357.1
505.462	12427.39
505.83	12395.97
506.199	12555.29
506.567	12716.64
506.936	12618.34
507.304	12737.66
507.672	12758.22
508.041	12746.7
508.409	12781.95
508.777	12900.82
509.145	13000.48
509.514	12949.41
509.882	13017.2
510.25	13052.68
510.618	12983.75
510.986	13049.06
511.354	13153.24
511.722	13211.77
512.09	13268.04
512.458	13253.58
512.826	13320.02
513.193	13320.92
513.561	13350.98
513.929	13388.72
514.297	13459.9
514.664	13434.82
515.032	13452.89
515.4	13487.02
515.767	13488.6
516.135	13480.92
516.502	13414.48
516.869	13562.95
517.237	13527.7
517.604	13550.29
517.972	13631.2
518.339	13653.34
518.706	13563.17
519.073	13635.26
519.44	13688.59
519.808	13696.73
520.175	13651.08
520.542	13781.93
520.909	13786.67
521.276	13745.77
521.643	13841.81
522.009	13791.42
522.376	13869.38
522.743	13869.38
523.11	13932.43
523.477	13936.5
523.843	13952.77
524.21	14007.46
524.577	14030.28
524.943	13937.63
525.31	13994.12
525.676	14064.63
526.043	14026.89
526.409	14025.99
526.776	14136.04
527.142	14047.68
527.508	14085.65
527.874	14123.39
528.241	14058.98
528.607	14074.57
528.973	14152.99
529.339	14122.03
529.705	14109.83
530.071	14126.55
530.437	14018.98
530.803	14127.23
531.169	13995.25
531.535	13917.29
531.901	13934.92
532.267	13912.54
532.632	13958.42
532.998	13901.47
533.364	13846.78
533.73	13747.58
534.095	13905.09
534.461	13771.3
534.826	13752.55
535.192	13801.36
535.557	13811.76
535.923	13738.99
536.288	13739.44
536.653	13685.88
537.019	13521.82
537.384	13516.85
537.749	13565.89
538.114	13421.94
538.479	13380.58
538.845	13403.86
539.21	13289.51
539.575	13243.63
539.94	13211.32
540.305	13215.61
540.67	13116.18
541.034	13055.17
541.399	13079.8
541.764	12986.24
542.129	12911.44
542.494	12783.08
542.858	12852.68
543.223	12904.89
543.587	12788.73
543.952	12718.9
544.316	12615.4
544.681	12573.6
545.045	12555.97
545.41	12508.96
545.774	12530.21
546.138	12366.37
546.503	12409.98
546.867	12235.53
547.231	12268.75
547.595	12177.45
547.959	12237.56
548.324	12077.34
548.688	12008.41
549.052	12066.94
549.416	11915.53
549.779	11913.73
550.143	11852.03
550.507	11816.1
550.871	11766.39
551.235	11631.25
551.599	11766.39
551.962	11711.02
552.326	11620.4
552.689	11556.45
553.053	11491.59
553.417	11450.01
553.78	11569.55
554.143	11391.25
554.507	11389.67
554.87	11411.37
555.234	11457.92
555.597	11276.91
555.96	11311.26
556.323	11228.09
556.686	11236.46
557.05	11217.25
557.413	11119.4
557.776	11168.89
558.139	11036.01
558.502	11090.47
558.865	11047.53
559.228	11122.79
559.59	10977.93
559.953	11022
560.316	11026.74
560.679	10965.5
561.041	10969.57
561.404	11012.73
561.767	11061.55
562.129	10931.83
562.492	11053.64
562.854	10932.28
563.217	10923.47
563.579	10897.26
563.941	10843.47
564.304	10950.14
564.666	10973.19
565.028	10954.88
565.39	10866.52
565.753	10950.14
566.115	10911.49
566.477	10937.71
566.839	10925.28
567.201	10875.79
567.563	10960.31
567.925	10932.06
568.287	10999.4
568.648	10979.06
569.01	10904.26
569.372	10882.57
569.734	10879.18
570.095	10927.54
570.457	10953.75
570.819	10954.88
571.18	10942.45
571.542	10966.18
571.903	10940.19
572.265	10939.51
572.626	10906.52
572.987	10913.98
573.349	10958.95
573.71	10897.48
574.071	10952.17
574.432	10990.81
574.794	11064.71
575.155	10914.66
575.516	10919.18
575.877	11002.34
576.238	10995.33
576.599	11026.52
576.96	11049.57
577.32	10930.25
577.681	11024.48
578.042	10956.01
578.403	10943.36
578.763	10944.71
579.124	10898.84
579.485	10930.7
579.845	10948.33
580.206	10890.48
580.566	10906.52
580.927	10870.36
581.287	10934.09
581.648	10893.41
582.008	10855.68
582.368	10861.1
582.728	10878.5
583.089	10876.24
583.449	10840.31
583.809	10894.32
584.169	10862
584.529	10842.57
584.889	10882.34
585.249	10852.29
585.609	10757.6
585.969	10756.92
586.329	10766.86
586.688	10702.01
587.048	10706.07
587.408	10756.02
587.768	10658.39
588.127	10743.14
588.487	10731.84
588.846	10725.96
589.206	10638.28
589.565	10640.77
589.925	10772.51
590.284	10634.21
590.643	10690.03
591.003	10704.27
591.362	10708.56
591.721	10657.94
592.08	10672.18
592.44	10659.75
592.799	10605.74
593.158	10654.1
593.517	10512.86
593.876	10669.47
594.235	10546.76
594.593	10550.37
594.952	10567.32
595.311	10458.62
595.67	10581.33
596.029	10626.3
596.387	10538.85
596.746	10523.48
597.104	10543.14
597.463	10478.28
597.822	10574.33
598.18	10483.03
598.538	10474.89
598.897	10527.77
599.255	10476.93
599.613	10587.43
599.972	10432.86
600.33	10492.52
600.688	10474.22
601.046	10506.98
601.404	10470.37
601.762	10436.93
602.12	10499.98
602.478	10571.16
602.836	10508.34
603.194	10449.58
603.552	10490.94
603.91	10406.42
604.268	10417.72
604.625	10403.03
604.983	10451.39
605.341	10378.17
605.698	10458.85
606.056	10456.82
606.413	10436.25
606.771	10474.89
607.128	10471.5
607.485	10427.44
607.843	10500.2
608.2	10415.46
608.557	10560.09
608.914	10434.67
609.272	10500.66
609.629	10418.62
609.986	10548.34
610.343	10470.83
610.7	10514.67
611.057	10490.94
611.414	10504.5
611.771	10565.06
612.127	10525.29
612.484	10566.87
612.841	10527.1
613.198	10549.69
613.554	10599.86
613.911	10614.55
614.267	10545.63
614.624	10644.16
614.98	10603.93
615.337	10610.71
615.693	10622.23
616.05	10621.33
616.406	10635.12
616.762	10563.48
617.118	10561.9
617.475	10608.22
617.831	10626.98
618.187	10612.74
618.543	10610.26
618.899	10625.85
619.255	10721.44
619.611	10719.18
619.967	10657.49
620.323	10738.84
620.678	10680.09
621.034	10675.11
621.39	10595.57
621.746	10615.23
622.101	10702.68
622.457	10699.07
622.812	10661.78
623.168	10644.83
623.523	10701.1
623.879	10701.55
624.234	10668.34
624.589	10708.11
624.945	10657.26
625.3	10653.65
625.655	10641.44
626.01	10688.9
626.365	10695.68
626.72	10645.51
627.075	10608.45
627.43	10592.41
627.785	10626.75
628.14	10669.01
628.495	10664.04
628.85	10632.63
629.205	10555.34
629.559	10623.82
629.914	10550.37
630.269	10614.1
630.623	10525.51
630.978	10509.24
631.332	10601.67
631.687	10568
632.041	10501.56
632.396	10430.83
632.75	10483.03
633.104	10567.77
633.459	10448
633.813	10459.08
634.167	10491.62
634.521	10470.83
634.875	10487.1
635.229	10386.08
635.583	10391.96
635.937	10377.27
636.291	10372.52
636.645	10361.45
636.999	10345.86
637.352	10436.03
637.706	10261.57
638.06	10288.68
638.413	10275.35
638.767	10272.41
639.121	10287.55
639.474	10263.83
639.828	10235.35
640.181	10250.27
640.534	10298.63
640.888	10289.36
641.241	10211.85
641.594	10170.72
641.947	10223.83
642.301	10221.12
642.654	10271.06
643.007	10189.48
643.36	10211.17
643.713	10193.32
644.066	10234.9
644.419	10177.73
644.771	10083.72
645.124	9977.05
645.477	9990.84
645.83	9897.06
646.182	9911.07
646.535	9846.21
646.888	9892.99
647.24	9851.41
647.593	9829.49
647.945	9803.95
648.298	9862.48
648.65	9856.38
649.002	9792.43
649.355	9839.43
649.707	9801.47
650.059	9825.19
650.411	10008.01
650.763	9995.36
651.115	10087.56
651.467	10104.28
651.819	10098.63
652.171	10046.43
652.523	10021.8
652.875	10071.06
653.227	10011.86
653.578	10093.89
653.93	10062.7
654.282	10024.74
654.633	9985.87
654.985	10027.9
655.337	10088.46
655.688	10064.51
656.039	10090.5
656.391	10015.47
656.742	9977.51
657.094	10014.34
657.445	10067.9
657.796	10084.62
658.147	10031.52
658.498	10070.84
658.849	10090.95
659.2	10162.59
659.551	10081.46
659.902	10081.23
660.253	10089.59
660.604	10118.29
660.955	10062.48
661.306	10110.84
661.656	10085.98
662.007	10122.13
662.358	10114.68
662.708	10102.47
663.059	10125.52
663.409	10071.74
663.76	10151.96
664.11	10157.39
664.461	10135.24
664.811	10162.36
665.161	10242.58
665.511	10137.73
665.862	10129.14
666.212	10147.9
666.562	10181.12
666.912	10182.47
667.262	10139.31
667.612	10201.68
667.962	10137.05
668.312	10183.6
668.662	10179.53
669.011	10162.59
669.361	10190.83
669.711	10117.39
670.06	10141.12
670.41	10086.88
670.76	10083.27
671.109	10139.08
671.459	10155.13
671.808	10077.84
672.157	10172.3
672.507	10057.73
672.856	10135.69
673.205	10082.36
673.554	10097.73
673.904	10128.46
674.253	10108.8
674.602	10094.34
674.951	9976.83
675.3	9907.9
675.649	10052.98
675.998	9943.83
676.346	10152.19
676.695	10088.24
677.044	9947.9
677.393	9979.77
677.741	9993.78
678.09	9927.56
678.438	9979.77
678.787	9922.37
679.135	9899.54
679.484	9837.17
679.832	9840.11
680.181	9820.22
680.529	9880.11
680.877	9864.74
681.225	9828.36
681.573	9838.53
681.922	9798.98
682.27	9763.73
682.618	9711.75
682.966	9693.67
683.314	9711.75
683.661	9668.14
684.009	9573.45
684.357	9649.15
684.705	9624.75
685.053	9589.72
685.4	9588.59
685.748	9514.92
686.095	9537.52
686.443	9449.84
686.79	9493.68
687.138	9549.49
687.485	9526.67
687.832	9448.25
688.18	9479.21
688.527	9414.36
688.874	9383.85
689.221	9378.43
689.568	9295.49
689.915	9331.87
690.262	9311.76
690.609	9247.81
690.956	9182.72
691.303	9140.92
691.65	9134.82
691.997	9090.3
692.344	9099.11
692.69	9002.84
693.037	9080.58
693.383	8993.35
693.73	8965.56
694.077	8933.24
694.423	8930.08
694.769	8884.2
695.116	8805.79
695.462	8803.3
695.808	8737.31
696.155	8751.78
696.501	8634.72
696.847	8719.91
697.193	8612.8
697.539	8610.99
697.885	8636.52
698.231	8437.66
698.577	8539.13
698.923	8513.36
699.269	8469.98
699.614	8453.93
699.96	8447.6
700.306	8395.4
700.651	8381.62
700.997	8325.8
701.342	8334.16
701.688	8255.29
702.033	8168.06
702.379	8189.3
702.724	8247.16
703.069	8203.54
703.415	8089.42
703.76	8081.96
704.105	8067.73
704.45	8079.7
704.795	8034.96
705.14	8016.43
705.485	7918.35
705.83	7957.67
706.175	7907.73
706.52	7876.32
706.865	7955.86
707.209	7836.55
707.554	7818.47
707.899	7792.03
708.243	7721.97
708.588	7748.86
708.932	7724.46
709.277	7728.07
709.621	7692.59
709.966	7633.16
710.31	7606.27
710.654	7567.17
710.998	7571.47
711.342	7627.29
711.687	7558.59
712.031	7497.57
712.375	7465.71
712.719	7521.53
713.063	7474.75
713.407	7489.21
713.75	7488.98
714.094	7414.64
714.438	7363.56
714.782	7400.85
715.125	7374.41
715.469	7375.99
715.812	7425.26
716.156	7306.16
716.499	7347.52
716.843	7346.61
717.186	7273.4
717.53	7305.26
717.873	7271.59
718.216	7319.5
718.559	7253.96
718.902	7259.84
719.246	7194.08
719.589	7202.44
719.932	7206.96
720.275	7226.17
720.617	7251.7
720.96	7209.44
721.303	7213.51
721.646	7220.29
721.989	7152.95
722.331	7206.73
722.674	7149.78
723.016	7171.7
723.359	7141.2
723.701	7186.39
724.044	7118.6
724.386	7112.72
724.729	7166.28
725.071	7176.22
725.413	7110.91
725.755	7080.63
726.097	7107.52
726.439	7087.41
726.782	7076.34
727.124	7119.95
727.465	7090.12
727.807	7089.22
728.149	7092.84
728.491	7005.83
728.833	7059.84
729.175	7000.86
729.516	7055.32
729.858	7088.77
730.199	7086.06
730.541	7062.33
730.882	6999.28
731.224	7079.73
731.565	7093.51
731.906	7047.19
732.248	7074.98
732.589	7022.56
732.93	7018.26
733.271	6993.63
733.612	7061.2
733.953	7033.63
734.294	7043.8
734.635	7074.08
734.976	7021.43
735.317	7027.98
735.658	7101.42
735.999	7027.08
736.339	7068.88
736.68	7103.01
737.021	7099.84
737.361	7094.64
737.702	7114.3
738.042	7105.27
738.383	7096.45
738.723	7178.71
739.063	7119.5
739.404	7141.65
739.744	7145.04
740.084	7186.84
740.424	7197.69
740.764	7138.03
741.104	7232.72
741.444	7264.58
741.784	7240.18
742.124	7212.83
742.464	7223.91
742.804	7297.58
743.143	7308.65
743.483	7321.3
743.823	7296.9
744.162	7342.1
744.502	7427.74
744.841	7354.52
745.181	7501.86
745.52	7519.94
745.86	7538.02
746.199	7535.54
746.538	7638.58
746.877	7674.06
747.216	7697.34
747.556	7782.08
747.895	7814.63
748.234	7860.95
748.573	7948.63
748.911	7916.77
749.25	8067.27
749.589	8149.08
749.928	8197.44
750.267	8251.22
750.605	8271.11
750.944	8393.37
751.283	8427.72
751.621	8583.42
751.96	8627.94
752.298	8808.27
752.636	8951.09
752.975	9014.14
753.313	9030.41
753.651	9229.5
753.989	9271.08
754.327	9372.55
754.666	9542.49
755.004	9664.75
755.342	9888.24
755.679	9970.05
756.017	10103.15
756.355	10304.96
756.693	10368.46
757.031	10589.02
757.368	10742.01
757.706	10809.35
758.044	11036.69
758.381	11237.59
758.719	11412.04
759.056	11621.98
759.394	11790.57
