Data from hue_280_FLMS001491_00099.txt Node
Date: Tue Feb 07 15:56:09 GMT 2017
User: dcchb
Spectrometer: FLMS00149
Trigger mode: 0
Integration Time (sec): 2.000000E-2
Scans to average: 10
Electric dark correction enabled: true
Nonlinearity correction enabled: false
Boxcar width: 0
XAxis mode: Wavelengths
Number of Pixels in Spectrum: 2048
>>>>>Begin Spectral Data<<<<<
341.393	-25.03
341.776	-25.03
342.16	-25.03
342.543	-63.67
342.927	-62.77
343.31	-63.67
343.693	-79.49
344.077	-58.25
344.46	-61.64
344.843	-43.78
345.226	-42.88
345.61	-30.9
345.993	-23.22
346.376	-19.6
346.759	24.46
347.142	27.85
347.525	35.54
347.908	67.4
348.291	70.34
348.674	99.04
349.057	98.81
349.44	121.41
349.823	140.84
350.206	159.15
350.588	167.06
350.971	202.31
351.354	194.63
351.737	193.05
352.119	226.94
352.502	251.35
352.884	251.58
353.267	277.11
353.65	272.14
354.032	289.31
354.414	302.2
354.797	305.36
355.179	317.56
355.562	302.87
355.944	332.25
356.326	322.31
356.709	325.47
357.091	320.27
357.473	333.83
357.855	310.56
358.238	323.44
358.62	351.91
359.002	317.79
359.384	324.57
359.766	327.05
360.148	335.19
360.53	347.84
360.912	319.82
361.294	314.4
361.676	345.81
362.057	330.9
362.439	321.18
362.821	324.34
363.203	323.89
363.584	321.18
363.966	284.12
364.348	308.07
364.729	298.58
365.111	316.88
365.493	312.59
365.874	312.59
366.256	306.94
366.637	297
367.019	293.83
367.4	294.74
367.781	298.13
368.163	282.99
368.544	293.61
368.925	303.55
369.306	312.82
369.688	324.12
370.069	322.08
370.45	303.1
370.831	302.87
371.212	293.16
371.593	305.81
371.974	300.16
372.355	309.65
372.736	293.83
373.117	316.43
373.498	306.26
373.879	294.74
374.26	297.9
374.641	286.15
375.021	308.97
375.402	328.41
375.783	292.48
376.163	327.96
376.544	332.7
376.925	318.92
377.305	292.93
377.686	311.46
378.066	309.88
378.447	300.61
378.827	322.08
379.208	315.98
379.588	311.91
379.968	320.95
380.349	316.43
380.729	317.11
381.109	317.56
381.489	327.28
381.87	304
382.25	347.17
382.63	307.85
383.01	307.17
383.39	323.44
383.77	330.67
384.15	329.09
384.53	317.34
384.91	346.94
385.29	322.08
385.67	332.48
386.049	327.73
386.429	345.81
386.809	325.92
387.189	336.09
387.568	366.37
387.948	349.43
388.328	344.68
388.707	338.13
389.087	347.39
389.466	351.46
389.846	364.79
390.225	353.95
390.605	350.56
390.984	352.14
391.363	348.52
391.743	369.09
392.122	364.57
392.501	365.92
392.881	370.44
393.26	346.71
393.639	369.54
394.018	362.76
394.397	370.44
394.776	374.51
395.155	374.51
395.534	360.95
395.913	384
396.292	379.26
396.671	388.75
397.05	393.94
397.429	371.35
397.808	385.58
398.186	402.31
398.565	390.78
398.944	387.39
399.323	370.22
399.701	396.43
400.08	405.02
400.458	384.45
400.837	406.15
401.215	432.59
401.594	406.6
401.972	397.33
402.351	401.85
402.729	400.72
403.107	429.88
403.486	423.1
403.864	420.84
404.242	445.24
404.62	430.1
404.999	433.27
405.377	429.88
405.755	429.65
406.133	427.62
406.511	416.09
406.889	430.33
407.267	456.54
407.645	449.76
408.023	450.44
408.401	485.02
408.779	476.2
409.156	485.69
409.534	461.51
409.912	485.92
410.29	476.2
410.667	500.83
411.045	501.29
411.422	482.76
411.8	495.41
412.178	511
412.555	522.98
412.933	524.11
413.31	535.86
413.687	546.48
414.065	551.45
414.442	558.46
414.819	565.69
415.197	550.32
415.574	562.75
415.951	566.14
416.328	577.44
416.705	584.9
417.082	580.61
417.46	584
417.837	627.84
418.214	630.32
418.591	635.97
418.967	635.97
419.344	645.01
419.721	613.15
420.098	651.79
420.475	653.82
420.852	659.02
421.228	662.41
421.605	669.42
421.982	693.37
422.358	691.34
422.735	728.62
423.111	705.8
423.488	709.87
423.864	709.87
424.241	735.4
424.617	724.11
424.994	746.7
425.37	754.84
425.746	743.77
426.123	792.35
426.499	781.96
426.875	788.74
427.251	800.04
427.627	841.39
428.003	840.94
428.379	842.07
428.756	860.37
429.132	867.6
429.507	874.38
429.883	907.38
430.259	899.47
430.635	903.08
431.011	903.99
431.387	927.26
431.763	936.53
432.138	962.07
432.514	994.61
432.89	976.08
433.265	1013.14
433.641	995.74
434.016	1025.34
434.392	1033.25
434.767	1032.8
435.143	1056.53
435.518	1061.72
435.894	1065.57
436.269	1085.9
436.644	1122.74
437.02	1121.83
437.395	1121.83
437.77	1150.99
438.145	1154.38
438.52	1165.9
438.895	1173.58
439.271	1179.01
439.646	1212
440.021	1229.4
440.395	1222.4
440.77	1227.59
441.145	1260.81
441.52	1274.15
441.895	1267.59
442.27	1306.24
442.645	1275.28
443.019	1288.61
443.394	1292.23
443.769	1291.32
444.143	1316.41
444.518	1325.67
444.892	1343.3
445.267	1372.45
445.641	1367.48
446.016	1359.34
446.39	1377.2
446.764	1378.78
447.139	1370.42
447.513	1384.2
447.887	1376.29
448.262	1434.37
448.636	1420.58
449.01	1378.33
449.384	1417.65
449.758	1405.9
450.132	1474.14
450.506	1468.72
450.88	1452
451.254	1447.02
451.628	1500.13
452.002	1478.66
452.376	1488.6
452.75	1513.69
453.123	1537.19
453.497	1525.89
453.871	1541.03
454.244	1582.61
454.618	1578.09
454.992	1592.78
455.365	1565.89
455.739	1630.97
456.112	1625.1
456.486	1630.07
456.859	1663.52
457.232	1697.41
457.606	1668.71
457.979	1718.66
458.352	1713.46
458.725	1720.69
459.099	1750.52
459.472	1731.08
459.845	1777.86
460.218	1801.14
460.591	1812.44
460.964	1788.94
461.337	1839.33
461.71	1869.16
462.083	1924.3
462.456	1886.79
462.829	1876.39
463.201	1922.49
463.574	1879.78
463.947	1946.22
464.32	1995.71
464.692	1967.91
465.065	2005.88
465.438	1972.43
465.81	2045.43
466.183	2068.25
466.555	2071.19
466.928	2082.71
467.3	2103.73
467.672	2120.68
468.045	2180.56
468.417	2164.52
468.789	2174.91
469.161	2193.67
469.534	2232.09
469.906	2253.78
470.278	2273.22
470.65	2288.81
471.022	2308.7
471.394	2357.96
471.766	2366.32
472.138	2352.31
472.51	2429.82
472.882	2439.77
473.253	2469.6
473.625	2506.88
473.997	2507.79
474.369	2547.33
474.74	2557.5
475.112	2584.17
475.484	2645.18
475.855	2673.21
476.227	2661
476.598	2716.14
476.97	2748.01
477.341	2787.78
477.713	2793.88
478.084	2816.93
478.455	2911.62
478.827	2925.4
479.198	3011.73
479.569	2960.66
479.94	3055.57
480.311	3046.98
480.682	3136.25
481.053	3127.88
481.424	3199.29
481.795	3224.15
482.166	3293.3
482.537	3287.65
482.908	3324.71
483.279	3349.57
483.65	3405.84
484.021	3477.03
484.391	3474.77
484.762	3482.9
485.133	3519.74
485.503	3551.83
485.874	3632.5
486.244	3643.58
486.615	3664.59
486.985	3703.46
487.356	3739.62
487.726	3800.86
488.097	3858.94
488.467	3824.14
488.837	3936
489.207	3924.02
489.578	4028.43
489.948	4025.94
490.318	4032.04
490.688	4048.09
491.058	4158.37
491.428	4171.92
491.798	4169.66
492.168	4254.86
492.538	4231.81
492.908	4258.7
493.278	4392.03
493.648	4312.49
494.017	4366.5
494.387	4443.33
494.757	4448.08
495.126	4500.28
495.496	4549.77
495.866	4506.83
496.235	4518.36
496.605	4559.94
496.974	4610.56
497.344	4610.1
497.713	4657.11
498.082	4678.35
498.452	4676.54
498.821	4742.3
499.19	4722.64
499.559	4737.33
499.928	4785.92
500.298	4756.77
500.667	4849.42
501.036	4809.42
501.405	4906.82
501.774	4862.08
502.143	4936.2
502.512	4912.7
502.88	4938.23
503.249	4907.5
503.618	4934.84
503.987	4959.47
504.356	4954.05
504.724	5038.34
505.093	5030.66
505.462	5033.14
505.83	5011.45
506.199	5094.16
506.567	5116.31
506.936	5072.69
507.304	5083.31
507.672	5113.37
508.041	5147.72
508.409	5241.73
508.777	5194.04
509.145	5260.48
509.514	5266.36
509.882	5290.31
510.25	5249.41
510.618	5290.76
510.986	5306.81
511.354	5330.31
511.722	5388.84
512.09	5412.8
512.458	5383.87
512.826	5438.56
513.193	5396.75
513.561	5431.33
513.929	5384.1
514.297	5515.62
514.664	5452.57
515.032	5465.45
515.4	5511.32
515.767	5523.75
516.135	5524.88
516.502	5509.29
516.869	5599.23
517.237	5570.76
517.604	5556.75
517.972	5620.25
518.339	5611.89
518.706	5628.38
519.073	5636.74
519.44	5628.38
519.808	5668.16
520.175	5684.2
520.542	5705.9
520.909	5728.27
521.276	5688.27
521.643	5745.89
522.009	5795.38
522.376	5760.81
522.743	5846.68
523.11	5827.7
523.477	5846.46
523.843	5896.17
524.21	5924.19
524.577	5907.47
524.943	5935.72
525.31	5970.75
525.676	6028.37
526.043	5994.7
526.409	6008.94
526.776	6093.68
527.142	6078.31
527.508	6104.98
527.874	6134.58
528.241	6133.23
528.607	6117.18
528.973	6206
529.339	6211.42
529.705	6217.52
530.071	6246.9
530.437	6297.07
530.803	6333.9
531.169	6278.99
531.535	6268.59
531.901	6309.27
532.267	6347.69
532.632	6348.36
532.998	6401.92
533.364	6389.94
533.73	6390.62
534.095	6424.97
534.461	6469.26
534.826	6486.44
535.192	6470.85
535.557	6441.7
535.923	6486.44
536.288	6489.6
536.653	6492.54
537.019	6517.4
537.384	6556.27
537.749	6542.71
538.114	6579.54
538.479	6616.61
538.845	6627.9
539.21	6549.04
539.575	6579.77
539.94	6620.22
540.305	6700.9
540.67	6671.29
541.034	6652.54
541.399	6601.69
541.764	6677.62
542.129	6712.2
542.494	6668.58
542.858	6751.07
543.223	6745.87
543.587	6747.9
543.952	6727.11
544.316	6754
544.681	6760.33
545.045	6807.34
545.41	6789.26
545.774	6796.26
546.138	6837.62
546.503	6833.1
546.867	6840.78
547.231	6914
547.595	6860.22
547.959	6904.73
548.324	6869.93
548.688	6895.92
549.052	6932.53
549.416	6924.85
549.779	6925.07
550.143	6903.83
550.507	7005.97
550.871	6956.48
551.235	6924.39
551.599	6990.38
551.962	7000.55
552.326	6972.98
552.689	7059.98
553.053	6959.65
553.417	7026.31
553.78	7090.27
554.143	7059.76
554.507	7030.83
554.87	7054.56
555.234	7116.71
555.597	7092.75
555.96	7110.6
556.323	7211.84
556.686	7158.74
557.05	7232.18
557.413	7191.05
557.776	7225.4
558.139	7291.39
558.502	7260.66
558.865	7241.67
559.228	7287.32
559.59	7357.83
559.953	7272.41
560.316	7336.59
560.679	7334.55
561.041	7347.43
561.404	7375.23
561.767	7433.08
562.129	7449.58
562.492	7527.54
562.854	7489.13
563.217	7437.6
563.579	7531.61
563.941	7540.2
564.304	7586.98
564.666	7589.01
565.028	7573.19
565.39	7685.73
565.753	7732.96
566.115	7690.7
566.477	7696.58
566.839	7758.5
567.201	7805.05
567.563	7773.86
567.925	7869.68
568.287	7824.03
568.648	7774.54
569.01	7899.51
569.372	7908.32
569.734	7921.2
570.095	8072.16
570.457	7952.84
570.819	8069
571.18	8045.27
571.542	8065.83
571.903	8097.02
572.265	8112.61
572.626	8147.19
572.987	8224.47
573.349	8242.33
573.71	8234.64
574.071	8292.27
574.432	8301.76
574.794	8305.15
575.155	8344.24
575.516	8388.08
575.877	8377.24
576.238	8473.96
576.599	8504.01
576.96	8535.43
577.32	8517.12
577.681	8582.2
578.042	8600.96
578.403	8618.81
578.763	8695.42
579.124	8745.36
579.485	8792.59
579.845	8905.13
580.206	8851.8
580.566	8891.12
580.927	8958.01
581.287	8941.74
581.648	9029.65
582.008	9076.88
582.368	9092.47
582.728	9169.53
583.089	9204.79
583.449	9246.37
583.809	9344.67
584.169	9372.92
584.529	9395.29
584.889	9508.06
585.249	9534.04
585.609	9453.82
585.969	9606.13
586.329	9684.77
586.688	9709.86
587.048	9785.79
587.408	9854.49
587.768	9946.91
588.127	9983.75
588.487	10021.94
588.846	10111.88
589.206	10177.87
589.565	10216.96
589.925	10330.18
590.284	10328.6
590.643	10419.9
591.003	10518.2
591.362	10577.63
591.721	10618.31
592.08	10658.76
592.44	10792.32
592.799	10836.61
593.158	10898.08
593.517	10929.71
593.876	11038.41
594.235	11093.32
594.593	11098.3
594.952	11176.94
595.311	11232.53
595.67	11238.41
596.029	11388.23
596.387	11516.36
596.746	11516.59
597.104	11561.11
597.463	11584.16
597.822	11589.36
598.18	11668.68
598.538	11772.4
598.897	11895.34
599.255	11832.51
599.613	12054.43
599.972	12025.5
600.33	12073.41
600.688	12141.21
601.046	12190.24
601.404	12299.85
601.762	12314.08
602.12	12397.47
602.478	12422.33
602.836	12468.2
603.194	12465.27
603.552	12467.53
603.91	12521.99
604.268	12578.26
604.625	12565.38
604.983	12635.88
605.341	12617.13
605.698	12736.9
606.056	12729.67
606.413	12795.43
606.771	12941.64
607.128	12956.78
607.485	12915.42
607.843	12924.91
608.2	13069.09
608.557	13060.96
608.914	13074.74
609.272	13126.49
609.629	13223.89
609.986	13264.11
610.343	13248.07
610.7	13332.14
611.057	13297.33
611.414	13304.57
611.771	13432.02
612.127	13486.71
612.484	13517.67
612.841	13450.1
613.198	13493.49
613.554	13513.6
613.911	13615.29
614.267	13679.47
614.624	13657.55
614.98	13696.19
615.337	13721.05
615.693	13730.32
616.05	13747.27
616.406	13789.52
616.762	13782.52
617.118	13794.5
617.475	13747.72
617.831	13863.65
618.187	13834.72
618.543	13921.72
618.899	13962.85
619.255	13972.12
619.611	14006.47
619.967	14078.78
620.323	14033.81
620.678	13974.38
621.034	14072
621.39	13983.87
621.746	13997.65
622.101	14157.2
622.457	13993.13
622.812	14040.37
623.168	14209.85
623.523	14194.94
623.879	14152.9
624.234	14129.18
624.589	14204.65
624.945	14248.04
625.3	14205.11
625.655	14215.05
626.01	14257.76
626.365	14252.79
626.72	14203.3
627.075	14248.72
627.43	14214.6
627.785	14273.35
628.14	14234.48
628.495	14288.04
628.85	14308.83
629.205	14234.48
629.559	14334.37
629.914	14169.4
630.269	14228.16
630.623	14216.41
630.978	14117.43
631.332	14266.57
631.687	14281.26
632.041	14181.15
632.396	14295.95
632.75	14168.95
633.104	14227.93
633.459	14185.9
633.813	14157.2
634.167	14117.43
634.521	14135.28
634.875	14156.52
635.229	14081.27
635.583	14051.21
635.937	14063.19
636.291	14044.66
636.645	14079.46
636.999	14082.85
637.352	14047.37
637.706	13951.55
638.06	14034.49
638.413	14073.36
638.767	13963.08
639.121	14014.15
639.474	13969.63
639.828	13973.47
640.181	13923.31
640.534	13919.46
640.888	13938
641.241	13811.9
641.594	13864.55
641.947	13906.36
642.301	13831.11
642.654	13872.01
643.007	13912.46
643.36	13825.23
643.713	13763.54
644.066	13836.98
644.419	13800.15
644.771	13735.06
645.124	13645.8
645.477	13512.92
645.83	13521.06
646.182	13519.48
646.535	13465.69
646.888	13466.37
647.24	13391.57
647.593	13435.18
647.945	13465.01
648.298	13426.6
648.65	13368.97
649.002	13358.58
649.355	13440.83
649.707	13412.13
650.059	13528.97
650.411	13648.29
650.763	13687.15
651.115	13879.47
651.467	13704.55
651.819	13699.13
652.171	13726.48
652.523	13709.53
652.875	13683.31
653.227	13692.58
653.578	13782.97
653.93	13734.61
654.282	13707.49
654.633	13674.27
654.985	13736.19
655.337	13707.49
655.688	13703.65
656.039	13787.04
656.391	13700.26
656.742	13704.78
657.094	13723.76
657.445	13742.75
657.796	13713.59
658.147	13691.45
658.498	13712.46
658.849	13728.74
659.2	13674.95
659.551	13682.18
659.902	13708.4
660.253	13751.11
660.604	13716.76
660.955	13698.68
661.306	13792.91
661.656	13759.47
662.007	13707.27
662.358	13823.2
662.708	13742.29
663.059	13825.23
663.409	13729.86
663.76	13799.24
664.11	13737.55
664.461	13815.51
664.811	13830.65
665.161	13800.82
665.511	13775.74
665.862	13751.33
666.212	13828.39
666.562	13864.32
666.912	13829.98
667.262	13807.15
667.612	13871.78
667.962	13867.49
668.312	13872.01
668.662	13917.2
669.011	13843.08
669.361	13780.71
669.711	13870.43
670.06	13802.18
670.41	13781.84
670.76	13774.16
671.109	13810.09
671.459	13830.65
671.808	13715.4
672.157	13761.73
672.507	13747.27
672.856	13693.26
673.205	13824.78
673.554	13752.69
673.904	13698.68
674.253	13844.66
674.602	13670.21
674.951	13511.11
675.3	13501.85
675.649	13718.11
675.998	13665.01
676.346	13634.27
676.695	13637.21
677.044	13563.54
677.393	13629.75
677.741	13606.7
678.09	13614.84
678.438	13559.47
678.787	13532.58
679.135	13535.52
679.484	13450.1
679.832	13507.95
680.181	13487.39
680.529	13506.59
680.877	13449.42
681.225	13382.3
681.573	13486.26
681.922	13363.32
682.27	13373.04
682.618	13315.86
682.966	13304.79
683.314	13284.68
683.661	13225.7
684.009	13190.67
684.357	13144.12
684.705	13184.57
685.053	13196.55
685.4	13176.43
685.748	13004.23
686.095	13124.01
686.443	13043.33
686.79	13054.85
687.138	12987.29
687.485	12996.55
687.832	13017.79
688.18	12940.28
688.527	12797.69
688.874	12903.9
689.221	12792.04
689.568	12813.96
689.915	12742.55
690.262	12687.18
690.609	12618.71
690.956	12609.22
691.303	12572.16
691.65	12563.57
691.997	12580.52
692.344	12493.74
692.69	12418.26
693.037	12391.37
693.383	12287.64
693.73	12368.77
694.077	12284.25
694.423	12346.4
694.769	12256.68
695.116	12155.44
695.462	12184.14
695.808	12083.81
696.155	12194.54
696.501	12018.72
696.847	11985.28
697.193	11928.33
697.539	11910.25
697.885	11869.12
698.231	11792.29
698.577	11781.89
698.923	11757.71
699.269	11753.42
699.614	11692.63
699.96	11668.68
700.306	11606.3
700.651	11527.21
700.997	11547.78
701.342	11459.42
701.688	11402.24
702.033	11341.23
702.379	11366.54
702.724	11338.06
703.069	11298.74
703.415	11268.23
703.76	11173.32
704.105	11131.52
704.45	11155.02
704.795	11026.21
705.14	11040.22
705.485	10968.36
705.83	10988.24
706.175	10892.43
706.52	10902.59
706.865	10907.79
707.209	10834.35
707.554	10844.52
707.899	10810.85
708.243	10771.3
708.588	10774.69
708.932	10729.27
709.277	10673
709.621	10733.33
709.966	10594.81
710.31	10663.73
710.654	10529.5
710.998	10639.1
711.342	10520.23
711.687	10516.84
712.031	10461.02
712.375	10431.19
712.719	10465.77
713.063	10339.22
713.407	10489.72
713.75	10373.57
714.094	10392.78
714.438	10338.77
714.782	10377.86
715.125	10296.51
715.469	10276.17
715.812	10248.6
716.156	10242.27
716.499	10272.1
716.843	10254.48
717.186	10164.99
717.53	10240.47
717.873	10220.13
718.216	10102.84
718.559	10154.37
718.902	10050.64
719.246	10073.46
719.589	10073.92
719.932	10070.75
720.275	10008.38
720.617	10031.66
720.96	10008.61
721.303	10060.81
721.646	10009.51
721.989	9929.74
722.331	9943.52
722.674	9911.21
723.016	10005.9
723.359	9939.23
723.701	9925.67
724.044	9903.98
724.386	9886.8
724.729	9854.26
725.071	9845.22
725.413	9874.6
725.755	9871.21
726.097	9837.31
726.439	9832.57
726.782	9790.99
727.124	9834.37
727.465	9788.05
727.807	9743.98
728.149	9838.22
728.491	9741.04
728.833	9808.16
729.175	9756.64
729.516	9780.36
729.858	9768.16
730.199	9801.15
730.541	9733.36
730.882	9777.65
731.224	9773.36
731.565	9733.36
731.906	9744.89
732.248	9795.96
732.589	9746.69
732.93	9649.52
733.271	9706.24
733.612	9723.87
733.953	9769.74
734.294	9699.01
734.635	9671.44
734.976	9721.61
735.317	9669.41
735.658	9647.49
735.999	9663.98
736.339	9665.79
736.68	9703.53
737.021	9635.96
737.361	9709.41
737.702	9740.59
738.042	9683.42
738.383	9737.2
738.723	9713.93
739.063	9707.82
739.404	9774.04
739.744	9720.93
740.084	9731.55
740.424	9719.57
740.764	9798.44
741.104	9807.48
741.444	9758.9
741.784	9805.9
742.124	9809.06
742.464	9819.23
742.804	9879.8
743.143	9832.11
743.483	9882.96
743.823	9825.79
744.162	9875.05
744.502	9961.38
744.841	9899.23
745.181	9996.18
745.52	9947.82
745.86	10044.76
746.199	10103.75
746.538	10120.47
746.877	10200.69
747.216	10195.72
747.556	10313.23
747.895	10380.12
748.234	10359.33
748.573	10346
748.911	10473
749.25	10578.08
749.589	10588.93
749.928	10673.9
750.267	10793.22
750.605	10809.72
750.944	10853.56
751.283	10828.47
751.621	11033.89
751.96	11027.79
752.298	11166.54
752.636	11241.79
752.975	11303.26
753.313	11361.57
753.651	11557.72
753.989	11545.06
754.327	11713.65
754.666	11766.3
755.004	11988.22
755.342	12039.51
755.679	12117.7
756.017	12233.63
756.355	12380.52
756.693	12496.9
757.031	12658.93
757.368	12758.82
757.706	12834.97
758.044	12964.46
758.381	13119.94
758.719	13308.18
759.056	13403.55
759.394	13491.91
759.731	13553.6
760.068	13766.02
760.405	13860.26
760.743	14007.6
761.08	14123.53
761.417	14255.5
761.754	14340.02
