Data from hue_210_FLMS001491_00083.txt Node
Date: Tue Feb 07 16:41:52 GMT 2017
User: dcchb
Spectrometer: FLMS00149
Trigger mode: 0
Integration Time (sec): 2.000000E-2
Scans to average: 10
Electric dark correction enabled: true
Nonlinearity correction enabled: false
Boxcar width: 0
XAxis mode: Wavelengths
Number of Pixels in Spectrum: 2048
>>>>>Begin Spectral Data<<<<<
341.393	-8.23
341.776	-8.23
342.16	-8.23
342.543	-53.88
342.927	-50.49
343.31	-54.11
343.693	-85.97
344.077	-73.32
344.46	-67.44
344.843	-56.82
345.226	-38.29
345.61	-24.51
345.993	-11.4
346.376	-18.63
346.759	20.92
347.142	25.89
347.525	42.61
347.908	70.41
348.291	66.57
348.674	88.94
349.057	115.15
349.44	121.03
349.823	150.18
350.206	148.82
350.588	180.69
350.971	207.81
351.354	221.36
351.737	234.92
352.119	267.01
352.502	271.76
352.884	279.44
353.267	279.44
353.65	275.37
354.032	292.32
354.414	298.42
354.797	305.66
355.179	325.09
355.562	305.2
355.944	321.02
356.326	326.45
356.709	326.67
357.091	339.55
357.473	324.86
357.855	323.73
358.238	335.03
358.62	328.71
359.002	333
359.384	331.87
359.766	329.61
360.148	337.97
360.53	320.8
360.912	317.86
361.294	289.84
361.676	337.29
362.057	349.72
362.439	323.73
362.821	295.49
363.203	326.22
363.584	316.05
363.966	309.95
364.348	297.75
364.729	312.66
365.111	317.41
365.493	302.27
365.874	307.92
366.256	321.93
366.637	307.24
367.019	283.06
367.4	325.09
367.781	308.59
368.163	321.7
368.544	307.69
368.925	305.2
369.306	314.47
369.688	288.48
370.069	305.2
370.45	305.2
370.831	309.95
371.212	320.57
371.593	297.29
371.974	300.46
372.355	310.4
372.736	329.84
373.117	299.78
373.498	301.14
373.879	313.11
374.26	308.37
374.641	309.5
375.021	314.92
375.402	313.57
375.783	314.02
376.163	332.55
376.544	315.6
376.925	338.2
377.305	335.94
377.686	333
378.066	310.18
378.447	334.81
378.827	332.32
379.208	321.93
379.588	331.64
379.968	322.38
380.349	327.12
380.729	319.21
381.109	349.27
381.489	329.61
381.87	314.7
382.25	354.24
382.63	325.32
383.01	328.71
383.39	333
383.77	320.12
384.15	330.29
384.53	330.29
384.91	333.68
385.29	343.17
385.67	335.03
386.049	341.81
386.429	350.17
386.809	347.24
387.189	363.51
387.568	342.94
387.948	352.89
388.328	348.37
388.707	369.38
389.087	356.28
389.466	369.83
389.846	352.66
390.225	361.47
390.605	366.45
390.984	370.74
391.363	359.21
391.743	363.73
392.122	386.56
392.501	384.75
392.881	380.46
393.26	357.41
393.639	381.59
394.018	379.33
394.397	405.31
394.776	402.38
395.155	384.98
395.534	392.21
395.913	384.98
396.292	415.48
396.671	387.46
397.05	390.17
397.429	411.42
397.808	409.61
398.186	398.53
398.565	427.23
398.944	399.21
399.323	396.27
399.701	403.05
400.08	408.48
400.458	412.55
400.837	414.58
401.215	412.09
401.594	420
401.972	428.36
402.351	429.49
402.729	430.17
403.107	453.22
403.486	438.53
403.864	453.22
404.242	451.64
404.62	460.68
404.999	440.34
405.377	459.32
405.755	447.8
406.133	454.13
406.511	475.14
406.889	469.95
407.267	497.52
407.645	488.48
408.023	481.47
408.401	472.88
408.779	504.29
409.156	509.04
409.534	525.09
409.912	509.49
410.29	547.01
410.667	534.35
411.045	543.39
411.422	544.52
411.8	563.95
412.178	555.37
412.555	592.65
412.933	590.62
413.31	594.46
413.687	601.92
414.065	605.76
414.442	635.59
414.819	637.17
415.197	629.04
415.574	643.95
415.951	654.57
416.328	669.94
416.705	660
417.082	679.66
417.46	668.81
417.837	679.43
418.214	700.22
418.591	721.69
418.967	709.71
419.344	731.63
419.721	738.64
420.098	738.64
420.475	779.32
420.852	754.01
421.228	776.83
421.605	791.52
421.982	796.49
422.358	830.39
422.735	850.95
423.111	836.04
423.488	846.21
423.864	857.05
424.241	885.98
424.617	917.62
424.994	899.54
425.37	901.8
425.746	933.44
426.123	967.56
426.499	966.43
426.875	985.19
427.251	998.74
427.627	1020.21
428.003	1033.77
428.379	1021.34
428.756	1038.29
429.132	1038.52
429.507	1054.56
429.883	1093.66
430.259	1085.97
430.635	1101.12
431.011	1102.92
431.387	1115.13
431.763	1153.77
432.138	1145.41
432.514	1198.74
432.89	1198.51
433.265	1233.77
433.641	1255.01
434.016	1283.03
434.392	1280.55
434.767	1310.15
435.143	1317.61
435.518	1367.1
435.894	1373.42
436.269	1413.88
436.644	1405.06
437.02	1475.12
437.395	1464.95
437.77	1506.08
438.145	1500.65
438.52	1530.71
438.895	1568.67
439.271	1602.8
439.646	1594.21
440.021	1643.02
440.395	1683.47
440.77	1658.61
441.145	1691.61
441.52	1700.42
441.895	1753.3
442.27	1746.3
442.645	1747.43
443.019	1794.2
443.394	1786.75
443.769	1836.46
444.143	1811.83
444.518	1870.59
444.892	1879.63
445.267	1846.18
445.641	1886.41
446.016	1899.74
446.39	1929.12
446.764	1928.21
447.139	1949
447.513	1973.18
447.887	1973.41
448.262	1974.76
448.636	1987.42
449.01	2019.51
449.384	2052.95
449.758	2071.03
450.132	2063.35
450.506	2100.64
450.88	2101.54
451.254	2137.47
451.628	2140.18
452.002	2154.42
452.376	2182.89
452.75	2226.96
453.123	2230.58
453.497	2254.76
453.871	2277.81
454.244	2313.29
454.618	2309.22
454.992	2348.09
455.365	2383.57
455.739	2425.83
456.112	2421.08
456.486	2447.29
456.859	2466.95
457.232	2523.22
457.606	2528.2
457.979	2545.82
458.352	2621.3
458.725	2627.4
459.099	2621.53
459.472	2677.34
459.845	2697.46
460.218	2715.31
460.591	2735.87
460.964	2766.83
461.337	2842.99
461.71	2862.2
462.083	2912.59
462.456	2864.01
462.829	2938.81
463.201	3022.42
463.574	2987.62
463.947	3037.56
464.32	3129.54
464.692	3090.89
465.065	3163.21
465.438	3183.55
465.81	3199.37
466.183	3245.24
466.555	3295.63
466.928	3313.94
467.3	3355.52
467.672	3418.57
468.045	3448.85
468.417	3491.11
468.789	3465.8
469.161	3511
469.534	3612.69
469.906	3656.53
470.278	3676.41
470.65	3697.21
471.022	3773.14
471.394	3842.96
471.766	3860.36
472.138	3915.05
472.51	3971.77
472.882	4037.54
473.253	4059.91
473.625	4115.27
473.997	4238.89
474.369	4218.77
474.74	4269.17
475.112	4320.92
475.484	4394.36
475.855	4487.01
476.227	4517.97
476.598	4588.26
476.97	4653.56
477.341	4774.24
477.713	4774.46
478.084	4807.01
478.455	4949.83
478.827	5008.58
479.198	5112.54
479.569	5115.02
479.94	5188.01
480.311	5262.14
480.682	5357.05
481.053	5491.28
481.424	5533.54
481.795	5607.21
482.166	5672.29
482.537	5738.73
482.908	5806.53
483.279	5872.97
483.65	5949.8
484.021	6058.05
484.391	6135.78
484.762	6163.81
485.133	6260.75
485.503	6301.66
485.874	6373.52
486.244	6485.38
486.615	6605.15
486.985	6685.83
487.356	6707.97
487.726	6736.22
488.097	6885.6
488.467	6905.03
488.837	7058.92
489.207	7129.21
489.578	7182.31
489.948	7204.01
490.318	7356.32
490.688	7380.95
491.058	7441.51
491.428	7545.47
491.798	7589.76
492.168	7797.89
492.538	7776.19
492.908	7790.2
493.278	7863.42
493.648	7935.06
494.017	8003.31
494.387	7994.27
494.757	8094.38
495.126	8188.61
495.496	8209.18
495.866	8279.01
496.235	8288.95
496.605	8460.24
496.974	8458.44
497.344	8455.72
497.713	8475.38
498.082	8529.85
498.452	8648.49
498.821	8595.61
499.19	8632.67
499.559	8775.94
499.928	8746.79
500.298	8734.81
500.667	8808.48
501.036	8849.16
501.405	8938.88
501.774	8960.34
502.143	9019.55
502.512	8989.27
502.88	8997.4
503.249	9046.89
503.618	9103.16
503.987	9129.38
504.356	9180.22
504.724	9134.8
505.093	9162.15
505.462	9154.46
505.83	9247.79
506.199	9323.05
506.567	9370.28
506.936	9323.05
507.304	9451.63
507.672	9437.39
508.041	9420.9
508.409	9450.95
508.777	9579.76
509.145	9588.58
509.514	9565.53
509.882	9624.51
510.25	9650.27
510.618	9664.51
510.986	9648.46
511.354	9763.03
511.722	9788.57
512.09	9810.72
512.458	9757.84
512.826	9833.31
513.193	9843.94
513.561	9789.47
513.929	9942.24
514.297	9918.28
514.664	9961.9
515.032	9909.47
515.4	10004.38
515.767	10003.93
516.135	10023.82
516.502	9932.52
516.869	10053.87
517.237	10037.6
517.604	10013.42
517.972	10066.98
518.339	10121.44
518.706	10086.87
519.073	10101.33
519.44	10094.32
519.808	10116.02
520.175	10149.24
520.542	10201.89
520.909	10311.04
521.276	10180.65
521.643	10220.2
522.009	10292.96
522.376	10323.47
522.743	10279.63
523.11	10367.76
523.477	10319.4
523.843	10353.08
524.21	10425.39
524.577	10494.09
524.943	10418.84
525.31	10403.47
525.676	10498.61
526.043	10531.6
526.409	10464.94
526.776	10554.43
527.142	10532.05
527.508	10596.23
527.874	10585.61
528.241	10573.18
528.607	10594.88
528.973	10629
529.339	10563.01
529.705	10617.25
530.071	10581.32
530.437	10610.7
530.803	10640.3
531.169	10669.23
531.535	10590.81
531.901	10630.36
532.267	10577.02
532.632	10571.15
532.998	10561.21
533.364	10582
533.73	10593.97
534.095	10558.49
534.461	10601.66
534.826	10553.52
535.192	10510.81
535.557	10517.36
535.923	10528.89
536.288	10449.34
536.653	10457.03
537.019	10466.07
537.384	10492.51
537.749	10480.76
538.114	10460.87
538.479	10382.68
538.845	10391.94
539.21	10290.03
539.575	10288.44
539.94	10296.13
540.305	10280.76
540.67	10238.95
541.034	10220.2
541.399	10210.71
541.764	10202.8
542.129	10188.56
542.494	10135.91
542.858	10114.66
543.223	10093.87
543.587	10107.88
543.952	10080.31
544.316	10069.69
544.681	10051.84
545.045	10065.17
545.41	10026.98
545.774	9976.81
546.138	9979.07
546.503	9909.25
546.867	9885.97
547.231	9996.93
547.595	9952.86
547.959	9912.41
548.324	9871.05
548.688	9844.84
549.052	9821.56
549.416	9796.71
549.779	9741.11
550.143	9705.41
550.507	9687.56
550.871	9664.28
551.235	9613.43
551.599	9678.29
551.962	9589.71
552.326	9535.7
552.689	9607.33
553.053	9475.58
553.417	9495.02
553.78	9550.38
554.143	9455.25
554.507	9498.18
554.87	9541.8
555.234	9549.71
555.597	9462.93
555.96	9493.66
556.323	9528.92
556.686	9386.32
557.05	9437.39
557.413	9447.56
557.776	9399.65
558.139	9396.26
558.502	9390.61
558.865	9417.96
559.228	9416.38
559.59	9372.54
559.953	9380.9
560.316	9485.3
560.679	9412.99
561.041	9392.42
561.404	9404.85
561.767	9459.54
562.129	9344.74
562.492	9441.91
562.854	9423.83
563.217	9371.86
563.579	9480.33
563.941	9465.19
564.304	9492.08
564.666	9495.02
565.028	9494.57
565.39	9444.62
565.753	9485.98
566.115	9529.14
566.477	9525.98
566.839	9532.08
567.201	9519.42
567.563	9519.2
567.925	9655.69
568.287	9576.37
568.648	9591.29
569.01	9625.18
569.372	9685.52
569.734	9632.19
570.095	9624.73
570.457	9650.27
570.819	9722.58
571.18	9690.49
571.542	9709.48
571.903	9793.77
572.265	9745.18
572.626	9805.97
572.987	9778.18
573.349	9731.17
573.71	9809.81
574.071	9798.29
574.432	9828.8
574.794	9857.27
575.155	9805.07
575.516	9863.14
575.877	9942.92
576.238	9879.42
576.599	9954.22
576.96	9912.63
577.32	9885.97
577.681	9857.04
578.042	9979.3
578.403	9908.79
578.763	9974.33
579.124	10014.78
579.485	9979.75
579.845	9991.28
580.206	9968.45
580.566	9984.5
580.927	10020.65
581.287	10052.52
581.648	10042.35
582.008	10054.55
582.368	10110.82
582.728	10094.55
583.089	10085.06
583.449	10067.43
583.809	10023.82
584.169	10092.07
584.529	10119.18
584.889	10182.68
585.249	10097.94
585.609	10076.92
585.969	10086.19
586.329	10139.52
586.688	10148.11
587.048	10172.97
587.408	10099.52
587.768	10196.02
588.127	10090.26
588.487	10170.26
588.846	10225.17
589.206	10153.31
589.565	10175.45
589.925	10211.16
590.284	10184.04
590.643	10104.72
591.003	10229.46
591.362	10198.5
591.721	10187.88
592.08	10203.7
592.44	10224.04
592.799	10195.57
593.158	10221.1
593.517	10194.66
593.876	10241.21
594.235	10159.18
594.593	10267.88
594.952	10254.55
595.311	10275.11
595.67	10264.94
596.029	10287.54
596.387	10329.35
596.746	10262
597.104	10280.08
597.463	10316.69
597.822	10318.27
598.18	10225.17
598.538	10258.84
598.897	10313.08
599.255	10247.77
599.613	10432.62
599.972	10334.09
600.33	10388.1
600.688	10308.78
601.046	10339.29
601.404	10384.26
601.762	10322.79
602.12	10396.01
602.478	10329.12
602.836	10427.88
603.194	10323.02
603.552	10324.83
603.91	10297.48
604.268	10398.27
604.625	10348.78
604.983	10394.88
605.341	10307.43
605.698	10353.3
606.056	10422.9
606.413	10416.8
606.771	10481.66
607.128	10366.63
607.485	10379.06
607.843	10412.96
608.2	10406.63
608.557	10430.36
608.914	10392.62
609.272	10450.02
609.629	10515.78
609.986	10563.92
610.343	10467.87
610.7	10512.85
611.057	10537.25
611.414	10496.57
611.771	10542.67
612.127	10550.36
612.484	10550.58
612.841	10518.27
613.198	10542.9
613.554	10564.14
613.911	10637.81
614.267	10598.49
614.624	10556.46
614.98	10577.48
615.337	10584.71
615.693	10608.89
616.05	10610.92
616.406	10677.36
616.762	10551.94
617.118	10564.14
617.475	10633.29
617.831	10678.04
618.187	10668.77
618.543	10652.05
618.899	10723.23
619.255	10661.99
619.611	10677.13
619.967	10685.72
620.323	10655.67
620.678	10612.05
621.034	10746.96
621.39	10615.22
621.746	10596.01
622.101	10781.54
622.457	10638.72
622.812	10718.49
623.168	10759.17
623.523	10719.62
623.879	10789.67
624.234	10709.68
624.589	10722.33
624.945	10719.85
625.3	10730.24
625.655	10692.95
626.01	10656.57
626.365	10739.73
626.72	10682.56
627.075	10619.73
627.43	10642.56
627.785	10691.6
628.14	10697.92
628.495	10670.81
628.85	10650.69
629.205	10649.34
629.559	10643.01
629.914	10626.74
630.269	10623.8
630.623	10703.35
630.978	10604.14
631.332	10638.27
631.687	10660.64
632.041	10600.07
632.396	10612.96
632.75	10578.38
633.104	10503.81
633.459	10514.43
633.813	10536.57
634.167	10498.16
634.521	10490.02
634.875	10548.1
635.229	10471.04
635.583	10387.88
635.937	10383.81
636.291	10416.12
636.645	10434.66
636.999	10445.05
637.352	10400.31
637.706	10311.49
638.06	10437.37
638.413	10373.19
638.767	10405.05
639.121	10327.31
639.474	10275.11
639.828	10330.93
640.181	10293.42
640.534	10250.48
640.888	10210.25
641.241	10276.24
641.594	10205.51
641.947	10293.64
642.301	10207.99
642.654	10224.94
643.007	10170.93
643.36	10170.93
643.713	10175.68
644.066	10228.56
644.419	10155.79
644.771	10099.3
645.124	9988.79
645.477	10034.21
645.83	9944.05
646.182	9925.06
646.535	9845.07
646.888	9894.1
647.24	9842.35
647.593	9861.34
647.945	9834.67
648.298	9843.48
648.65	9769.14
649.002	9755.58
649.355	9793.77
649.707	9837.16
650.059	9836.93
650.411	9970.71
650.763	10006.64
651.115	10066.98
651.467	9996.02
651.819	10024.72
652.171	10059.52
652.523	10048
652.875	10016.13
653.227	9946.31
653.578	10064.95
653.93	10033.99
654.282	9972.29
654.633	9963.25
654.985	10054.78
655.337	9971.62
655.688	10002.12
656.039	10091.61
656.391	9962.13
656.742	10015.46
657.094	10009.13
657.445	10067.66
657.796	10009.13
658.147	9951.5
658.498	9991.95
658.849	10006.87
659.2	9979.3
659.551	9999.64
659.902	10026.53
660.253	9991.95
660.604	10070.14
660.955	9986.31
661.306	10014.33
661.656	10050.03
662.007	10078.51
662.358	10022.24
662.708	10092.74
663.059	10047.32
663.409	9940.43
663.76	10066.3
664.11	10086.42
664.461	10059.98
664.811	10087.09
665.161	10079.41
665.511	10099.07
665.862	9980.43
666.212	10059.98
666.562	10120.76
666.912	10033.76
667.262	10036.25
667.612	10066.3
667.962	10061.11
668.312	10077.83
668.662	10055.68
669.011	10050.48
669.361	10038.28
669.711	10019.07
670.06	10050.48
670.41	9945.63
670.76	9963.03
671.109	9949.47
671.459	10016.13
671.808	9998.51
672.157	9981.33
672.507	9883.94
672.856	9897.72
673.205	9975.46
673.554	10022.24
673.904	9954.89
674.253	9997.83
674.602	9916.02
674.951	9787.44
675.3	9715.58
675.649	9886.87
675.998	9864.05
676.346	9855.24
676.695	9969.58
677.044	9822.24
677.393	9828.8
677.741	9897.95
678.09	9826.08
678.438	9808
678.787	9802.81
679.135	9817.95
679.484	9818.63
679.832	9791.96
680.181	9775.69
680.529	9729.81
680.877	9718.06
681.225	9728.01
681.573	9726.43
681.922	9702.02
682.27	9653.43
682.618	9621.12
682.966	9537.05
683.314	9714.22
683.661	9611.63
684.009	9596.94
684.357	9568.01
684.705	9572.76
685.053	9571.4
685.4	9545.64
685.748	9439.88
686.095	9477.17
686.443	9390.61
686.79	9367.34
687.138	9380.67
687.485	9421.57
687.832	9384.29
688.18	9330.05
688.527	9330.5
688.874	9321.01
689.221	9276.27
689.568	9248.25
689.915	9179.32
690.262	9219.09
690.609	9164.86
690.956	9142.94
691.303	9092.09
691.65	9064.75
691.997	9050.28
692.344	9039.66
692.69	8986.11
693.037	9036.73
693.383	8888.71
693.73	8893.9
694.077	8906.33
694.423	8844.64
694.769	8835.15
695.116	8804.87
695.462	8797.18
695.808	8696.17
696.155	8739.78
696.501	8647.36
696.847	8677.19
697.193	8563.29
697.539	8611.88
697.885	8583.4
698.231	8528.72
698.577	8474.93
698.923	8493.24
699.269	8418.89
699.614	8391.54
699.96	8396.97
700.306	8298.89
700.651	8368.04
700.997	8309.74
701.342	8253.7
701.688	8225
702.033	8230.87
702.379	8217.99
702.724	8176.18
703.069	8180.48
703.415	8047.37
703.76	8152
704.105	8036.98
704.45	8051.21
704.795	8014.38
705.14	7920.37
705.485	7966.47
705.83	7948.39
706.175	7913.37
706.52	7882.41
706.865	7867.72
707.209	7862.07
707.554	7788.62
707.899	7820.94
708.243	7754.27
708.588	7733.03
708.932	7691.9
709.277	7674.95
709.621	7680.83
709.966	7620.49
710.31	7681.51
710.654	7561.96
710.998	7594.5
711.342	7639.7
711.687	7536.65
712.031	7483.77
712.375	7488.29
712.719	7560.83
713.063	7485.58
713.407	7522.42
713.75	7491
714.094	7447.39
714.438	7433.15
714.782	7476.54
715.125	7416.43
715.469	7388.86
715.812	7349.54
716.156	7319.03
716.499	7371.68
716.843	7356.77
717.186	7281.29
717.53	7293.27
717.873	7248.3
718.216	7328.07
718.559	7195.42
718.902	7263.66
719.246	7181.63
719.589	7239.03
719.932	7185.25
720.275	7226.6
720.617	7213.27
720.96	7184.57
721.303	7147.96
721.646	7171.01
721.989	7142.09
722.331	7130.11
722.674	7138.02
723.016	7179.37
723.359	7106.61
723.701	7112.71
724.044	7113.39
724.386	7051.47
724.729	7037.23
725.071	7031.81
725.413	7094.4
725.755	7103.67
726.097	7036.78
726.439	6954.29
726.782	7034.74
727.124	7000.62
727.465	7012.37
727.807	6990.68
728.149	6976.89
728.491	6995.2
728.833	7056.44
729.175	6980.73
729.516	7014.86
729.858	6977.57
730.199	6993.16
730.541	6936.89
730.882	6921.75
731.224	7028.87
731.565	6925.82
731.906	6980.96
732.248	7016.21
732.589	6962.2
732.93	6950.68
733.271	6946.61
733.612	6929.89
733.953	6972.83
734.294	6950.9
734.635	6932.15
734.976	6957.23
735.317	6934.18
735.658	6968.53
735.999	6940.28
736.339	6973.96
736.68	6962.66
737.021	6946.84
737.361	6931.02
737.702	7029.09
738.042	6966.27
738.383	6946.84
738.723	6982.32
739.063	6938.25
739.404	7023.9
739.744	6994.07
740.084	6984.8
740.424	7035.2
740.764	7026.16
741.104	7048.98
741.444	7040.17
741.784	6989.32
742.124	7035.65
742.464	7033.16
742.804	7065.48
743.143	7062.09
743.483	7106.38
743.823	7102.99
744.162	7150
744.502	7206.72
744.841	7184.34
745.181	7196.55
745.52	7225.93
745.86	7253.5
746.199	7307.51
746.538	7362.42
746.877	7409.2
747.216	7432.93
747.556	7406.71
747.895	7490.78
748.234	7523.77
748.573	7581.62
748.911	7615.52
749.25	7684.44
749.589	7699.81
749.928	7870.2
750.267	7848.06
750.605	7942.07
750.944	7950.88
751.283	8041.72
751.621	8149.52
751.96	8154.26
752.298	8255.05
752.636	8401.94
752.975	8440.13
753.313	8481.49
753.651	8645.78
753.989	8674.48
754.327	8773.23
754.666	8850.97
755.004	9012.09
755.342	9126.67
755.679	9258.87
756.017	9309.03
756.355	9575.69
756.693	9596.71
757.031	9752.64
757.368	9819.98
757.706	9998.28
758.044	10129.35
758.381	10344.26
758.719	10389.46
759.056	10554.65
759.394	10667.64
759.731	10848.88
760.068	10960.29
760.405	11122.55
760.743	11305.82
761.08	11428.98
761.417	11563.66
761.754	11803.66
762.091	12000.94
762.428	12068.74
762.765	12197.55
