Data from hue_70_FLMS001491_31.txt Node
Date: Mon Feb 06 15:20:45 GMT 2017
User: dcchb
Spectrometer: FLMS00149
Trigger mode: 0
Integration Time (sec): 2.000000E-2
Scans to average: 10
Electric dark correction enabled: true
Nonlinearity correction enabled: false
Boxcar width: 0
XAxis mode: Wavelengths
Number of Pixels in Spectrum: 2048
>>>>>Begin Spectral Data<<<<<
341.393	3.73
341.776	3.73
342.16	3.73
342.543	-69.72
342.927	-56.83
343.31	-59.09
343.693	-75.37
344.077	-57.06
344.46	-71.52
344.843	-58.87
345.226	-46.67
345.61	-49.6
345.993	-45.99
346.376	10.73
346.759	24.52
347.142	22.94
347.525	43.5
347.908	63.84
348.291	90.51
348.674	86.44
349.057	121.69
349.44	118.53
349.823	146.32
350.206	161.01
350.588	181.35
350.971	208.92
351.354	218.64
351.737	241.24
352.119	257.28
352.502	262.7
352.884	262.25
353.267	270.39
353.65	280.56
354.032	287.11
354.414	310.61
354.797	322.59
355.179	308.58
355.562	306.09
355.944	325.98
356.326	329.37
356.709	330.05
357.091	333.44
357.473	337.05
357.855	347.9
358.238	353.55
358.62	336.6
359.002	351.97
359.384	351.29
359.766	351.74
360.148	345.87
360.53	338.86
360.912	339.54
361.294	328.69
361.676	346.54
362.057	333.21
362.439	337.51
362.821	330.27
363.203	299.54
363.584	319.65
363.966	329.82
364.348	313.33
364.729	328.01
365.111	309.94
365.493	320.1
365.874	318.97
366.256	311.97
366.637	336.38
367.019	318.52
367.4	324.85
367.781	327.56
368.163	287.56
368.544	323.72
368.925	316.49
369.306	314.91
369.688	318.52
370.069	325.75
370.45	316.71
370.831	322.82
371.212	315.81
371.593	296.6
371.974	321.91
372.355	318.07
372.736	335.92
373.117	309.71
373.498	317.62
373.879	328.92
374.26	313.1
374.641	318.3
375.021	304.06
375.402	311.29
375.783	323.72
376.163	322.36
376.544	332.31
376.925	331.86
377.305	324.62
377.686	332.31
378.066	319.2
378.447	365.75
378.827	323.95
379.208	317.84
379.588	324.4
379.968	328.69
380.349	344.74
380.729	347.9
381.109	336.6
381.489	341.57
381.87	323.95
382.25	336.83
382.63	312.42
383.01	330.95
383.39	337.51
383.77	341.57
384.15	331.18
384.53	330.5
384.91	346.32
385.29	337.96
385.67	359.2
386.049	333.44
386.429	331.63
386.809	346.54
387.189	362.14
387.568	337.51
387.948	344.51
388.328	331.86
388.707	333.21
389.087	352.42
389.466	350.84
389.846	360.1
390.225	344.28
390.605	363.49
390.984	367.56
391.363	361.23
391.743	342.25
392.122	358.97
392.501	359.88
392.881	362.59
393.26	361.69
393.639	361.01
394.018	388.8
394.397	363.49
394.776	361.91
395.155	369.59
395.534	384.74
395.913	378.63
396.292	387.45
396.671	388.13
397.05	362.59
397.429	378.86
397.808	374.11
398.186	372.08
398.565	376.37
398.944	367.33
399.323	381.12
399.701	357.62
400.08	371.85
400.458	378.63
400.837	396.26
401.215	390.84
401.594	389.03
401.972	389.71
402.351	398.52
402.729	384.06
403.107	394.45
403.486	398.75
403.864	394.9
404.242	402.14
404.62	384.28
404.999	390.16
405.377	408.24
405.755	406.2
406.133	408.01
406.511	398.52
406.889	398.29
407.267	415.7
407.645	393.55
408.023	404.62
408.401	425.64
408.779	407.79
409.156	391.06
409.534	406.2
409.912	420.67
410.29	417.28
410.667	435.13
411.045	445.98
411.422	441.23
411.8	424.51
412.178	413.44
412.555	433.77
412.933	432.87
413.31	447.56
413.687	460.67
414.065	469.71
414.442	443.04
414.819	440.33
415.197	456.6
415.574	478.97
415.951	455.02
416.328	469.48
416.705	482.59
417.082	466.99
417.46	485.3
417.837	495.69
418.214	465.19
418.591	462.25
418.967	497.5
419.344	471.29
419.721	481.68
420.098	496.37
420.475	461.8
420.852	500.44
421.228	504.05
421.605	494.11
421.982	504.96
422.358	509.93
422.735	487.11
423.111	488.91
423.488	516.48
423.864	539.31
424.241	513.09
424.617	532.08
424.994	518.74
425.37	528.91
425.746	547.22
426.123	533.66
426.499	522.36
426.875	534.56
427.251	534.56
427.627	539.76
428.003	529.14
428.379	530.27
428.756	549.93
429.132	548.35
429.507	563.49
429.883	565.52
430.259	574.34
430.635	564.39
431.011	604.84
431.387	608.46
431.763	594.45
432.138	579.53
432.514	598.52
432.89	588.12
433.265	606.65
433.641	611.4
434.016	615.24
434.392	617.72
434.767	626.09
435.143	623.6
435.518	608.68
435.894	639.19
436.269	644.39
436.644	633.77
437.02	662.24
437.395	629.25
437.77	672.19
438.145	658.17
438.52	678.51
438.895	670.15
439.271	671.51
439.646	685.74
440.021	687.55
440.395	700.43
440.77	706.31
441.145	713.99
441.52	716.25
441.895	715.12
442.27	698.17
442.645	714.67
443.019	713.31
443.394	706.54
443.769	739.75
444.143	728.46
444.518	728.46
444.892	733.65
445.267	731.17
445.641	729.59
446.016	755.12
446.39	738.85
446.764	757.38
447.139	749.92
447.513	753.09
447.887	743.82
448.262	790.6
448.636	771.39
449.01	773.43
449.384	776.59
449.758	779.53
450.132	808.68
450.506	791.28
450.88	789.7
451.254	790.37
451.628	818.17
452.002	824.5
452.376	828.57
452.75	840.32
453.123	837.15
453.497	857.72
453.871	864.72
454.244	868.34
454.618	896.13
454.992	884.61
455.365	885.06
455.739	890.94
456.112	889.36
456.486	901.56
456.859	889.58
457.232	908.56
457.606	919.64
457.979	939.07
458.352	944.49
458.725	968.68
459.099	976.81
459.472	1000.76
459.845	1009.35
460.218	1035.34
460.591	1001.67
460.964	1035.79
461.337	1035.34
461.71	1048.67
462.083	1061.55
462.456	1065.62
462.829	1066.98
463.201	1091.84
463.574	1109.91
463.947	1131.83
464.32	1136.81
464.692	1125.96
465.065	1139.29
465.438	1186.52
465.81	1191.72
466.183	1181.1
466.555	1206.86
466.928	1226.3
467.3	1255.22
467.672	1265.62
468.045	1284.82
468.417	1297.25
468.789	1325.05
469.161	1348.33
469.534	1375.22
469.906	1407.76
470.278	1438.04
470.65	1429.45
471.022	1461.32
471.394	1479.17
471.766	1496.8
472.138	1523.69
472.51	1581.99
472.882	1624.93
473.253	1653.85
473.625	1672.61
473.997	1712.16
474.369	1737.02
474.74	1764.36
475.112	1813.4
475.484	1841.19
475.855	1899.5
476.227	1933.17
476.598	1979.04
476.97	2007.74
477.341	2083.22
477.713	2160.51
478.084	2158.47
478.455	2268.98
478.827	2299.04
479.198	2400.95
479.569	2385.81
479.94	2521.85
480.311	2538.58
480.682	2656.31
481.053	2778.35
481.424	2793.49
481.795	2880.49
482.166	2977.89
482.537	3094.95
482.908	3141.5
483.279	3219.69
483.65	3294.49
484.021	3396.86
484.391	3519.34
484.762	3593.46
485.133	3670.52
485.503	3790.07
485.874	3915.94
486.244	3996.39
486.615	4131.3
486.985	4225.09
487.356	4433.44
487.726	4458.75
488.097	4576.49
488.467	4643.15
488.837	4848.8
489.207	5022.35
489.578	5139.19
489.948	5235.46
490.318	5386.64
490.688	5455.56
491.058	5638.83
491.428	5756.12
491.798	5847.64
492.168	6042.67
492.538	6178.26
492.908	6278.82
493.278	6454.18
493.648	6549.32
494.017	6726.26
494.387	6795.64
494.757	6914.96
495.126	7141.39
495.496	7231.79
495.866	7353.59
496.235	7529.86
496.605	7653.92
496.974	7767.82
497.344	7954.71
497.713	8106.57
498.082	8202.38
498.452	8342.72
498.821	8478.31
499.19	8556.72
499.559	8775.02
499.928	8866.32
500.298	8976.6
500.667	9154
501.036	9192.41
501.405	9367.1
501.774	9419.75
502.143	9530.48
502.512	9678.5
502.88	9823.36
503.249	9923.47
503.618	10033.07
503.987	10170.24
504.356	10271.03
504.724	10426.28
505.093	10491.59
505.462	10639.61
505.83	10727.51
506.199	10816.1
506.567	11077.34
506.936	11098.13
507.304	11215.86
507.672	11326.82
508.041	11376.54
508.409	11544.89
508.777	11651.78
509.145	11816.75
509.514	11820.14
509.882	11957.99
510.25	12054.71
510.618	12226.46
510.986	12202.5
511.354	12421.03
511.722	12515.04
512.09	12652.89
512.458	12647.69
512.826	12848.36
513.193	12933.33
513.561	12990.96
513.929	13118.86
514.297	13244.28
514.664	13396.37
515.032	13412.42
515.4	13586.2
515.767	13604.95
516.135	13681.34
516.502	13629.81
516.869	13917.26
517.237	13930.37
517.604	13979.63
517.972	14159.29
518.339	14195.9
518.706	14244.48
519.073	14371.49
519.44	14447.64
519.808	14630.69
520.175	14556.57
520.542	14786.62
520.909	14901.87
521.276	14895.54
521.643	15065.93
522.009	15192.93
522.376	15241.97
522.743	15373.04
523.11	15428.86
523.477	15619.59
523.843	15697.33
524.21	15843.54
524.577	15813.03
524.943	15961.95
525.31	16030.2
525.676	16160.82
526.043	16259.57
526.409	16287.59
526.776	16436.07
527.142	16515.38
527.508	16559.9
527.874	16749.5
528.241	16721.03
528.607	16766
528.973	16904.75
529.339	16899.33
529.705	17186.33
530.071	17203.05
530.437	17251.18
530.803	17278.3
531.169	17356.27
531.535	17261.58
531.901	17504.29
532.267	17477.17
532.632	17515.36
532.998	17596.49
533.364	17653.66
533.73	17704.05
534.095	17848.23
534.461	17861.79
534.826	17916.7
535.192	17995.8
535.557	18038.51
535.923	17942.69
536.288	18151.73
536.653	18149.47
537.019	18076.47
537.384	18174.55
537.749	18164.38
538.114	18174.32
538.479	18175.91
538.845	18470.14
539.21	18295
539.575	18319.41
539.94	18292.29
540.305	18466.52
540.67	18324.6
541.034	18464.03
541.399	18507.2
541.764	18552.85
542.129	18653.86
542.494	18622.9
542.858	18581.77
543.223	18551.94
543.587	18719.39
543.952	18586.29
544.316	18690.47
544.681	18682.56
545.045	18752.84
545.41	18769.34
545.774	18793.52
546.138	18850.24
546.503	18865.38
546.867	18857.92
547.231	18954.87
547.595	18994.87
547.959	18966.39
548.324	18874.64
548.688	18951.93
549.052	18969.33
549.416	18990.57
549.779	18988.31
550.143	19103.11
550.507	19123.9
550.871	19165.94
551.235	19056.79
551.599	19240.29
551.962	19189.44
552.326	19233.51
552.689	19274.63
553.053	19224.01
553.417	19314.86
553.78	19501.07
554.143	19389.89
554.507	19431.47
554.87	19493.39
555.234	19632.59
555.597	19512.82
555.96	19551.46
556.323	19619.48
556.686	19527.51
557.05	19714.85
557.413	19771.8
557.776	19714.4
558.139	19892.7
558.502	19849.31
558.865	19933.37
559.228	20009.98
559.59	20054.73
559.953	19999.36
560.316	20123.2
560.679	20247.04
561.041	20168.62
561.404	20300.82
561.767	20395.73
562.129	20376.75
562.492	20532.23
562.854	20542.17
563.217	20552.11
563.579	20625.79
563.941	20716.4
564.304	20695.39
564.666	20781.04
565.028	20891.77
565.39	20903.29
565.753	21071.2
566.115	21099.22
566.477	21190.52
566.839	21136.73
567.201	21188.26
567.563	21225.32
567.925	21365.65
568.287	21371.3
568.648	21454.46
569.01	21626.21
569.372	21597.06
569.734	21499.43
570.095	21729.71
570.457	21716.38
570.819	21728.13
571.18	21782.37
571.542	21791.86
571.903	21909.59
572.265	21908.92
572.626	21984.62
572.987	22053.09
573.349	21979.42
573.71	22118.18
574.071	22196.82
574.432	22150.94
574.794	22406.08
575.155	22294.44
575.516	22365.4
575.877	22299.19
576.238	22451.27
576.599	22457.6
576.96	22475.91
577.32	22430.71
577.681	22555.45
578.042	22601.78
578.403	22540.76
578.763	22607.65
579.124	22656.24
579.485	22759.06
579.845	22775.11
580.206	22680.42
580.566	22669.35
580.927	22771.04
581.287	22835.44
581.648	22762
582.008	22857.59
582.368	22797.71
582.728	22805.62
583.089	22817.37
583.449	22805.39
583.809	22895.33
584.169	22915.89
584.529	22919.51
584.889	22916.35
585.249	22849.68
585.609	22735.79
585.969	22935.1
586.329	22816.69
586.688	22836.57
587.048	22941.88
587.408	22849.46
587.768	22880.42
588.127	22894.88
588.487	22734.43
588.846	23022.56
589.206	22860.75
589.565	22797.48
589.925	23008.77
590.284	22855.56
590.643	22869.57
591.003	22946.63
591.362	22969.23
591.721	22874.54
592.08	22893.75
592.44	22988.44
592.799	23027.3
593.158	22862.34
593.517	22954.09
593.876	22884.03
594.235	22962
594.593	22914.99
594.952	22965.16
595.311	22899.4
595.67	22867.08
596.029	23034.76
596.387	23007.42
596.746	23035.44
597.104	22967.19
597.463	22893.97
597.822	23070.69
598.18	23009.23
598.538	22879.96
598.897	23019.62
599.255	22886.29
599.613	23228.65
599.972	23012.16
600.33	23065.27
600.688	22973.75
601.046	23005.16
601.404	23276.11
601.762	23095.32
602.12	23211.71
602.478	23157.92
602.836	23279.05
603.194	23180.52
603.552	23075.89
603.91	23048.32
604.268	23330.8
604.625	23255.09
604.983	23404.7
605.341	23216
605.698	23404.02
606.056	23374.19
606.413	23360.18
606.771	23458.25
607.128	23418.48
607.485	23359.95
607.843	23419.61
608.2	23478.59
608.557	23541.87
608.914	23530.34
609.272	23462.09
609.629	23671.58
609.986	23812.14
610.343	23580.06
610.7	23832.71
611.057	23720.39
611.414	23735.53
611.771	23791.58
612.127	23712.48
612.484	23876.55
612.841	23985.02
613.198	23783.22
613.554	23896.89
613.911	23928.52
614.267	24048.97
614.624	23889.43
614.98	24045.81
615.337	24196.09
615.693	24020.72
616.05	24098.69
616.406	24224.56
616.762	24208.97
617.118	24066.82
617.475	24236.54
617.831	24242.19
618.187	24181.85
618.543	24293.71
618.899	24327.83
619.255	24427.27
619.611	24313.82
619.967	24260.72
620.323	24448.06
620.678	24462.97
621.034	24349.3
621.39	24394.73
621.746	24347.27
622.101	24594.04
622.457	24442.41
622.812	24418
623.168	24591.1
623.523	24559.02
623.879	24671.33
624.234	24556.08
624.589	24493.03
624.945	24620.03
625.3	24621.84
625.655	24554.95
626.01	24580.26
626.365	24625.91
626.72	24546.36
627.075	24523.54
627.43	24560.82
627.785	24454.16
628.14	24549.75
628.495	24584.55
628.85	24593.59
629.205	24493.71
629.559	24583.2
629.914	24530.54
630.269	24592.46
630.623	24483.09
630.978	24576.19
631.332	24591.33
631.687	24522.86
632.041	24511.56
632.396	24491.9
632.75	24389.98
633.104	24464.1
633.459	24312.02
633.813	24440.83
634.167	24303.88
634.521	24287.16
634.875	24405.35
635.229	24285.35
635.583	24140.72
635.937	24350.89
636.291	24125.13
636.645	24155.41
636.999	24288.51
637.352	24186.82
637.706	24162.19
638.06	24206.03
638.413	24143.66
638.767	24118.57
639.121	24104.79
639.474	23907.06
639.828	23973.04
640.181	24044
640.534	24049.88
640.888	24057.11
641.241	23913.38
641.594	24042.42
641.947	24036.09
642.301	23862.76
642.654	23970.56
643.007	24020.95
643.36	23835.19
643.713	23813.27
644.066	23974.17
644.419	23711.58
644.771	23626.38
645.124	23505.48
645.477	23486.73
645.83	23238.82
646.182	23173.29
646.535	23031.37
646.888	23108.88
647.24	22952.73
647.593	23065.95
647.945	23142.1
648.298	23003.58
648.65	23018.94
649.002	22892.39
649.355	23055.33
649.707	23014.2
650.059	22962
650.411	23281.08
650.763	23373.51
651.115	23502.55
651.467	23449.67
651.819	23468.87
652.171	23438.59
652.523	23392.49
652.875	23296.9
653.227	23377.58
653.578	23511.36
653.93	23487.18
654.282	23441.76
654.633	23341.87
654.985	23404.47
655.337	23413.28
655.688	23369.44
656.039	23420.06
656.391	23275.21
656.742	23264.59
657.094	23364.47
657.445	23416.45
657.796	23311.82
658.147	23302.1
658.498	23382.32
658.849	23316.79
659.2	23277.92
659.551	23258.94
659.902	23413.73
660.253	23319.27
660.604	23344.58
660.955	23264.36
661.306	23309.56
661.656	23314.53
662.007	23292.38
662.358	23288.31
662.708	23280.18
663.059	23214.64
663.409	23132.39
663.76	23325.15
664.11	23371.7
664.461	23322.66
664.811	23394.98
665.161	23336.9
665.511	23245.15
665.862	23288.77
666.212	23329.67
666.562	23334.87
666.912	23256
667.262	23359.72
667.612	23349.1
667.962	23220.75
668.312	23309.78
668.662	23354.08
669.011	23293.96
669.361	23317.92
669.711	23305.04
670.06	23188.88
670.41	23215.55
670.76	23276.56
671.109	23305.94
671.459	23174.64
671.808	23128.54
672.157	23239.5
672.507	23075.21
672.856	23041.99
673.205	23131.71
673.554	23079.51
673.904	23154.53
674.253	23164.25
674.602	23062.56
674.951	22782.34
675.3	22630.03
675.649	23170.35
675.998	23055.33
676.346	22959.28
676.695	23021.65
677.044	22917.7
677.393	22914.31
677.741	22912.5
678.09	22886.29
678.438	22878.38
678.787	22970.58
679.135	22911.6
679.484	22689.23
679.832	22798.84
680.181	22771.27
680.529	22788.67
680.877	22626.41
681.225	22717.26
681.573	22827.31
681.922	22557.49
682.27	22616.47
682.618	22526.53
682.966	22576.47
683.314	22640.42
683.661	22417.38
684.009	22406.3
684.357	22351.39
684.705	22230.04
685.053	22295.12
685.4	22239.08
685.748	22200.66
686.095	22031.17
686.443	21952.53
686.79	21953.66
687.138	21998.63
687.485	21938.29
687.832	21910.05
688.18	21902.59
688.527	21725.19
688.874	21748.69
689.221	21656.04
689.568	21684.97
689.915	21658.07
690.262	21585.08
690.609	21464.18
690.956	21433.9
691.303	21375.82
691.65	21212.66
691.997	21290.85
692.344	21201.36
692.69	21071.42
693.037	21157.97
693.383	21070.52
693.73	21012.22
694.077	20904.2
694.423	20980.8
694.769	20925.44
695.116	20845.67
695.462	20786.46
695.808	20701.04
696.155	20750.75
696.501	20500.14
696.847	20550.53
697.193	20440.03
697.539	20441.61
697.885	20351.89
698.231	20127.49
698.577	20176.53
698.923	20090.66
699.269	20071.45
699.614	19891.12
699.96	19898.57
700.306	19918.69
700.651	19852.92
700.997	19784
701.342	19701.97
701.688	19687.73
702.033	19540.84
702.379	19528.87
702.724	19481.63
703.069	19494.52
703.415	19276.89
703.76	19224.69
704.105	19206.84
704.45	19274.41
704.795	19022.89
705.14	19088.42
705.485	19048.2
705.83	19044.58
706.175	19013.4
706.52	18926.4
706.865	18839.17
707.209	18854.76
707.554	18692.28
707.899	18743.35
708.243	18684.82
708.588	18603.01
708.932	18485.5
709.277	18436.69
709.621	18496.12
709.966	18300.87
710.31	18415.22
710.654	18194.44
710.998	18278.5
711.342	18349.46
711.687	18231.95
712.031	18095.91
712.375	17986.53
712.719	18143.14
713.063	18115.79
713.407	18076.7
713.75	17936.59
714.094	18046.19
714.438	17884.39
714.782	17890.04
715.125	17772.53
715.469	17881.9
715.812	17647.33
716.156	17728.46
716.499	17615.92
716.843	17657.73
717.186	17507.9
717.53	17629.03
717.873	17596.49
718.216	17553.55
718.559	17503.83
718.902	17359.2
719.246	17435.81
719.589	17351.3
719.932	17361.24
720.275	17318.08
720.617	17366.21
720.96	17286.44
721.303	17317.4
721.646	17312.43
721.989	17138.19
722.331	17264.52
722.674	17151.3
723.016	17191.07
723.359	17195.82
723.701	17096.16
724.044	17060
724.386	16916.96
724.729	17056.61
725.071	16990.17
725.413	16990.85
725.755	16927.8
726.097	16897.52
726.439	16880.8
726.782	16860.69
727.124	16863.4
727.465	16822.27
727.807	16736.85
728.149	16732.55
728.491	16827.69
728.833	16825.89
729.175	16735.72
729.516	16705.89
729.858	16725.32
730.199	16692.56
730.541	16648.04
730.882	16629.96
731.224	16731.2
731.565	16575.72
731.906	16613.69
732.248	16655.49
732.589	16580.02
732.93	16519.9
733.271	16460.92
733.612	16521.03
733.953	16545.21
734.294	16479.68
734.635	16447.59
734.976	16499.11
735.317	16458.66
735.658	16471.09
735.999	16422.96
736.339	16467.7
736.68	16432.45
737.021	16421.83
737.361	16311.1
737.702	16444.43
738.042	16339.34
738.383	16392.22
738.723	16383.86
739.063	16336.63
739.404	16418.89
739.744	16383.86
740.084	16339.57
740.424	16425.44
740.764	16226.58
741.104	16361.26
741.444	16283.75
741.784	16344.09
742.124	16329.63
742.464	16281.04
742.804	16313.81
743.143	16357.87
743.483	16384.31
743.823	16373.69
744.162	16365.33
744.502	16321.94
744.841	16312
745.181	16420.02
745.52	16381.6
745.86	16506.35
746.199	16434.71
746.538	16411.66
746.877	16463.63
747.216	16560.81
747.556	16553.35
747.895	16468.83
748.234	16533.24
748.573	16524.65
748.911	16603.07
749.25	16577.98
749.589	16695.49
749.928	16725.77
750.267	16796.28
750.605	16692.1
750.944	16766.68
751.283	16857.07
751.621	16884.19
751.96	16829.28
752.298	16952.44
752.636	16977.07
752.975	17149.27
753.313	17093.67
753.651	17205.54
753.989	17200.11
754.327	17254.8
754.666	17198.98
755.004	17264.29
755.342	17371.86
755.679	17536.15
756.017	17484.4
756.355	17591.74
756.693	17646.43
757.031	17768.01
757.368	17691.85
