Data from hue_300_FLMS001491_00003.txt Node
Date: Tue Feb 07 15:49:38 GMT 2017
User: dcchb
Spectrometer: FLMS00149
Trigger mode: 0
Integration Time (sec): 2.000000E-2
Scans to average: 10
Electric dark correction enabled: true
Nonlinearity correction enabled: false
Boxcar width: 0
XAxis mode: Wavelengths
Number of Pixels in Spectrum: 2048
>>>>>Begin Spectral Data<<<<<
341.393	-6.67
341.776	-6.67
342.16	-6.67
342.543	-50.28
342.927	-51.86
343.31	-76.27
343.693	-43.28
344.077	-58.42
344.46	-45.76
344.843	-53.22
345.226	-31.75
345.61	-55.48
345.993	-12.09
346.376	-6.67
346.759	20.68
347.142	35.14
347.525	37.17
347.908	43.28
348.291	68.59
348.674	71.07
349.057	107
349.44	125.76
349.823	127.57
350.206	150.17
350.588	177.06
350.971	201.01
351.354	231.07
351.737	212.76
352.119	265.19
352.502	270.16
352.884	270.61
353.267	265.42
353.65	274.46
354.032	307.68
354.414	288.47
354.797	299.09
355.179	316.71
355.562	310.39
355.944	325.08
356.326	321.01
356.709	333.66
357.091	328.24
357.473	350.84
357.855	324.4
358.238	345.41
358.62	327.56
359.002	343.83
359.384	332.53
359.766	354.91
360.148	361.23
360.53	344.51
360.912	340.22
361.294	332.76
361.676	308.58
362.057	340.67
362.439	344.51
362.821	316.49
363.203	299.54
363.584	330.95
363.966	337.51
364.348	322.14
364.729	328.01
365.111	320.78
365.493	314.68
365.874	317.84
366.256	304.96
366.637	316.94
367.019	322.14
367.4	312.42
367.781	294.57
368.163	313.1
368.544	310.84
368.925	302.25
369.306	319.88
369.688	295.25
370.069	301.8
370.45	300.67
370.831	302.93
371.212	325.3
371.593	309.71
371.974	299.77
372.355	325.3
372.736	311.07
373.117	322.14
373.498	303.38
373.879	307.22
374.26	316.71
374.641	304.29
375.021	304.29
375.402	319.43
375.783	352.87
376.163	333.89
376.544	351.74
376.925	316.26
377.305	344.06
377.686	327.79
378.066	332.08
378.447	322.82
378.827	336.6
379.208	327.79
379.588	330.95
379.968	334.57
380.349	345.87
380.729	313.33
381.109	330.05
381.489	341.12
381.87	349.71
382.25	325.75
382.63	331.4
383.01	341.8
383.39	351.52
383.77	332.76
384.15	364.17
384.53	337.96
384.91	355.13
385.29	330.05
385.67	350.16
386.049	354
386.429	358.97
386.809	352.65
387.189	355.58
387.568	351.52
387.948	354.91
388.328	353.78
388.707	348.58
389.087	367.11
389.466	341.35
389.846	368.69
390.225	357.39
390.605	365.53
390.984	370.5
391.363	370.05
391.743	351.74
392.122	359.88
392.501	375.02
392.881	365.75
393.26	371.4
393.639	380.89
394.018	390.61
394.397	363.72
394.776	373.89
395.155	391.29
395.534	393.1
395.913	400.33
396.292	398.75
396.671	407.79
397.05	398.52
397.429	382.48
397.808	404.85
398.186	415.7
398.565	399.42
398.944	392.65
399.323	386.54
399.701	399.65
400.08	393.1
400.458	393.55
400.837	403.27
401.215	430.38
401.594	431.06
401.972	411.85
402.351	420.44
402.729	425.41
403.107	433.32
403.486	408.92
403.864	433.1
404.242	419.31
404.62	434.23
404.999	428.35
405.377	438.07
405.755	453.43
406.133	463.15
406.511	452.53
406.889	472.19
407.267	463.83
407.645	447.78
408.023	483.04
408.401	476.48
408.779	474.9
409.156	489.59
409.534	490.27
409.912	495.47
410.29	505.41
410.667	499.53
411.045	517.39
411.422	510.61
411.8	520.1
412.178	517.61
412.555	546.54
412.933	562.81
413.31	554
413.687	575.69
414.065	576.6
414.442	597.16
414.819	585.41
415.197	594.22
415.574	605.07
415.951	614.56
416.328	608.91
416.705	620.66
417.082	645.07
417.46	659.76
417.837	654.33
418.214	651.62
418.591	672.19
418.967	688.68
419.344	683.71
419.721	706.76
420.098	697.72
420.475	696.37
420.852	721.68
421.228	719.42
421.605	708.57
421.982	735.69
422.358	748.79
422.735	765.97
423.111	773.65
423.488	765.29
423.864	782.24
424.241	781.34
424.617	790.83
424.994	794.89
425.37	819.75
425.746	827.44
426.123	832.86
426.499	831.5
426.875	849.58
427.251	857.04
427.627	848
428.003	897.94
428.379	895
428.756	898.62
429.132	902.69
429.507	920.31
429.883	920.31
430.259	940.65
430.635	975.91
431.011	951.5
431.387	994.44
431.763	995.12
432.138	997.15
432.514	1004.38
432.89	1005.51
433.265	1022.46
433.641	1056.81
434.016	1061.33
434.392	1079.86
434.767	1090.71
435.143	1074.44
435.518	1118.05
435.894	1113.53
436.269	1112.85
436.644	1137.26
437.02	1129.57
437.395	1159.18
437.77	1149.01
438.145	1183.81
438.52	1195.56
438.895	1190.59
439.271	1224.04
439.646	1213.64
440.021	1234.66
440.395	1231.72
440.77	1244.37
441.145	1238.05
441.52	1253.87
441.895	1298.61
442.27	1256.8
442.645	1300.87
443.019	1286.41
443.394	1261.55
443.769	1302.9
444.143	1284.37
444.518	1274.66
444.892	1319.63
445.267	1314.65
445.641	1339.51
446.016	1344.26
446.39	1330.25
446.764	1338.61
447.139	1346.52
447.513	1334.32
447.887	1328.89
448.262	1367.99
448.636	1357.37
449.01	1362.79
449.384	1361.21
449.758	1375.9
450.132	1398.95
450.506	1385.16
450.88	1378.61
451.254	1391.71
451.628	1393.75
452.002	1441.21
452.376	1412.73
452.75	1406.63
453.123	1440.98
453.497	1441.43
453.871	1466.97
454.244	1493.63
454.618	1457.48
454.992	1481.66
455.365	1478.94
455.739	1513.75
456.112	1509
456.486	1543.35
456.859	1549.45
457.232	1584.7
457.606	1542.22
457.979	1559.85
458.352	1581.09
458.725	1587.87
459.099	1598.72
459.472	1623.57
459.845	1654.76
460.218	1654.98
460.591	1662.22
460.964	1619.73
461.337	1672.16
461.71	1722.33
462.083	1710.12
462.456	1711.93
462.829	1708.77
463.201	1722.78
463.574	1709.22
463.947	1770.24
464.32	1773.4
464.692	1776.56
465.065	1801.2
465.438	1835.77
465.81	1828.09
466.183	1844.13
466.555	1850.91
466.928	1883
467.3	1861.31
467.672	1884.81
468.045	1922.32
468.417	1937.46
468.789	1937.92
469.161	1944.69
469.534	2023.11
469.906	2013.17
470.278	2030.79
470.65	2025.82
471.022	2055.65
471.394	2069.21
471.766	2067.86
472.138	2085.48
472.51	2167.29
472.882	2155.08
473.253	2134.97
473.625	2167.74
473.997	2188.08
474.369	2238.7
474.74	2262.88
475.112	2272.37
475.484	2245.93
475.855	2317.34
476.227	2307.85
476.598	2342.42
476.97	2376.32
477.341	2416.09
477.713	2425.59
478.084	2450.44
478.455	2489.77
478.827	2510.78
479.198	2546.49
479.569	2546.03
479.94	2604.34
480.311	2635.98
480.682	2656.77
481.053	2682.53
481.424	2738.8
481.795	2729.08
482.166	2730.89
482.537	2732.47
482.908	2828.29
483.279	2813.37
483.65	2840.26
484.021	2945.35
484.391	2917.32
484.762	2938.57
485.133	2934.95
485.503	2970.66
485.874	3010.2
486.244	3038.23
486.615	3090.2
486.985	3091.78
487.356	3110.31
487.726	3123.87
488.097	3195.06
488.467	3205.9
488.837	3244.32
489.207	3289.52
489.578	3287.94
489.948	3304.43
490.318	3361.38
490.688	3385.79
491.058	3392.34
491.428	3390.53
491.798	3450.64
492.168	3485.22
492.538	3537.2
492.908	3515.27
493.278	3528.16
493.648	3580.58
494.017	3588.49
494.387	3644.54
494.757	3602.96
495.126	3668.04
495.496	3674.82
495.866	3652.67
496.235	3740.81
496.605	3737.19
496.974	3728.15
497.344	3766.79
497.713	3765.66
498.082	3817.41
498.452	3844.53
498.821	3825.32
499.19	3833.01
499.559	3853.35
499.928	3895.38
500.298	3884.53
500.667	3936.05
501.036	3937.64
501.405	3947.13
501.774	3931.76
502.143	3986.45
502.512	3975.38
502.88	4006.56
503.249	3995.49
503.618	4067.35
503.987	4005.88
504.356	4038.88
504.724	4065.09
505.093	4090.4
505.462	4110.06
505.83	4099.89
506.199	4117.29
506.567	4136.05
506.936	4130.17
507.304	4189.61
507.672	4195.93
508.041	4233.22
508.409	4180.79
508.777	4200.68
509.145	4236.61
509.514	4296.72
509.882	4269.15
510.25	4249.04
510.618	4266.89
510.986	4290.85
511.354	4364.29
511.722	4332.43
512.09	4356.83
512.458	4310.96
512.826	4374.69
513.193	4412.2
513.561	4364.52
513.929	4451.07
514.297	4455.82
514.664	4472.54
515.032	4423.05
515.4	4484.06
515.767	4471.63
516.135	4497.17
516.502	4437.74
516.869	4532.2
517.237	4521.8
517.604	4517.28
517.972	4544.85
518.339	4600.44
518.706	4563.61
519.073	4550.95
519.44	4554.12
519.808	4626.43
520.175	4615.13
520.542	4630.95
520.909	4672.76
521.276	4689.93
521.643	4677.28
522.009	4741.23
522.376	4710.72
522.743	4705.07
523.11	4778.74
523.477	4765.86
523.843	4806.31
524.21	4846.09
524.577	4855.35
524.943	4868.69
525.31	4873.43
525.676	4918.4
526.043	4925.63
526.409	4924.73
526.776	5001.79
527.142	4951.17
527.508	5000.43
527.874	5025.97
528.241	5070.26
528.607	5053.99
528.973	5149.58
529.339	5128.34
529.705	5169.47
530.071	5145.51
530.437	5215.8
530.803	5212.86
531.169	5284.49
531.535	5237.04
531.901	5244.72
532.267	5274.55
532.632	5324.27
532.998	5343.25
533.364	5367.43
533.73	5374.21
534.095	5395.68
534.461	5432.06
534.826	5476.81
535.192	5436.13
535.557	5522
535.923	5494.88
536.288	5542.34
536.653	5536.92
537.019	5579.4
537.384	5563.58
537.749	5593.86
538.114	5597.71
538.479	5620.53
538.845	5659.63
539.21	5710.02
539.575	5674.54
539.94	5742.11
540.305	5793.86
540.67	5762.22
541.034	5816.01
541.399	5856.46
541.764	5827.98
542.129	5844.93
542.494	5841.32
542.858	5923.12
543.223	5891.71
543.587	5904.59
543.952	5940.3
544.316	5976.9
544.681	5978.71
545.045	6039.28
545.41	6068.65
545.774	6043.8
546.138	6120.86
546.503	6102.1
546.867	6082.89
547.231	6180.97
547.595	6244.69
547.959	6282.66
548.324	6196.79
548.688	6228.2
549.052	6301.64
549.416	6304.35
549.779	6255.54
550.143	6275.65
550.507	6387.52
550.871	6373.96
551.235	6370.34
551.599	6380.96
551.962	6478.13
552.326	6457.57
552.689	6495.76
553.053	6449.66
553.417	6465.03
553.78	6547.29
554.143	6514.52
554.507	6561.3
554.87	6571.47
555.234	6601.97
555.597	6608.53
555.96	6592.93
556.323	6615.53
556.686	6628.87
557.05	6719.48
557.413	6663.89
557.776	6756.32
558.139	6775.75
558.502	6771.01
558.865	6791.35
559.228	6783.44
559.59	6788.41
559.953	6838.58
560.316	6910.67
560.679	6876.77
561.041	6953.6
561.404	6998.57
561.767	7026.37
562.129	6934.85
562.492	7021.85
562.854	7015.75
563.217	7001.28
563.579	7053.26
563.941	7118.8
564.304	7061.17
564.666	7186.82
565.028	7145.69
565.39	7173.26
565.753	7172.35
566.115	7234.05
566.477	7273.14
566.839	7186.59
567.201	7309.75
567.563	7354.72
567.925	7356.53
568.287	7346.59
568.648	7379.58
569.01	7442.86
569.372	7502.51
569.734	7536.64
570.095	7530.99
570.457	7583.87
570.819	7566.24
571.18	7661.38
571.542	7643.08
571.903	7696.63
572.265	7753.81
572.626	7781.38
572.987	7808.04
573.349	7847.14
573.71	7926.68
574.071	7973.91
574.432	7979.56
574.794	8081.48
575.155	8072.44
575.516	8115.38
575.877	8162.61
576.238	8250.07
576.599	8319.44
576.96	8400.34
577.32	8423.39
577.681	8495.03
578.042	8670.17
578.403	8642.15
578.763	8793.78
579.124	8840.33
579.485	9048.01
579.845	9135.92
580.206	9123.26
580.566	9295.24
580.927	9413.88
581.287	9555.34
581.648	9635.79
582.008	9858.38
582.368	9911.72
582.728	10078.72
583.089	10236.23
583.449	10369.33
583.809	10565.94
584.169	10736.55
584.529	10867.4
584.889	11142.42
585.249	11272.36
585.609	11471.68
585.969	11795.06
586.329	11912.12
586.688	12062.17
587.048	12297.42
587.408	12498.32
587.768	12816.05
588.127	12935.82
588.487	13228.69
588.846	13536.03
589.206	13690.6
589.565	13977.37
589.925	14238.16
590.284	14538.26
590.643	14822.77
591.003	15062.32
591.362	15408.75
591.721	15597.89
592.08	15916.08
592.44	16174.6
592.799	16496.63
593.158	16692.78
593.517	17046.9
593.876	17387.68
594.235	17538.86
594.593	18004.39
594.952	18269.24
595.311	18441.21
595.67	18845.27
596.029	19259.04
596.387	19501.97
596.746	19747.39
597.104	20046.59
597.463	20403.87
597.822	20786.69
598.18	20930.41
598.538	21214.24
598.897	21627.79
599.255	21783.04
599.613	22393.65
599.972	22499.86
600.33	22842.22
600.688	23012.62
601.046	23453.28
601.404	23687.63
601.762	23911.57
602.12	24413.93
602.478	24683.08
602.836	24784.77
603.194	25019.79
603.552	25373.23
603.91	25426.34
604.268	25931.63
604.625	26023.84
604.983	26415.01
605.341	26497.72
605.698	26871.04
606.056	27148.55
606.413	27341.77
606.771	27715.54
607.128	27907.4
607.485	28075.08
607.843	28264.91
608.2	28541.51
608.557	28957.77
608.914	28987.15
609.272	29348.72
609.629	29550.97
609.986	29843.62
610.343	29884.75
610.7	30343.27
611.057	30505.75
611.414	30635.24
611.771	30868.68
612.127	31172.4
612.484	31262.79
612.841	31428.21
613.198	31695.32
613.554	31675.44
613.911	32019.61
614.267	32182.09
614.624	32363.78
614.98	32607.17
615.337	32856.88
615.693	32934.61
616.05	32937.1
616.406	33277.43
616.762	33263.87
617.118	33367.37
617.475	33541.15
617.831	33797.19
618.187	33958.54
618.543	34108.14
618.899	34322.83
619.255	34388.59
619.611	34394.46
619.967	34664.51
620.323	34895.24
620.678	34938.86
621.034	34882.36
621.39	35091.17
621.746	35173.65
622.101	35652.06
622.457	35410.71
622.812	35506.52
623.168	35609.57
623.523	35726.18
623.879	35836.91
624.234	35853.86
624.589	36047.75
624.945	36106.73
625.3	36271.93
625.655	36186.73
626.01	36235.09
626.365	36466.27
626.72	36461.53
627.075	36530.45
627.43	36577.91
627.785	36524.35
628.14	36607.51
628.495	36878.47
628.85	36741.75
629.205	36652.48
629.559	36968.41
629.914	36828.52
630.269	36913.49
630.623	36873.04
630.978	36829.88
631.332	36994.85
631.687	37153.03
632.041	37048.4
632.396	37165.01
632.75	37084.34
633.104	37148.51
633.459	37047.95
633.813	37095.63
634.167	37192.36
634.521	37125.92
634.875	37275.74
635.229	37111.91
635.583	37057.67
635.937	37178.57
636.291	37181.06
636.645	37171.11
636.999	37220.6
637.352	37303.09
637.706	37052.7
638.06	37184.45
638.413	37213.15
638.767	37127.27
639.121	37197.33
639.474	36931.8
639.828	37010.44
640.181	37267.16
640.534	37015.18
640.888	37032.59
641.241	37004.34
641.594	36968.18
641.947	37186.93
642.301	37143.32
642.654	37062.42
643.007	37232.58
643.36	37131.79
643.713	37028.29
644.066	37214.95
644.419	36980.38
644.771	36871.46
645.124	36433.05
645.477	36414.07
645.83	36271.7
646.182	36100.86
646.535	36077.36
646.888	36040.52
647.24	35917.13
647.593	36130.46
647.945	36136.34
648.298	35937.93
648.65	35903.35
649.002	35869.23
649.355	35946.29
649.707	35963.24
650.059	36102.44
650.411	36534.97
650.763	36589.89
651.115	36946.71
651.467	36732.03
651.819	36675.31
652.171	36727.73
652.523	36655.87
652.875	36715.08
653.227	36646.83
653.578	36974.51
653.93	36741.29
654.282	36600.28
654.633	36601.41
654.985	36638.02
655.337	36424.69
655.688	36561.41
656.039	36850.22
656.391	36490.23
656.742	36539.72
657.094	36616.33
657.445	36597.79
657.796	36724.57
658.147	36633.5
658.498	36570.68
658.849	36672.6
659.2	36637.34
659.551	36536.1
659.902	36656.55
660.253	36376.78
660.604	36598.47
660.955	36419.04
661.306	36579.49
661.656	36533.84
662.007	36653.61
662.358	36478.48
662.708	36503.33
663.059	36466.27
663.409	36308.54
663.76	36562.54
664.11	36498.14
664.461	36616.55
664.811	36418.82
665.161	36528.87
665.511	36299.72
665.862	36398.7
666.212	36543.33
666.562	36643.22
666.912	36483
667.262	36497.46
667.612	36389.44
667.962	36587.85
668.312	36509.89
668.662	36499.72
669.011	36443.67
669.361	36365.26
669.711	36325.03
670.06	36491.13
670.41	36255.66
670.76	36251.59
671.109	36418.14
671.459	36234.64
671.808	36191.03
672.157	36444.13
672.507	36023.57
672.856	36163.23
673.205	36200.29
673.554	36290.91
673.904	36209.33
674.253	36411.81
674.602	36121.42
674.951	35769.79
675.3	35573.19
675.649	36134.76
675.998	35999.39
676.346	36127.52
676.695	36193.96
677.044	35968.43
677.393	35888.21
677.741	36075.1
678.09	35909.45
678.438	35856.12
678.787	35893.18
679.135	36033.74
679.484	35642.57
679.832	35758.04
680.181	35633.07
680.529	35661.77
680.877	35669.91
681.225	35648.22
681.573	35664.71
681.922	35483.93
682.27	35486.19
682.618	35459.75
682.966	35295.68
683.314	35438.96
683.661	35234.44
684.009	35224.27
684.357	35078.06
684.705	35074.22
685.053	35178.62
685.4	35083.48
685.748	34870.83
686.095	34929.36
686.443	34855.02
686.79	34747.67
687.138	34887.11
687.485	34921.23
687.832	34594.23
688.18	34699.54
688.527	34563.72
688.874	34494.35
689.221	34375.03
689.568	34338.87
689.915	34134.58
690.262	34152.66
690.609	34133.23
690.956	33893.23
691.303	33946.11
691.65	33922.38
691.997	33857.98
692.344	33740.02
692.69	33684.65
693.037	33613.24
693.383	33319.01
693.73	33537.54
694.077	33222.52
694.423	33297.54
694.769	33153.37
695.116	33067.04
695.462	33083.76
695.808	33011.22
696.155	33107.04
696.501	32733.72
696.847	32791.57
697.193	32589.76
697.539	32646.49
697.885	32382.54
698.231	32366.72
698.577	32442.2
698.923	32320.17
699.269	32283.33
699.614	32158.82
699.96	31879.05
700.306	31967.63
700.651	31858.03
700.997	31747.75
701.342	31666.4
701.688	31660.52
702.033	31562.45
702.379	31567.64
702.724	31436.57
703.069	31483.58
703.415	31156.13
703.76	31175.56
704.105	31139.86
704.45	31187.54
704.795	30939.19
705.14	30860.77
705.485	30804.73
705.83	30813.54
706.175	30788.46
706.52	30600.89
706.865	30586.2
707.209	30449.03
707.554	30270.05
707.899	30422.14
708.243	30276.15
708.588	30197.96
708.932	29965.2
709.277	29991.64
709.621	29956.39
709.966	29857.18
710.31	29926.33
710.654	29646.11
710.998	29787.13
711.342	29726.56
711.687	29584.19
712.031	29453.58
712.375	29310.98
712.719	29467.13
713.063	29416.74
713.407	29345.33
713.75	29255.84
714.094	29251.32
714.438	29157.76
714.782	29153.24
715.125	28958
715.469	28987.37
715.812	28903.99
716.156	28688.4
716.499	28692.69
716.843	28667.61
717.186	28614.73
717.53	28705.35
717.873	28764.78
718.216	28707.38
718.559	28479.82
718.902	28296.77
719.246	28343.77
719.589	28311.68
719.932	28231.91
720.275	28278.69
720.617	28237.34
720.96	28078.92
721.303	28133.38
721.646	28142.65
721.989	27979.04
722.331	28023.78
722.674	27918.93
723.016	27928.42
723.359	27842.32
723.701	27831.02
724.044	27691.59
724.386	27645.04
724.729	27761.64
725.071	27545.15
725.413	27501.31
725.755	27521.2
726.097	27447.07
726.439	27420.18
726.782	27368.21
727.124	27472.38
727.465	27254.76
727.807	27273.52
728.149	27361.88
728.491	27243.01
728.833	27250.24
729.175	27162.11
729.516	27068.33
729.858	27008.44
730.199	27057.48
730.541	27038.5
730.882	27029.68
731.224	27032.85
731.565	26809.35
731.906	26876.92
732.248	26904.94
732.589	26832.85
732.93	26635.8
733.271	26784.95
733.612	26689.58
733.953	26738.62
734.294	26603.03
734.635	26568
734.976	26609.13
735.317	26505.86
735.658	26443.03
735.999	26454.56
736.339	26488.23
736.68	26388.57
737.021	26363.94
737.361	26237.62
737.702	26438.06
738.042	26266.99
738.383	26158.52
738.723	26175.92
739.063	26204.17
739.404	26183.83
739.744	26077.62
740.084	25830.39
740.424	26079.65
740.764	25995.59
741.104	26069.94
741.444	25883.95
741.784	25734.35
742.124	26012.54
742.464	25988.81
742.804	25739.1
743.143	25727.12
743.483	25745.88
743.823	25721.47
744.162	25602.83
744.502	25696.39
744.841	25585.2
745.181	25675.6
745.52	25478.09
745.86	25597.63
746.199	25552.89
746.538	25487.8
746.877	25564.64
747.216	25460.46
747.556	25404.19
747.895	25386.79
748.234	25287.36
748.573	25140.69
748.911	25214.37
749.25	25317.41
749.589	25245.55
749.928	25232.9
750.267	25364.64
750.605	25153.12
750.944	25085.33
751.283	25172.78
751.621	25099.11
751.96	25031.09
752.298	24962.85
752.636	25044.88
752.975	24766.02
753.313	24798.78
753.651	24850.76
753.989	24853.02
754.327	24794.94
754.666	24699.8
755.004	24815.73
755.342	24814.6
755.679	24655.74
756.017	24646.24
756.355	24627.94
756.693	24583.2
757.031	24573.03
757.368	24408.06
757.706	24365.8
758.044	24312.02
758.381	24307.5
758.719	24294.84
759.056	24266.37
