Data from hue_22_FLMS001491_00048.txt Node
Date: Tue Feb 07 17:10:11 GMT 2017
User: dcchb
Spectrometer: FLMS00149
Trigger mode: 0
Integration Time (sec): 2.000000E-2
Scans to average: 10
Electric dark correction enabled: true
Nonlinearity correction enabled: false
Boxcar width: 0
XAxis mode: Wavelengths
Number of Pixels in Spectrum: 2048
>>>>>Begin Spectral Data<<<<<
341.393	-8.08
341.776	-8.08
342.16	-8.08
342.543	-70.68
342.927	-77
343.31	-64.57
343.693	-75.42
344.077	-66.83
344.46	-53.28
344.843	-62.77
345.226	-50.11
345.61	-37.46
345.993	-10.79
346.376	7.51
346.759	11.13
347.142	35.08
347.525	40.06
347.908	61.98
348.291	69.21
348.674	97.46
349.057	98.81
349.44	131.8
349.823	135.19
350.206	183.55
350.588	208.64
350.971	234.63
351.354	218.58
351.737	237.56
352.119	258.13
352.502	254.97
352.884	255.64
353.267	281.86
353.65	287.73
354.032	308.97
354.414	296.32
354.797	300.16
355.179	313.72
355.562	321.86
355.944	313.04
356.326	322.31
356.709	332.25
357.091	331.57
357.473	334.06
357.855	347.62
358.238	351.23
358.62	340.84
359.002	343.78
359.384	349.2
359.766	350.33
360.148	328.86
360.53	327.96
360.912	330.44
361.294	330.22
361.676	334.51
362.057	340.84
362.439	347.84
362.821	335.64
363.203	330.9
363.584	338.58
363.966	325.47
364.348	325.92
364.729	311.23
365.111	332.93
365.493	320.27
365.874	327.96
366.256	329.77
366.637	317.34
367.019	333.83
367.4	314.17
367.781	296.55
368.163	302.65
368.544	291.8
368.925	313.95
369.306	322.53
369.688	305.36
370.069	315.08
370.45	311.69
370.831	307.17
371.212	319.6
371.593	308.97
371.974	321.86
372.355	323.66
372.736	318.01
373.117	312.36
373.498	336.32
373.879	330.9
374.26	312.59
374.641	319.82
375.021	320.05
375.402	318.47
375.783	324.57
376.163	330.22
376.544	321.18
376.925	331.8
377.305	309.2
377.686	326.6
378.066	327.51
378.447	308.75
378.827	318.01
379.208	332.03
379.588	325.7
379.968	320.27
380.349	332.7
380.729	326.6
381.109	336.09
381.489	335.19
381.87	327.96
382.25	346.26
382.63	319.6
383.01	331.8
383.39	344.23
383.77	342.87
384.15	336.32
384.53	339.48
384.91	322.99
385.29	335.19
385.67	329.09
386.049	358.69
386.429	342.19
386.809	347.39
387.189	371.8
387.568	353.27
387.948	358.47
388.328	355.53
388.707	351.23
389.087	360.5
389.466	360.05
389.846	342.19
390.225	349.2
390.605	339.03
390.984	368.86
391.363	352.59
391.743	375.19
392.122	365.7
392.501	348.3
392.881	369.76
393.26	382.65
393.639	385.13
394.018	364.57
394.397	374.96
394.776	366.15
395.155	375.64
395.534	373.15
395.913	371.12
396.292	363.89
396.671	398.46
397.05	373.83
397.429	367.96
397.808	389.88
398.186	385.36
398.565	381.74
398.944	395.53
399.323	377.67
399.701	393.27
400.08	391.23
400.458	378.13
400.837	364.79
401.215	383.55
401.594	417.22
401.972	401.4
402.351	400.5
402.729	407.05
403.107	407.96
403.486	410.44
403.864	426.49
404.242	421.97
404.62	410.67
404.999	412.48
405.377	409.76
405.755	418.8
406.133	413.83
406.511	413.6
406.889	422.64
407.267	419.48
407.645	422.42
408.023	433.49
408.401	419.48
408.779	453.15
409.156	438.24
409.534	428.29
409.912	426.71
410.29	445.02
410.667	444.34
411.045	437.56
411.422	468.29
411.8	459.48
412.178	435.53
412.555	462.64
412.933	472.81
413.31	460.84
413.687	451.8
414.065	456.77
414.442	476.65
414.819	472.81
415.197	479.14
415.574	476.88
415.951	499.03
416.328	492.47
416.705	496.54
417.082	468.07
417.46	496.77
417.837	501.29
418.214	496.31
418.591	496.54
418.967	521.62
419.344	512.81
419.721	508.52
420.098	522.53
420.475	515.75
420.852	499.48
421.228	505.81
421.605	528.63
421.982	529.53
422.358	546.93
422.735	541.74
423.111	523.43
423.488	537.9
423.864	532.92
424.241	529.08
424.617	570.89
424.994	548.74
425.37	546.03
425.746	557.78
426.123	560.04
426.499	562.3
426.875	578.57
427.251	578.35
427.627	540.61
428.003	567.27
428.379	580.15
428.756	592.58
429.132	577.89
429.507	589.65
429.883	583.54
430.259	598.46
430.635	609.53
431.011	604.56
431.387	596.65
431.763	624.45
432.138	641.4
432.514	632.81
432.89	636.65
433.265	653.37
433.641	633.71
434.016	678.23
434.392	636.2
434.767	669.64
435.143	676.87
435.518	692.02
435.894	664.67
436.269	680.04
436.644	691.79
437.02	706.25
437.395	696.54
437.77	737.89
438.145	700.38
438.52	697.44
438.895	719.81
439.271	716.42
439.646	748.74
440.021	725.69
440.395	738.57
440.77	726.59
441.145	722.98
441.52	744.9
441.895	758.68
442.27	774.5
442.645	747.38
443.019	774.27
443.394	779.02
443.769	778.79
444.143	753.71
444.518	776.76
444.892	756.19
445.267	785.8
445.641	780.6
446.016	798
446.39	810.66
446.764	784.44
447.139	782.63
447.513	787.83
447.887	808.62
448.262	801.17
448.636	799.81
449.01	823.76
449.384	823.76
449.758	843.2
450.132	855.85
450.506	837.77
450.88	815.4
451.254	844.33
451.628	864.44
452.002	844.78
452.376	875.51
452.75	876.64
453.123	874.38
453.497	902.41
453.871	900.82
454.244	892.69
454.618	919.13
454.992	926.59
455.365	914.16
455.739	944.21
456.112	932.46
456.486	967.49
456.859	940.6
457.232	971.33
457.606	981.05
457.979	989.63
458.352	975.17
458.725	1004.55
459.099	1027.83
459.472	1026.47
459.845	1054.72
460.218	1058.79
460.591	1050.65
460.964	1063.31
461.337	1057.2
461.71	1087.03
462.083	1116.41
462.456	1149.86
462.829	1115.28
463.201	1162.74
463.574	1140.82
463.947	1144.43
464.32	1155.51
464.692	1171.78
465.065	1181.72
465.438	1234.15
465.81	1221.49
466.183	1242.96
466.555	1250.19
466.928	1250.87
467.3	1275.96
467.672	1282.73
468.045	1304.65
468.417	1321.15
468.789	1332
469.161	1313.69
469.534	1347.37
469.906	1407.93
470.278	1420.58
470.65	1408.16
471.022	1433.24
471.394	1460.36
471.766	1447.48
472.138	1481.15
472.51	1495.38
472.882	1547.59
473.253	1591.88
473.625	1587.59
473.997	1613.35
474.369	1612.22
474.74	1655.15
475.112	1668.04
475.484	1723.63
475.855	1736.28
476.227	1756.17
476.598	1818.54
476.97	1800.91
477.341	1844.3
477.713	1904.87
478.084	1931.98
478.455	1969.27
478.827	1976.5
479.198	2036.84
479.569	2048.59
479.94	2105.99
480.311	2117.29
480.682	2153.67
481.053	2178.98
481.424	2251.52
481.795	2291.75
482.166	2311.86
482.537	2331.07
482.908	2396.38
483.279	2428.69
483.65	2484.06
484.021	2563.6
484.391	2579.2
484.762	2600.89
485.133	2682.7
485.503	2673.21
485.874	2740.1
486.244	2782.13
486.615	2819.87
486.985	2878.62
487.356	2953.88
487.726	2926.99
488.097	2992.97
488.467	3037.49
488.837	3087.43
489.207	3115
489.578	3170.37
489.948	3254.66
490.318	3258.05
490.688	3309.12
491.058	3375.79
491.428	3431.83
491.798	3419.63
492.168	3486.74
492.538	3519.29
492.908	3593.63
493.278	3615.33
493.648	3665.72
494.017	3676.12
494.387	3715.44
494.757	3755.44
495.126	3831.37
495.496	3818.49
495.866	3853.74
496.235	3900.29
496.605	3961.76
496.974	3976.68
497.344	4025.04
497.713	4033.62
498.082	4074.3
498.452	4108.42
498.821	4171.92
499.19	4138.93
499.559	4158.59
499.928	4256.67
500.298	4244.92
500.667	4278.36
501.036	4324.24
501.405	4365.14
501.774	4381.18
502.143	4396.33
502.512	4415.76
502.88	4446.49
503.249	4506.6
503.618	4515.87
503.987	4502.99
504.356	4537.79
504.724	4565.13
505.093	4567.85
505.462	4605.81
505.83	4613.49
506.199	4671.8
506.567	4727.16
506.936	4734.62
507.304	4792.02
507.672	4849.87
508.041	4773.72
508.409	4830.21
508.777	4861.17
509.145	4943.2
509.514	4942.98
509.882	4911.57
510.25	4898.91
510.618	4977.33
510.986	4961.73
511.354	5003.99
511.722	5042.64
512.09	5152.24
512.458	5118.79
512.826	5175.29
513.193	5169.64
513.561	5143.88
513.929	5206.47
514.297	5260.71
514.664	5208.51
515.032	5285.57
515.4	5302.29
515.767	5337.77
516.135	5366.7
516.502	5319.69
516.869	5383.19
517.237	5364.66
517.604	5390.2
517.972	5466.58
518.339	5456.41
518.706	5450.99
519.073	5494.38
519.44	5492.34
519.808	5516.3
520.175	5557.42
520.542	5621.38
520.909	5648.72
521.276	5660.02
521.643	5723.75
522.009	5730.3
522.376	5765.78
522.743	5747.93
523.11	5814.82
523.477	5864.99
523.843	5894.36
524.21	5943.4
524.577	5999.9
524.943	5929.39
525.31	5991.31
525.676	6038.09
526.043	6094.36
526.409	6073.8
526.776	6150.4
527.142	6185.66
527.508	6164.41
527.874	6235.82
528.241	6229.5
528.607	6327.12
528.973	6323.28
529.339	6301.59
529.705	6387.69
530.071	6464.97
530.437	6466.55
530.803	6487.57
531.169	6549.71
531.535	6529.6
531.901	6545.2
532.267	6598.75
532.632	6658.86
532.998	6615.48
533.364	6624.29
533.73	6714
534.095	6749.94
534.461	6773.66
534.826	6825.64
535.192	6820.89
535.557	6878.52
535.923	6860.67
536.288	6895.92
536.653	6937.95
537.019	6963.49
537.384	6949.93
537.749	7008.46
538.114	7010.49
538.479	7052.75
538.845	7076.71
539.21	7121.68
539.575	7116.71
539.94	7134.33
540.305	7207.55
540.67	7249.36
541.034	7237.38
541.399	7288.45
541.764	7286.42
542.129	7320.99
542.494	7335.46
542.858	7381.78
543.223	7411.61
543.587	7451.39
543.952	7410.94
544.316	7488
544.681	7551.95
545.045	7523.02
545.41	7647.31
545.774	7591.5
546.138	7624.04
546.503	7625.17
546.867	7653.41
547.231	7727.99
547.595	7730.93
547.959	7778.84
548.324	7778.61
548.688	7825.84
549.052	7858.61
549.416	7864.93
549.779	7850.47
550.143	7944.48
550.507	7974.76
550.871	7977.93
551.235	7928.89
551.599	8058.15
551.962	8092.05
552.326	8054.31
552.689	8074.42
553.053	8039.39
553.417	8185.15
553.78	8242.55
554.143	8259.73
554.507	8251.82
554.87	8256.79
555.234	8384.24
555.597	8359.84
555.96	8336.11
556.323	8346.73
556.686	8366.62
557.05	8427.41
557.413	8494.07
557.776	8460.4
558.139	8587.18
558.502	8553.73
558.865	8568.19
559.228	8545.37
559.59	8636.21
559.953	8619.04
560.316	8739.26
560.679	8691.13
561.041	8747.4
561.404	8807.06
561.767	8853.83
562.129	8827.4
562.492	8948.07
562.854	8898.35
563.217	8876.21
563.579	8919.37
563.941	8984.68
564.304	9064.45
564.666	9056.32
565.028	9132.7
565.39	9115.07
565.753	9246.37
566.115	9180.83
566.477	9235.29
566.839	9243.2
567.201	9325.01
567.563	9303.31
567.925	9420.83
568.287	9396.19
568.648	9400.94
569.01	9529.52
569.372	9484.78
569.734	9563.87
570.095	9540.82
570.457	9661.5
570.819	9673.02
571.18	9641.61
571.542	9766.58
571.903	9750.99
572.265	9807.26
572.626	9803.87
572.987	9890.87
573.349	9922.28
573.71	10058.1
574.071	10013.8
574.432	10089.96
574.794	10179.45
575.155	10180.81
575.516	10261.48
575.877	10350.74
576.238	10327.92
576.599	10433.45
576.96	10524.98
577.32	10624.18
577.681	10683.17
578.042	10776.95
578.403	10745.76
578.763	10883.84
579.124	10969.03
579.485	11078.18
579.845	11124.74
580.206	11320.89
580.566	11388.23
580.927	11513.43
581.287	11656.25
581.648	11735.34
582.008	11849.91
582.368	11974.2
582.728	12148.89
583.089	12271.37
583.449	12434.08
583.809	12624.58
584.169	12719.27
584.529	12898.25
584.889	13179.37
585.249	13281.06
585.609	13456.88
585.969	13719.47
586.329	13876.53
586.688	14078.1
587.048	14333.01
587.408	14410.53
587.768	14681.93
588.127	14928.03
588.487	15144.29
588.846	15537.05
589.206	15528.46
589.565	15928
589.925	16198.05
590.284	16401.43
590.643	16683.69
591.003	16876.45
591.362	17237.12
591.721	17468.07
592.08	17811.34
592.44	18124.55
592.799	18387.37
593.158	18620.81
593.517	19019.9
593.876	19187.57
594.235	19515.48
594.593	19828.24
594.952	20187.55
595.311	20404.04
595.67	20679.96
596.029	21147.52
596.387	21453.96
596.746	21708.19
597.104	22018.91
597.463	22373.48
597.822	22649.86
598.18	22843.3
598.538	23182.5
598.897	23661.58
599.255	23780.9
599.613	24422.01
599.972	24652.97
600.33	24814.77
600.688	25127.76
601.046	25441.87
601.404	25819.72
601.762	26150.78
602.12	26511.9
602.478	26809.75
602.836	27015.39
603.194	27207.25
603.552	27575.83
603.91	27704.41
604.268	28335.81
604.625	28268.01
604.983	28757.94
605.341	28846.76
605.698	29283.81
606.056	29493.74
606.413	29758.6
606.771	30190.9
607.128	30290.33
607.485	30472.02
607.843	30816.42
608.2	31269.74
608.557	31555.84
608.914	31612.33
609.272	32054.35
609.629	32195.37
609.986	32519.88
610.343	32638.29
610.7	33066.08
611.057	33233.53
611.414	33222.91
611.771	33694.09
612.127	33891.82
612.484	33948.09
612.841	34349.66
613.198	34522.54
613.554	34606.15
613.911	34968.85
614.267	35147.15
614.624	35195.74
614.98	35450.88
615.337	35826.46
615.693	35905.78
616.05	36003.86
616.406	36256.96
616.762	36377.18
617.118	36479.32
617.475	36722.03
617.831	36910.95
618.187	37067.33
618.543	37260.09
618.899	37597.94
619.255	37454.44
619.611	37776.24
619.967	37882.45
620.323	37943.01
620.678	38071.82
621.034	38131.48
621.39	38270.91
621.746	38416.9
622.101	38816.89
622.457	38666.16
622.812	38819.83
623.168	39131.91
623.523	39086.71
623.879	39373.48
624.234	39271.34
624.589	39462.3
624.945	39570.32
625.3	39656.64
625.655	39552.69
626.01	39844.21
626.365	39802.85
626.72	39730.76
627.075	39823.64
627.43	40082.39
627.785	40071.32
628.14	40359.9
628.495	40282.61
628.85	40281.71
629.205	40262.5
629.559	40396.28
629.914	40355.15
630.269	40392.67
630.623	40483.96
630.978	40289.39
631.332	40556.28
631.687	40760.79
632.041	40601.93
632.396	40777.06
632.75	40668.82
633.104	40625.43
633.459	40584.53
633.813	40715.6
634.167	40718.99
634.521	40680.34
634.875	40810.73
635.229	40855.03
635.583	40776.39
635.937	40624.07
636.291	40685.77
636.645	40793.11
636.999	40687.35
637.352	40820.68
637.706	40617.75
638.06	40765.76
638.413	40712.88
638.767	40690.51
639.121	40659.1
639.474	40744.75
639.828	40609.61
640.181	40726.22
640.534	40739.78
640.888	40666.33
641.241	40610.74
641.594	40605.09
641.947	40734.58
642.301	40721.02
642.654	40796.72
643.007	40794.24
643.36	40693.22
643.713	40622.49
644.066	40880.79
644.419	40574.58
644.771	40326.91
645.124	40007.14
645.477	39913.36
645.83	39700.71
646.182	39700.26
646.535	39459.13
646.888	39590.2
647.24	39468.85
647.593	39656.64
647.945	39584.55
648.298	39301.4
648.65	39382.52
649.002	39189.53
649.355	39472.24
649.707	39455.52
650.059	39503.42
650.411	40040.36
650.763	39962.62
651.115	40514.25
651.467	40177.98
651.819	40287.81
652.171	40150.41
652.523	40267.25
652.875	40232.44
653.227	39982.96
653.578	40348.83
653.93	40120.36
654.282	40104.54
654.633	39910.42
654.985	40128.49
655.337	40058.89
655.688	40134.14
656.039	40282.39
656.391	39974.6
656.742	39875.84
657.094	39993.36
657.445	40163.07
657.796	40148.15
658.147	39997.87
658.498	39911.1
658.849	39982.28
659.2	39938.44
659.551	39857.09
659.902	39918.33
660.253	39964.66
660.604	39935.73
660.955	39790.2
661.306	39999.91
661.656	40022.73
662.007	39914.71
662.358	40013.69
662.708	40014.6
663.059	39828.84
663.409	39672.91
663.76	40009.4
664.11	39876.52
664.461	39887.37
664.811	39893.7
665.161	39913.36
665.511	39826.35
665.862	39816.18
666.212	40008.5
666.562	39944.54
666.912	39794.26
667.262	39800.59
667.612	39755.4
667.962	39897.54
668.312	39661.61
668.662	39918.55
669.011	39865.9
669.361	39665
669.711	39732.35
670.06	39776.19
670.41	39655.28
670.76	39598.79
671.109	39766.92
671.459	39672.23
671.808	39690.31
672.157	39758.11
672.507	39516.08
672.856	39543.88
673.205	39455.52
673.554	39703.42
673.904	39557.89
674.253	39827.71
674.602	39736.41
674.951	38978.69
675.3	38882.65
675.649	39520.83
675.998	39512.24
676.346	39412.58
676.695	39453.26
677.044	39232.02
677.393	39322.19
677.741	39460.26
678.09	39353.15
678.438	39218.46
678.787	39334.62
679.135	39309.76
679.484	39205.35
679.832	39142.53
680.181	39002.42
680.529	39143.66
680.877	38846.49
681.225	38996.55
681.573	39204.68
681.922	38919.26
682.27	38848.07
682.618	38867.74
682.966	38790.22
683.314	38740.05
683.661	38647.63
684.009	38568.08
684.357	38465.03
684.705	38453.06
685.053	38530.79
685.4	38423.45
685.748	38164.7
686.095	38302.78
686.443	38126.74
686.79	38023.24
687.138	38205.83
687.485	38034.54
687.832	37956.8
688.18	38044.25
688.527	37790.48
688.874	37706.41
689.221	37768.33
689.568	37546.87
689.915	37438.62
690.262	37522.23
690.609	37392.97
690.956	37260.32
691.303	37231.39
691.65	36965.41
691.997	37196.82
692.344	36890.84
692.69	36794.57
693.037	36831.86
693.383	36723.38
693.73	36796.83
694.077	36576.27
694.423	36570.62
694.769	36396.39
695.116	36240.23
695.462	36235.26
695.808	36304.19
696.155	36270.06
696.501	35858.32
696.847	35896.51
697.193	35696.52
697.539	35737.87
697.885	35674.15
698.231	35504.66
698.577	35481.16
698.923	35400.26
699.269	35383.31
699.614	35181.05
699.96	34966.82
700.306	34951.68
700.651	34925.69
700.997	34710.56
701.342	34884.79
701.688	34656.77
702.033	34448.64
702.379	34519.15
702.724	34536.55
703.069	34577.9
703.415	34203.22
703.76	34186.5
704.105	34149.89
704.45	34171.59
704.795	33862.44
705.14	33825.61
705.485	33799.17
705.83	33728.89
706.175	33766.17
706.52	33646.86
706.865	33372.29
707.209	33438.5
707.554	33299.75
707.899	33304.27
708.243	33193.53
708.588	33145.17
708.932	32941.34
709.277	33001.9
709.621	32937.5
709.966	32755.58
710.31	32907.44
710.654	32569.82
710.998	32637.16
711.342	32621.12
711.687	32533.21
712.031	32270.17
712.375	32266.1
712.719	32409.6
713.063	32291.41
713.407	32451.18
713.75	32067.46
714.094	32054.58
714.438	32083.05
714.782	32110.17
715.125	31899.56
715.469	31897.07
715.812	31712.44
716.156	31645.55
716.499	31628.83
716.843	31552.9
717.186	31416.18
717.53	31669.05
717.873	31545.67
718.216	31479.45
718.559	31366.24
718.902	31133.25
719.246	31243.75
719.589	31177.32
719.932	30970.54
720.275	30950.66
720.617	30880.83
720.96	30927.6
721.303	30971.67
721.646	30843.77
721.989	30797.89
722.331	30824.56
722.674	30671.57
723.016	30753.15
723.359	30586.14
723.701	30812.13
724.044	30570.55
724.386	30282.42
724.729	30491.46
725.071	30361.52
725.413	30342.54
725.755	30278.81
726.097	30128.76
726.439	30053.05
726.782	30016.44
727.124	30022.09
727.465	30049.21
727.807	30063.45
728.149	29876.56
728.491	29883.79
728.833	29856.45
729.175	29796.56
729.516	29632.05
729.858	29718.6
730.199	29714.3
730.541	29560.64
730.882	29643.12
731.224	29623.46
731.565	29543.91
731.906	29377.59
732.248	29491.26
732.589	29294.2
732.93	29356.35
733.271	29201.55
733.612	29191.83
733.953	29256.24
734.294	29144.15
734.635	28998.84
734.976	29162.68
735.317	28952.74
735.658	29074.32
735.999	28976.24
736.339	28765.18
736.68	28937.83
737.021	28813.99
737.361	28686.53
737.702	28876.81
738.042	28834.78
738.383	28745.74
738.723	28840.2
739.063	28641.34
739.404	28668.68
739.744	28652.86
740.084	28529.02
740.424	28508.46
740.764	28408.58
741.104	28570.15
741.444	28424.62
741.784	28381.01
742.124	28393.66
742.464	28456.03
742.804	28336.94
743.143	28098.07
743.483	28212.2
743.823	28054.23
744.162	28127
744.502	28053.78
744.841	27954.35
745.181	28120.67
745.52	27971.07
745.86	27984.18
746.199	28000.9
746.538	27897.4
746.877	27931.53
747.216	27919.32
747.556	27739.89
747.895	27758.42
748.234	27570.86
748.573	27621.7
748.911	27507.13
749.25	27621.7
749.589	27452.44
749.928	27480.46
750.267	27488.6
750.605	27447.24
750.944	27502.16
751.283	27306.46
751.621	27336.96
751.96	27297.42
752.298	27261.49
752.636	27320.69
752.975	27126.8
753.313	26944.21
753.651	27117.31
753.989	26904.43
754.327	26933.59
754.666	26816.98
755.004	26836.86
755.342	26848.84
755.679	26803.65
756.017	26648.4
756.355	26761.16
756.693	26539.92
757.031	26633.03
757.368	26448.4
757.706	26410.21
758.044	26354.17
758.381	26359.82
758.719	26272.59
759.056	26269.87
759.394	26205.7
759.731	26040.5
760.068	26101.29
760.405	25944.23
760.743	25788.98
