Data from hue_270_FLMS001491_00083.txt Node
Date: Tue Feb 07 15:57:48 GMT 2017
User: dcchb
Spectrometer: FLMS00149
Trigger mode: 0
Integration Time (sec): 2.000000E-2
Scans to average: 10
Electric dark correction enabled: true
Nonlinearity correction enabled: false
Boxcar width: 0
XAxis mode: Wavelengths
Number of Pixels in Spectrum: 2048
>>>>>Begin Spectral Data<<<<<
341.393	-3.45
341.776	-3.45
342.16	-3.45
342.543	-68.08
342.927	-44.58
343.31	-56.1
343.693	-65.82
344.077	-52.48
344.46	-61.3
344.843	-61.3
345.226	-48.64
345.61	-24.69
345.993	-39.6
346.376	-0.73
346.759	13.05
347.142	27.29
347.525	37.23
347.908	53.95
348.291	69.09
348.674	101.41
349.057	108.64
349.44	115.65
349.823	140.96
350.206	170.79
350.588	176.66
350.971	212.37
351.354	204.91
351.737	241.97
352.119	257.11
352.502	258.69
352.884	265.47
353.267	258.02
353.65	254.63
354.032	299.14
354.414	271.57
354.797	309.54
355.179	298.47
355.562	329.43
355.944	330.78
356.326	333.27
356.709	318.81
357.091	328.07
357.473	325.36
357.855	345.25
358.238	338.24
358.62	336.43
359.002	324.91
359.384	342.08
359.766	334.62
360.148	335.53
360.53	347.05
360.912	345.7
361.294	322.19
361.676	309.54
362.057	319.03
362.439	324.68
362.821	333.04
363.203	311.12
363.584	307.05
363.966	325.81
364.348	327.62
364.729	314.96
365.111	324.23
365.493	310.44
365.874	322.87
366.256	308.41
366.637	307.51
367.019	297.56
367.4	303.21
367.781	310.22
368.163	303.21
368.544	295.3
368.925	313.61
369.306	314.29
369.688	303.44
370.069	313.16
370.45	308.18
370.831	306.15
371.212	289.65
371.593	304.34
371.974	311.8
372.355	321.29
372.736	348.18
373.117	316.09
373.498	314.74
373.879	310.44
374.26	312.93
374.641	301.4
375.021	307.51
375.402	299.14
375.783	303.44
376.163	325.36
376.544	317.9
376.925	328.75
377.305	331.01
377.686	310.67
378.066	328.07
378.447	349.76
378.827	337.34
379.208	324.45
379.588	311.8
379.968	310.67
380.349	328.3
380.729	328.97
381.109	337.56
381.489	330.56
381.87	346.83
382.25	347.28
382.63	335.3
383.01	320.61
383.39	334.62
383.77	317.9
384.15	339.6
384.53	340.95
384.91	356.32
385.29	344.34
385.67	355.87
386.049	353.83
386.429	334.17
386.809	365.36
387.189	325.81
387.568	345.7
387.948	361.06
388.328	332.59
388.707	372.14
389.087	349.31
389.466	358.13
389.846	347.5
390.225	364.45
390.605	384.34
390.984	371.69
391.363	361.97
391.743	370.1
392.122	374.4
392.501	377.33
392.881	395.87
393.26	372.82
393.639	377.56
394.018	380.05
394.397	378.92
394.776	387.05
395.155	377.79
395.534	389.99
395.913	382.53
396.292	393.38
396.671	402.64
397.05	384.79
397.429	392.25
397.808	411.01
398.186	411.01
398.565	397.45
398.944	377.33
399.323	386.6
399.701	406.94
400.08	420.95
400.458	415.3
400.837	417.11
401.215	437.9
401.594	424.57
401.972	416.43
402.351	416.66
402.729	420.95
403.107	444.68
403.486	413.94
403.864	419.14
404.242	432.93
404.62	441.74
404.999	462.3
405.377	463.21
405.755	446.26
406.133	454.85
406.511	449.2
406.889	470.21
407.267	467.5
407.645	473.6
408.023	473.15
408.401	461.17
408.779	510.89
409.156	488.29
409.534	486.48
409.912	496.43
410.29	500.04
410.667	503.43
411.045	535.52
411.422	510.44
411.8	513.38
412.178	541.4
412.555	553.15
412.933	554.28
413.31	574.17
413.687	555.86
414.065	585.69
414.442	571.45
414.819	569.87
415.197	589.76
415.574	576.2
415.951	609.64
416.328	624.79
416.705	636.31
417.082	624.33
417.46	635.18
417.837	644.9
418.214	625.01
418.591	660.27
418.967	650.1
419.344	665.01
419.721	665.24
420.098	695.07
420.475	700.04
420.852	686.25
421.228	705.69
421.605	716.53
421.982	723.09
422.358	745.46
422.735	752.47
423.111	756.99
423.488	739.36
423.864	785.69
424.241	780.04
424.617	796.08
424.994	814.39
425.37	804.67
425.746	820.71
426.123	824.78
426.499	845.8
426.875	828.62
427.251	867.94
427.627	873.82
428.003	868.17
428.379	891.45
428.756	915.4
429.132	909.52
429.507	924.44
429.883	931.22
430.259	952.46
430.635	963.08
431.011	954.72
431.387	966.25
431.763	1023.42
432.138	986.36
432.514	1027.71
432.89	1009.86
433.265	1054.61
433.641	1068.16
434.016	1085.79
434.392	1109.07
434.767	1131.67
435.143	1125.56
435.518	1124.21
435.894	1143.87
436.269	1174.83
436.644	1208.95
437.02	1194.04
437.395	1195.62
437.77	1242.85
438.145	1266.35
438.52	1250.98
438.895	1286.01
439.271	1298.89
439.646	1333.02
440.021	1346.57
440.395	1351.77
440.77	1355.84
441.145	1350.87
441.52	1398.78
441.895	1387.25
442.27	1415.05
442.645	1414.82
443.019	1433.35
443.394	1446.69
443.769	1443.3
444.143	1438.55
444.518	1490.53
444.892	1476.74
445.267	1471.54
445.641	1470.64
446.016	1494.59
446.39	1515.38
446.764	1537.76
447.139	1503.86
447.513	1544.31
447.887	1531.88
448.262	1589.96
448.636	1550.19
449.01	1594.7
449.384	1574.82
449.758	1612.56
450.132	1646.23
450.506	1635.15
450.88	1634.93
451.254	1635.61
451.628	1687.13
452.002	1688.94
452.376	1671.99
452.75	1712.89
453.123	1714.7
453.497	1757.19
453.871	1755.38
454.244	1772.78
454.618	1799.22
454.992	1847.8
455.365	1801.7
455.739	1838.54
456.112	1850.74
456.486	1860.91
456.859	1874.24
457.232	1922.15
457.606	1907.46
457.979	1905.88
458.352	1982.26
458.725	1998.76
459.099	1965.32
459.472	2007.35
459.845	2064.97
460.218	2038.53
460.591	2070.62
460.964	2077.63
461.337	2087.57
461.71	2128.02
462.083	2181.58
462.456	2165.54
462.829	2164.86
463.201	2194.91
463.574	2188.81
463.947	2227.68
464.32	2285.76
464.692	2283.27
465.065	2309.49
465.438	2332.99
465.81	2342.48
466.183	2392.2
466.555	2429.71
466.928	2423.83
467.3	2410.5
467.672	2428.13
468.045	2529.82
468.417	2505.19
468.789	2525.98
469.161	2563.49
469.534	2618.41
469.906	2601.01
470.278	2640.78
470.65	2657.27
471.022	2682.13
471.394	2739.08
471.766	2779.76
472.138	2781.79
472.51	2822.02
472.882	2923.26
473.253	2884.39
473.625	2932.07
473.997	3010.03
474.369	3000.09
474.74	3013.2
475.112	3052.07
475.484	3092.97
475.855	3128.67
476.227	3165.74
476.598	3233.98
476.97	3242.57
477.341	3266.07
477.713	3350.59
478.084	3364.37
478.455	3414.99
478.827	3474.2
479.198	3553.97
479.569	3530.02
479.94	3665.84
480.311	3620.41
480.682	3682.33
481.053	3769.56
481.424	3828.54
481.795	3791.71
482.166	3895.43
482.537	3928.43
482.908	3993.74
483.279	3994.87
483.65	4065.15
484.021	4162.77
484.391	4173.17
484.762	4200.96
485.133	4214.97
485.503	4264.69
485.874	4355.08
486.244	4378.81
486.615	4434.86
486.985	4435.31
487.356	4567.28
487.726	4601.18
488.097	4636.66
488.467	4657.45
488.837	4718.46
489.207	4730.44
489.578	4804.56
489.948	4853.15
490.318	4870.1
490.688	4888.4
491.058	5022.18
491.428	5021.73
491.798	5077.55
492.168	5171.33
492.538	5155.74
492.908	5223.53
493.278	5215.4
493.648	5199.13
494.017	5304.21
494.387	5337.88
494.757	5380.37
495.126	5421.95
495.496	5418.56
495.866	5476.41
496.235	5520.48
496.605	5507.37
496.974	5582.85
497.344	5620.81
497.713	5661.49
498.082	5653.13
498.452	5683.86
498.821	5721.6
499.19	5738.1
499.559	5755.5
499.928	5785.78
500.298	5777.87
500.667	5844.54
501.036	5828.94
501.405	5906.91
501.774	5853.8
502.143	5945.32
502.512	5938.32
502.88	5966.79
503.249	6014.47
503.618	6036.17
503.987	6048.82
504.356	6012.89
504.724	6098.09
505.093	6112.1
505.462	6077.52
505.83	6136.73
506.199	6135.6
506.567	6187.58
506.936	6146.67
507.304	6211.76
507.672	6228.71
508.041	6204.98
508.409	6254.69
508.777	6265.09
509.145	6375.6
509.514	6392.77
509.882	6356.16
510.25	6343.96
510.618	6423.5
510.986	6409.27
511.354	6469.83
511.722	6461.47
512.09	6475.48
512.458	6459.66
512.826	6510.51
513.193	6557.06
513.561	6606.78
513.929	6567.23
514.297	6635.7
514.664	6649.03
515.032	6592.76
515.4	6648.58
515.767	6661.01
516.135	6686.32
516.502	6645.64
516.869	6732.2
517.237	6723.61
517.604	6693.78
517.972	6745.3
518.339	6775.81
518.706	6787.56
519.073	6793.66
519.44	6781.91
519.808	6818.3
520.175	6865.53
520.542	6891.74
520.909	6907.11
521.276	6842.48
521.643	6925.64
522.009	6858.75
522.376	6936.71
522.743	6971.29
523.11	6977.16
523.477	7086.99
523.843	7039.53
524.21	7067.33
524.577	7115.91
524.943	7089.25
525.31	7132.64
525.676	7165.63
526.043	7192.97
526.409	7242.46
526.776	7242.92
527.142	7273.42
527.508	7308
527.874	7334.44
528.241	7332.63
528.607	7356.13
528.973	7398.85
529.339	7401.33
529.705	7393.65
530.071	7467.77
530.437	7450.37
530.803	7494.44
531.169	7528.79
531.535	7435.45
531.901	7549.12
532.267	7505.96
532.632	7534.66
532.998	7566.75
533.364	7596.81
533.73	7541.89
534.095	7647.43
534.461	7624.6
534.826	7644.04
535.192	7655.79
535.557	7767.42
535.923	7659.18
536.288	7707.31
536.653	7713.86
537.019	7630.25
537.384	7679.74
537.749	7709.57
538.114	7738.72
538.479	7721.55
538.845	7738.5
539.21	7725.84
539.575	7748.89
539.94	7799.96
540.305	7813.75
540.67	7793.41
541.034	7787.76
541.399	7784.15
541.764	7801.32
542.129	7771.26
542.494	7803.35
542.858	7879.06
543.223	7914.99
543.587	7888.1
543.952	7857.59
544.316	7833.86
544.681	7860.3
545.045	7893.52
545.41	7926.06
545.774	7897.36
546.138	7875.89
546.503	7918.61
546.867	7888.55
547.231	7939.4
547.595	7950.24
547.959	7984.37
548.324	7951.6
548.688	7983.69
549.052	7996.12
549.416	7924.93
549.779	7978.26
550.143	7994.54
550.507	8033.86
550.871	8000.64
551.235	8003.35
551.599	8079.51
551.962	8046.06
552.326	8007.64
552.689	8083.57
553.053	8050.58
553.417	8115.89
553.78	8163.8
554.143	8152.05
554.507	8133.29
554.87	8127.87
555.234	8215.09
555.597	8139.39
555.96	8204.02
556.323	8224.81
556.686	8218.03
557.05	8232.5
557.413	8256
557.776	8241.08
558.139	8299.16
558.502	8332.38
558.865	8331.25
559.228	8419.38
559.59	8378.03
559.953	8383.68
560.316	8488.08
560.679	8418.25
561.041	8524.47
561.404	8469.1
561.767	8533.73
562.129	8518.36
562.492	8565.37
562.854	8590.68
563.217	8578.02
563.579	8578.02
563.941	8638.59
564.304	8659.83
564.666	8698.02
565.028	8690.79
565.39	8748.19
565.753	8801.07
566.115	8786.83
566.477	8865.7
566.839	8860.05
567.201	8957.45
567.563	8897.34
567.925	9032.47
568.287	9038.35
568.648	9017.11
569.01	8938.69
569.372	9156.31
569.734	9071.12
570.095	9140.72
570.457	9244.45
570.819	9158.12
571.18	9173.94
571.542	9226.37
571.903	9254.84
572.265	9304.11
572.626	9324.67
572.987	9335.52
573.349	9355.86
573.71	9374.16
574.071	9453.03
574.432	9447.38
574.794	9580.93
575.155	9569.18
575.516	9546.81
575.877	9606.7
576.238	9613.25
576.599	9686.92
576.96	9669.07
577.32	9711.78
577.681	9813.24
578.042	9833.36
578.403	9765.11
578.763	9824.54
579.124	9853.92
579.485	9898.89
579.845	9917.42
580.206	10008.72
580.566	9974.6
580.927	10010.75
581.287	9992.22
581.648	10035.16
582.008	10100.47
582.368	10031.54
582.728	10149.96
583.089	10162.39
583.449	10167.36
583.809	10158.32
584.169	10242.16
584.529	10224.31
584.889	10326.45
585.249	10246
585.609	10261.14
585.969	10410.74
586.329	10339.11
586.688	10380.24
587.048	10413.91
587.408	10476.5
587.768	10470.4
588.127	10478.99
588.487	10490.29
588.846	10521.47
589.206	10528.71
589.565	10586.78
589.925	10690.96
590.284	10659.55
590.643	10713.33
591.003	10674.01
591.362	10766.89
591.721	10711.3
592.08	10747.01
592.44	10764.86
592.799	10750.85
593.158	10756.5
593.517	10864.06
593.876	10833.33
594.235	10760.34
594.593	10874.01
594.952	10893.22
595.311	10848.02
595.67	10897.96
596.029	10914.01
596.387	10952.2
596.746	11012.99
597.104	10976.83
597.463	11028.13
597.822	11095.7
598.18	11035.81
598.538	11007.11
598.897	11120.78
599.255	11043.04
599.613	11114.45
599.972	11124.4
600.33	11198.07
600.688	11120.78
601.046	11175.69
601.404	11239.65
601.762	11133.89
602.12	11249.14
602.478	11279.65
602.836	11288.46
603.194	11240.33
603.552	11226.77
603.91	11228.57
604.268	11305.63
604.625	11253.66
604.983	11379.53
605.341	11289.59
605.698	11310.83
606.056	11354.45
606.413	11318.74
606.771	11394.67
607.128	11413.43
607.485	11364.84
607.843	11351.51
608.2	11457.27
608.557	11513.77
608.914	11402.81
609.272	11484.84
609.629	11483.03
609.986	11537.04
610.343	11429.02
610.7	11595.12
611.057	11510.38
611.414	11669.24
611.771	11591.73
612.127	11598.51
612.484	11634.21
612.841	11587.89
613.198	11554.22
613.554	11564.16
613.911	11680.31
614.267	11708.79
614.624	11644.61
614.98	11644.61
615.337	11646.64
615.693	11742.69
616.05	11715.34
616.406	11739.97
616.762	11757.15
617.118	11745.17
617.475	11749.69
617.831	11849.58
618.187	11772.52
618.543	11769.58
618.899	11777.71
619.255	11771.16
619.611	11816.36
619.967	11845.06
620.323	11926.18
620.678	11808.22
621.034	11889.8
621.39	11789.46
621.746	11824.49
622.101	11950.36
622.457	11781.78
622.812	11889.35
623.168	11898.16
623.523	11850.93
623.879	11897.71
624.234	11866.98
624.589	11853.19
624.945	11906.52
625.3	11870.14
625.655	11910.36
626.01	11872.4
626.365	11836.47
626.72	11835.56
627.075	11869.46
627.43	11829.01
627.785	11887.54
628.14	11844.6
628.495	11873.08
628.85	11825.17
629.205	11815.45
629.559	11842.8
629.914	11785.85
630.269	11729.8
630.623	11782.01
630.978	11638.73
631.332	11794.44
631.687	11768.9
632.041	11700.88
632.396	11735.23
632.75	11704.27
633.104	11702.23
633.459	11631.5
633.813	11671.73
634.167	11651.84
634.521	11631.5
634.875	11597.6
635.229	11703.82
635.583	11566.65
635.937	11598.28
636.291	11540.66
636.645	11589.24
636.999	11570.94
637.352	11534.1
637.706	11461.79
638.06	11540.21
638.413	11487.78
638.767	11538.4
639.121	11556.25
639.474	11511.05
639.828	11477.83
640.181	11465.86
640.534	11446.87
640.888	11395.35
641.241	11364.84
641.594	11370.94
641.947	11438.96
642.301	11464.05
642.654	11445.07
643.007	11423.82
643.36	11392.41
643.713	11344.96
644.066	11436.93
644.419	11305.86
644.771	11215.24
645.124	11193.55
645.477	11156.26
645.83	11133.21
646.182	11042.14
646.535	10994.23
646.888	11015.93
647.24	10940.45
647.593	11055.47
647.945	10979.54
648.298	10930.73
648.65	10984.74
649.002	10862.26
649.355	11004.85
649.707	11036.72
650.059	10969.37
650.411	11115.13
650.763	11126.2
651.115	11280.32
651.467	11246.88
651.819	11247.56
652.171	11179.54
652.523	11196.49
652.875	11142.02
653.227	11108.35
653.578	11273.09
653.93	11122.81
654.282	11173.66
654.633	11090.95
654.985	11130.5
655.337	11159.65
655.688	11210.72
656.039	11209.82
656.391	11136.6
656.742	11161.91
657.094	11220.89
657.445	11250.27
657.796	11149.48
658.147	11215.02
658.498	11161.23
658.849	11214.11
659.2	11220.21
659.551	11215.24
659.902	11189.25
660.253	11169.59
660.604	11170.05
660.955	11129.37
661.306	11180.89
661.656	11170.95
662.007	11195.81
662.358	11132.31
662.708	11185.19
663.059	11186.54
663.409	11062.25
663.76	11161.91
664.11	11199.65
664.461	11180.21
664.811	11179.08
665.161	11233.77
665.511	11147.9
665.862	11221.8
666.212	11224.06
666.562	11213.66
666.912	11223.38
667.262	11207.56
667.612	11165.75
667.962	11120.1
668.312	11183.83
668.662	11181.8
669.011	11221.34
669.361	11117.84
669.711	11068.13
670.06	11173.21
670.41	11104.96
670.76	11074.68
671.109	11198.29
671.459	11099.99
671.808	11092.08
672.157	11167.11
672.507	10986.77
672.856	11066.09
673.205	11079.2
673.554	11096.37
673.904	11033.1
674.253	11122.59
674.602	11091.4
674.951	10934.57
675.3	10813.22
675.649	10987
675.998	11085.98
676.346	11043.95
676.695	11061.35
677.044	10942.48
677.393	11067
677.741	10967.11
678.09	10913.33
678.438	10923.72
678.787	10944.06
679.135	10891.86
679.484	10835.14
679.832	10874.69
680.181	10797.63
680.529	10980.22
680.877	10848.7
681.225	10776.38
681.573	10847.57
681.922	10753.11
682.27	10800.56
682.618	10724.63
682.966	10781.35
683.314	10793.78
683.661	10764.41
684.009	10705.42
684.357	10599.66
684.705	10568.93
685.053	10608.93
685.4	10555.37
685.748	10530.51
686.095	10517.18
686.443	10500.01
686.79	10507.01
687.138	10533
687.485	10408.03
687.832	10435.15
688.18	10461.59
688.527	10387.69
688.874	10332.78
689.221	10363.29
689.568	10257.98
689.915	10295.94
690.262	10255.04
690.609	10244.42
690.956	10196.29
691.303	10137.53
691.65	10137.53
691.997	10132.78
692.344	10059.11
692.69	10074.03
693.037	10049.85
693.383	9927.37
693.73	9912
694.077	9897.76
694.423	9879.01
694.769	9861.38
695.116	9805.11
695.462	9821.15
695.808	9691.44
696.155	9889.4
696.501	9687.6
696.847	9758.56
697.193	9597.43
697.539	9691.21
697.885	9549.75
698.231	9535.51
698.577	9562.4
698.923	9485.8
699.269	9387.04
699.614	9401.5
699.96	9381.62
700.306	9384.78
700.651	9274.95
700.997	9273.6
701.342	9322.41
701.688	9252.36
702.033	9270.66
702.379	9164.9
702.724	9187.95
703.069	9186.59
703.415	9061.4
703.76	9078.35
704.105	9026.82
704.45	9029.99
704.795	8958.35
705.14	9015.75
705.485	8930.33
705.83	8894.17
706.175	8855.3
706.52	8882.65
706.865	8827.06
707.209	8802.42
707.554	8779.15
707.899	8806.94
708.243	8717
708.588	8698.47
708.932	8638.36
709.277	8663.67
709.621	8605.14
709.966	8580.28
710.31	8599.27
710.654	8503.22
710.998	8503.22
711.342	8572.15
711.687	8459.61
712.031	8516.56
712.375	8490.79
712.719	8410.8
713.063	8380.51
713.407	8429.1
713.75	8357.24
714.094	8369.67
714.438	8325.83
714.782	8354.53
715.125	8281.31
715.469	8288.77
715.812	8291.25
716.156	8287.41
716.499	8239.27
716.843	8294.41
717.186	8223.68
717.53	8270.23
717.873	8206.51
718.216	8225.49
718.559	8192.04
718.902	8152.5
719.246	8170.35
719.589	8099.84
719.932	8105.04
720.275	8085.15
720.617	8121.76
720.96	8126.06
721.303	8046.51
721.646	8140.75
721.989	8037.92
722.331	8132.61
722.674	8076.34
723.016	8022.33
723.359	7978.94
723.701	8043.35
724.044	7996.8
724.386	7982.56
724.729	8016.91
725.071	8011.71
725.413	7981.88
725.755	8025.95
726.097	7921.54
726.439	7900.53
726.782	7911.6
727.124	7975.33
727.465	7925.16
727.807	7935.78
728.149	7920.87
728.491	7940.3
728.833	7886.97
729.175	7881.32
729.516	7880.41
729.858	7905.5
730.199	7892.39
730.541	7858.49
730.882	7839.29
731.224	7895.78
731.565	7781.66
731.906	7833.86
732.248	7866.18
732.589	7803.58
732.93	7750.47
733.271	7849.23
733.612	7778.5
733.953	7814.43
734.294	7846.06
734.635	7887.19
734.976	7809.23
735.317	7806.07
735.658	7787.08
735.999	7823.69
736.339	7822.56
736.68	7850.81
737.021	7773.52
737.361	7823.92
737.702	7854.43
738.042	7800.19
738.383	7834.54
738.723	7881.09
739.063	7880.87
739.404	7842.45
739.744	7858.04
740.084	7849
740.424	7827.31
740.764	7899.62
741.104	7904.59
741.444	7855.78
741.784	7870.02
742.124	7891.94
742.464	7856.69
742.804	7869.79
743.143	7952.05
743.483	7936.01
743.823	7917.25
744.162	7950.02
744.502	8009.22
744.841	7989.79
745.181	8058.49
745.52	8063.91
745.86	8143.23
746.199	8100.07
746.538	8151.82
746.877	8186.17
747.216	8242.44
747.556	8288.77
747.895	8310.46
748.234	8345.94
748.573	8407.86
748.911	8372.15
749.25	8422.55
749.589	8555.2
749.928	8610.34
750.267	8634.07
750.605	8653.73
750.944	8741.63
751.283	8797.9
751.621	8900.73
751.96	8910.44
752.298	9011.91
752.636	9078.12
752.975	9121.96
753.313	9225.24
753.651	9370.09
753.989	9407.83
754.327	9553.14
754.666	9546.81
755.004	9772.34
755.342	9855.5
755.679	9991.09
756.017	10128.72
756.355	10256.17
756.693	10335.72
757.031	10420.91
757.368	10547.01
757.706	10673.11
758.044	10844.86
758.381	11027.22
758.719	11102.25
759.056	11229.25
759.394	11446.65
759.731	11530.26
760.068	11653.2
760.405	11867.2
760.743	11997.37
761.08	12219.28
761.417	12288.21
761.754	12426.96
762.091	12616.56
762.428	12769.1
762.765	12795.54
763.102	13034.63
