Data from hue_38_FLMS001491_00082.txt Node
Date: Tue Feb 07 17:32:05 GMT 2017
User: dcchb
Spectrometer: FLMS00149
Trigger mode: 0
Integration Time (sec): 2.000000E-2
Scans to average: 10
Electric dark correction enabled: true
Nonlinearity correction enabled: false
Boxcar width: 0
XAxis mode: Wavelengths
Number of Pixels in Spectrum: 2048
>>>>>Begin Spectral Data<<<<<
341.393	-14
341.776	-14
342.16	-14
342.543	-49.25
342.927	-77.27
343.31	-66.2
343.693	-72.98
344.077	-52.19
344.46	-47.44
344.843	-40.44
345.226	-47.44
345.61	-41.79
345.993	-8.12
346.376	-19.65
346.759	8.83
347.142	38.43
347.525	42.5
347.908	38.88
348.291	68.26
348.674	96.73
349.057	102.61
349.44	108.94
349.823	152.1
350.206	176.28
350.588	211.53
350.971	237.75
351.354	211.31
351.737	242.27
352.119	255.15
352.502	278.2
352.884	262.38
353.267	303.28
353.65	290.4
354.032	308.93
354.414	314.81
354.797	318.88
355.179	313.23
355.562	307.35
355.944	336.95
356.326	334.69
356.709	334.47
357.091	354.36
357.473	336.73
357.855	346.22
358.238	322.49
358.62	382.83
359.002	366.11
359.384	358.65
359.766	333.34
360.148	348.93
360.53	346.45
360.912	326.33
361.294	339.67
361.676	321.14
362.057	345.77
362.439	335.37
362.821	360
363.203	340.34
363.584	329.27
363.966	336.5
364.348	334.92
364.729	335.15
365.111	328.59
365.493	322.49
365.874	327.92
366.256	326.33
366.637	336.5
367.019	327.69
367.4	318.65
367.781	322.27
368.163	292.21
368.544	311.87
368.925	311.87
369.306	313.45
369.688	328.82
370.069	326.33
370.45	336.73
370.831	320.23
371.212	321.81
371.593	336.28
371.974	317.52
372.355	322.72
372.736	332.21
373.117	315.94
373.498	326.11
373.879	319.33
374.26	313.23
374.641	324.07
375.021	313.68
375.402	330.63
375.783	325.88
376.163	320.23
376.544	332.43
376.925	336.28
377.305	328.14
377.686	320.46
378.066	322.49
378.447	342.15
378.827	344.19
379.208	345.77
379.588	323.62
379.968	336.28
380.349	342.15
380.729	323.62
381.109	348.93
381.489	343.73
381.87	350.06
382.25	328.37
382.63	318.2
383.01	356.84
383.39	354.13
383.77	341.02
384.15	356.61
384.53	342.83
384.91	357.52
385.29	339.44
385.67	347.35
386.049	363.62
386.429	348.25
386.809	380.57
387.189	352.32
387.568	360.46
387.948	363.39
388.328	359.1
388.707	367.46
389.087	351.19
389.466	359.78
389.846	369.5
390.225	365.88
390.605	369.5
390.984	360.91
391.363	362.49
391.743	376.95
392.122	365.88
392.501	362.72
392.881	393.22
393.26	359.1
393.639	373.79
394.018	373.79
394.397	370.4
394.776	360.46
395.155	384.86
395.534	385.09
395.913	385.54
396.292	387.8
396.671	394.58
397.05	405.2
397.429	385.54
397.808	377.18
398.186	416.95
398.565	390.29
398.944	406.11
399.323	401.81
399.701	382.15
400.08	396.16
400.458	431.64
400.837	414.69
401.215	395.48
401.594	401.36
401.972	411.98
402.351	418.99
402.729	404.07
403.107	427.8
403.486	429.16
403.864	405.65
404.242	433.22
404.62	430.51
404.999	420.79
405.377	390.29
405.755	428.03
406.133	447.23
406.511	422.6
406.889	440.91
407.267	444.75
407.645	409.72
408.023	427.12
408.401	454.24
408.779	444.3
409.156	457.86
409.534	447.69
409.912	448.82
410.29	446.56
410.667	459.66
411.045	456.05
411.422	462.83
411.8	455.82
412.178	460.79
412.555	486.33
412.933	466.44
413.31	470.74
413.687	487.23
414.065	471.64
414.442	479.32
414.819	489.27
415.197	497.4
415.574	497.4
415.951	495.14
416.328	506.44
416.705	494.01
417.082	511.87
417.46	519.32
417.837	516.38
418.214	512.99
418.591	508.48
418.967	504.18
419.344	515.25
419.721	534.69
420.098	529.94
420.475	531.3
420.852	541.92
421.228	524.97
421.605	536.05
421.982	551.41
422.358	551.19
422.735	578.53
423.111	550.28
423.488	577.17
423.864	582.15
424.241	550.51
424.617	566.78
424.994	547.12
425.37	584.86
425.746	586.44
426.123	591.41
426.499	576.5
426.875	585.31
427.251	589.38
427.627	613.78
428.003	606.55
428.379	597.06
428.756	607.68
429.132	597.06
429.507	625.08
429.883	628.47
430.259	634.57
430.635	625.53
431.011	637.74
431.387	610.39
431.763	646.1
432.138	654.91
432.514	650.62
432.89	667.57
433.265	678.19
433.641	680.67
434.016	677.28
434.392	670.73
434.767	694.91
435.143	679.09
435.518	698.07
435.894	712.54
436.269	725.87
436.644	723.16
437.02	741.46
437.395	701.46
437.77	730.84
438.145	762.03
438.52	727.23
438.895	757.51
439.271	754.57
439.646	740.11
440.021	755.47
440.395	757.06
440.77	763.84
441.145	753.21
441.52	779.88
441.895	777.17
442.27	781.24
442.645	805.64
443.019	795.25
443.394	808.13
443.769	836.83
444.143	796.83
444.518	797.96
444.892	800.67
445.267	829.37
445.641	813.55
446.016	828.92
446.39	813.33
446.764	822.14
447.139	813.55
447.513	853.55
447.887	831.4
448.262	854
448.636	843.61
449.01	866.66
449.384	895.81
449.758	849.94
450.132	877.05
450.506	890.39
450.88	898.07
451.254	894.91
451.628	906.88
452.002	914.34
452.376	911.85
452.75	921.35
453.123	926.54
453.497	944.17
453.871	968.8
454.244	969.25
454.618	976.03
454.992	993.43
455.365	976.26
455.739	1024.62
456.112	1004.06
456.486	1028.46
456.859	1009.25
457.232	1042.25
457.606	1029.37
457.979	1052.19
458.352	1080.66
458.725	1077.95
459.099	1106.65
459.472	1095.35
459.845	1131.96
460.218	1109.14
460.591	1113.43
460.964	1152.53
461.337	1175.12
461.71	1177.16
462.083	1195.01
462.456	1195.69
462.829	1206.99
463.201	1231.85
463.574	1233.2
463.947	1255.35
464.32	1281.56
464.692	1291.96
465.065	1290.38
465.438	1310.49
465.81	1339.19
466.183	1322.01
466.555	1383.48
466.928	1391.39
467.3	1403.59
467.672	1418.06
468.045	1456.47
468.417	1443.82
468.789	1483.82
469.161	1498.05
469.534	1503.25
469.906	1551.16
470.278	1566.53
470.65	1603.81
471.022	1606.75
471.394	1654.43
471.766	1690.37
472.138	1697.14
472.51	1750.93
472.882	1809.23
473.253	1799.06
473.625	1842.68
473.997	1880.87
474.369	1890.59
474.74	1926.97
475.112	1968.1
475.484	2006.97
475.855	2098.26
476.227	2089.45
476.598	2189.34
476.97	2171.48
477.341	2255.32
477.713	2290.8
478.084	2323.57
478.455	2422.32
478.827	2485.6
479.198	2522.89
479.569	2567.86
479.94	2683.56
480.311	2733.95
480.682	2798.81
481.053	2883.1
481.424	2948.86
481.795	3002.87
482.166	3051.46
482.537	3180.27
482.908	3225.01
483.279	3316.99
483.65	3395.86
484.021	3494.61
484.391	3603.76
484.762	3643.08
485.133	3716.98
485.503	3818.22
485.874	3908.84
486.244	4000.13
486.615	4068.38
486.985	4173.01
487.356	4304.99
487.726	4394.93
488.097	4473.12
488.467	4611.87
488.837	4724.41
489.207	4765.76
489.578	4905.42
489.948	5015.7
490.318	5089.82
490.688	5162.36
491.058	5312.64
491.428	5418.4
491.798	5554.22
492.168	5739.3
492.538	5758.28
492.908	5834.44
493.278	6002.12
493.648	6085.5
494.017	6180.19
494.387	6251.38
494.757	6322.33
495.126	6450.24
495.496	6504.48
495.866	6607.98
496.235	6724.81
496.605	6849.55
496.974	6893.84
497.344	7066.72
497.713	7186.49
498.082	7237.11
498.452	7361.18
498.821	7454.96
499.19	7502.64
499.559	7610.21
499.928	7677.55
500.298	7803.2
500.667	7847.49
501.036	7926.59
501.405	8062.85
501.774	8087.94
502.143	8271.44
502.512	8285.67
502.88	8375.84
503.249	8416.74
503.618	8511.88
503.987	8590.52
504.356	8700.58
504.724	8801.82
505.093	8817.64
505.462	8887.69
505.83	8936.95
506.199	9044.52
506.567	9232.09
506.936	9169.94
507.304	9301.69
507.672	9343.95
508.041	9520.44
508.409	9543.72
508.777	9680.66
509.145	9810.83
509.514	9714.33
509.882	9830.26
510.25	9858.74
510.618	9950.94
510.986	9981.67
511.354	10071.84
511.722	10216.47
512.09	10309.35
512.458	10260.54
512.826	10379.18
513.193	10475.9
513.561	10477.48
513.929	10609
514.297	10669.11
514.664	10780.3
515.032	10866.85
515.4	10977.8
515.767	10972.61
516.135	11068.88
516.502	10991.14
516.869	11150.46
517.237	11144.35
517.604	11202.21
517.972	11358.36
518.339	11446.04
518.706	11440.84
519.073	11567.62
519.44	11580.5
519.808	11673.15
520.175	11759.7
520.542	11880.61
520.909	11947.27
521.276	11895.97
521.643	12075.63
522.009	12160.82
522.376	12268.84
522.743	12256.42
523.11	12358.33
523.477	12457.99
523.843	12544.54
524.21	12602.17
524.577	12739.34
524.943	12799.45
525.31	12861.14
525.676	13017.07
526.043	13121.93
526.409	13134.36
526.776	13196.96
527.142	13225.88
527.508	13374.35
527.874	13475.82
528.241	13517.4
528.607	13550.39
528.973	13695.7
529.339	13614.35
529.705	13870.16
530.071	13931.63
530.437	13996.48
530.803	14112.19
531.169	14205.74
531.535	14142.69
531.901	14153.99
532.267	14291.84
532.632	14420.65
532.998	14449.35
533.364	14515.34
533.73	14592.85
534.095	14742.9
534.461	14665.17
534.826	14755.78
535.192	14897.7
535.557	14891.37
535.923	14975.44
536.288	14997.59
536.653	15094.98
537.019	15054.31
537.384	15176.79
537.749	15309.67
538.114	15234.87
538.479	15309.22
538.845	15463.34
539.21	15382.89
539.575	15509.44
539.94	15509.89
540.305	15680.73
540.67	15605.48
541.034	15825.81
541.399	15896.32
541.764	15798.02
542.129	15975.87
542.494	15936.54
542.858	16066.71
543.223	16116.43
543.587	16237.55
543.952	16179.48
544.316	16231.45
544.681	16269.19
545.045	16412.01
545.41	16402.97
545.774	16486.81
546.138	16548.96
546.503	16629.18
546.867	16688.84
547.231	16769.06
547.595	16801.38
547.959	16916.63
548.324	16920.25
548.688	17016.29
549.052	16988.49
549.416	17156.17
549.779	17088.83
550.143	17219
550.507	17402.49
550.871	17288.83
551.235	17343.29
551.599	17505.99
551.962	17436.17
552.326	17446.11
552.689	17618.53
553.053	17671.64
553.417	17631.87
553.78	17861.47
554.143	17817.85
554.507	17872.76
554.87	18017.17
555.234	18130.61
555.597	18047
555.96	18220.1
556.323	18242.02
556.686	18222.13
557.05	18358.4
557.413	18355.24
557.776	18392.07
558.139	18572.63
558.502	18535.12
558.865	18618.51
559.228	18836.13
559.59	18786.41
559.953	18894.43
560.316	18968.33
560.679	19013.75
561.041	19061.66
561.404	19201.32
561.767	19266.63
562.129	19147.31
562.492	19450.35
562.854	19403.12
563.217	19412.84
563.579	19572.61
563.941	19652.38
564.304	19731.7
564.666	19801.75
565.028	19850.79
565.39	19820.28
565.753	19975.08
566.115	20059.15
566.477	20195.19
566.839	20170.78
567.201	20365.58
567.563	20324.45
567.925	20518.57
568.287	20587.72
568.648	20575.29
569.01	20623.65
569.372	20856.19
569.734	20915.85
570.095	20981.38
570.457	21017.31
570.819	21089.18
571.18	21215.95
571.542	21218.21
571.903	21317.65
572.265	21418.89
572.626	21497.75
572.987	21623.4
573.349	21725.54
573.71	21799.44
574.071	21896.39
574.432	21990.62
574.794	22121.47
575.155	22210.05
575.516	22255.25
575.877	22388.35
576.238	22542.47
576.599	22558.52
576.96	22708.34
577.32	22860.88
577.681	22976.36
578.042	23120.99
578.403	23293.19
578.763	23342.9
579.124	23494.09
579.485	23735.66
579.845	23749.67
580.206	23884.13
580.566	23974.3
580.927	24138.36
581.287	24368.86
581.648	24381.52
582.008	24676.88
582.368	24800.49
582.728	25055.4
583.089	25068.28
583.449	25248.39
583.809	25454.94
584.169	25638.44
584.529	25710.52
584.889	26139.89
585.249	26074.13
585.609	26254.92
585.969	26639.31
586.329	26643.61
586.688	26988.68
587.048	27125.85
587.408	27181.67
587.768	27489.91
588.127	27695.56
588.487	27843.8
588.846	28225.71
589.206	28288.31
589.565	28491.92
589.925	28734.85
590.284	29105.24
590.643	29151.34
591.003	29355.17
591.362	29657.54
591.721	29794.48
592.08	30044.65
592.44	30173.46
592.799	30560.79
593.158	30565.99
593.517	30672.88
593.876	31027.9
594.235	31153.09
594.593	31319.64
594.952	31586.3
595.311	31730.48
595.67	32066.06
596.029	32479.39
596.387	32634.64
596.746	32670.34
597.104	32846.38
597.463	33058.13
597.822	33269.42
598.18	33489.08
598.538	33460.38
598.897	33773.82
599.255	33724.78
599.613	34394.14
599.972	34355.95
600.33	34579.67
600.688	34737.86
601.046	34884.75
601.404	35123.61
601.762	35228.24
602.12	35516.37
602.478	35637.04
602.836	35715.91
603.194	35677.49
603.552	36023.25
603.91	35991.84
604.268	36432.73
604.625	36440.19
604.983	36642.21
605.341	36621.42
605.698	36972.38
606.056	37129.43
606.413	37128.08
606.771	37446.71
607.128	37473.15
607.485	37357.22
607.843	37494.17
608.2	37926.47
608.557	38061.61
608.914	38060.03
609.272	38446.69
609.629	38358.78
609.986	38720.58
610.343	38634.48
610.7	38971.19
611.057	39066.33
611.414	39102.49
611.771	39146.33
612.127	39459.32
612.484	39492.54
612.841	39872.41
613.198	39681.91
613.554	39897.5
613.911	40001.67
614.267	40075.34
614.624	40081.9
614.98	40249.13
615.337	40406.18
615.693	40531.83
616.05	40480.76
616.406	40899.05
616.762	40803.01
617.118	40825.61
617.475	40933.85
617.831	41101.08
618.187	41092.04
618.543	41320.51
618.899	41498.13
619.255	41340.17
619.611	41450
619.967	41776.32
620.323	41777.45
620.678	41685.92
621.034	41712.59
621.39	41690.22
621.746	41730.44
622.101	42241.84
622.457	41853.38
622.812	42152.35
623.168	42199.13
623.523	42279.35
623.879	42358
624.234	42115.29
624.589	42424.66
624.945	42275.51
625.3	42534.04
625.655	42496.3
626.01	42505.34
626.365	42648.61
626.72	42516.18
627.075	42591.89
627.43	42664.88
627.785	42519.35
628.14	42797.31
628.495	42651.55
628.85	42847.25
629.205	42715.73
629.559	42936.06
629.914	42789.4
630.269	42810.19
630.623	42631.89
630.978	42723.18
631.332	42908.94
631.687	42868.04
632.041	42885.89
632.396	43007.92
632.75	42846.57
633.104	42997.53
633.459	42807.25
633.813	42818.1
634.167	42692
634.521	42779.91
634.875	42849.28
635.229	42935.38
635.583	42667.37
635.937	42807.25
636.291	42727.7
636.645	42814.03
636.999	42630.98
637.352	42825.78
637.706	42629.85
638.06	42722.51
638.413	42600.93
638.767	42544.66
639.121	42706.01
639.474	42423.53
639.828	42547.6
640.181	42534.94
640.534	42562.74
640.888	42425.57
641.241	42429.63
641.594	42371.78
641.947	42433.25
642.301	42359.35
642.654	42330.2
643.007	42289.75
643.36	42391.67
643.713	42236.19
644.066	42251.33
644.419	42201.62
644.771	41941.96
645.124	41560.5
645.477	41497.45
645.83	41312.15
646.182	41211.36
646.535	41093.4
646.888	41107.86
647.24	40924.36
647.593	41196.9
647.945	41078.48
648.298	40945.83
648.65	40845.95
649.002	40877.58
649.355	40992.16
649.707	41028.54
650.059	41146.28
650.411	41569.54
650.763	41611.8
651.115	41913.71
651.467	41876.43
651.819	41942.41
652.171	41784
652.523	41685.25
652.875	41621.29
653.227	41528.41
653.578	41847.28
653.93	41786.71
654.282	41473.27
654.633	41445.25
654.985	41620.16
655.337	41525.25
655.688	41641.41
656.039	41717.11
656.391	41284.58
656.742	41547.62
657.094	41523.22
657.445	41631.91
657.796	41621.29
658.147	41629.88
658.498	41384.46
658.849	41574.97
659.2	41552.82
659.551	41312.6
659.902	41496.78
660.253	41405.03
660.604	41465.36
660.955	41274.64
661.306	41297.69
661.656	41335.88
662.007	41391.47
662.358	41323
662.708	41379.49
663.059	41155.09
663.409	41062.89
663.76	41379.04
664.11	41295.88
664.461	41357.8
664.811	41312.83
665.161	41110.57
665.511	41287.97
665.862	41263.11
666.212	41464.91
666.562	41487.51
666.912	41308.08
667.262	41273.05
667.612	41194.86
667.962	41263.11
668.312	41258.59
668.662	41354.18
669.011	41209.1
669.361	41134.07
669.711	41256.1
670.06	41240.06
670.41	40979.5
670.76	40977.02
671.109	41178.37
671.459	41014.98
671.808	40999.84
672.157	41016.56
672.507	40857.92
672.856	40948.54
673.205	40976.79
673.554	41013.62
673.904	40954.87
674.253	41164.36
674.602	41058.14
674.951	40437.14
675.3	40377.03
675.649	40904.02
675.998	40873.97
676.346	40863.35
676.695	41158.48
677.044	40764.82
677.393	40841.43
677.741	40942.89
678.09	40718.49
678.438	40645.95
678.787	40730.02
679.135	40747.19
679.484	40384.26
679.832	40631.71
680.181	40369.8
680.529	40739.06
680.877	40327.09
681.225	40339.97
681.573	40416.58
681.922	40280.99
682.27	40146.98
682.618	40071.95
682.966	40246.19
683.314	40088.45
683.661	40023.14
684.009	39964.16
684.357	39739.08
684.705	39892.98
685.053	39824.73
685.4	39791.96
685.748	39466.77
686.095	39607.33
686.443	39448.02
686.79	39455.02
687.138	39415.93
687.485	39372.31
687.832	39257.74
688.18	39349.49
688.527	39156.95
688.874	39084.18
689.221	39022.49
689.568	38864.98
689.915	38874.47
690.262	38869.27
690.609	38796.73
690.956	38582.28
691.303	38502.05
691.65	38300.48
691.997	38380.47
692.344	38093.48
692.69	38217.09
693.037	38274.26
693.383	37927.15
693.73	37979.13
694.077	37834.95
694.423	37747.72
694.769	37794.95
695.116	37667.95
695.462	37550.89
695.808	37522.19
696.155	37315.87
696.501	37193.16
696.847	37291.46
697.193	36930.12
697.539	37183.67
697.885	36862.32
698.231	36727.18
698.577	36858.93
698.923	36840.85
699.269	36557.24
699.614	36245.16
699.96	36409.9
700.306	36468.43
700.651	36065.96
700.997	36170.81
701.342	36067.09
701.688	36020.31
702.033	35977.83
702.379	35863.25
702.724	35700.09
703.069	35802.69
703.415	35416.26
703.76	35300.78
704.105	35398.18
704.45	35346.2
704.795	35154.57
705.14	35046.32
705.485	35077.74
705.83	34951.86
706.175	34795.71
706.52	34958.87
706.865	34627.35
707.209	34612.44
707.554	34554.81
707.899	34536.28
708.243	34393.91
708.588	34323.18
708.932	34150.08
709.277	34108.95
709.621	34175.84
709.966	33946.69
710.31	34016.52
710.654	33639.13
710.998	33822.85
711.342	33870.08
711.687	33710.31
712.031	33496.08
712.375	33510.32
712.719	33404.11
713.063	33365.01
713.407	33471.9
713.75	33269.87
714.094	33315.3
714.438	33158.92
714.782	33127.96
715.125	33030.11
715.469	33088.64
715.812	33003.21
716.156	32754.63
716.499	32817
716.843	32811.58
717.186	32587.18
717.53	32611.13
717.873	32731.13
718.216	32684.58
718.559	32495.88
718.902	32254.08
719.246	32399.39
719.589	32348.99
719.932	32043.01
720.275	32031.94
720.617	32123.01
720.96	32158.26
721.303	31930.02
721.646	32031.26
721.989	31838.5
722.331	31904.26
722.674	31803.02
723.016	31787.88
723.359	31671.5
723.701	31766.64
724.044	31494.78
724.386	31400.32
724.729	31446.19
725.071	31485.51
725.413	31496.59
725.755	31290.72
726.097	31244.39
726.439	31140.21
726.782	31248.91
727.124	31169.36
727.465	31055.02
727.807	31147.67
728.149	30937.51
728.491	30963.27
728.833	31004.17
729.175	30961.01
729.516	30785.42
729.858	30755.36
730.199	30822.71
730.541	30688.47
730.882	30640.11
731.224	30874.46
731.565	30473.56
731.906	30530.28
732.248	30539.78
732.589	30408.03
732.93	30151.09
733.271	30281.7
733.612	30408.93
733.953	30349.27
734.294	30097.08
734.635	30153.35
734.976	30254.81
735.317	30048.04
735.658	30057.53
735.999	30133.01
736.339	30023.41
736.68	30059.34
737.021	29951.99
737.361	29722.4
737.702	30035.38
738.042	29762.62
738.383	29798.1
738.723	29771.66
739.063	29731.44
739.404	29775.95
739.744	29559.24
740.084	29457.77
740.424	29608.28
740.764	29413.93
741.104	29550.42
741.444	29452.12
741.784	29196.76
742.124	29345.01
742.464	29316.31
742.804	29309.3
743.143	29189.3
743.483	29241.96
743.823	29062.07
744.162	28985.01
744.502	29054.84
744.841	28966.03
745.181	29005.81
745.52	28905.92
745.86	28992.02
746.199	28905.24
746.538	28726.94
746.877	28839.03
747.216	28814.62
747.556	28650.33
747.895	28691.69
748.234	28577.57
748.573	28519.49
748.911	28540.51
749.25	28513.84
749.589	28353.39
749.928	28515.65
750.267	28496.89
750.605	28273.4
750.944	28220.52
751.283	28161.99
751.621	28204.47
751.96	27995.21
752.298	27997.7
752.636	28081.99
752.975	27857.13
753.313	27819.62
753.651	28008.54
753.989	27770.58
754.327	27747.76
754.666	27698.04
755.004	27717.03
755.342	27794.09
755.679	27703.47
756.017	27343.7
756.355	27618.5
756.693	27337.6
757.031	27374.89
