Data from hue_160_FLMS001491_00091.txt Node
Date: Tue Feb 07 16:51:56 GMT 2017
User: dcchb
Spectrometer: FLMS00149
Trigger mode: 0
Integration Time (sec): 2.000000E-2
Scans to average: 10
Electric dark correction enabled: true
Nonlinearity correction enabled: false
Boxcar width: 0
XAxis mode: Wavelengths
Number of Pixels in Spectrum: 2048
>>>>>Begin Spectral Data<<<<<
341.393	-6.13
341.776	-6.13
342.16	-6.13
342.543	-68.28
342.927	-93.59
343.31	-65.11
343.693	-75.96
344.077	-69.86
344.46	-43.42
344.843	-72.79
345.226	-56.07
345.61	-23.53
345.993	-9.75
346.376	-27.15
346.759	14.66
347.142	22.8
347.525	62.12
347.908	56.92
348.291	81.1
348.674	99.18
349.057	106.86
349.44	129.46
349.823	164.49
350.206	159.74
350.588	189.35
350.971	204.71
351.354	215.11
351.737	238.16
352.119	247.42
352.502	274.77
352.884	251.04
353.267	279.96
353.65	286.52
354.032	282.68
354.414	293.3
354.797	302.56
355.179	326.74
355.562	314.31
355.944	315.44
356.326	337.59
356.709	318.83
357.091	336.91
357.473	328.55
357.855	323.81
358.238	345.73
358.62	335.1
359.002	332.17
359.384	354.99
359.766	334.88
360.148	335.56
360.53	333.97
360.912	344.14
361.294	331.71
361.676	312.96
362.057	323.35
362.439	331.49
362.821	338.49
363.203	326.29
363.584	329
363.966	318.61
364.348	307.76
364.729	334.2
365.111	321.55
365.493	305.5
365.874	312.51
366.256	336.91
366.637	302.79
367.019	322.22
367.4	309.57
367.781	314.54
368.163	309.57
368.544	321.32
368.925	317.7
369.306	312.28
369.688	302.34
370.069	310.02
370.45	309.34
370.831	311.38
371.212	309.12
371.593	308.66
371.974	313.64
372.355	297.59
372.736	313.41
373.117	322.68
373.498	303.69
373.879	312.96
374.26	309.34
374.641	316.57
375.021	312.96
375.402	318.61
375.783	312.73
376.163	333.3
376.544	312.05
376.925	323.81
377.305	318.83
377.686	310.25
378.066	285.39
378.447	322.9
378.827	324.48
379.208	323.35
379.588	317.48
379.968	347.53
380.349	348.21
380.729	341.66
381.109	332.62
381.489	313.41
381.87	330.36
382.25	336.91
382.63	308.66
383.01	344.82
383.39	332.39
383.77	338.49
384.15	339.85
384.53	342.34
384.91	345.73
385.29	354.76
385.67	348.21
386.049	359.06
386.429	335.1
386.809	362.67
387.189	333.97
387.568	340.08
387.948	345.95
388.328	358.61
388.707	358.15
389.087	339.4
389.466	364.93
389.846	369.45
390.225	373.52
390.605	358.38
390.984	339.4
391.363	343.69
391.743	383.46
392.122	369.91
392.501	377.59
392.881	369.91
393.26	350.02
393.639	373.97
394.018	362.67
394.397	388.21
394.776	372.84
395.155	380.3
395.534	389.57
395.913	378.04
396.292	383.46
396.671	383.69
397.05	387.08
397.429	384.59
397.808	373.52
398.186	400.64
398.565	372.39
398.944	401.32
399.323	388.66
399.701	388.89
400.08	403.58
400.458	425.72
400.837	396.57
401.215	370.81
401.594	405.61
401.972	415.1
402.351	415.55
402.729	416.23
403.107	408.55
403.486	406.51
403.864	417.81
404.242	424.37
404.62	400.64
404.999	427.76
405.377	423.24
405.755	407.19
406.133	408.1
406.511	436.8
406.889	439.51
407.267	423.01
407.645	423.46
408.023	424.37
408.401	442.67
408.779	444.03
409.156	463.91
409.534	448.32
409.912	451.49
410.29	443.12
410.667	469.79
411.045	441.09
411.422	466.4
411.8	458.49
412.178	472.73
412.555	458.94
412.933	495.1
413.31	500.07
413.687	491.26
414.065	472.73
414.442	488.55
414.819	505.95
415.197	511.6
415.574	478.38
415.951	502.56
416.328	499.85
416.705	488.55
417.082	510.69
417.46	512.05
417.837	529.68
418.214	484.03
418.591	519.51
418.967	517.02
419.344	526.29
419.721	524.7
420.098	529.9
420.475	513.63
420.852	541.88
421.228	567.41
421.605	531.48
421.982	547.75
422.358	538.71
422.735	567.64
423.111	565.38
423.488	571.93
423.864	579.39
424.241	559.05
424.617	576
424.994	592.5
425.37	587.75
425.746	568.32
426.123	610.8
426.499	616.23
426.875	614.19
427.251	589.11
427.627	598.37
428.003	628.66
428.379	635.89
428.756	627.98
429.132	640.63
429.507	657.36
429.883	644.47
430.259	654.19
430.635	675.21
431.011	638.37
431.387	640.63
431.763	678.82
432.138	682.67
432.514	652.84
432.89	683.57
433.265	704.81
433.641	695.55
434.016	703.46
434.392	747.07
434.767	721.53
435.143	752.95
435.518	763.57
435.894	741.65
436.269	750.01
436.644	755.66
437.02	766.05
437.395	758.37
437.77	790.46
438.145	783.68
438.52	772.15
438.895	816.22
439.271	784.13
439.646	816
440.021	829.1
440.395	792.95
440.77	814.64
441.145	826.62
441.52	829.55
441.895	825.71
442.27	833.62
442.645	845.6
443.019	865.03
443.394	860.06
443.769	869.55
444.143	855.09
444.518	902.09
444.892	907.97
445.267	897.8
445.641	903.45
446.016	919.5
446.39	922.21
446.764	938.7
447.139	914.52
447.513	932.6
447.887	919.95
448.262	934.18
448.636	946.39
449.01	956.56
449.384	944.58
449.758	968.76
450.132	962.66
450.506	1000.62
450.88	986.61
451.254	977.8
451.628	1004.24
452.002	989.1
452.376	1020.28
452.75	1027.97
453.123	1036.1
453.497	1027.74
453.871	1030.68
454.244	1075.65
454.618	1092.15
454.992	1080.85
455.365	1080.85
455.739	1107.97
456.112	1091.92
456.486	1160.17
456.859	1128.98
457.232	1159.94
457.606	1165.36
457.979	1161.52
458.352	1222.99
458.725	1224.57
459.099	1237
459.472	1266.38
459.845	1267.51
460.218	1272.71
460.591	1293.72
460.964	1316.55
461.337	1326.26
461.71	1347.73
462.083	1402.65
462.456	1391.12
462.829	1371.24
463.201	1432.02
463.574	1420.5
463.947	1446.04
464.32	1467.5
464.692	1474.28
465.065	1500.05
465.438	1519.03
465.81	1531.23
466.183	1582.98
466.555	1597.22
466.928	1633.15
467.3	1665.24
467.672	1686.48
468.045	1700.94
468.417	1694.16
468.789	1723.32
469.161	1726.03
469.534	1795.63
469.906	1834.05
470.278	1858
470.65	1896.87
471.022	1902.97
471.394	1962.63
471.766	2018.22
472.138	2026.59
472.51	2082.63
472.882	2136.19
473.253	2167.6
473.625	2190.42
473.997	2300.25
474.369	2287.37
474.74	2293.47
475.112	2384.99
475.484	2435.39
475.855	2511.09
476.227	2566.91
476.598	2659.56
476.97	2695.95
477.341	2766.45
477.713	2819.33
478.084	2876.51
478.455	2964.64
478.827	2999.44
479.198	3147.01
479.569	3186.33
479.94	3286.21
480.311	3340
480.682	3480.56
481.053	3571.63
481.424	3636.71
481.795	3697.5
482.166	3803.04
482.537	3882.13
482.908	3996.93
483.279	4095.68
483.65	4183.82
484.021	4361.89
484.391	4388.1
484.762	4462.45
485.133	4586.74
485.503	4680.07
485.874	4801.65
486.244	4937.24
486.615	5071.93
486.985	5182.21
487.356	5300.17
487.726	5404.12
488.097	5596.66
488.467	5666.94
488.837	5821.97
489.207	5951.45
489.578	6142.18
489.948	6201.16
490.318	6339.01
490.688	6384.21
491.058	6583.75
491.428	6697.65
491.798	6800.7
492.168	7028.49
492.538	7106.9
492.908	7217.41
493.278	7405.43
493.648	7456.72
494.017	7597.96
494.387	7709.15
494.757	7864.4
495.126	7996.37
495.496	8034.34
495.866	8164.5
496.235	8338.96
496.605	8396.59
496.974	8472.07
497.344	8646.3
497.713	8774.88
498.082	8798.16
498.452	8957.93
498.821	9060.07
499.19	9107.08
499.559	9227.3
499.928	9363.34
500.298	9396.11
500.667	9563.56
501.036	9604.01
501.405	9753.61
501.774	9666.38
502.143	9797
502.512	9898.24
502.88	10083.55
503.249	9991.12
503.618	10220.72
503.987	10255.75
504.356	10228.18
504.724	10436.76
505.093	10440.83
505.462	10432.47
505.83	10546.81
506.199	10647.38
506.567	10765.34
506.936	10781.38
507.304	10890.08
507.672	10885.34
508.041	11049.4
508.409	11102.96
508.777	11121.26
509.145	11203.29
509.514	11278.55
509.882	11332.1
510.25	11274.93
510.618	11363.51
510.986	11440.8
511.354	11452.78
511.722	11554.92
512.09	11621.59
512.458	11604.19
512.826	11735.03
513.193	11767.8
513.561	11752.66
513.929	11820.23
514.297	11967.34
514.664	11929.6
515.032	12010.28
515.4	12061.8
515.767	12051.63
516.135	12134.12
516.502	11933.9
516.869	12202.81
517.237	12198.07
517.604	12175.47
517.972	12244.17
518.339	12267.22
518.706	12287.33
519.073	12251.4
519.44	12362.13
519.808	12459.76
520.175	12394.45
520.542	12578.85
520.909	12539.3
521.276	12492.75
521.643	12585.4
522.009	12645.97
522.376	12703.37
522.743	12653.65
523.11	12687.1
523.477	12845.96
523.843	12804.83
524.21	12926.41
524.577	12986.97
524.943	12920.31
525.31	12945.62
525.676	13023.81
526.043	12990.36
526.409	13086.86
526.776	13052.28
527.142	13057.03
527.508	13024.04
527.874	13116.01
528.241	13143.58
528.607	13085.28
528.973	13202.56
529.339	13096.12
529.705	13279.17
530.071	13189
530.437	13211.6
530.803	13305.16
531.169	13239.17
531.535	13124.15
531.901	13128.67
532.267	13134.99
532.632	13096.35
532.998	13107.88
533.364	13129.12
533.73	13154.88
534.095	13165.5
534.461	13095.67
534.826	13174.09
535.192	13186.07
535.557	13069.68
535.923	12978.84
536.288	13086.18
536.653	13114.66
537.019	12988.1
537.384	13020.42
537.749	13094.09
538.114	12981.1
538.479	12904.49
538.845	12946.98
539.21	12883.93
539.575	12843.93
539.94	12812.74
540.305	12852.52
540.67	12807.32
541.034	12753.31
541.399	12753.31
541.764	12678.96
542.129	12729.58
542.494	12623.59
542.858	12538.85
543.223	12595.35
543.587	12617.95
543.952	12528.68
544.316	12546.76
544.681	12479.64
545.045	12475.58
545.41	12432.64
545.774	12333.66
546.138	12408.69
546.503	12358.97
546.867	12291.17
547.231	12351.96
547.595	12264.28
547.959	12286.88
548.324	12161.46
548.688	12190.16
549.052	12190.84
549.416	12194.45
549.779	12158.52
550.143	12004.18
550.507	12107.9
550.871	12090.28
551.235	12072.2
551.599	12051.18
551.962	12015.02
552.326	11971.63
552.689	11949.71
553.053	11832.43
553.417	11795.82
553.78	11961.92
554.143	11887.79
554.507	11819.55
554.87	11846.21
555.234	11864.52
555.597	11782.26
555.96	11752.88
556.323	11752.88
556.686	11739.1
557.05	11803.05
557.413	11762.6
557.776	11674.47
558.139	11688.48
558.502	11747.91
558.865	11719.21
559.228	11673.34
559.59	11669.72
559.953	11723.96
560.316	11763.28
560.679	11716.27
561.041	11719.21
561.404	11745.88
561.767	11819.1
562.129	11733.45
562.492	11770.51
562.854	11701.13
563.217	11680.57
563.579	11697.74
563.941	11803.05
564.304	11757.18
564.666	11758.76
565.028	11877.85
565.39	11749.72
565.753	11803.28
566.115	11763.73
566.477	11859.09
566.839	11773.45
567.201	11847.8
567.563	11848.47
567.925	11940.45
568.287	11861.13
568.648	11903.16
569.01	11978.87
569.372	11983.84
569.734	11907
570.095	12021.35
570.457	11951.3
570.819	11994.46
571.18	11991.75
571.542	11974.12
571.903	11997.4
572.265	12087.34
572.626	11979.54
572.987	12097.28
573.349	12092.31
573.71	12027.68
574.071	12135.7
574.432	12061.8
574.794	12209.59
575.155	12039.2
575.516	12118.98
575.877	12066.55
576.238	12071.97
576.599	12181.12
576.96	12146.77
577.32	12078.75
577.681	12286.2
578.042	12193.32
578.403	12187.45
578.763	12209.37
579.124	12152.87
579.485	12231.97
579.845	12197.62
580.206	12198.52
580.566	12234
580.927	12117.85
581.287	12199.2
581.648	12197.17
582.008	12222.7
582.368	12189.93
582.728	12171.4
583.089	12096.38
583.449	12163.72
583.809	12174.57
584.169	12217.5
584.529	12099.09
584.889	12109.94
585.249	12131.4
585.609	12115.81
585.969	12076.72
586.329	12111.29
586.688	12078.98
587.048	12024.51
587.408	12043.04
587.768	12059.54
588.127	12008.47
588.487	12038.98
588.846	12104.96
589.206	11936.38
589.565	11975.7
589.925	12075.36
590.284	11974.35
590.643	12015.7
591.003	12024.97
591.362	12056.83
591.721	12054.12
592.08	11985.87
592.44	12026.55
592.799	11993.1
593.158	11996.04
593.517	11969.6
593.876	11888.92
594.235	11953.1
594.593	11971.63
594.952	12014.57
595.311	11908.59
595.67	11931.18
596.029	12031.29
596.387	11959.21
596.746	11959.88
597.104	11915.59
597.463	11934.35
597.822	11994.68
598.18	11943.84
598.538	11976.61
598.897	11902.48
599.255	11818.87
599.613	12007.57
599.972	11902.03
600.33	11934.8
600.688	11837.17
601.046	11923.27
601.404	11965.08
601.762	11939.09
602.12	11889.15
602.478	11889.83
602.836	11872.88
603.194	11800.79
603.552	11824.29
603.91	11849.83
604.268	11859.77
604.625	11843.73
604.983	11928.02
605.341	11793.33
605.698	11938.41
606.056	11945.87
606.413	11939.09
606.771	11961.92
607.128	11935.93
607.485	11881.69
607.843	11988.58
608.2	11972.54
608.557	11998.98
608.914	11979.09
609.272	12073.1
609.629	12018.64
609.986	12091.41
610.343	12022.25
610.7	12074.68
611.057	12021.8
611.414	12032.42
611.771	12010.28
612.127	12131.18
612.484	12055.47
612.841	12120.56
613.198	12062.25
613.554	12076.94
613.911	12108.13
614.267	12114.91
614.624	12121.46
614.98	12056.38
615.337	12205.53
615.693	12094.79
616.05	12185.19
616.406	12143.38
616.762	12147.67
617.118	12142.03
617.475	12129.37
617.831	12191.74
618.187	12165.53
618.543	12243.49
618.899	12289.14
619.255	12215.7
619.611	12211.63
619.967	12281.91
620.323	12269.25
620.678	12265.64
621.034	12241.01
621.39	12193.55
621.746	12204.4
622.101	12362.13
622.457	12230.16
622.812	12159.65
623.168	12254.11
623.523	12260.21
623.879	12312.64
624.234	12307.9
624.589	12232.19
624.945	12269.93
625.3	12273.32
625.655	12290.72
626.01	12321.23
626.365	12307.44
626.72	12294.34
627.075	12276.03
627.43	12245.07
627.785	12225.86
628.14	12251.85
628.495	12207.56
628.85	12198.97
629.205	12114
629.559	12223.83
629.914	12177.96
630.269	12168.92
630.623	12184.28
630.978	12149.93
631.332	12176.37
631.687	12212.53
632.041	12119.65
632.396	12104.29
632.75	12090.95
633.104	12070.16
633.459	12030.39
633.813	12023.61
634.167	12052.08
634.521	12113.78
634.875	12084.4
635.229	11991.29
635.583	11905.65
635.937	11954.91
636.291	11958.75
636.645	12005.08
636.999	11929.38
637.352	11944.74
637.706	11871.3
638.06	11983.39
638.413	11905.2
638.767	11912.65
639.121	11911.97
639.474	11869.49
639.828	11873.33
640.181	11831.53
640.534	11803.28
640.888	11852.77
641.241	11780.45
641.594	11718.76
641.947	11750.4
642.301	11718.53
642.654	11754.69
643.007	11761.92
643.36	11730.74
643.713	11617.75
644.066	11758.98
644.419	11624.3
644.771	11599.21
645.124	11433.57
645.477	11424.53
645.83	11406.23
646.182	11347.47
646.535	11390.86
646.888	11378.43
647.24	11291.65
647.593	11343.63
647.945	11311.09
648.298	11327.58
648.65	11274.7
649.002	11264.99
649.355	11307.47
649.707	11357.87
650.059	11338.66
650.411	11530.06
650.763	11515.15
651.115	11604.86
651.467	11605.32
651.819	11587.92
652.171	11535.49
652.523	11534.36
652.875	11552.44
653.227	11491.42
653.578	11648.71
653.93	11556.73
654.282	11502.49
654.633	11493.91
654.985	11447.35
655.337	11499.33
655.688	11483.74
656.039	11622.27
656.391	11517.41
656.742	11469.73
657.094	11529.16
657.445	11542.49
657.796	11558.31
658.147	11517.86
658.498	11528.93
658.849	11530.29
659.2	11482.61
659.551	11550.63
659.902	11595.6
660.253	11588.14
660.604	11595.15
660.955	11508.82
661.306	11582.72
661.656	11588.82
662.007	11598.76
662.358	11564.41
662.708	11631.53
663.059	11561.93
663.409	11450.97
663.76	11604.41
664.11	11624.3
664.461	11587.24
664.811	11541.59
665.161	11580.23
665.511	11570.06
665.862	11509.5
666.212	11549.27
666.562	11650.51
666.912	11584.07
667.262	11574.58
667.612	11601.93
667.962	11570.74
668.312	11541.36
668.662	11571.87
669.011	11584.07
669.361	11600.34
669.711	11531.65
670.06	11517.86
670.41	11501.14
670.76	11559.89
671.109	11558.76
671.459	11489.16
671.808	11561.48
672.157	11533.68
672.507	11513.12
672.856	11464.08
673.205	11509.95
673.554	11598.54
673.904	11490.29
674.253	11532.1
674.602	11453
674.951	11374.81
675.3	11269.73
675.649	11455.49
675.998	11487.58
676.346	11437.86
676.695	11501.59
677.044	11408.94
677.393	11380.24
677.741	11425.21
678.09	11358.77
678.438	11302.27
678.787	11351.99
679.135	11353.8
679.484	11319.9
679.832	11315.38
680.181	11281.26
680.529	11262.05
680.877	11209.62
681.225	11244.65
681.573	11312.44
681.922	11098.66
682.27	11154.25
682.618	11153.58
682.966	11159.45
683.314	11185.21
683.661	11063.18
684.009	11050.75
684.357	10947.25
684.705	10965.79
685.053	11013.02
685.4	11009.17
685.748	10955.39
686.095	10889.18
686.443	10842.4
686.79	10884.88
687.138	10870.87
687.485	10910.19
687.832	10822.29
688.18	10794.04
688.527	10787.26
688.874	10774.6
689.221	10734.15
689.568	10678.11
689.915	10668.39
690.262	10683.98
690.609	10611.67
690.956	10571.45
691.303	10568.96
691.65	10448.96
691.997	10523.54
692.344	10426.36
692.69	10334.16
693.037	10407.16
693.383	10290.1
693.73	10332.58
694.077	10254.39
694.423	10270.66
694.769	10235.18
695.116	10138.69
695.462	10185.47
695.808	10071.35
696.155	10084
696.501	10060.72
696.847	10017.34
697.193	9898.47
697.539	9933.95
697.885	9884.68
698.231	9846.72
698.577	9830.22
698.923	9826.61
699.269	9786.61
699.614	9666.84
699.96	9684.69
700.306	9683.11
700.651	9630.45
700.997	9632.26
701.342	9578.48
701.688	9587.74
702.033	9512.72
702.379	9462.32
702.724	9427.29
703.069	9454.64
703.415	9380.97
703.76	9368.09
704.105	9311.14
704.45	9269.33
704.795	9238.15
705.14	9216
705.485	9265.26
705.83	9169.45
706.175	9248.54
706.52	9226.85
706.865	9124.03
707.209	9074.08
707.554	9063.46
707.899	9090.13
708.243	8966.06
708.588	8996.57
708.932	8975.1
709.277	8899.62
709.621	8920.87
709.966	8927.42
710.31	8910.25
710.654	8775.79
710.998	8764.71
711.342	8799.51
711.687	8724.71
712.031	8824.37
712.375	8694.88
712.719	8717.48
713.063	8726.3
713.407	8742.57
713.75	8620.08
714.094	8634.1
714.438	8595.9
714.782	8714.54
715.125	8565.17
715.469	8616.02
715.812	8553.65
716.156	8464.61
716.499	8555.68
716.843	8531.05
717.186	8493.31
717.53	8523.14
717.873	8448.11
718.216	8464.61
718.559	8484.04
718.902	8393.65
719.246	8365.18
719.589	8395.01
719.932	8326.98
720.275	8358.85
720.617	8388.23
720.96	8339.64
721.303	8364.05
721.646	8317.27
721.989	8306.19
722.331	8333.99
722.674	8312.97
723.016	8344.61
723.359	8253.09
723.701	8281.34
724.044	8257.38
724.386	8254.9
724.729	8241.56
725.071	8228.68
725.413	8231.62
725.755	8228
726.097	8209.47
726.439	8166.99
726.782	8190.72
727.124	8296.93
727.465	8240.21
727.807	8150.49
728.149	8139.64
728.491	8153.66
728.833	8181
729.175	8173.09
729.516	8119.31
729.858	8168.34
730.199	8152.07
730.541	8182.58
730.882	8105.3
731.224	8147.78
731.565	8151.85
731.906	8108.46
732.248	8117.05
732.589	8103.26
732.93	8129.02
733.271	8167.67
733.612	8179.64
733.953	8136.03
734.294	8123.6
734.635	8075.69
734.976	8170.83
735.317	8117.5
735.658	8110.27
735.999	8094.22
736.339	8124.5
736.68	8122.47
737.021	8149.59
737.361	8103.94
737.702	8214.45
738.042	8138.74
738.383	8132.64
738.723	8156.14
739.063	8171.73
739.404	8187.55
739.744	8177.16
740.084	8194.11
740.424	8240.66
740.764	8147.33
741.104	8261.68
741.444	8206.31
741.784	8244.27
742.124	8235.01
742.464	8266.2
742.804	8200.89
743.143	8267.78
743.483	8334.67
743.823	8286.76
744.162	8338.51
744.502	8398.85
744.841	8404.27
745.181	8467.55
745.52	8412.18
745.86	8469.35
746.199	8443.82
746.538	8525.17
746.877	8644.26
747.216	8610.82
747.556	8677.26
747.895	8763.58
748.234	8683.81
748.573	8790.7
748.911	8851.49
749.25	8897.82
749.589	8936.46
749.928	9018.49
750.267	9142.1
750.605	9090.35
750.944	9194.31
751.283	9242.44
751.621	9348.43
751.96	9402.44
752.298	9447.18
752.636	9641.3
752.975	9655.76
753.313	9700.73
753.651	9905.25
753.989	9945.25
754.327	10098.46
754.666	10089.65
755.004	10251
755.342	10383.2
755.679	10528.51
756.017	10566.7
756.355	10784.32
756.693	10860.25
757.031	11010.3
757.368	11073.13
757.706	11271.09
758.044	11355.15
758.381	11525.77
758.719	11617.07
759.056	11852.54
759.394	12012.31
759.731	12112.87
760.068	12299.54
