Data from hue_300_FLMS001491_00022.txt Node
Date: Tue Feb 07 15:50:30 GMT 2017
User: dcchb
Spectrometer: FLMS00149
Trigger mode: 0
Integration Time (sec): 2.000000E-2
Scans to average: 10
Electric dark correction enabled: true
Nonlinearity correction enabled: false
Boxcar width: 0
XAxis mode: Wavelengths
Number of Pixels in Spectrum: 2048
>>>>>Begin Spectral Data<<<<<
341.393	-1.19
341.776	-1.19
342.16	-1.19
342.543	-50.68
342.927	-65.59
343.31	-67.85
343.693	-80.73
344.077	-52.48
344.46	-72.6
344.843	-40.96
345.226	-39.38
345.61	-24.01
345.993	-18.36
346.376	6.72
346.759	8.53
347.142	15.99
347.525	53.73
347.908	49.89
348.291	57.57
348.674	85.59
349.057	118.36
349.44	97.34
349.823	109.09
350.206	160.62
350.588	211.69
350.971	186.38
351.354	215.98
351.737	224.12
352.119	246.04
352.502	257.56
352.884	255.53
353.267	270.22
353.65	267.96
354.032	264.12
354.414	299.6
354.797	293.27
355.179	307.28
355.562	314.51
355.944	318.13
356.326	308.41
356.709	333.95
357.091	320.61
357.473	337.79
357.855	339.37
358.238	333.95
358.62	324.68
359.002	318.13
359.384	329.43
359.766	348.63
360.148	324.68
360.53	334.4
360.912	329.43
361.294	324.68
361.676	313.38
362.057	337.56
362.439	330.33
362.821	305.02
363.203	310.9
363.584	308.86
363.966	300.5
364.348	313.61
364.729	326.04
365.111	332.59
365.493	306.15
365.874	321.74
366.256	314.96
366.637	319.71
367.019	304.57
367.4	290.56
367.781	323.55
368.163	304.12
368.544	321.52
368.925	297.79
369.306	315.64
369.688	312.7
370.069	313.83
370.45	301.86
370.831	299.37
371.212	305.25
371.593	295.08
371.974	317
372.355	304.12
372.736	297.79
373.117	326.71
373.498	318.13
373.879	312.93
374.26	306.6
374.641	309.54
375.021	296.43
375.402	322.65
375.783	314.06
376.163	313.38
376.544	307.28
376.925	321.52
377.305	304.57
377.686	311.12
378.066	319.71
378.447	331.91
378.827	322.87
379.208	325.13
379.588	314.51
379.968	356.09
380.349	311.35
380.729	342.76
381.109	337.11
381.489	339.6
381.87	328.07
382.25	341.86
382.63	341.4
383.01	324.45
383.39	349.09
383.77	338.24
384.15	328.52
384.53	349.09
384.91	341.18
385.29	331.01
385.67	348.18
386.049	344.57
386.429	351.12
386.809	348.18
387.189	347.5
387.568	349.76
387.948	354.96
388.328	364.91
388.707	364.45
389.087	359.03
389.466	355.64
389.846	347.28
390.225	344.57
390.605	374.4
390.984	380.5
391.363	361.06
391.743	366.94
392.122	368.75
392.501	375.53
392.881	370.1
393.26	368.52
393.639	364.91
394.018	388.18
394.397	396.09
394.776	366.71
395.155	371.91
395.534	382.08
395.913	388.63
396.292	389.09
396.671	361.74
397.05	378.92
397.429	387.73
397.808	386.15
398.186	389.99
398.565	386.83
398.944	382.98
399.323	406.03
399.701	416.43
400.08	434.51
400.458	438.8
400.837	418.92
401.215	406.71
401.594	409.2
401.972	396.54
402.351	440.61
402.729	393.15
403.107	417.56
403.486	405.36
403.864	410.78
404.242	427.73
404.62	430.67
404.999	446.03
405.377	434.96
405.755	441.06
406.133	451.91
406.511	446.71
406.889	440.16
407.267	442.42
407.645	483.32
408.023	481.06
408.401	472.25
408.779	477.9
409.156	484.22
409.534	481.51
409.912	495.98
410.29	508.18
410.667	505.69
411.045	527.61
411.422	538.46
411.8	525.58
412.178	542.75
412.555	550.21
412.933	539.59
413.31	559.48
413.687	555.41
414.065	600.15
414.442	603.77
414.819	597.89
415.197	601.51
415.574	614.62
415.951	648.97
416.328	626.59
416.705	632.24
417.082	646.71
417.46	645.35
417.837	649.64
418.214	663.43
418.591	695.52
418.967	682.19
419.344	684.67
419.721	700.04
420.098	698.68
420.475	716.99
420.852	724.44
421.228	715.4
421.605	742.07
421.982	759.47
422.358	778.23
422.735	774.61
423.111	786.82
423.488	799.02
423.864	794.95
424.241	803.09
424.617	811.45
424.994	827.04
425.37	799.92
425.746	828.62
426.123	840.37
426.499	851.9
426.875	853.25
427.251	881.73
427.627	893.48
428.003	909.3
428.379	922.18
428.756	902.29
429.132	944.1
429.507	947.72
429.883	925.34
430.259	1003.53
430.635	965.34
431.011	989.75
431.387	996.3
431.763	1020.93
432.138	1021.84
432.514	1025.45
432.89	1025.23
433.265	1061.61
433.641	1074.27
434.016	1083.76
434.392	1064.55
434.767	1117.2
435.143	1101.61
435.518	1121.04
435.894	1122.17
436.269	1163.3
436.644	1182.96
437.02	1182.51
437.395	1153.36
437.77	1176.64
438.145	1211.66
438.52	1216.41
438.895	1221.15
439.271	1229.52
439.646	1244.2
440.021	1247.37
440.395	1243.3
440.77	1251.66
441.145	1272
441.52	1269.97
441.895	1274.49
442.27	1274.71
442.645	1280.14
443.019	1304.32
443.394	1300.47
443.769	1326.46
444.143	1307.03
444.518	1344.77
444.892	1311.1
445.267	1379.12
445.641	1327.82
446.016	1341.38
446.39	1345.22
446.764	1334.82
447.139	1356.52
447.513	1360.13
447.887	1394.48
448.262	1370.3
448.636	1417.99
449.01	1394.48
449.384	1419.79
449.758	1415.05
450.132	1393.58
450.506	1430.41
450.88	1436.06
451.254	1435.84
451.628	1410.08
452.002	1456.85
452.376	1455.72
452.75	1467.02
453.123	1462.96
453.497	1460.92
453.871	1502.95
454.244	1510.41
454.618	1489.62
454.992	1552.67
455.365	1513.8
455.739	1548.83
456.112	1542.05
456.486	1557.19
456.859	1565.55
457.232	1602.61
457.606	1596.51
457.979	1572.11
458.352	1628.83
458.725	1649.39
459.099	1639
459.472	1664.31
459.845	1669.5
460.218	1692.55
460.591	1687.13
460.964	1677.19
461.337	1712.67
461.71	1732.55
462.083	1751.08
462.456	1730.07
462.829	1737.52
463.201	1793.34
463.574	1764.64
463.947	1802.83
464.32	1841.03
464.692	1825.88
465.065	1823.62
465.438	1856.17
465.81	1873.34
466.183	1896.62
466.555	1881.48
466.928	1887.8
467.3	1885.09
467.672	1918.31
468.045	1959.44
468.417	1978.87
468.789	1946.33
469.161	1965.54
469.534	2009.16
469.906	2036.27
470.278	2049.38
470.65	2077.4
471.022	2075.82
471.394	2103.17
471.766	2082.37
472.138	2107.68
472.51	2156.95
472.882	2195.37
473.253	2214.12
473.625	2232.43
473.997	2246.21
474.369	2268.58
474.74	2274.69
475.112	2292.76
475.484	2330.5
475.855	2357.17
476.227	2360.33
476.598	2419.09
476.97	2421.12
477.341	2467.45
477.713	2466.32
478.084	2471.74
478.455	2497.28
478.827	2549.48
479.198	2550.16
479.569	2586.54
479.94	2648.46
480.311	2638.74
480.682	2677.84
481.053	2715.8
481.424	2753.09
481.795	2773.66
482.166	2799.19
482.537	2786.54
482.908	2892.3
483.279	2866.31
483.65	2906.53
484.021	2932.07
484.391	2957.83
484.762	2971.16
485.133	3009.81
485.503	3046.64
485.874	3063.14
486.244	3102.69
486.615	3129.35
486.985	3157.83
487.356	3185.17
487.726	3180.2
488.097	3235.11
488.467	3297.48
488.837	3303.36
489.207	3347.65
489.578	3372.96
489.948	3391.94
490.318	3407.99
490.688	3418.16
491.058	3450.02
491.428	3513.75
491.798	3529.12
492.168	3557.82
492.538	3536.8
492.908	3628.77
493.278	3616.12
493.648	3604.59
494.017	3656.57
494.387	3686.85
494.757	3697.93
495.126	3728.43
495.496	3747.42
495.866	3768.66
496.235	3772.5
496.605	3791.26
496.974	3774.99
497.344	3844.81
497.713	3864.25
498.082	3843.01
498.452	3884.81
498.821	3885.94
499.19	3905.15
499.559	3913.06
499.928	3916
500.298	3974.3
500.667	3998.93
501.036	3979.27
501.405	4033.74
501.774	3949.22
502.143	4047.52
502.512	4047.97
502.88	4073.28
503.249	4079.38
503.618	4108.76
503.987	4061.53
504.356	4118.93
504.724	4132.26
505.093	4167.97
505.462	4168.87
505.83	4154.64
506.199	4235.54
506.567	4236.44
506.936	4248.42
507.304	4284.8
507.672	4237.35
508.041	4264.92
508.409	4299.94
508.777	4325.71
509.145	4312.15
509.514	4293.84
509.882	4342.43
510.25	4346.95
510.618	4372.94
510.986	4381.52
511.354	4425.82
511.722	4393.73
512.09	4422.43
512.458	4424.91
512.826	4478.92
513.193	4497.68
513.561	4477.79
513.929	4512.59
514.297	4518.92
514.664	4574.51
515.032	4570.9
515.4	4557.11
515.767	4606.38
516.135	4545.13
516.502	4552.37
516.869	4662.65
517.237	4598.92
517.604	4607.96
517.972	4624.91
518.339	4631.23
518.706	4628.07
519.073	4653.15
519.44	4631.91
519.808	4707.62
520.175	4718.69
520.542	4722.08
520.909	4735.41
521.276	4754.85
521.643	4725.24
522.009	4805.92
522.376	4807.95
522.743	4818.8
523.11	4875.3
523.477	4842.98
523.843	4915.75
524.21	4940.83
524.577	4944.67
524.943	5009.3
525.31	4980.15
525.676	5047.04
526.043	5070.32
526.409	5057.66
526.776	5121.39
527.142	5142.18
527.508	5143.54
527.874	5186.7
528.241	5178.56
528.607	5177.43
528.973	5205
529.339	5212.91
529.705	5288.84
530.071	5337.66
530.437	5290.88
530.803	5282.52
531.169	5368.62
531.535	5327.04
531.901	5404.77
532.267	5361.16
532.632	5399.58
532.998	5455.17
533.364	5504.43
533.73	5510.53
534.095	5478.22
534.461	5559.8
534.826	5523.64
535.192	5633.69
535.557	5649.51
535.923	5633.47
536.288	5640.25
536.653	5633.24
537.019	5670.53
537.384	5687.48
537.749	5747.36
538.114	5746.01
538.479	5739.68
538.845	5783.29
539.21	5784.88
539.575	5826.23
539.94	5861.26
540.305	5906
540.67	5893.8
541.034	5894.7
541.399	5903.97
541.764	6021.71
542.129	5977.19
542.494	5976.06
542.858	5993.01
543.223	6034.59
543.587	6089.05
543.952	6106.45
544.316	6162.27
544.681	6176.5
545.045	6124.53
545.41	6185.32
545.774	6214.24
546.138	6222.6
546.503	6241.36
546.867	6225.99
547.231	6305.77
547.595	6310.96
547.959	6334.92
548.324	6336.95
548.688	6409.49
549.052	6370.4
549.416	6430.28
549.779	6413.79
550.143	6467.8
550.507	6457.85
550.871	6517.51
551.235	6488.36
551.599	6566.55
551.962	6543.05
552.326	6584.4
552.689	6578.98
553.053	6627.57
553.417	6632.54
553.78	6699.2
554.143	6679.54
554.507	6714.34
554.87	6755.47
555.234	6791.63
555.597	6742.82
555.96	6772.65
556.323	6767.68
556.686	6698.07
557.05	6870.5
557.413	6870.05
557.776	6878.18
558.139	6930.16
558.502	6934.45
558.865	6913.89
559.228	6978.52
559.59	7044.05
559.953	7089.7
560.316	7117.72
560.679	7072.98
561.041	7073.66
561.404	7086.99
561.767	7161.79
562.129	7179.87
562.492	7181.68
562.854	7213.54
563.217	7261.67
563.579	7239.53
563.941	7238.62
564.304	7283.82
564.666	7370.15
565.028	7404.27
565.39	7337.38
565.753	7377.6
566.115	7381.9
566.477	7409.69
566.839	7424.83
567.201	7519.75
567.563	7502.8
567.925	7557.26
568.287	7589.8
568.648	7568.11
569.01	7678.16
569.372	7701.89
569.734	7645.17
570.095	7682
570.457	7718.84
570.819	7826.4
571.18	7748.44
571.542	7912.05
571.903	7876.12
572.265	7890.36
572.626	7921.09
572.987	7993.63
573.349	8057.36
573.71	8164.47
574.071	8184.36
574.432	8149.79
574.794	8220.52
575.155	8312.49
575.516	8372.15
575.877	8412.38
576.238	8457.57
576.599	8558.14
576.96	8623.22
577.32	8730.11
577.681	8799.03
578.042	8901.63
578.403	8874.96
578.763	9012.59
579.124	9182.07
579.485	9240.6
579.845	9411.22
580.206	9543.2
580.566	9585.23
580.927	9708.16
581.287	9819.57
581.648	9909.06
582.008	10122.62
582.368	10295.49
582.728	10387.02
583.089	10552.66
583.449	10675.37
583.809	10897.51
584.169	11098.86
584.529	11284.84
584.889	11507.66
585.249	11655.68
585.609	11739.75
585.969	12041.21
586.329	12305.83
586.688	12547.18
587.048	12732.04
587.408	12902.2
587.768	13255.64
588.127	13432.81
588.487	13623.31
588.846	13998.22
589.206	14172.9
589.565	14496.51
589.925	14709.61
590.284	15032.77
590.643	15243.61
591.003	15632.3
591.362	15889.92
591.721	16090.59
592.08	16323.36
592.44	16705.27
592.799	17042.66
593.158	17325.59
593.517	17603.77
593.876	17888.51
594.235	18181.84
594.593	18487.37
594.952	18826.79
595.311	19058.2
595.67	19448.7
596.029	19773.21
596.387	20129.81
596.746	20502.91
597.104	20746.29
597.463	20959.39
597.822	21335.88
598.18	21569.32
598.538	21761.18
598.897	22301.96
599.255	22348.96
599.613	22989.62
599.972	23101.26
600.33	23463.28
600.688	23626.21
601.046	23839.54
601.404	24379.42
601.762	24489.02
602.12	24885.39
602.478	25108.89
602.836	25455.55
603.194	25630
603.552	25950
603.91	25958.13
604.268	26444.9
604.625	26587.49
604.983	26920.37
605.341	27084.66
605.698	27521.93
606.056	27700.01
606.413	28023.16
606.771	28238.07
607.128	28302.48
607.485	28592.64
607.843	28831.5
608.2	29203.02
608.557	29415.44
608.914	29516.23
609.272	29960.74
609.629	30170
609.986	30423.1
610.343	30504
610.7	30823.31
611.057	31085.91
611.414	31122.29
611.771	31380.81
612.127	31713.01
612.484	31829.84
612.841	32086.33
613.198	32212.2
613.554	32332.88
613.911	32591.63
614.267	32745.52
614.624	32792.53
614.98	33039.98
615.337	33437.26
615.693	33432.28
616.05	33424.83
616.406	33799.05
616.762	33901.88
617.118	34007.41
617.475	34097.35
617.831	34340.96
618.187	34516.55
618.543	34651.46
618.899	34908.63
619.255	34965.35
619.611	35004.9
619.967	35277.89
620.323	35342.97
620.678	35352.23
621.034	35417.09
621.39	35627.03
621.746	35621.61
622.101	36149.95
622.457	35903.63
622.812	36021.14
623.168	36093.68
623.523	36292.55
623.879	36453.45
624.234	36278.99
624.589	36477.18
624.945	36671.97
625.3	36667.45
625.655	36840.78
626.01	36770.28
626.365	36968.91
626.72	36925.98
627.075	36960.33
627.43	37090.49
627.785	37079.65
628.14	37221.34
628.495	37315.8
628.85	37271.73
629.205	37185.18
629.559	37486.42
629.914	37371.84
630.269	37554.21
630.623	37469.24
630.978	37304.95
631.332	37621.78
631.687	37786.29
632.041	37576.36
632.396	37784.49
632.75	37655.68
633.104	37803.92
633.459	37600.08
633.813	37587.43
634.167	37582.68
634.521	37647.09
634.875	37745.17
635.229	37789.23
635.583	37494.55
635.937	37726.18
636.291	37696.35
636.645	37812.28
636.999	37588.56
637.352	37863.13
637.706	37535.45
638.06	37730.7
638.413	37767.09
638.767	37565.96
639.121	37744.26
639.474	37491.61
639.828	37678.27
640.181	37556.47
640.534	37679.4
640.888	37567.54
641.241	37461.11
641.594	37448.9
641.947	37589.69
642.301	37595.79
642.654	37641.89
643.007	37588.56
643.36	37596.92
643.713	37581.33
644.066	37627.65
644.419	37519.41
644.771	37321.22
645.124	37025.41
645.477	36947.45
645.83	36598.98
646.182	36629.71
646.535	36537.06
646.888	36645.76
647.24	36452.54
647.593	36771.18
647.945	36630.17
648.298	36332.32
648.65	36475.82
649.002	36326.67
649.355	36530.51
649.707	36424.3
650.059	36624.52
650.411	37137.05
650.763	37106.99
651.115	37408
651.467	37257.72
651.819	37287.78
652.171	37281.9
652.523	37228.12
652.875	37254.33
653.227	37096.14
653.578	37364.84
653.93	37242.58
654.282	37076.93
654.633	36974.56
654.985	37068.8
655.337	37131.17
655.688	37092.98
656.039	37264.5
656.391	36936.6
656.742	37107.44
657.094	36973.66
657.445	37224.73
657.796	37034
658.147	37035.81
658.498	36995.35
658.849	37139.53
659.2	37003.72
659.551	36992.87
659.902	37120.78
660.253	37105.18
660.604	37082.81
660.955	36769.15
661.306	37130.49
661.656	37072.42
662.007	37034.68
662.358	36910.39
662.708	36855.7
663.059	36945.41
663.409	36784.96
663.76	36872.19
664.11	36954.23
664.461	37058.86
664.811	36975.02
665.161	37063.6
665.511	36828.13
665.862	37000.78
666.212	36916.26
666.562	37167.1
666.912	36977.05
667.262	36853.89
667.612	37029.7
667.962	36947.9
668.312	36908.35
668.662	37109.02
669.011	37098.18
669.361	36840.56
669.711	36914.91
670.06	36713.1
670.41	36927.11
670.76	36697.51
671.109	36817.28
671.459	36871.97
671.808	36739.99
672.157	36850.5
672.507	36587.68
672.856	36604.63
673.205	36586.33
673.554	36836.94
673.904	36673.33
674.253	36822.93
674.602	36608.47
674.951	36261.14
675.3	36002.16
675.649	36681.24
675.998	36424.07
676.346	36558.76
676.695	36702.93
677.044	36357.41
677.393	36467.46
677.741	36655.25
678.09	36482.83
678.438	36338.88
678.787	36443.96
679.135	36424.3
679.484	36153.57
679.832	36302.04
680.181	36054.59
680.529	36250.06
680.877	36150.18
681.225	36005.1
681.573	36347.01
681.922	36148.82
682.27	35999.22
682.618	35908.6
682.966	35906.34
683.314	35990.41
683.661	35977.08
684.009	35683.3
684.357	35650.53
684.705	35542.74
685.053	35664.99
685.4	35631.32
685.748	35484.89
686.095	35349.75
686.443	35193.37
686.79	35211
687.138	35401.05
687.485	35105.91
687.832	35099.59
688.18	35051.45
688.527	34929.19
688.874	34872.02
689.221	34790.22
689.568	34831.12
689.915	34768.75
690.262	34681.07
690.609	34456.66
690.956	34481.52
691.303	34426.83
691.65	34218.03
691.997	34281.98
692.344	34171.7
692.69	34000.63
693.037	34046.28
693.383	33792.5
693.73	34066.17
694.077	33836.79
694.423	33818.26
694.769	33593.86
695.116	33564.94
695.462	33454.21
695.808	33470.02
696.155	33522.68
696.501	33251.27
696.847	33355.9
697.193	33027.78
697.539	33118.39
697.885	32884.28
698.231	32841.79
698.577	32896.93
698.923	32817.84
699.269	32739.42
699.614	32365.42
699.96	32448.13
700.306	32536.04
700.651	32271.86
700.997	32185.76
701.342	32124.75
701.688	32091.08
702.033	32019.89
702.379	31917.3
702.724	32033.68
703.069	31999.33
703.415	31603.18
703.76	31646.34
704.105	31680.92
704.45	31568.15
704.795	31149.86
705.14	31249.29
705.485	31204.32
705.83	31040.26
706.175	31151.67
706.52	30871.9
706.865	30937.21
707.209	30934.72
707.554	30795.07
707.899	30833.48
708.243	30800.04
708.588	30765.46
708.932	30440.73
709.277	30478.69
709.621	30342.65
709.966	30171.81
710.31	30280.73
710.654	29892.72
710.998	30075.54
711.342	30163.22
711.687	30082.09
712.031	29931.59
712.375	29784.7
712.719	29919.16
713.063	29761.42
713.407	29824.02
713.75	29788.54
714.094	29634.64
714.438	29518.72
714.782	29651.14
715.125	29327.53
715.469	29488.66
715.812	29207.76
716.156	29232.4
716.499	29232.17
716.843	29238.5
717.186	28893.87
717.53	29229.91
717.873	29177.48
718.216	28955.79
718.559	28918.51
718.902	28742.69
719.246	28942.91
719.589	28716.25
719.932	28616.37
720.275	28587.44
720.617	28641.22
720.96	28636.48
721.303	28581.79
721.646	28556.71
721.989	28291.4
722.331	28480.1
722.674	28314.45
723.016	28342.48
723.359	28272.65
723.701	28403.94
724.044	28121.46
724.386	28022.71
724.729	28034.01
725.071	28104.06
725.413	27990.17
725.755	27989.26
726.097	27819.33
726.439	27740.68
726.782	27829.04
727.124	27849.38
727.465	27756.73
727.807	27712.89
728.149	27563.06
728.491	27684.87
728.833	27664.07
729.175	27536.39
729.516	27467.92
729.858	27356.51
730.199	27366.46
730.541	27386.79
730.882	27299.11
731.224	27373.69
731.565	27256.63
731.906	27298.66
732.248	27251.88
732.589	27065.67
732.93	27002.17
733.271	26956.97
733.612	26985
733.953	26983.64
734.294	26994.26
734.635	26800.37
734.976	27002.4
735.317	26734.16
735.658	26824.32
735.999	26782.52
736.339	26692.12
736.68	26811.89
737.021	26673.59
737.361	26601.5
737.702	26703.87
738.042	26671.56
738.383	26569.64
738.723	26712.46
739.063	26458.46
739.404	26549.75
739.744	26461.85
740.084	26295.98
740.424	26335.07
740.764	26408.51
741.104	26363.32
741.444	26237.45
741.784	26212.81
742.124	26267.05
742.464	26202.42
742.804	26150.44
743.143	26118.13
743.483	26161.74
743.823	25966.72
744.162	25949.32
744.502	26127.62
744.841	25935.31
745.181	25946.83
745.52	25988.64
745.86	26047.85
746.199	25876.78
746.538	25939.83
746.877	25908.41
747.216	25931.24
747.556	25810.56
747.895	25746.16
748.234	25608.76
748.573	25737.57
748.911	25594.3
749.25	25683.79
749.589	25554.98
749.928	25538.03
750.267	25437.47
750.605	25531.25
750.944	25460.52
751.283	25378.49
751.621	25544.36
751.96	25319.73
752.298	25244.25
752.636	25327.87
752.975	25061.66
753.313	25096.23
753.651	25231.37
753.989	25036.57
754.327	25097.36
754.666	24996.12
755.004	25104.82
755.342	25026.63
755.679	24927.88
756.017	24854.21
756.355	24971.49
756.693	24833.64
757.031	24938.5
757.368	24661.22
757.706	24614.44
758.044	24559.07
758.381	24653.08
758.719	24550.94
759.056	24603.14
759.394	24468.23
759.731	24313.88
