Data from hue_40_FLMS001491_99.txt Node
Date: Mon Feb 06 15:08:52 GMT 2017
User: dcchb
Spectrometer: FLMS00149
Trigger mode: 0
Integration Time (sec): 2.000000E-2
Scans to average: 10
Electric dark correction enabled: true
Nonlinearity correction enabled: false
Boxcar width: 0
XAxis mode: Wavelengths
Number of Pixels in Spectrum: 2048
>>>>>Begin Spectral Data<<<<<
341.393	-30.51
341.776	-30.51
342.16	-30.51
342.543	-60.79
342.927	-81.35
343.31	-43.39
343.693	-48.59
344.077	-78.87
344.46	-39.77
344.843	-52.43
345.226	-32.99
345.61	-32.32
345.993	-31.64
346.376	-9.49
346.759	8.36
347.142	28.47
347.525	20.79
347.908	52.88
348.291	71.86
348.674	91.75
349.057	95.36
349.44	135.82
349.823	135.36
350.206	143.73
350.588	173.33
350.971	198.41
351.354	236.6
351.737	245.42
352.119	256.72
352.502	256.49
352.884	280.22
353.267	271.41
353.65	286.77
354.032	312.08
354.414	300.11
354.797	352.53
355.179	314.12
355.562	347.56
355.944	325.87
356.326	335.13
356.709	343.49
357.091	329.48
357.473	364.74
357.855	345.08
358.238	340.56
358.62	349.37
359.002	372.42
359.384	335.13
359.766	335.13
360.148	364.51
360.53	351.18
360.912	364.28
361.294	332.19
361.676	349.14
362.057	332.65
362.439	331.52
362.821	347.34
363.203	351.4
363.584	335.58
363.966	334.91
364.348	329.48
364.729	350.95
365.111	334
365.493	349.37
365.874	315.7
366.256	307.11
366.637	318.86
367.019	322.25
367.4	316.6
367.781	325.87
368.163	335.58
368.544	323.38
368.925	323.38
369.306	329.26
369.688	318.41
370.069	306.66
370.45	329.48
370.831	331.97
371.212	317.28
371.593	311.18
371.974	323.16
372.355	321.12
372.736	327.45
373.117	315.92
373.498	335.81
373.879	346.21
374.26	318.18
374.641	333.78
375.021	316.6
375.402	348.69
375.783	338.07
376.163	325.19
376.544	344.17
376.925	311.86
377.305	332.87
377.686	326.77
378.066	324.51
378.447	324.96
378.827	344.17
379.208	342.14
379.588	344.17
379.968	334.68
380.349	327
380.729	330.16
381.109	351.63
381.489	349.82
381.87	355.47
382.25	333.78
382.63	355.7
383.01	334.68
383.39	359.09
383.77	353.21
384.15	354.11
384.53	364.28
384.91	363.38
385.29	353.44
385.67	375.58
386.049	341.46
386.429	346.66
386.809	345.08
387.189	381.23
387.568	367.9
387.948	342.82
388.328	344.85
388.707	372.65
389.087	378.75
389.466	371.74
389.846	386.2
390.225	396.83
390.605	354.57
390.984	367
391.363	392.76
391.743	369.71
392.122	376.26
392.501	404.51
392.881	388.01
393.26	367.22
393.639	393.44
394.018	370.61
394.397	408.8
394.776	405.87
395.155	375.81
395.534	388.69
395.913	407.67
396.292	405.87
396.671	410.16
397.05	406.54
397.429	401.12
397.808	406.99
398.186	383.27
398.565	392.31
398.944	413.1
399.323	387.56
399.701	419.88
400.08	419.2
400.458	413.77
400.837	414.9
401.215	407.9
401.594	409.93
401.972	425.98
402.351	410.16
402.729	417.62
403.107	413.77
403.486	424.62
403.864	422.36
404.242	423.04
404.62	442.25
404.999	424.62
405.377	412.87
405.755	446.77
406.133	451.06
406.511	435.92
406.889	448.12
407.267	438.63
407.645	449.03
408.023	452.42
408.401	455.81
408.779	434.79
409.156	464.17
409.534	475.02
409.912	474.79
410.29	481.12
410.667	460.55
411.045	473.66
411.422	510.72
411.8	491.74
412.178	467.11
412.555	499.2
412.933	490.83
413.31	493.09
413.687	505.98
414.065	505.75
414.442	501.46
414.819	511.62
415.197	522.47
415.574	529.48
415.951	508.46
416.328	522.7
416.705	543.26
417.082	519.08
417.46	533.32
417.837	531.74
418.214	535.35
418.591	533.09
418.967	532.42
419.344	536.26
419.721	581.91
420.098	512.53
420.475	564.73
420.852	522.25
421.228	570.83
421.605	533.09
421.982	567.22
422.358	554.56
422.735	568.35
423.111	571.51
423.488	572.19
423.864	587.56
424.241	582.58
424.617	584.17
424.994	606.31
425.37	607.67
425.746	599.08
426.123	614
426.499	595.69
426.875	611.28
427.251	609.02
427.627	646.31
428.003	646.31
428.379	633.2
428.756	659.42
429.132	639.53
429.507	652.64
429.883	660.77
430.259	659.64
430.635	647.21
431.011	664.39
431.387	686.31
431.763	661.23
432.138	669.59
432.514	711.17
432.89	706.2
433.265	697.16
433.641	706.2
434.016	719.53
434.392	742.58
434.767	731.96
435.143	708.23
435.518	759.3
435.894	730.83
436.269	769.47
436.644	753.2
437.02	773.76
437.395	771.05
437.77	786.42
438.145	808.11
438.52	794.78
438.895	791.39
439.271	790.49
439.646	806.31
440.021	814.89
440.395	819.64
440.77	799.98
441.145	799.3
441.52	833.42
441.895	822.13
442.27	839.98
442.645	835.01
443.019	859.19
443.394	854.21
443.769	862.35
444.143	852.18
444.518	868.45
444.892	858.51
445.267	875.01
445.641	864.84
446.016	874.78
446.39	906.64
446.764	903.71
447.139	893.54
447.513	907.09
447.887	916.36
448.262	905.29
448.636	921.78
449.01	921.56
449.384	927.66
449.758	934.44
450.132	946.87
450.506	937.38
450.88	945.74
451.254	972.63
451.628	966.08
452.002	981.9
452.376	982.35
452.75	979.64
453.123	1008.56
453.497	1012.18
453.871	1016.92
454.244	1035.9
454.618	1040.88
454.992	1046.3
455.365	1069.58
455.739	1082.46
456.112	1082.91
456.486	1096.47
456.859	1096.24
457.232	1140.99
457.606	1123.36
457.979	1126.75
458.352	1154.32
458.725	1164.04
459.099	1152.51
459.472	1195
459.845	1194.77
460.218	1209.91
460.591	1227.76
460.964	1228.89
461.337	1237.48
461.71	1292.62
462.083	1285.62
462.456	1294.66
462.829	1277.03
463.201	1325.16
463.574	1306.41
463.947	1364.03
464.32	1357.25
464.692	1380.53
465.065	1369.68
465.438	1422.56
465.81	1424.37
466.183	1441.54
466.555	1499.85
466.928	1492.39
467.3	1486.06
467.672	1518.15
468.045	1567.87
468.417	1569.68
468.789	1564.48
469.161	1606.51
469.534	1631.6
469.906	1659.39
470.278	1689.67
470.65	1689.22
471.022	1753.85
471.394	1761.08
471.766	1789.33
472.138	1811.25
472.51	1841.76
472.882	1868.43
473.253	1886.73
473.625	1949.1
473.997	1993.62
474.369	2017.57
474.74	2055.54
475.112	2077.01
475.484	2147.97
475.855	2213.05
476.227	2244.91
476.598	2288.75
476.97	2356.77
477.341	2389.32
477.713	2432.93
478.084	2476.32
478.455	2536.88
478.827	2575.07
479.198	2690.1
479.569	2698.23
479.94	2754.05
480.311	2866.82
480.682	2941.62
481.053	2998.34
481.424	3090.99
481.795	3112.46
482.166	3214.38
482.537	3290.53
482.908	3396.29
483.279	3459.12
483.65	3530.98
484.021	3653.46
484.391	3677.87
484.762	3776.4
485.133	3853.46
485.503	3896.17
485.874	4004.41
486.244	4138.87
486.615	4195.82
486.985	4336.38
487.356	4465.87
487.726	4506.55
488.097	4629.93
488.467	4706.32
488.837	4874.22
489.207	5010.26
489.578	5071.51
489.948	5176.36
490.318	5309.69
490.688	5336.13
491.058	5476.47
491.428	5577.03
491.798	5701.09
492.168	5838.94
492.538	5893.18
492.908	6038.26
493.278	6181.31
493.648	6214.53
494.017	6353.96
494.387	6402.32
494.757	6584.69
495.126	6647.28
495.496	6739.94
495.866	6817.67
496.235	6948.29
496.605	7081.4
496.974	7153.94
497.344	7265.12
497.713	7411.33
498.082	7445.45
498.452	7583.76
498.821	7700.36
499.19	7729.97
499.559	7823.75
499.928	7973.35
500.298	8014.7
500.667	8156.85
501.036	8123.18
501.405	8228.26
501.774	8351.87
502.143	8441.59
502.512	8508.25
502.88	8610.85
503.249	8664.18
503.618	8824.63
503.987	8859.2
504.356	8948.92
504.724	9008.8
505.093	9046.09
505.462	9126.99
505.83	9247.67
506.199	9315.01
506.567	9500.32
506.936	9445.4
507.304	9580.99
507.672	9638.62
508.041	9715.45
508.409	9832.51
508.777	9897.14
509.145	9960.19
509.514	10071.83
509.882	10124.25
510.25	10238.15
510.618	10284.7
510.986	10276.34
511.354	10435.66
511.722	10458.03
512.09	10634.97
512.458	10613.96
512.826	10736.67
513.193	10812.6
513.561	10829.09
513.929	11012.37
514.297	11038.35
514.664	11216.88
515.032	11151.12
515.4	11263.66
515.767	11433.37
516.135	11295.3
516.502	11303.43
516.869	11575.29
517.237	11671.33
517.604	11654.61
517.972	11732.35
518.339	11846.02
518.706	11869.07
519.073	11852.12
519.44	11973.02
519.808	12137.76
520.175	12045.56
520.542	12324.42
520.909	12302.28
521.276	12307.47
521.643	12460.24
522.009	12570.97
522.376	12656.62
522.743	12674.02
523.11	12867.91
523.477	12892.54
523.843	12900
524.21	13160.33
524.577	13241.69
524.943	13238.07
525.31	13337.5
525.676	13428.35
526.043	13441.23
526.409	13559.19
526.776	13717.83
527.142	13789.02
527.508	13875.79
527.874	14032.85
528.241	14000.99
528.607	14022.91
528.973	14202.11
529.339	14195.11
529.705	14324.37
530.071	14407.53
530.437	14454.99
530.803	14570.92
531.169	14671.25
531.535	14643.23
531.901	14796.9
532.267	14786.96
532.632	14911.47
532.998	14925.26
533.364	15046.84
533.73	15073.05
534.095	15179.04
534.461	15240.96
534.826	15334.06
535.192	15334.06
535.557	15536.99
535.923	15507.39
536.288	15639.81
536.653	15573.6
537.019	15690.66
537.384	15715.52
537.749	15842.75
538.114	15828.51
538.479	15877.55
538.845	16023.31
539.21	15964.1
539.575	16087.03
539.94	16087.71
540.305	16208.84
540.67	16258.33
541.034	16287.48
541.399	16411.32
541.764	16388.95
542.129	16501.94
542.494	16606.79
542.858	16615.83
543.223	16675.72
543.587	16817.18
543.952	16762.72
544.316	16886.11
544.681	16870.06
545.045	17014.02
545.41	17061.02
545.774	17038.42
546.138	17140.79
546.503	17178.08
546.867	17213.33
547.231	17412.88
547.595	17446.55
547.959	17479.09
548.324	17544.17
548.688	17538.52
549.052	17706.65
549.416	17623.94
549.779	17726.09
550.143	17811.74
550.507	17893.09
550.871	17942.58
551.235	17929.7
551.599	18138.96
551.962	18163.59
552.326	18231.16
552.689	18303.7
553.053	18243.59
553.417	18355.22
553.78	18552.51
554.143	18530.81
554.507	18584.37
554.87	18623.69
555.234	18709.11
555.597	18649
555.96	18833.4
556.323	18898.71
556.686	18909.56
557.05	19034.3
557.413	19065.49
557.776	19145.26
558.139	19294.63
558.502	19225.94
558.865	19241.08
559.228	19389.77
559.59	19455.31
559.953	19547.96
560.316	19752.7
560.679	19743.89
561.041	19827.28
561.404	19933.26
561.767	20069.75
562.129	19975.29
562.492	20176.19
562.854	20191.33
563.217	20231.56
563.579	20349.75
563.941	20413.93
564.304	20510.87
564.666	20617.54
565.028	20654.6
565.39	20736.63
565.753	20757.19
566.115	20865.44
566.477	20997.41
566.839	21006
567.201	21054.14
567.563	21150.86
567.925	21340
568.287	21353.11
568.648	21362.38
569.01	21506.78
569.372	21709.49
569.734	21531.64
570.095	21812.08
570.457	21801.69
570.819	21951.51
571.18	21997.61
571.542	22124.62
571.903	22121.23
572.265	22321.22
572.626	22376.59
572.987	22460.2
573.349	22537.94
573.71	22690.48
574.071	22716.92
574.432	22726.63
574.794	22956.46
575.155	22992.16
575.516	22991.26
575.877	23163.23
576.238	23289.56
576.599	23386.96
576.96	23605.71
577.32	23622.66
577.681	23765.93
578.042	24004.11
578.403	24022.42
578.763	24159.36
579.124	24233.26
579.485	24495.4
579.845	24640.48
580.206	24714.83
580.566	24837.09
580.927	24918.21
581.287	25219
581.648	25191.88
582.008	25544.19
582.368	25551.64
582.728	25772.66
583.089	26007.9
583.449	26122.03
583.809	26354.79
584.169	26571.5
584.529	26622.8
584.889	27039.74
585.249	27029.8
585.609	27114.54
585.969	27519.05
586.329	27579.16
586.688	27806.95
587.048	27961.75
587.408	28128.75
587.768	28428.86
588.127	28489.42
588.487	28683.54
588.846	29133.02
589.206	29096.86
589.565	29361.49
589.925	29638.09
590.284	29740.69
590.643	30059.32
591.003	30223.84
591.362	30489.14
591.721	30707.89
592.08	31027.43
592.44	31172.06
592.799	31431.72
593.158	31533.18
593.517	31728.43
593.876	31934.75
594.235	32026.95
594.593	32288.42
594.952	32624
595.311	32624.68
595.67	33004.33
596.029	33368.84
596.387	33419.46
596.746	33642.51
597.104	33628.95
597.463	33900.13
597.822	34164.3
598.18	34239.33
598.538	34303.73
598.897	34786.43
599.255	34476.38
599.613	35340.99
599.972	35137.61
600.33	35370.37
600.688	35387.77
601.046	35627.09
601.404	35991.82
601.762	35994.53
602.12	36416.44
602.478	36535.99
602.836	36474.52
603.194	36640.62
603.552	36771.01
603.91	36860.95
604.268	37213.71
604.625	37220.72
604.983	37481.27
605.341	37341.62
605.698	37833.36
606.056	37931.88
606.413	37995.84
606.771	38145.66
607.128	38441.7
607.485	38254.36
607.843	38396.73
608.2	38755.14
608.557	38947.9
608.914	38898.86
609.272	39227.44
609.629	39363.71
609.986	39516.48
610.343	39396.48
610.7	39826.75
611.057	39746.75
611.414	39772.51
611.771	39896.8
612.127	40187.87
612.484	40177.47
612.841	40472.83
613.198	40309.45
613.554	40464.7
613.911	40817.01
614.267	40577.69
614.624	40831.47
614.98	40908.3
615.337	41268.97
615.693	41169.76
616.05	41257.9
616.406	41564.33
616.762	41386.48
617.118	41477.33
617.475	41571.34
617.831	41730.2
618.187	41932.46
618.543	41827.83
618.899	42216.97
619.255	42209.06
619.611	42066.24
619.967	42285.44
620.323	42544.42
620.678	42317.76
621.034	42355.04
621.39	42333.12
621.746	42324.08
622.101	42865.54
622.457	42509.84
622.812	42778.08
623.168	42804.07
623.523	42894.47
623.879	43049.94
624.234	42802.72
624.589	42975.37
624.945	43109.6
625.3	43178.75
625.655	43107.34
626.01	43042.48
626.365	43138.07
626.72	43221.01
627.075	43209.71
627.43	43321.57
627.785	43123.16
628.14	43317.28
628.495	43383.49
628.85	43451.51
629.205	43072.54
629.559	43519.31
629.914	43405.19
630.269	43304.62
630.623	43481.12
630.978	43311.4
631.332	43502.13
631.687	43566.99
632.041	43459.65
632.396	43394.11
632.75	43396.83
633.104	43425.75
633.459	43362.93
633.813	43331.52
634.167	43241.35
634.521	43439.99
634.875	43549.14
635.229	43382.36
635.583	43272.76
635.937	43211.97
636.291	43081.81
636.645	43201.8
636.999	43128.58
637.352	43242.93
637.706	43019.21
638.06	43200.45
638.413	42999.77
638.767	43017.4
639.121	43115.25
639.474	42840.46
639.828	42995.03
640.181	42929.49
640.534	42977.63
640.888	42982.37
641.241	42628.94
641.594	42851.98
641.947	42923.62
642.301	42891.3
642.654	42834.35
643.007	42690.85
643.36	42846.33
643.713	42738.31
644.066	42831.87
644.419	42645.66
644.771	42395.5
645.124	41955.28
645.477	42052.68
645.83	41699.69
646.182	41640.49
646.535	41482.75
646.888	41420.15
647.24	41431
647.593	41556.65
647.945	41445.69
648.298	41255.19
648.65	41345.81
649.002	41173.15
649.355	41349.87
649.707	41328.63
650.059	41266.49
650.411	41909.86
650.763	41849.75
651.115	42390.07
651.467	42124.77
651.819	42150.76
652.171	42010.19
652.523	41948.5
652.875	42071.89
653.227	41920.25
653.578	42122.06
653.93	41985.56
654.282	41819.92
654.633	41783.99
654.985	41782.18
655.337	41845
655.688	41866.24
656.039	42082.06
656.391	41674.61
656.742	41798.22
657.094	41827.37
657.445	41983.98
657.796	41717.55
658.147	41691.11
658.498	41700.6
658.849	41791.44
659.2	41811.56
659.551	41592.13
659.902	41796.19
660.253	41703.31
660.604	41652.92
660.955	41504.45
661.306	41732.69
661.656	41512.13
662.007	41591.22
662.358	41567.72
662.708	41668.06
663.059	41602.75
663.409	41276.2
663.76	41665.57
664.11	41539.25
664.461	41586.48
664.811	41638
665.161	41456.76
665.511	41482.07
665.862	41421.51
666.212	41636.87
666.562	41660.15
666.912	41443.2
667.262	41342.19
667.612	41585.57
667.962	41623.54
668.312	41450.89
668.662	41585.12
669.011	41499.47
669.361	41364.56
669.711	41371.57
670.06	41241.85
670.41	41189.88
670.76	41274.62
671.109	41371.12
671.459	41325.24
671.808	41247.95
672.157	41343.77
672.507	41094.06
672.856	41159.82
673.205	40967.06
673.554	41277.56
673.904	41077.56
674.253	41338.57
674.602	41134.74
674.951	40718.03
675.3	40516
675.649	40940.84
675.998	41084.8
676.346	41041.63
676.695	41107.85
677.044	40817.46
677.393	40823.11
677.741	41025.81
678.09	40659.04
678.438	40750.79
678.787	40825.14
679.135	40730.91
679.484	40562.1
679.832	40812.26
680.181	40550.12
680.529	40674.64
680.877	40515.32
681.225	40352.84
681.573	40534.53
681.922	40336.57
682.27	40221.32
682.618	40287.53
682.966	40285.49
683.314	40229.9
683.661	40104.48
684.009	40023.81
684.357	39755.11
684.705	39818.84
685.053	39943.58
685.4	39777.71
685.748	39597.38
686.095	39671.27
686.443	39628.34
686.79	39435.35
687.138	39530.94
687.485	39630.82
687.832	39481.9
688.18	39377.5
688.527	39279.42
688.874	39197.39
689.221	39139.31
689.568	39093.44
689.915	38899.77
690.262	38935.7
690.609	38836.94
690.956	38574.35
691.303	38609.15
691.65	38433.34
691.997	38405.54
692.344	38344.3
692.69	38234.7
693.037	38143.63
693.383	38012.11
693.73	38068.83
694.077	37909.74
694.423	37782.74
694.769	37691.89
695.116	37690.53
695.462	37603.08
695.808	37480.82
696.155	37634.49
696.501	37270.21
696.847	37249.64
697.193	37127.39
697.539	37186.14
697.885	36880.16
698.231	36787.51
698.577	36800.84
698.923	36771.69
699.269	36558.59
699.614	36321.08
699.96	36223.68
700.306	36287.63
700.651	36252.83
700.997	36021.2
701.342	36017.58
701.688	35933.74
702.033	35824.37
702.379	35802.9
702.724	35712.96
703.069	35753.41
703.415	35372.63
703.76	35323.82
704.105	35248.56
704.45	35106.2
704.795	35062.58
705.14	34997.5
705.485	34990.04
705.83	34865.07
706.175	34972.87
706.52	34827.56
706.865	34737.84
707.209	34597.73
707.554	34593.67
707.899	34626.66
708.243	34508.92
708.588	34333.56
708.932	34171.08
709.277	34327.68
709.621	34144.86
709.966	33905.55
710.31	33959.56
710.654	33637.08
710.998	33860.8
711.342	33854.03
711.687	33746.01
712.031	33529.29
712.375	33432.79
712.719	33426.24
713.063	33375.85
713.407	33504.66
713.75	33186.7
714.094	33246.81
714.438	33102.18
714.782	33091.56
715.125	32911
715.469	32897.21
715.812	32784.9
716.156	32605.47
716.499	32638.69
716.843	32657.67
717.186	32536.77
717.53	32644.34
717.873	32696.32
718.216	32476.66
718.559	32384.23
718.902	32157.12
719.246	32230.56
719.589	32180.17
719.932	32046.16
720.275	31988.09
720.617	32163.45
720.96	32030.34
721.303	31964.36
721.646	31856.11
721.989	31748.09
722.331	31872.38
722.674	31759.62
723.016	31805.94
723.359	31785.6
723.701	31636.23
724.044	31482.11
724.386	31286.63
724.729	31542.67
725.071	31306.97
725.413	31282.57
725.755	31392.17
726.097	31191.72
726.439	30969.13
726.782	31124.38
727.124	31266.75
727.465	30942.24
727.807	30905.63
728.149	30890.49
728.491	30823.6
728.833	30982.46
729.175	30739.98
729.516	30684.16
729.858	30554.45
730.199	30605.07
730.541	30605.3
730.882	30506.32
731.224	30708.8
731.565	30405.75
731.906	30514
732.248	30347.68
732.589	30195.14
732.93	30235.59
733.271	30208.47
733.612	30246.44
733.953	30098.42
734.294	30087.12
734.635	29969.38
734.976	30137.29
735.317	29936.84
735.658	29912.66
735.999	29781.14
736.339	29994.69
736.68	29919.67
737.021	29769.84
737.361	29709.95
737.702	29802.38
738.042	29662.27
738.383	29428.15
738.723	29624.76
739.063	29526.23
739.404	29537.3
739.744	29418.89
740.084	29384.99
740.424	29391.77
740.764	29328.95
741.104	29446.68
741.444	29188.61
741.784	29092.34
742.124	29229.51
742.464	29178.44
742.804	29119.91
743.143	28988.39
743.483	29104.77
743.823	28825
744.162	28799.92
744.502	28962.4
744.841	28801.5
745.181	28865.91
745.52	28754.95
745.86	28779.58
746.199	28681.28
746.538	28619.81
746.877	28643.99
747.216	28672.01
747.556	28544.56
747.895	28547.05
748.234	28386.6
748.573	28459.14
748.911	28261.63
749.25	28300.5
749.589	28167.17
749.928	28217.34
750.267	28310.22
750.605	28192.03
750.944	28142.99
751.283	27946.61
751.621	28017.79
751.96	27790.91
752.298	27820.74
752.636	27885.37
752.975	27724.47
753.313	27579.61
753.651	27799.27
753.989	27600.18
754.327	27540.07
754.666	27425.49
755.004	27512.72
755.342	27492.38
755.679	27367.19
756.017	27311.82
756.355	27385.72
756.693	27135.78
757.031	27092.62
