Data from hue_80_FLMS001491_81.txt Node
Date: Mon Feb 06 15:23:52 GMT 2017
User: dcchb
Spectrometer: FLMS00149
Trigger mode: 0
Integration Time (sec): 2.000000E-2
Scans to average: 10
Electric dark correction enabled: true
Nonlinearity correction enabled: false
Boxcar width: 0
XAxis mode: Wavelengths
Number of Pixels in Spectrum: 2048
>>>>>Begin Spectral Data<<<<<
341.393	-12.61
341.776	-12.61
342.16	-12.61
342.543	-62.55
342.927	-69.56
343.31	-57.81
343.693	-63.01
344.077	-88.54
344.46	-48.32
344.843	-50.35
345.226	-42.89
345.61	-16.45
345.993	-17.13
346.376	-14.19
346.759	7.5
347.142	28.06
347.525	31.45
347.908	55.63
348.291	70.77
348.674	103.09
349.057	102.19
349.44	133.15
349.823	156.2
350.206	190.77
350.588	200.04
350.971	193.71
351.354	223.99
351.737	226.93
352.119	239.58
352.502	272.58
352.884	274.84
353.267	287.49
353.65	282.97
354.032	298.57
354.414	315.29
354.797	303.54
355.179	323.65
355.562	312.8
355.944	342.63
356.326	318.45
356.709	308.96
357.091	351.45
357.473	334.5
357.855	343.99
358.238	322.52
358.62	331.33
359.002	328.17
359.384	327.72
359.766	355.06
360.148	322.07
360.53	318.9
360.912	340.6
361.294	325.01
361.676	337.21
362.057	322.29
362.439	333.37
362.821	309.86
363.203	326.59
363.584	307.6
363.966	313.93
364.348	314.84
364.729	318
365.111	306.7
365.493	316.64
365.874	304.89
366.256	304.89
366.637	318.68
367.019	311.45
367.4	302.41
367.781	318.9
368.163	294.05
368.544	310.32
368.925	285.46
369.306	296.98
369.688	317.1
370.069	307.15
370.45	314.84
370.831	315.29
371.212	294.95
371.593	311.67
371.974	292.01
372.355	330.88
372.736	305.57
373.117	317.32
373.498	322.29
373.879	317.32
374.26	315.97
374.641	308.73
375.021	296.31
375.402	310.77
375.783	310.77
376.163	334.27
376.544	327.49
376.925	320.26
377.305	306.93
377.686	353.25
378.066	330.88
378.447	329.98
378.827	322.07
379.208	310.99
379.588	320.49
379.968	328.17
380.349	318.9
380.729	338.34
381.109	324.78
381.489	333.59
381.87	331.79
382.25	340.37
382.63	330.88
383.01	324.55
383.39	317.1
383.77	333.37
384.15	332.91
384.53	348.96
384.91	343.99
385.29	355.74
385.67	346.93
386.049	369.3
386.429	337.89
386.809	339.02
387.189	366.13
387.568	331.33
387.948	348.51
388.328	340.15
388.707	325.68
389.087	353.71
389.466	347.83
389.846	331.11
390.225	340.15
390.605	373.59
390.984	368.39
391.363	357.1
391.743	354.16
392.122	353.71
392.501	337.89
392.881	372.69
393.26	343.31
393.639	379.02
394.018	346.93
394.397	339.47
394.776	372.69
395.155	364.55
395.534	362.07
395.913	357.77
396.292	372.91
396.671	360.03
397.05	366.36
397.429	369.52
397.808	378.79
398.186	359.81
398.565	373.82
398.944	355.29
399.323	388.96
399.701	399.81
400.08	380.6
400.458	358.23
400.837	384.89
401.215	387.38
401.594	395.96
401.972	372.01
402.351	386.02
402.729	380.82
403.107	400.03
403.486	395.96
403.864	391.44
404.242	395.06
404.62	386.7
404.999	421.5
405.377	417.66
405.755	407.94
406.133	419.24
406.511	387.6
406.889	407.49
407.267	425.79
407.645	401.16
408.023	412.46
408.401	411.33
408.779	431.22
409.156	430.77
409.534	432.57
409.912	423.31
410.29	440.48
410.667	420.82
411.045	442.74
411.422	431.67
411.8	426.25
412.178	438.67
412.555	418.56
412.933	425.57
413.31	456.3
413.687	443.87
414.065	445.23
414.442	446.58
414.819	464.44
415.197	476.87
415.574	449.52
415.951	474.15
416.328	476.87
416.705	471.44
417.082	474.83
417.46	499.24
417.837	488.62
418.214	489.3
418.591	466.24
418.967	503.98
419.344	488.62
419.721	489.75
420.098	485.91
420.475	480.48
420.852	485.91
421.228	487.94
421.605	508.05
421.982	512.12
422.358	533.14
422.735	518.67
423.111	513.7
423.488	526.58
423.864	515.96
424.241	530.88
424.617	538.79
424.994	534.94
425.37	544.89
425.746	534.04
426.123	554.15
426.499	544.21
426.875	548.73
427.251	571.33
427.627	545.34
428.003	558.67
428.379	550.54
428.756	565.9
429.132	560.71
429.507	565.68
429.883	593.47
430.259	587.6
430.635	598.9
431.011	583.76
431.387	598.67
431.763	616.75
432.138	602.51
432.514	611.55
432.89	606.13
433.265	603.42
433.641	647.71
434.016	632.12
434.392	638.9
434.767	661.49
435.143	648.84
435.518	642.74
435.894	647.48
436.269	663.53
436.644	660.82
437.02	683.19
437.395	667.37
437.77	669.18
438.145	674.83
438.52	690.87
438.895	700.81
439.271	687.26
439.646	711.66
440.021	688.61
440.395	701.27
440.77	728.38
441.145	739.68
441.52	730.42
441.895	728.61
442.27	703.98
442.645	732
443.019	749.18
443.394	724.09
443.769	741.49
444.143	731.32
444.518	758.21
444.892	746.24
445.267	774.26
445.641	770.87
446.016	771.77
446.39	786.69
446.764	758.44
447.139	789.17
447.513	781.26
447.887	760.25
448.262	784.65
448.636	804.54
449.01	813.58
449.384	831.21
449.758	816.97
450.132	815.16
450.506	829.85
450.88	858.55
451.254	844.54
451.628	834.14
452.002	844.77
452.376	861.71
452.75	868.49
453.123	878.89
453.497	879.12
453.871	879.12
454.244	890.64
454.618	896.06
454.992	917.31
455.365	930.87
455.739	933.8
456.112	963.63
456.486	943.75
456.859	970.19
457.232	983.52
457.606	967.7
457.979	972.45
458.352	1010.86
458.725	1006.57
459.099	1048.6
459.472	1054.93
459.845	1066.91
460.218	1048.83
460.591	1054.48
460.964	1055.83
461.337	1071.88
461.71	1089.96
462.083	1124.31
462.456	1107.81
462.829	1129.73
463.201	1129.73
463.574	1135.83
463.947	1197.07
464.32	1203.4
464.692	1209.73
465.065	1207.47
465.438	1223.06
465.81	1256.96
466.183	1292.66
466.555	1291.08
466.928	1315.26
467.3	1298.31
467.672	1331.76
468.045	1359.78
468.417	1362.94
468.789	1408.82
469.161	1433.45
469.534	1433.23
469.906	1478.2
470.278	1491.3
470.65	1521.58
471.022	1520.45
471.394	1590.96
471.766	1610.4
472.138	1641.13
472.51	1675.48
472.882	1703.27
473.253	1719.77
473.625	1781.46
473.997	1856.94
474.369	1845.19
474.74	1875.02
475.112	1939.88
475.484	1956.83
475.855	2009.93
476.227	2037.28
476.598	2110.27
476.97	2130.38
477.341	2235.46
477.713	2285.41
478.084	2329.25
478.455	2399.98
478.827	2428.68
479.198	2506.42
479.569	2563.36
479.94	2673.19
480.311	2728.11
480.682	2775.56
481.053	2903.24
481.424	2978.95
481.795	3027.53
482.166	3153.41
482.537	3201.54
482.908	3292.16
483.279	3392.72
483.65	3538.93
484.021	3601.98
484.391	3682.43
484.762	3747.51
485.133	3850.56
485.503	3935.98
485.874	4111.8
486.244	4189.31
486.615	4316.77
486.985	4409.87
487.356	4598.34
487.726	4650.09
488.097	4781.84
488.467	4874.72
488.837	5035.16
489.207	5152
489.578	5298.89
489.948	5423.85
490.318	5524.64
490.688	5636.73
491.058	5770.51
491.428	5920.11
491.798	6093.22
492.168	6238.3
492.538	6313.1
492.908	6520.77
493.278	6636.25
493.648	6672.41
494.017	6892.06
494.387	7008.9
494.757	7167.09
495.126	7313.07
495.496	7385.61
495.866	7554.42
496.235	7683.91
496.605	7804.36
496.974	7894.07
497.344	8056.78
497.713	8201.63
498.082	8294.06
498.452	8423.1
498.821	8565.47
499.19	8603.66
499.559	8751
499.928	8925.91
500.298	8999.13
500.667	9100.14
501.036	9164.1
501.405	9378.1
501.774	9439.79
502.143	9531.77
502.512	9731.54
502.88	9788.94
503.249	9844.98
503.618	9980.12
503.987	10096.5
504.356	10115.71
504.724	10247.23
505.093	10359.77
505.462	10400.22
505.83	10519.54
506.199	10643.83
506.567	10773.32
506.936	10808.35
507.304	11059.64
507.672	11124.5
508.041	11153.42
508.409	11169.47
508.777	11373.98
509.145	11470.02
509.514	11508.21
509.882	11598.61
510.25	11599.06
510.618	11702.79
510.986	11788.43
511.354	11947.3
511.722	12019.61
512.09	12142.77
512.458	12241.08
512.826	12267.74
513.193	12308.65
513.561	12392.26
513.929	12485.36
514.297	12606.49
514.664	12625.02
515.032	12709.31
515.4	12839.93
515.767	12824.11
516.135	12897.1
516.502	12943.43
516.869	13145.46
517.237	13180.49
517.604	13163.31
517.972	13216.42
518.339	13436.3
518.706	13304.78
519.073	13433.81
519.44	13432.23
519.808	13570.76
520.175	13558.1
520.542	13647.59
520.909	13696.86
521.276	13784.09
521.643	13922.61
522.009	14029.28
522.376	14029.96
522.743	14124.42
523.11	14078.54
523.477	14228.14
523.843	14280.12
524.21	14469.94
524.577	14546.1
524.943	14504.97
525.31	14594.91
525.676	14698.64
526.043	14781.57
526.409	14823.61
526.776	14904.06
527.142	14910.38
527.508	14913.1
527.874	15024.51
528.241	15093.88
528.607	15107.67
528.973	15137.27
529.339	15176.14
529.705	15277.15
530.071	15320.09
530.437	15274.22
530.803	15465.62
531.169	15502.91
531.535	15469.69
531.901	15443.03
532.267	15483.93
532.632	15514.89
532.998	15613.42
533.364	15623.36
533.73	15556.02
534.095	15713.53
534.461	15681.44
534.826	15704.26
535.192	15718.05
535.557	15789.46
535.923	15705.17
536.288	15648.44
536.653	15644.15
537.019	15697.03
537.384	15723.02
537.749	15737.48
538.114	15739.06
538.479	15623.13
538.845	15847.31
539.21	15776.12
539.575	15738.16
539.94	15784.94
540.305	15835.11
540.67	15738.84
541.034	15730.25
541.399	15771.61
541.764	15692.29
542.129	15774.77
542.494	15815.45
542.858	15819.29
543.223	15694.09
543.587	15800.3
543.952	15719.4
544.316	15838.72
544.681	15739.52
545.045	15738.39
545.41	15784.03
545.774	15750.81
546.138	15666.98
546.503	15829.68
546.867	15712.62
547.231	15766.86
547.595	15643.7
547.959	15807.99
548.324	15694.77
548.688	15745.39
549.052	15787.2
549.416	15655
549.779	15761.89
550.143	15636.02
550.507	15731.15
550.871	15713.53
551.235	15728.67
551.599	15756.24
551.962	15707.65
552.326	15725.73
552.689	15764.37
553.053	15662.91
553.417	15693.19
553.78	15854.09
554.143	15735.67
554.507	15774.09
554.87	15703.81
555.234	15900.19
555.597	15804.6
555.96	15740.65
556.323	15889.57
556.686	15866.29
557.05	15874.43
557.413	15788.55
557.776	15767.09
558.139	15904.93
558.502	15846.63
558.865	15854.99
559.228	15982.9
559.59	15974.09
559.953	15934.99
560.316	16043.24
560.679	16056.12
561.041	16051.6
561.404	16189.45
561.767	16208.2
562.129	16078.26
562.492	16203.01
562.854	16158.04
563.217	16164.14
563.579	16245.72
563.941	16360.52
564.304	16321.2
564.666	16304.92
565.028	16364.81
565.39	16420.63
565.753	16488.87
566.115	16442.32
566.477	16482.09
566.839	16526.84
567.201	16519.16
567.563	16592.15
567.925	16664.91
568.287	16590.57
568.648	16652.49
569.01	16721.86
569.372	16826.49
569.734	16759.15
570.095	16821.75
570.457	16851.12
570.819	16797.79
571.18	16846.61
571.542	17027.17
571.903	16945.59
572.265	16960.73
572.626	16974.51
572.987	17014.06
573.349	17044.57
573.71	17061.74
574.071	17144.68
574.432	17092.47
574.794	17144.9
575.155	17140.83
575.516	17080.5
575.877	17049.31
576.238	17172.02
576.599	17194.39
576.96	17156.2
577.32	17192.36
577.681	17311.23
578.042	17274.62
578.403	17348.51
578.763	17293.82
579.124	17318.46
579.485	17432.58
579.845	17404.33
580.206	17334.95
580.566	17365.69
580.927	17341.73
581.287	17380.6
581.648	17365.46
582.008	17382.18
582.368	17342.86
582.728	17308.51
583.089	17330.89
583.449	17361.17
583.809	17334.5
584.169	17355.52
584.529	17273.71
584.889	17572.24
585.249	17398.45
585.609	17282.53
585.969	17407.49
586.329	17293.37
586.688	17394.16
587.048	17312.58
587.408	17321.62
587.768	17260.38
588.127	17226.93
588.487	17237.56
588.846	17345.8
589.206	17168.4
589.565	17197.56
589.925	17240.49
590.284	17229.65
590.643	17247.5
591.003	17282.07
591.362	17344.9
591.721	17320.04
592.08	17348.96
592.44	17314.16
592.799	17298.57
593.158	17286.82
593.517	17280.27
593.876	17232.81
594.235	17279.81
594.593	17246.14
594.952	17180.16
595.311	17199.36
595.67	17268.29
596.029	17364.78
596.387	17288.63
596.746	17350.55
597.104	17249.53
597.463	17302.86
597.822	17337.44
598.18	17165.01
598.538	17247.27
598.897	17301.28
599.255	17114.62
599.613	17420.38
599.972	17287.27
600.33	17239.36
600.688	17263.09
601.046	17223.77
601.404	17380.38
601.762	17240.94
602.12	17387.83
602.478	17360.26
602.836	17380.15
603.194	17282.3
603.552	17339.7
603.91	17263.54
604.268	17295.63
604.625	17326.59
604.983	17315.29
605.341	17293.82
605.698	17318.46
606.056	17397.1
606.413	17402.97
606.771	17396.65
607.128	17353.48
607.485	17303.54
607.843	17405.69
608.2	17459.47
608.557	17504.21
608.914	17390.09
609.272	17492.46
609.629	17487.04
609.986	17537.66
610.343	17454.72
610.7	17638
611.057	17582.63
611.414	17639.13
611.771	17647.49
612.127	17687.94
612.484	17674.61
612.841	17694.27
613.198	17664.66
613.554	17640.26
613.911	17775.85
614.267	17766.58
614.624	17635.74
614.98	17787.37
615.337	17885.67
615.693	17867.14
616.05	17852.91
616.406	17990.08
616.762	17805.9
617.118	17809.74
617.475	17867.6
617.831	17946.92
618.187	17817.2
618.543	17957.08
618.899	18003.86
619.255	17961.6
619.611	17921.38
619.967	17982.39
620.323	18042.73
620.678	17961.38
621.034	17897.2
621.39	17984.2
621.746	17899.91
622.101	18156.63
622.457	18004.09
622.812	17968.61
623.168	18162.95
623.523	18112.56
623.879	18245.89
624.234	17910.53
624.589	18015.16
624.945	18077.53
625.3	18103.52
625.655	18053.8
626.01	18101.04
626.365	18105.78
626.72	18024.88
627.075	17960.47
627.43	18061.94
627.785	17999.34
628.14	18115.95
628.495	18103.75
628.85	18031.43
629.205	18022.39
629.559	18075.05
629.914	17982.39
630.269	17972.45
630.623	17888.39
630.978	18046.12
631.332	18001.38
631.687	17980.81
632.041	17877.31
632.396	17980.81
632.75	17810.42
633.104	17901.49
633.459	17813.13
633.813	17754.6
634.167	17714.38
634.521	17863.53
634.875	17887.93
635.229	17858.56
635.583	17800.48
635.937	17685.91
636.291	17710.09
636.645	17727.49
636.999	17630.31
637.352	17807.26
637.706	17598
638.06	17647.71
638.413	17722.51
638.767	17628.96
639.121	17656.53
639.474	17487.72
639.828	17552.8
640.181	17472.8
640.534	17515.97
640.888	17475.52
641.241	17448.17
641.594	17449.3
641.947	17548.06
642.301	17458.79
642.654	17463.99
643.007	17350.55
643.36	17432.58
643.713	17349.19
644.066	17465.12
644.419	17358.91
644.771	17235.3
645.124	17134.96
645.477	17122.08
645.83	16956.66
646.182	16812.93
646.535	16835.08
646.888	16880.28
647.24	16695.42
647.593	16913.27
647.945	16846.83
648.298	16721.64
648.65	16823.1
649.002	16689.55
649.355	16817
649.707	16796.21
650.059	16887.06
650.411	16979.26
650.763	17075.75
651.115	17216.76
651.467	17162.08
651.819	17170.44
652.171	17204.11
652.523	17121.85
652.875	17102.64
653.227	17079.82
653.578	17211.57
653.93	17115.75
654.282	17170.21
654.633	17045.92
654.985	17090.67
655.337	17103.77
655.688	17161.63
656.039	17178.8
656.391	17044.34
656.742	17136.77
657.094	17101.51
657.445	17094.06
657.796	17146.26
658.147	17130.89
658.498	17076.43
658.849	17047.5
659.2	17127.5
659.551	17126.6
659.902	17164.34
660.253	17089.31
660.604	17133.15
660.955	17053.15
661.306	17075.53
661.656	17048.63
662.007	17180.61
662.358	17104.45
662.708	17147.84
663.059	17144.9
663.409	17114.62
663.76	17232.58
664.11	17180.83
664.461	17186.03
664.811	17257.89
665.161	17190.1
665.511	17114.62
665.862	17176.54
666.212	17312.58
666.562	17276.65
666.912	17240.94
667.262	17183.77
667.612	17220.61
667.962	17260.83
668.312	17136.99
668.662	17301.28
669.011	17162.3
669.361	17143.55
669.711	17148.07
670.06	17205.92
670.41	17047.96
670.76	17056.77
671.109	17123.43
671.459	17127.05
671.808	17057.45
672.157	17136.77
672.507	16994.4
672.856	17014.51
673.205	17013.38
673.554	17050.89
673.904	17033.72
674.253	17025.81
674.602	16993.27
674.951	16725.03
675.3	16643.67
675.649	17003.89
675.998	16920.5
676.346	16945.81
676.695	17003.44
677.044	16807.96
677.393	16861.52
677.741	16875.76
678.09	16791.24
678.438	16791.01
678.787	16835.08
679.135	16818.13
679.484	16691.35
679.832	16765.48
680.181	16639.38
680.529	16593.96
680.877	16751.69
681.225	16651.36
681.573	16759.15
681.922	16572.49
682.27	16506.5
682.618	16528.42
682.966	16488.87
683.314	16471.25
683.661	16391.25
684.009	16305.38
684.357	16401.87
684.705	16283
685.053	16296.79
685.4	16298.14
685.748	16197.13
686.095	16165.49
686.443	16207.53
686.79	16121.88
687.138	16109.68
687.485	16178.15
687.832	16041.43
688.18	16078.94
688.527	15943.35
688.874	15959.62
689.221	15898.61
689.568	15839.85
689.915	15822.23
690.262	15700.65
690.609	15713.98
690.956	15707.65
691.303	15667.65
691.65	15623.59
691.997	15625.62
692.344	15514.44
692.69	15511.5
693.037	15465.17
693.383	15354.67
693.73	15318.74
694.077	15221.56
694.423	15166.88
694.769	15142.02
695.116	15109.25
695.462	15116.93
695.808	15000.33
696.155	15111.28
696.501	14881.01
696.847	14866.09
697.193	14759.88
697.539	14779.31
697.885	14758.98
698.231	14642.14
698.577	14657.06
698.923	14706.55
699.269	14517.63
699.614	14492.99
699.96	14488.7
700.306	14366.22
700.651	14338.2
700.997	14300.01
701.342	14248.03
701.688	14224.3
702.033	14088.03
702.379	14121.7
702.724	14077.19
703.069	14120.12
703.415	13972.33
703.76	14005.32
704.105	13980.69
704.45	13911.99
704.795	13807.36
705.14	13757.87
705.485	13808.94
705.83	13740.02
706.175	13672.68
706.52	13654.37
706.865	13583.19
707.209	13561.27
707.554	13450.99
707.899	13523.75
708.243	13411.44
708.588	13469.74
708.932	13369.86
709.277	13314.04
709.621	13332.57
709.966	13200.83
710.31	13251.9
710.654	13037.89
710.998	13138.45
711.342	13090.32
711.687	13121.73
712.031	13048.06
712.375	12975.97
712.719	12984.11
713.063	13022.07
713.407	12962.41
713.75	12890.32
714.094	12947.05
714.438	12836.32
714.782	12898.91
715.125	12749.09
715.469	12798.12
715.812	12747.96
716.156	12665.7
716.499	12664.79
716.843	12761.97
717.186	12656.66
717.53	12645.59
717.873	12679.71
718.216	12624.8
718.559	12529.88
718.902	12529.2
719.246	12555.87
719.589	12512.71
719.932	12461.18
720.275	12489.43
720.617	12460.51
720.96	12432.71
721.303	12402.2
721.646	12397.91
721.989	12313.39
722.331	12371.69
722.674	12337.8
723.016	12386.84
723.359	12341.41
723.701	12378.7
724.044	12335.99
724.386	12246.05
724.729	12252.83
725.071	12234.07
725.413	12231.59
725.755	12239.95
726.097	12177.8
726.439	12178.71
726.782	12087.63
727.124	12191.36
727.465	12127.41
727.807	12172.38
728.149	12150.91
728.491	12082.89
728.833	12156.56
729.175	12051.48
729.516	11997.47
729.858	12020.74
730.199	12033.62
730.541	12069.56
730.882	12027.75
731.224	11997.69
731.565	12008.54
731.906	11976.22
732.248	12048.31
732.589	11979.16
732.93	11963.12
733.271	11928.99
733.612	11971.48
733.953	11984.36
734.294	11987.98
734.635	11922.44
734.976	11946.17
735.317	11962.89
735.658	11887.41
735.999	11993.17
736.339	11870.01
736.68	11992.5
737.021	11879.5
737.361	11930.8
737.702	11968.77
738.042	11944.81
738.383	11936.68
738.723	11952.95
739.063	11952.27
739.404	12020.07
739.744	11940.07
740.084	11960.41
740.424	11974.42
740.764	11985.26
741.104	12026.84
741.444	12010.57
741.784	12013.96
742.124	12097.13
742.464	12051.48
742.804	12025.71
743.143	12016.22
743.483	12074.75
743.823	11942.1
744.162	12121.98
744.502	12162.21
744.841	12080.85
745.181	12202.89
745.52	12206.05
745.86	12253.28
746.199	12243.34
746.538	12251.25
746.877	12377.8
747.216	12379.15
747.556	12364.01
747.895	12505.93
748.234	12481.97
748.573	12493.73
748.911	12619.82
749.25	12646.72
749.589	12671.57
749.928	12720.84
750.267	12836.32
750.605	12915.86
750.944	12966.71
751.283	13022.52
751.621	13134.16
751.96	13150.66
752.298	13189.3
752.636	13317.66
752.975	13356.53
753.313	13435.85
753.651	13560.14
753.989	13615.05
754.327	13580.02
754.666	13690.76
755.004	13913.12
755.342	14009.84
755.679	13997.19
756.017	14137.98
756.355	14335.03
756.693	14235.37
