Data from hue_280_FLMS001491_00073.txt Node
Date: Tue Feb 07 15:55:44 GMT 2017
User: dcchb
Spectrometer: FLMS00149
Trigger mode: 0
Integration Time (sec): 2.000000E-2
Scans to average: 10
Electric dark correction enabled: true
Nonlinearity correction enabled: false
Boxcar width: 0
XAxis mode: Wavelengths
Number of Pixels in Spectrum: 2048
>>>>>Begin Spectral Data<<<<<
341.393	-9.65
341.776	-9.65
342.16	-9.65
342.543	-57.1
342.927	-54.39
343.31	-60.49
343.693	-72.47
344.077	-59.59
344.46	-51.91
344.843	-54.84
345.226	-44
345.61	-48.74
345.993	-19.36
346.376	-4.45
346.759	11.37
347.142	29.67
347.525	46.17
347.908	56.57
348.291	78.26
348.674	85.94
349.057	107.86
349.44	121.88
349.823	137.24
350.206	152.83
350.588	190.8
350.971	209.56
351.354	215.21
351.737	202.55
352.119	222.21
352.502	255.43
352.884	260.63
353.267	277.8
353.65	284.36
354.032	294.98
354.414	290.68
354.797	287.07
355.179	308.09
355.562	323.68
355.944	310.8
356.326	318.03
356.709	324.13
357.091	334.3
357.473	320.06
357.855	351.25
358.238	347.18
358.62	333.17
359.002	324.13
359.384	327.52
359.766	329.78
360.148	304.47
360.53	336.56
360.912	344.24
361.294	337.69
361.676	318.03
362.057	320.74
362.439	321.19
362.821	327.29
363.203	317.58
363.584	307.18
363.966	305.37
364.348	311.47
364.729	298.14
365.111	311.7
365.493	290.01
365.874	328.65
366.256	293.17
366.637	307.86
367.019	310.8
367.4	315.32
367.781	301.08
368.163	312.83
368.544	321.42
368.925	303.57
369.306	317.58
369.688	318.71
370.069	294.98
370.45	326.62
370.831	317.35
371.212	317.35
371.593	320.29
371.974	328.88
372.355	314.64
372.736	318.25
373.117	303.11
373.498	290.46
373.879	302.44
374.26	301.08
374.641	332.94
375.021	302.44
375.402	312.38
375.783	327.07
376.163	311.25
376.544	339.5
376.925	324.13
377.305	316.45
377.686	341.76
378.066	324.81
378.447	328.42
378.827	329.33
379.208	346.95
379.588	365.26
379.968	335.66
380.349	315.09
380.729	320.74
381.109	318.71
381.489	338.82
381.87	327.29
382.25	334.75
382.63	362.55
383.01	331.14
383.39	335.66
383.77	346.95
384.15	349.67
384.53	353.06
384.91	349.67
385.29	337.69
385.67	351.7
386.049	362.77
386.429	359.84
386.809	345.37
387.189	351.7
387.568	347.86
387.948	365.71
388.328	360.06
388.707	352.15
389.087	371.13
389.466	374.3
389.846	369.78
390.225	379.72
390.605	367.07
390.984	345.82
391.363	364.81
391.743	376.78
392.122	377.01
392.501	381.76
392.881	393.73
393.26	384.02
393.639	369.33
394.018	391.7
394.397	379.04
394.776	397.12
395.155	390.79
395.534	379.27
395.913	412.72
396.292	386.28
396.671	395.99
397.05	385.6
397.429	396.67
397.808	409.55
398.186	391.25
398.565	404.81
398.944	401.19
399.323	396.22
399.701	412.49
400.08	421.75
400.458	400.29
400.837	409.55
401.215	430.34
401.594	411.36
401.972	433.05
402.351	434.41
402.729	418.82
403.107	440.29
403.486	434.64
403.864	436.22
404.242	431.25
404.62	440.06
404.999	458.59
405.377	427.4
405.755	441.87
406.133	461.75
406.511	466.95
406.889	468.53
407.267	486.39
407.645	481.19
408.023	473.5
408.401	492.71
408.779	473.5
409.156	490.45
409.534	511.02
409.912	514.86
410.29	486.16
410.667	523.67
411.045	532.03
411.422	526.84
411.8	544.24
412.178	534.75
412.555	542.2
412.933	547.17
413.31	566.84
413.687	579.04
414.065	581.07
414.442	592.82
414.819	583.56
415.197	603.22
415.574	594.86
415.951	602.54
416.328	633.95
416.705	639.38
417.082	623.56
417.46	638.25
417.837	644.12
418.214	648.64
418.591	659.94
418.967	651.13
419.344	673.73
419.721	666.49
420.098	717.34
420.475	698.13
420.852	710.79
421.228	701.52
421.605	713.05
421.982	734.51
422.358	725.25
422.735	760.28
423.111	757.34
423.488	758.69
423.864	772.48
424.241	785.81
424.617	783.55
424.994	794.63
425.37	805.02
425.746	814.96
426.123	850.22
426.499	838.01
426.875	849.54
427.251	857.9
427.627	855.64
428.003	893.15
428.379	892.25
428.756	901.06
429.132	902.87
429.507	904.23
429.883	920.05
430.259	938.35
430.635	973.6
431.011	977.67
431.387	993.49
431.763	970.21
432.138	965.24
432.514	983.32
432.89	1005.02
433.265	1030.78
433.641	1026.48
434.016	1060.38
434.392	1109.87
434.767	1101.28
435.143	1089.76
435.518	1082.3
435.894	1146.93
436.269	1129.08
436.644	1131.11
437.02	1171.57
437.395	1173.37
437.77	1187.38
438.145	1206.59
438.52	1216.31
438.895	1220.83
439.271	1243.88
439.646	1268.06
440.021	1275.52
440.395	1269.64
440.77	1301.73
441.145	1297.44
441.52	1301.96
441.895	1308.96
442.27	1303.54
442.645	1359.36
443.019	1391.22
443.394	1360.26
443.769	1367.94
444.143	1365.68
444.518	1403.65
444.892	1388.73
445.267	1387.15
445.641	1433.93
446.016	1407.04
446.39	1425.12
446.764	1448.85
447.139	1409.53
447.513	1457.66
447.887	1444.1
448.262	1469.18
448.636	1484.55
449.01	1455.85
449.384	1497.43
449.758	1475.29
450.132	1490.43
450.506	1525.91
450.88	1525.68
451.254	1530.2
451.628	1552.57
452.002	1536.53
452.376	1564.32
452.75	1576.3
453.123	1587.6
453.497	1568.84
453.871	1589.86
454.244	1628.95
454.618	1658.11
454.992	1665.34
455.365	1650.65
455.739	1664.43
456.112	1713.02
456.486	1706.92
456.859	1701.72
457.232	1743.98
457.606	1744.21
457.979	1736.52
458.352	1802.96
458.725	1776.97
459.099	1815.16
459.472	1851.1
459.845	1875.95
460.218	1881.38
460.591	1891.09
460.964	1892
461.337	1924.77
461.71	1934.71
462.083	1908.95
462.456	1966.12
462.829	1947.14
463.201	1987.14
463.574	2010.64
463.947	2012
464.32	2022.16
464.692	2045.21
465.065	2075.5
465.438	2069.17
465.81	2083.18
466.183	2115.5
466.555	2150.52
466.928	2161.37
467.3	2200.01
467.672	2207.92
468.045	2237.98
468.417	2230.52
468.789	2239.11
469.161	2298.32
469.534	2337.41
469.906	2337.18
470.278	2364.3
470.65	2384.64
471.022	2405.88
471.394	2421.02
471.766	2423.51
472.138	2467.35
472.51	2505.32
472.882	2544.18
473.253	2562.26
473.625	2549.83
473.997	2656.05
474.369	2632.77
474.74	2684.07
475.112	2682.71
475.484	2731.98
475.855	2726.55
476.227	2784.18
476.598	2868.24
476.97	2855.81
477.341	2885.42
477.713	2953.67
478.084	2934.91
478.455	2996.83
478.827	3005.64
479.198	3064.62
479.569	3061.69
479.94	3178.07
480.311	3163.15
480.682	3197.27
481.053	3308.68
481.424	3297.84
481.795	3336.03
482.166	3373.54
482.537	3410.38
482.908	3433.43
483.279	3488.11
483.65	3521.33
484.021	3576.25
484.391	3614.89
484.762	3613.08
485.133	3607.89
485.503	3674.32
485.874	3762.91
486.244	3755.68
486.615	3835
486.985	3890.82
487.356	3903.92
487.726	3943.47
488.097	3976.92
488.467	3997.93
488.837	4092.39
489.207	4138.04
489.578	4163.35
489.948	4193.63
490.318	4242.67
490.688	4223.46
491.058	4251.26
491.428	4285.61
491.798	4386.4
492.168	4413.29
492.538	4442.89
492.908	4435.89
493.278	4535.32
493.648	4504.36
494.017	4573.96
494.387	4577.35
494.757	4642.21
495.126	4658.71
495.496	4675.88
495.866	4679.95
496.235	4754.75
496.605	4755.88
496.974	4790.45
497.344	4804.01
497.713	4786.16
498.082	4858.02
498.452	4886.72
498.821	4904.57
499.19	4908.87
499.559	4875.2
499.928	4986.15
500.298	4998.81
500.667	5014.85
501.036	5011.92
501.405	5063.67
501.774	5034.74
502.143	5101.41
502.512	5084
502.88	5113.38
503.249	5106.38
503.618	5156.32
503.987	5197.22
504.356	5171.46
504.724	5174.4
505.093	5195.87
505.462	5178.92
505.83	5255.3
506.199	5270.89
506.567	5312.25
506.936	5351.57
507.304	5376.65
507.672	5368.97
508.041	5376.65
508.409	5478.12
508.777	5446.48
509.145	5439.7
509.514	5442.19
509.882	5427.05
510.25	5518.34
510.618	5475.41
510.986	5509.76
511.354	5551.79
511.722	5523.32
512.09	5585.46
512.458	5642.63
512.826	5603.77
513.193	5625.01
513.561	5660.49
513.929	5702.29
514.297	5713.59
514.664	5800.37
515.032	5693.71
515.4	5749.3
515.767	5741.84
516.135	5781.61
516.502	5745.46
516.869	5775.29
517.237	5815.06
517.604	5773.93
517.972	5875.4
518.339	5850.54
518.706	5860.26
519.073	5888.96
519.44	5900.25
519.808	5916.98
520.175	5919.91
520.542	5945.9
520.909	6020.93
521.276	5973.7
521.643	5994.49
522.009	6020.48
522.376	6072.45
522.743	6071.32
523.11	6118.55
523.477	6146.12
523.843	6196.52
524.21	6235.84
524.577	6281.49
524.943	6262.28
525.31	6276.29
525.676	6323.29
526.043	6338.44
526.409	6333.92
526.776	6466.12
527.142	6429.51
527.508	6380.69
527.874	6482.61
528.241	6394.93
528.607	6445.32
528.973	6537.53
529.339	6506.79
529.705	6582.5
530.071	6574.59
530.437	6576.62
530.803	6672.21
531.169	6689.39
531.535	6661.82
531.901	6710.18
532.267	6686
532.632	6743.4
532.998	6717.18
533.364	6772.77
533.73	6819.33
534.095	6807.58
534.461	6827.46
534.826	6888.7
535.192	6820.68
535.557	6890.74
535.923	6807.12
536.288	6899.32
536.653	6883.73
537.019	6909.27
537.384	6964.86
537.749	6953.11
538.114	6944.75
538.479	6940.45
538.845	7024.52
539.21	7049.15
539.575	7038.08
539.94	7044.63
540.305	7090.05
540.67	6992.88
541.034	7074.23
541.399	7078.53
541.764	7121.47
542.129	7130.5
542.494	7188.81
542.858	7185.87
543.223	7163.5
543.587	7155.36
543.952	7168.7
544.316	7215.93
544.681	7200.79
545.045	7240.33
545.41	7262.48
545.774	7275.36
546.138	7323.72
546.503	7271.07
546.867	7286.43
547.231	7362.81
547.595	7352.42
547.959	7391.51
548.324	7378.86
548.688	7337.96
549.052	7413.21
549.416	7464.73
549.779	7419.54
550.143	7428.12
550.507	7431.51
550.871	7453.43
551.235	7469.48
551.599	7577.05
551.962	7472.64
552.326	7511.51
552.689	7568.23
553.053	7523.49
553.417	7535.47
553.78	7579.76
554.143	7532.98
554.507	7612.75
554.87	7594.9
555.234	7716.48
555.597	7657.5
555.96	7651.39
556.323	7701.11
556.686	7709.02
557.05	7661.56
557.413	7754.67
557.776	7785.18
558.139	7862.69
558.502	7713.77
558.865	7846.87
559.228	7853.42
559.59	7905.17
559.953	7921.22
560.316	7954.44
560.679	7947.43
561.041	8020.65
561.404	7996.02
561.767	8062.23
562.129	8017.71
562.492	8032.18
562.854	8097.48
563.217	8084.15
563.579	8142
563.941	8155.11
564.304	8222
564.666	8266.29
565.028	8211.38
565.39	8247.09
565.753	8284.15
566.115	8301.55
566.477	8331.6
566.839	8374.09
567.201	8433.75
567.563	8382.22
567.925	8438.72
568.287	8524.14
568.648	8432.84
569.01	8466.06
569.372	8561.88
569.734	8598.49
570.095	8655.66
570.457	8654.98
570.819	8613.86
571.18	8653.63
571.542	8796.45
571.903	8798.03
572.265	8767.07
572.626	8828.54
572.987	8880.29
573.349	8905.15
573.71	8939.95
574.071	9000.06
574.432	8919.38
574.794	9018.82
575.155	9042.54
575.516	9071.7
575.877	9100.17
576.238	9204.57
576.599	9150.79
576.96	9257.23
577.32	9270.79
577.681	9311.46
578.042	9344.01
578.403	9347.85
578.763	9365.47
579.124	9412.7
579.485	9562.53
579.845	9579.03
580.206	9542.19
580.566	9583.32
580.927	9605.92
581.287	9701.51
581.648	9728.63
582.008	9802.52
582.368	9819.93
582.728	9854.73
583.089	9855.86
583.449	9980.6
583.809	10031.67
584.169	10057.66
584.529	10089.52
584.889	10219.01
585.249	10233.93
585.609	10200.93
585.969	10381.49
586.329	10420.14
586.688	10490.64
587.048	10523.41
587.408	10506.69
587.768	10611.77
588.127	10764.99
588.487	10675.72
588.846	10882.5
589.206	10897.86
589.565	10923.63
589.925	11138.08
590.284	11094.69
590.643	11189.61
591.003	11271.41
591.362	11435.7
591.721	11390.05
592.08	11542.82
592.44	11602.25
592.799	11614.68
593.158	11691.29
593.517	11767.9
593.876	11831.62
594.235	11864.39
594.593	11904.62
594.952	12002.69
595.311	12044.5
595.67	12145.97
596.029	12284.49
596.387	12294.66
596.746	12383.7
597.104	12401.33
597.463	12448.56
597.822	12509.12
598.18	12579.63
598.538	12530.81
598.897	12847.42
599.255	12792.5
599.613	12978.26
599.972	12858.94
600.33	12964.25
600.688	12970.35
601.046	13097.58
601.404	13165.83
601.762	13169.67
602.12	13255.99
602.478	13391.81
602.836	13375.09
603.194	13391.36
603.552	13516.33
603.91	13474.97
604.268	13574.85
604.625	13491.92
604.983	13644.46
605.341	13583.44
605.698	13662.99
606.056	13741.63
606.413	13787.5
606.771	13813.94
607.128	13908.18
607.485	13842.64
607.843	13838.8
608.2	13947.95
608.557	14085.58
608.914	14032.47
609.272	14135.52
609.629	14221.39
609.986	14213.93
610.343	14220.94
610.7	14264.55
611.057	14265.91
611.414	14369.86
611.771	14415.74
612.127	14477.66
612.484	14466.36
612.841	14524.66
613.198	14479.92
613.554	14452.57
613.911	14660.7
614.267	14586.35
614.624	14583.87
614.98	14691.66
615.337	14691.89
615.693	14718.55
616.05	14719.01
616.406	14820.92
616.762	14773.47
617.118	14843.75
617.475	14852.56
617.831	14886.01
618.187	14878.55
618.543	14931.66
618.899	14992.44
619.255	14923.97
619.611	14936.63
619.967	15103.85
620.323	15150.86
620.678	15070.18
621.034	15042.61
621.39	15033.35
621.746	15094.59
622.101	15327.58
622.457	15057.3
622.812	15107.02
623.168	15194.25
623.523	15274.02
623.879	15254.36
624.234	15041.03
624.589	15191.99
624.945	15207.58
625.3	15222.5
625.655	15242.38
626.01	15216.62
626.365	15204.87
626.72	15167.13
627.075	15225.43
627.43	15216.17
627.785	15242.16
628.14	15247.35
628.495	15273.79
628.85	15353.34
629.205	15247.81
629.559	15259.1
629.914	15153.12
630.269	15228.82
630.623	15149.5
630.978	15223.85
631.332	15243.51
631.687	15277.18
632.041	15159.22
632.396	15219.11
632.75	15148.15
633.104	15318.99
633.459	15127.81
633.813	15195.38
634.167	15100.92
634.521	15089.39
634.875	15101.14
635.229	15130.29
635.583	15039
635.937	15037.42
636.291	15099.79
636.645	15071.54
636.999	15007.81
637.352	15069.96
637.706	14962.62
638.06	15016.85
638.413	14996.29
638.767	14987.7
639.121	15005.33
639.474	14918.1
639.828	14964.87
640.181	14941.82
640.534	14988.15
640.888	14921.71
641.241	14812.56
641.594	14861.15
641.947	14900.92
642.301	14883.97
642.654	14847.59
643.007	14956.74
643.36	14866.12
643.713	14902.5
644.066	14881.49
644.419	14743.41
644.771	14725.11
645.124	14584.32
645.477	14498.9
645.83	14425.68
646.182	14368.73
646.535	14378
646.888	14505.45
647.24	14313.14
647.593	14461.61
647.945	14312.01
648.298	14310.43
648.65	14330.54
649.002	14220.49
649.355	14352.01
649.707	14292.35
650.059	14402.63
650.411	14534.6
650.763	14636.07
651.115	14768.04
651.467	14721.94
651.819	14591.33
652.171	14736.41
652.523	14578.67
652.875	14622.96
653.227	14566.69
653.578	14749.97
653.93	14585.22
654.282	14608.95
654.633	14557.43
654.985	14645.34
655.337	14680.59
655.688	14662.06
656.039	14664.32
656.391	14646.69
656.742	14672.23
657.094	14725.33
657.445	14712.9
657.796	14608.73
658.147	14676.07
658.498	14661.83
658.849	14779.79
659.2	14713.81
659.551	14623.64
659.902	14738.44
660.253	14727.59
660.604	14641.72
660.955	14607.6
661.306	14713.13
661.656	14768.95
662.007	14728.72
662.358	14741.15
662.708	14721.72
663.059	14703.41
663.409	14611.66
663.76	14748.84
664.11	14797.65
664.461	14809.17
664.811	14782.28
665.161	14833.58
665.511	14758.1
665.862	14686.01
666.212	14841.04
666.562	14794.71
666.912	14760.36
667.262	14777.08
667.612	14759
667.962	14845.33
668.312	14720.81
668.662	14882.84
669.011	14840.58
669.361	14721.49
669.711	14775.5
670.06	14676.97
670.41	14665.9
670.76	14614.6
671.109	14806.91
671.459	14637.65
671.808	14755.84
672.157	14746.58
672.507	14667.48
672.856	14670.87
673.205	14638.56
673.554	14691.89
673.904	14633.36
674.253	14718.1
674.602	14548.39
674.951	14421.84
675.3	14401.27
675.649	14619.12
675.998	14562.85
676.346	14627.26
676.695	14543.87
677.044	14406.92
677.393	14542.97
677.741	14532.8
678.09	14469.07
678.438	14484.89
678.787	14505
679.135	14455.28
679.484	14370.77
679.832	14415.51
680.181	14340.26
680.529	14432.91
680.877	14308.17
681.225	14274.72
681.573	14342.97
681.922	14305.01
682.27	14194.95
682.618	14306.81
682.966	14198.34
683.314	14213.03
683.661	14169.42
684.009	13978.69
684.357	14123.99
684.705	14080.38
685.053	14086.93
685.4	13987.05
685.748	13989.31
686.095	13926.03
686.443	13812.59
686.79	13938.24
687.138	13881.29
687.485	13902.3
687.832	13829.76
688.18	13789.09
688.527	13650.33
688.874	13761.74
689.221	13656.43
689.568	13628.86
689.915	13557.68
690.262	13550.67
690.609	13537.57
690.956	13480.62
691.303	13516.78
691.65	13328.31
691.997	13342.32
692.344	13266.84
692.69	13309.55
693.037	13292.6
693.383	13170.8
693.73	13200.4
694.077	13086.05
694.423	13094.64
694.769	13037.24
695.116	12895.1
695.462	13005.15
695.808	12958.15
696.155	12947.07
696.501	12816.46
696.847	12808.77
697.193	12750.02
697.539	12801.99
697.885	12705.05
698.231	12581.66
698.577	12595.45
698.923	12524.26
699.269	12512.51
699.614	12463.7
699.96	12427.09
700.306	12448.56
700.651	12313.19
700.997	12345.51
701.342	12281.33
701.688	12242.23
702.033	12220.31
702.379	12093.99
702.724	12099.19
703.069	12078.17
703.415	12012.18
703.76	11986.87
704.105	11983.03
704.45	11894.9
704.795	11836.37
705.14	11863.04
705.485	11754.34
705.83	11772.87
706.175	11819.65
706.52	11690.38
706.865	11620.33
707.209	11623.27
707.554	11568.81
707.899	11611.52
708.243	11538.52
708.588	11506.66
708.932	11466.66
709.277	11357.29
709.621	11433.22
709.966	11257.18
710.31	11375.14
710.654	11308.7
710.998	11265.99
711.342	11298.3
711.687	11203.39
712.031	11153.68
712.375	11136.73
712.719	11183.51
713.063	11064.86
713.407	11125.65
713.75	10982.61
714.094	11081.36
714.438	11038.88
714.782	10999.56
715.125	10952.33
715.469	10921.37
715.812	10897.86
716.156	10820.58
716.499	10873.91
716.843	10860.58
717.186	10885.66
717.53	10922.27
717.873	10889.28
718.216	10770.86
718.559	10812.44
718.902	10700.13
719.246	10829.39
719.589	10767.7
719.932	10694.03
720.275	10707.81
720.617	10712.56
720.96	10637.53
721.303	10633.46
721.646	10615.38
721.989	10576.29
722.331	10700.35
722.674	10632.11
723.016	10586.23
723.359	10646.8
723.701	10572.45
724.044	10511.21
724.386	10540.36
724.729	10562.73
725.071	10416.75
725.413	10488.83
725.755	10495.39
726.097	10440.7
726.439	10391.66
726.782	10511.43
727.124	10484.09
727.465	10463.07
727.807	10448.84
728.149	10490.42
728.491	10476.41
728.833	10477.54
729.175	10375.17
729.516	10408.38
729.858	10379.68
730.199	10360.7
730.541	10380.14
730.882	10394.37
731.224	10327.71
731.565	10315.96
731.906	10337.88
732.248	10413.81
732.589	10334.94
732.93	10294.72
733.271	10346.69
733.612	10301.04
733.953	10361.61
734.294	10342.4
734.635	10277.54
734.976	10331.32
735.317	10367.71
735.658	10337.65
735.999	10359.57
736.339	10337.88
736.68	10360.25
737.021	10387.14
737.361	10327.03
737.702	10454.71
738.042	10421.94
738.383	10334.71
738.723	10400.93
739.063	10363.87
739.404	10428.5
739.744	10357.76
740.084	10411.32
740.424	10416.07
740.764	10411.1
741.104	10498.55
741.444	10404.54
741.784	10450.42
742.124	10481.83
742.464	10479.12
742.804	10520.7
743.143	10548.27
743.483	10548.95
743.823	10514.82
744.162	10568.15
744.502	10608.83
744.841	10607.02
745.181	10680.69
745.52	10660.36
745.86	10762.05
746.199	10754.36
746.538	10764.08
746.877	10913.23
747.216	10919.56
747.556	10964.08
747.895	10995.94
748.234	11004.75
748.573	11036.39
748.911	11102.15
749.25	11107.8
749.589	11317.06
749.928	11280.9
750.267	11404.06
750.605	11447.68
750.944	11485.42
751.283	11598.64
751.621	11739.2
751.96	11730.38
752.298	11813.77
752.636	11970.6
752.975	11978.74
753.313	12099.41
753.651	12268.9
753.989	12284.49
754.327	12425.96
754.666	12463.92
755.004	12602.68
755.342	12764.25
755.679	12978.71
756.017	12981.65
756.355	13179.61
756.693	13265.94
757.031	13417.34
757.368	13481.75
757.706	13564.46
758.044	13721.52
758.381	13860.95
758.719	13937.78
759.056	14209.64
759.394	14259.36
