Data from hue_260_FLMS001491_00007.txt Node
Date: Tue Feb 07 15:58:29 GMT 2017
User: dcchb
Spectrometer: FLMS00149
Trigger mode: 0
Integration Time (sec): 2.000000E-2
Scans to average: 10
Electric dark correction enabled: true
Nonlinearity correction enabled: false
Boxcar width: 0
XAxis mode: Wavelengths
Number of Pixels in Spectrum: 2048
>>>>>Begin Spectral Data<<<<<
341.393	-19.7
341.776	-19.7
342.16	-19.7
342.543	-33.04
342.927	-57.67
343.31	-70.32
343.693	-65.58
344.077	-63.09
344.46	-49.76
344.843	-54.5
345.226	-51.57
345.61	-24.22
345.993	-12.7
346.376	8.54
346.759	-0.72
347.142	16
347.525	17.58
347.908	66.85
348.291	88.32
348.674	80.63
349.057	114.53
349.44	141.42
349.823	134.64
350.206	150.69
350.588	173.06
350.971	192.49
351.354	217.13
351.737	244.92
352.119	244.7
352.502	230.69
352.884	251.25
353.267	254.87
353.65	278.82
354.032	282.89
354.414	287.86
354.797	311.59
355.179	321.08
355.562	313.62
355.944	313.4
356.326	332.6
356.709	310.23
357.091	313.17
357.473	332.15
357.855	299.16
358.238	335.32
358.62	350.46
359.002	334.19
359.384	339.16
359.766	356.33
360.148	328.76
360.53	328.99
360.912	327.41
361.294	349.1
361.676	312.72
362.057	339.84
362.439	340.51
362.821	293.96
363.203	329.44
363.584	318.14
363.966	326.5
364.348	307.52
364.729	320.85
365.111	303.23
365.493	334.41
365.874	298.48
366.256	333.51
366.637	313.85
367.019	318.59
367.4	312.27
367.781	316.33
368.163	314.75
368.544	312.49
368.925	308.65
369.306	331.02
369.688	307.07
370.069	302.1
370.45	288.76
370.831	340.51
371.212	286.96
371.593	314.3
371.974	304.13
372.355	301.19
372.736	314.98
373.117	313.85
373.498	310.46
373.879	318.14
374.26	293.28
374.641	303
375.021	311.36
375.402	329.89
375.783	323.34
376.163	339.84
376.544	332.6
376.925	325.37
377.305	320.63
377.686	335.54
378.066	321.98
378.447	318.59
378.827	293.28
379.208	308.42
379.588	342.1
379.968	336.22
380.349	335.77
380.729	325.82
381.109	320.4
381.489	334.41
381.87	338.03
382.25	325.6
382.63	342.55
383.01	336.22
383.39	319.72
383.77	335.54
384.15	348.65
384.53	335.09
384.91	333.73
385.29	310.46
385.67	352.04
386.049	364.24
386.429	364.24
386.809	335.32
387.189	354.3
387.568	336.9
387.948	353.62
388.328	360.85
388.707	357.91
389.087	347.29
389.466	344.13
389.846	365.37
390.225	378.93
390.605	365.6
390.984	388.42
391.363	363.11
391.743	362.21
392.122	355.2
392.501	370.57
392.881	386.16
393.26	368.99
393.639	371.02
394.018	374.64
394.397	398.14
394.776	364.47
395.155	381.19
395.534	393.85
395.913	368.76
396.292	399.04
396.671	397.69
397.05	400.85
397.429	400.63
397.808	400.63
398.186	399.95
398.565	416.9
398.944	395.88
399.323	400.63
399.701	419.61
400.08	411.7
400.458	425.71
400.837	429.32
401.215	414.18
401.594	431.58
401.972	430.45
402.351	439.27
402.729	422.09
403.107	432.04
403.486	442.88
403.864	445.6
404.242	441.08
404.62	433.84
404.999	474.97
405.377	476.56
405.755	461.87
406.133	441.08
406.511	473.39
406.889	477.01
407.267	475.88
407.645	492.6
408.023	469.78
408.401	472.04
408.779	489.44
409.156	476.33
409.534	495.76
409.912	498.25
410.29	535.08
410.667	526.95
411.045	542.54
411.422	561.3
411.8	547.06
412.178	553.39
412.555	568.3
412.933	584.58
413.31	600.39
413.687	577.57
414.065	589.09
414.442	618.92
414.819	591.81
415.197	602.88
415.574	595.87
415.951	638.13
416.328	637.91
416.705	634.07
417.082	663.22
417.46	651.24
417.837	644.46
418.214	645.82
418.591	654.63
418.967	665.02
419.344	679.94
419.721	686.72
420.098	703.67
420.475	698.02
420.852	742.99
421.228	718.36
421.605	719.26
421.982	751.58
422.358	753.61
422.735	787.96
423.111	787.73
423.488	780.05
423.864	767.62
424.241	822.99
424.617	831.57
424.994	836.55
425.37	829.77
425.746	840.16
426.123	868.41
426.499	862.76
426.875	879.03
427.251	895.3
427.627	896.21
428.003	905.47
428.379	927.39
428.756	935.75
429.132	940.05
429.507	978.46
429.883	960.16
430.259	980.04
430.635	1000.38
431.011	981.85
431.387	1019.82
431.763	1037.22
432.138	1036.54
432.514	1037.9
432.89	1074.96
433.265	1082.42
433.641	1107.05
434.016	1120.61
434.392	1141.62
434.767	1156.76
435.143	1174.39
435.518	1178.68
435.894	1193.37
436.269	1231.11
436.644	1231.79
437.02	1231.11
437.395	1275.86
437.77	1302.75
438.145	1309.98
438.52	1339.58
438.895	1350.43
439.271	1354.72
439.646	1369.19
440.021	1379.36
440.395	1406.7
440.77	1403.54
441.145	1437.21
441.52	1452.57
441.895	1431.56
442.27	1512.01
442.645	1460.03
443.019	1481.27
443.394	1508.39
443.769	1515.62
444.143	1528.28
444.518	1579.13
444.892	1554.72
445.267	1590.88
445.641	1606.92
446.016	1569.86
446.39	1618.9
446.764	1616.86
447.139	1602.18
447.513	1631.78
447.887	1643.3
448.262	1668.84
448.636	1662.96
449.01	1676.98
449.384	1689.63
449.758	1728.73
450.132	1758.78
450.506	1724.66
450.88	1774.83
451.254	1759.23
451.628	1755.17
452.002	1794.49
452.376	1804.43
452.75	1834.03
453.123	1817.31
453.497	1829.06
453.871	1880.13
454.244	1927.14
454.618	1946.35
454.992	1942.28
455.365	1947.93
455.739	1995.39
456.112	2006.23
456.486	2013.46
456.859	2039
457.232	2057.3
457.606	2054.82
457.979	2092.56
458.352	2104.08
458.725	2144.99
459.099	2179.11
459.472	2212.55
459.845	2217.75
460.218	2212.78
460.591	2240.58
460.964	2255.72
461.337	2303.17
461.71	2350.63
462.083	2360.35
462.456	2380.23
462.829	2368.71
463.201	2461.36
463.574	2458.88
463.947	2464.53
464.32	2478.08
464.692	2522.15
465.065	2544.98
465.438	2574.13
465.81	2644.86
466.183	2625.43
466.555	2686.89
466.928	2716.27
467.3	2716.72
467.672	2709.72
468.045	2793.33
468.417	2834.23
468.789	2817.28
469.161	2862.48
469.534	2891.86
469.906	2924.63
470.278	2958.07
470.65	3014.12
471.022	3007.56
471.394	3096.37
471.766	3096.6
472.138	3160.33
472.51	3190.61
472.882	3274.67
473.253	3219.08
473.625	3309.25
473.997	3385.63
474.369	3372.3
474.74	3433.54
475.112	3506.98
475.484	3491.17
475.855	3577.72
476.227	3597.15
476.598	3662.91
476.97	3675.57
477.341	3775.45
477.713	3832.63
478.084	3842.12
478.455	3928.44
478.827	3958.72
479.198	4054.99
479.569	4053.41
479.94	4205.5
480.311	4197.14
480.682	4280.98
481.053	4359.39
481.424	4401.42
481.795	4408.43
482.166	4474.87
482.537	4539.27
482.908	4630.12
483.279	4594.64
483.65	4735.88
484.021	4842.54
484.391	4832.37
484.762	4883.22
485.133	4956.21
485.503	5019.03
485.874	5092.25
486.244	5109.43
486.615	5143.33
486.985	5281.85
487.356	5350.1
487.726	5317.78
488.097	5402.08
488.467	5426.26
488.837	5488.17
489.207	5603.43
489.578	5686.81
489.948	5705.8
490.318	5773.82
490.688	5796.19
491.058	5907.15
491.428	5934.49
491.798	6011.78
492.168	6089.06
492.538	6096.29
492.908	6089.52
493.278	6273.24
493.648	6203.41
494.017	6317.98
494.387	6391.43
494.757	6397.3
495.126	6446.34
495.496	6462.61
495.866	6471.43
496.235	6531.54
496.605	6591.87
496.974	6610.63
497.344	6619.44
497.713	6720.23
498.082	6786.67
498.452	6745.77
498.821	6786.9
499.19	6867.57
499.559	6863.05
499.928	6899.44
500.298	6940.34
500.667	6971.75
501.036	6984.41
501.405	7048.36
501.774	7054.01
502.143	7089.94
502.512	7091.75
502.88	7174.23
503.249	7218.98
503.618	7177.62
503.987	7167.45
504.356	7189.37
504.724	7296.71
505.093	7276.38
505.462	7392.31
505.83	7397.05
506.199	7399.09
506.567	7481.79
506.936	7391.4
507.304	7570.61
507.672	7475.47
508.041	7518.18
508.409	7589.14
508.777	7641.34
509.145	7694.44
509.514	7590.49
509.882	7693.54
510.25	7639.53
510.618	7745.97
510.986	7736.93
511.354	7756.59
511.722	7764.95
512.09	7820.09
512.458	7799.98
512.826	7898.51
513.193	7906.42
513.561	7858.06
513.929	7903.7
514.297	7947.32
514.664	7980.54
515.032	8019.18
515.4	8034.1
515.767	8001.33
516.135	8081.1
516.502	8021.67
516.869	8088.11
517.237	8159.97
517.604	8085.39
517.972	8176.47
518.339	8182.34
518.706	8173.98
519.073	8172.62
519.44	8220.53
519.808	8298.27
520.175	8239.97
520.542	8297.82
520.909	8297.59
521.276	8256.24
521.643	8369.46
522.009	8369.91
522.376	8444.03
522.743	8405.39
523.11	8492.84
523.477	8492.62
523.843	8510.24
524.21	8588.88
524.577	8632.95
524.943	8630.92
525.31	8656
525.676	8612.39
526.043	8688.54
526.409	8676.34
526.776	8677.92
527.142	8783.46
527.508	8746.85
527.874	8773.74
528.241	8847.86
528.607	8858.71
528.973	8807.41
529.339	8822.55
529.705	8866.17
530.071	8863.23
530.437	8907.75
530.803	8988.2
531.169	8954.07
531.535	8973.73
531.901	8912.04
532.267	8935.77
532.632	8941.64
532.998	8916.11
533.364	8962.43
533.73	8957.91
534.095	9094.41
534.461	9055.76
534.826	8994.75
535.192	9006.95
535.557	8995.65
535.923	8999.27
536.288	9074.07
536.653	9054.18
537.019	9021.64
537.384	9054.86
537.749	9020.74
538.114	9046.05
538.479	9033.84
538.845	9041.75
539.21	8939.61
539.575	9044.47
539.94	9072.71
540.305	9066.84
540.67	9013.28
541.034	9105.48
541.399	9011.02
541.764	9061.64
542.129	9019.38
542.494	8988.65
542.858	8981.87
543.223	9049.21
543.587	9039.04
543.952	8987.52
544.316	9027.52
544.681	9011.25
545.045	9063.22
545.41	9010.34
545.774	8972.15
546.138	8972.6
546.503	8998.14
546.867	8975.99
547.231	9028.87
547.595	8985.94
547.959	8988.2
548.324	9021.64
548.688	8988.87
549.052	9040.17
549.416	8946.62
549.779	8990.68
550.143	8915.43
550.507	8966.05
550.871	8929.44
551.235	8920.18
551.599	8999.95
551.962	8979.16
552.326	9011.02
552.689	9013.96
553.053	8974.64
553.417	8980.74
553.78	9060.96
554.143	8963.34
554.507	9034.07
554.87	8995.43
555.234	9117.91
555.597	9009.66
555.96	9036.33
556.323	9058.48
556.686	9019.38
557.05	9059.83
557.413	9056.22
557.776	9059.83
558.139	9076.56
558.502	9048.08
558.865	9063.22
559.228	9106.16
559.59	9085.14
559.953	9162.88
560.316	9183.22
560.679	9154.29
561.041	9167.4
561.404	9194.52
561.767	9186.83
562.129	9160.17
562.492	9277.68
562.854	9268.64
563.217	9239.71
563.579	9289.88
563.941	9305.93
564.304	9308.64
564.666	9321.75
565.028	9404.23
565.39	9399.26
565.753	9397.22
566.115	9473.83
566.477	9483.32
566.839	9431.12
567.201	9498.92
567.563	9521.29
567.925	9562.64
568.287	9634.51
568.648	9496.43
569.01	9576.88
569.372	9627.5
569.734	9580.95
570.095	9713.83
570.457	9721.06
570.819	9788.4
571.18	9729.19
571.542	9777.1
571.903	9819.36
572.265	9802.19
572.626	9836.54
572.987	9855.97
573.349	9868.17
573.71	9891.45
574.071	9951.56
574.432	9988.17
574.794	10024.78
575.155	10022.29
575.516	9985.91
575.877	10024.33
576.238	10043.76
576.599	10099.35
576.96	10107.71
577.32	10073.82
577.681	10136.87
578.042	10161.72
578.403	10154.94
578.763	10218.67
579.124	10238.56
579.485	10274.26
579.845	10283.53
580.206	10281.27
580.566	10321.95
580.927	10328.05
581.287	10342.06
581.648	10378.44
582.008	10450.3
582.368	10402.4
582.728	10393.58
583.089	10406.92
583.449	10431.55
583.809	10479.46
584.169	10507.25
584.529	10423.41
584.889	10561.49
585.249	10532.11
585.609	10479
585.969	10603.97
586.329	10534.82
586.688	10611.88
587.048	10612.79
587.408	10636.74
587.768	10625.21
588.127	10619.79
588.487	10625.21
588.846	10656.85
589.206	10641.49
589.565	10710.41
589.925	10645.1
590.284	10737.75
590.643	10712.44
591.003	10760.58
591.362	10816.85
591.721	10797.64
592.08	10785.89
592.44	10827.92
592.799	10825.89
593.158	10850.97
593.517	10894.81
593.876	10861.82
594.235	10877.64
594.593	10808.04
594.952	10895.94
595.311	10886
595.67	10861.59
596.029	10970.97
596.387	10942.04
596.746	10985.66
597.104	10994.24
597.463	10993.11
597.822	10956.28
598.18	10958.09
598.538	10906.34
598.897	11003.51
599.255	10950.86
599.613	11086.67
599.972	11053.9
600.33	11093.9
600.688	11027.92
601.046	10979.78
601.404	11097.74
601.762	11049.61
602.12	11060.68
602.478	11109.5
602.836	11175.71
603.194	11038.31
603.552	11044.19
603.91	11045.77
604.268	11135.71
604.625	11072.66
604.983	11097.07
605.341	11170.51
605.698	11147.01
606.056	11138.87
606.413	11166.44
606.771	11207.35
607.128	11225.65
607.485	11198.53
607.843	11155.82
608.2	11211.41
608.557	11253.22
608.914	11208.02
609.272	11304.97
609.629	11262.26
609.986	11393.33
610.343	11264.97
610.7	11380.22
611.057	11265.2
611.414	11290.96
611.771	11353.78
612.127	11355.59
612.484	11435.36
612.841	11318.53
613.198	11398.3
613.554	11310.85
613.911	11379.55
614.267	11418.19
614.624	11379.55
614.98	11402.37
615.337	11531.63
615.693	11429.04
616.05	11386.78
616.406	11497.28
616.762	11427.45
617.118	11502.25
617.475	11477.85
617.831	11523.95
618.187	11508.81
618.543	11532.54
618.899	11554.91
619.255	11520.11
619.611	11476.72
619.967	11535.7
620.323	11528.24
620.678	11492.76
621.034	11496.15
621.39	11493.44
621.746	11561.46
622.101	11670.39
622.457	11560.11
622.812	11536.38
623.168	11561.01
623.523	11591.07
623.879	11625.41
624.234	11495.47
624.589	11634.45
624.945	11580.67
625.3	11645.08
625.655	11591.07
626.01	11580.67
626.365	11546.55
626.72	11568.47
627.075	11561.01
627.43	11529.15
627.785	11500.67
628.14	11536.6
628.495	11566.21
628.85	11485.76
629.205	11495.02
629.559	11541.58
629.914	11471.29
630.269	11536.38
630.623	11481.69
630.978	11412.31
631.332	11430.17
631.687	11514.01
632.041	11451.18
632.396	11461.58
632.75	11366.21
633.104	11473.33
633.459	11352.65
633.813	11332.32
634.167	11371.64
634.521	11248.25
634.875	11358.76
635.229	11342.03
635.583	11337.29
635.937	11227.91
636.291	11306.1
636.645	11270.85
636.999	11278.98
637.352	11304.97
637.706	11192.66
638.06	11216.84
638.413	11245.31
638.767	11182.04
639.121	11181.81
639.474	11115.15
639.828	11183.17
640.181	11175.71
640.534	11116.28
640.888	11119.89
641.241	11053.45
641.594	11120.8
641.947	11162.38
642.301	11065.2
642.654	11042.38
643.007	11059.1
643.36	11075.15
643.713	11017.97
644.066	11105.65
644.419	11073.79
644.771	10887.13
645.124	10858.43
645.477	10844.19
645.83	10784.76
646.182	10712.22
646.535	10720.13
646.888	10705.21
647.24	10709.05
647.593	10674.03
647.945	10645.1
648.298	10616.63
648.65	10672.9
649.002	10599.9
649.355	10658.89
649.707	10585.22
650.059	10723.97
650.411	10776.17
650.763	10849.39
651.115	10883.97
651.467	10929.61
651.819	10910.63
652.171	10859.11
652.523	10810.52
652.875	10854.59
653.227	10811.2
653.578	10863.85
653.93	10870.18
654.282	10829.96
654.633	10771.88
654.985	10852.78
655.337	10872.67
655.688	10895.26
656.039	10877.41
656.391	10727.36
656.742	10825.66
657.094	10827.7
657.445	10845.1
657.796	10886.9
658.147	10837.64
658.498	10762.61
658.849	10791.76
659.2	10780.24
659.551	10807.36
659.902	10858.2
660.253	10771.2
660.604	10831.09
660.955	10774.59
661.306	10787.7
661.656	10847.13
662.007	10876.96
662.358	10857.53
662.708	10802.84
663.059	10917.64
663.409	10720.81
663.76	10862.5
664.11	10787.02
664.461	10836.96
664.811	10815.27
665.161	10795.61
665.511	10798.32
665.862	10810.75
666.212	10848.03
666.562	10863.4
666.912	10875.38
667.262	10852.33
667.612	10833.35
667.962	10821.59
668.312	10833.12
668.662	10910.63
669.011	10778.43
669.361	10817.3
669.711	10767.58
670.06	10806.91
670.41	10738.43
670.76	10756.51
671.109	10746.79
671.459	10721.26
671.808	10829.28
672.157	10812.55
672.507	10741.37
672.856	10784.08
673.205	10762.61
673.554	10754.7
673.904	10632.67
674.253	10751.99
674.602	10677.87
674.951	10528.95
675.3	10503.18
675.649	10670.19
675.998	10673.58
676.346	10631.32
676.695	10682.16
677.044	10568.49
677.393	10617.53
677.741	10624.09
678.09	10623.86
678.438	10598.1
678.787	10598.77
679.135	10683.74
679.484	10536.86
679.832	10554.26
680.181	10448.95
680.529	10495.73
680.877	10434.94
681.225	10490.08
681.573	10548.15
681.922	10424.54
682.27	10412.11
682.618	10352.23
682.966	10393.81
683.314	10359.69
683.661	10342.96
684.009	10349.97
684.357	10282.17
684.705	10288.05
685.053	10272.68
685.4	10207.6
685.748	10236.98
686.095	10270.2
686.443	10181.16
686.79	10043.54
687.138	10135.74
687.485	10144.32
687.832	10092.35
688.18	10130.99
688.527	10034.72
688.874	10033.82
689.221	9982.75
689.568	9948.85
689.915	9838.34
690.262	9879.92
690.609	9864.33
690.956	9849.42
691.303	9803.99
691.65	9788.4
691.997	9770.1
692.344	9686.93
692.69	9707.95
693.037	9659.59
693.383	9642.87
693.73	9641.74
694.077	9571.23
694.423	9542.08
694.769	9443.78
695.116	9467.73
695.462	9478.8
695.808	9410.78
696.155	9420.27
696.501	9337.57
696.847	9356.77
697.193	9260.05
697.539	9301.41
697.885	9200.62
698.231	9187.29
698.577	9264.8
698.923	9188.64
699.269	9140.28
699.614	9085.82
699.96	8999.72
700.306	9088.76
700.651	8987.74
700.997	8998.14
701.342	8940.74
701.688	8900.51
702.033	8940.51
702.379	8925.6
702.724	8887.18
703.069	8856.45
703.415	8797.24
703.76	8726.28
704.105	8690.8
704.45	8706.17
704.795	8608.09
705.14	8707.75
705.485	8641.99
705.83	8557.25
706.175	8629.56
706.52	8544.37
706.865	8481.32
707.209	8490.36
707.554	8452.39
707.899	8460.07
708.243	8435.22
708.588	8411.94
708.932	8360.42
709.277	8344.37
709.621	8371.26
709.966	8264.15
710.31	8253.75
710.654	8244.03
710.998	8197.48
711.342	8187.99
711.687	8209.91
712.031	8160.65
712.375	8123.59
712.719	8138.5
713.063	8201.55
713.407	8145.28
713.75	8162.23
714.094	8084.94
714.438	8068.22
714.782	8082.68
715.125	8058.05
715.469	8076.36
715.812	7973.31
716.156	7946.87
716.499	8042.68
716.843	7939.41
717.186	7883.37
717.53	7996.36
717.873	7963.59
718.216	7934.21
718.559	7927.88
718.902	7859.64
719.246	7896.25
719.589	7832.07
719.932	7798.62
720.275	7865.29
720.617	7795.91
720.96	7816.02
721.303	7812.18
721.646	7789.81
721.989	7795.46
722.331	7839.53
722.674	7782.8
723.016	7791.62
723.359	7765.4
723.701	7769.92
724.044	7812.63
724.386	7699.87
724.729	7758.85
725.071	7676.14
725.413	7691.96
725.755	7723.6
726.097	7685.63
726.439	7666.87
726.782	7675.46
727.124	7692.18
727.465	7617.61
727.807	7660.32
728.149	7651.96
728.491	7670.72
728.833	7668.91
729.175	7593.88
729.516	7562.24
729.858	7612.41
730.199	7605.18
730.541	7563.6
730.882	7607.67
731.224	7593.43
731.565	7522.47
731.906	7511.4
732.248	7550.49
732.589	7543.94
732.93	7515.69
733.271	7510.95
733.612	7573.32
733.953	7548.23
734.294	7499.42
734.635	7534.22
734.976	7572.87
735.317	7528.35
735.658	7473.43
735.999	7582.13
736.339	7511.85
736.68	7498.52
737.021	7508.69
737.361	7499.2
737.702	7493.32
738.042	7516.37
738.383	7504.39
738.723	7505.97
739.063	7529.03
739.404	7536.26
739.744	7567.89
740.084	7546.43
740.424	7591.17
740.764	7563.15
741.104	7589.14
741.444	7563.37
741.784	7634.11
742.124	7587.1
742.464	7622.81
742.804	7585.52
743.143	7609.25
743.483	7659.42
743.823	7561.34
744.162	7685.63
744.502	7713.65
744.841	7670.04
745.181	7766.99
745.52	7735.12
745.86	7758.85
746.199	7830.94
746.538	7813.31
746.877	7872.74
747.216	7908.68
747.556	7961.33
747.895	8006.53
748.234	7999.3
748.573	8040.88
748.911	8062.12
749.25	8089.01
749.589	8161.55
749.928	8223.47
750.267	8272.28
750.605	8321.32
750.944	8381.88
751.283	8402
751.621	8473.18
751.96	8634.98
752.298	8568.32
752.636	8657.13
752.975	8711.14
753.313	8823.23
753.651	8928.99
753.989	8967.63
754.327	9045.37
754.666	9096.44
755.004	9212.37
755.342	9412.82
755.679	9467.73
756.017	9545.7
756.355	9694.39
756.693	9711.34
757.031	9843.99
757.368	9946.14
757.706	10029.98
758.044	10103.65
758.381	10310.2
758.719	10381.38
759.056	10506.57
759.394	10657.08
759.731	10741.14
760.068	10870.41
760.405	10930.74
760.743	11104.07
761.08	11250.28
761.417	11247.12
761.754	11441.92
762.091	11599.2
762.428	11646.21
