Data from hue_00_FLMS001491_74.txt Node
Date: Mon Feb 06 15:30:12 GMT 2017
User: dcchb
Spectrometer: FLMS00149
Trigger mode: 0
Integration Time (sec): 2.000000E-2
Scans to average: 10
Electric dark correction enabled: true
Nonlinearity correction enabled: false
Boxcar width: 0
XAxis mode: Wavelengths
Number of Pixels in Spectrum: 2048
>>>>>Begin Spectral Data<<<<<
341.393	1.5
341.776	1.5
342.16	1.5
342.543	-51.61
342.927	-63.36
343.31	-65.62
343.693	-75.79
344.077	-63.13
344.46	-73.3
344.843	-42.34
345.226	-44.6
345.61	-42.12
345.993	-24.72
346.376	-12.74
346.759	16.86
347.142	31.1
347.525	43.98
347.908	60.48
348.291	82.17
348.674	103.42
349.057	106.35
349.44	128.95
349.823	144.77
350.206	166.69
350.588	194.71
350.971	194.03
351.354	222.51
351.737	245.11
352.119	241.49
352.502	271.32
352.884	262.51
353.267	289.17
353.65	286.46
354.032	304.54
354.414	314.94
354.797	303.86
355.179	316.07
355.562	327.82
355.944	317.87
356.326	337.76
356.709	324.88
357.091	331.88
357.473	318.78
357.855	316.97
358.238	331.88
358.62	320.58
359.002	343.18
359.384	336.18
359.766	346.35
360.148	332.79
360.53	343.41
360.912	332.11
361.294	325.56
361.676	318.32
362.057	332.79
362.439	342.05
362.821	320.36
363.203	324.2
363.584	329.17
363.966	308.83
364.348	347.02
364.729	321.26
365.111	322.39
365.493	311.32
365.874	316.74
366.256	312.45
366.637	286.91
367.019	319
367.4	305.9
367.781	313.81
368.163	301.38
368.544	309.96
368.925	302.73
369.306	317.42
369.688	326.23
370.069	294.82
370.45	303.86
370.831	307.93
371.212	274.48
371.593	299.12
371.974	314.26
372.355	297.08
372.736	314.26
373.117	324.2
373.498	301.38
373.879	315.84
374.26	299.12
374.641	309.51
375.021	320.81
375.402	320.36
375.783	320.58
376.163	322.84
376.544	309.51
376.925	321.71
377.305	313.81
377.686	306.12
378.066	328.95
378.447	332.79
378.827	312.22
379.208	320.13
379.588	307.25
379.968	324.65
380.349	313.58
380.729	328.49
381.109	327.36
381.489	328.95
381.87	334.6
382.25	333.24
382.63	333.69
383.01	330.3
383.39	333.01
383.77	336.18
384.15	337.76
384.53	338.21
384.91	347.02
385.29	336.86
385.67	338.89
386.049	339.57
386.429	359.23
386.809	341.15
387.189	343.64
387.568	343.64
387.948	324.2
388.328	333.69
388.707	340.47
389.087	350.19
389.466	323.07
389.846	352
390.225	333.24
390.605	352.9
390.984	351.32
391.363	349.51
391.743	364.43
392.122	352.22
392.501	346.8
392.881	354.48
393.26	354.71
393.639	357.42
394.018	369.4
394.397	344.99
394.776	361.26
395.155	352.9
395.534	377.31
395.913	365.33
396.292	354.93
396.671	394.03
397.05	371.43
397.429	377.53
397.808	373.46
398.186	375.72
398.565	368.04
398.944	355.16
399.323	358.1
399.701	394.48
400.08	402.39
400.458	358.78
400.837	376.85
401.215	361.04
401.594	360.36
401.972	404.2
402.351	376.85
402.729	420.47
403.107	394.71
403.486	397.87
403.864	368.49
404.242	377.76
404.62	387.48
404.999	394.93
405.377	376.63
405.755	381.37
406.133	406.91
406.511	395.16
406.889	420.24
407.267	401.94
407.645	388.61
408.023	395.61
408.401	385.22
408.779	390.64
409.156	399
409.534	409.62
409.912	412.33
410.29	407.81
410.667	413.92
411.045	430.64
411.422	433.35
411.8	440.81
412.178	411.66
412.555	441.71
412.933	426.57
413.31	443.07
413.687	458.43
414.065	450.75
414.442	441.71
414.819	436.97
415.197	456.4
415.574	446.46
415.951	469.73
416.328	437.19
416.705	466.34
417.082	460.69
417.46	462.05
417.837	479.45
418.214	476.29
418.591	483.74
418.967	487.81
419.344	491.88
419.721	471.09
420.098	486
420.475	483.07
420.852	468.38
421.228	502.73
421.605	493.69
421.982	495.72
422.358	493.24
422.735	502.05
423.111	522.61
423.488	504.99
423.864	496.85
424.241	524.42
424.617	506.34
424.994	520.13
425.37	501.6
425.746	521.03
426.123	546.34
426.499	534.82
426.875	515.16
427.251	533.91
427.627	547.47
428.003	547.7
428.379	545.89
428.756	560.13
429.132	546.79
429.507	572.1
429.883	558.77
430.259	563.74
430.635	569.84
431.011	566.91
431.387	584.08
431.763	581.14
432.138	577.3
432.514	598.77
432.89	596.96
433.265	589.96
433.641	600.8
434.016	590.86
434.392	588.83
434.767	608.94
435.143	626.79
435.518	621.59
435.894	606.9
436.269	640.35
436.644	614.81
437.02	668.37
437.395	658.43
437.77	672.44
438.145	667.47
438.52	643.29
438.895	657.53
439.271	655.27
439.646	671.54
440.021	688.26
440.395	685.55
440.77	672.67
441.145	665.66
441.52	686
441.895	693
442.27	693.46
442.645	700.24
443.019	716.28
443.394	714.7
443.769	712.89
444.143	691.2
444.518	704.53
444.892	702.72
445.267	713.57
445.641	715.38
446.016	711.53
446.39	734.81
446.764	728.26
447.139	719.9
447.513	755.15
447.887	740.91
448.262	732.1
448.636	746.11
449.01	739.1
449.384	740.23
449.758	758.77
450.132	758.31
450.506	774.81
450.88	749.95
451.254	744.53
451.628	782.72
452.002	777.75
452.376	783.4
452.75	793.79
453.123	786.56
453.497	798.31
453.871	811.19
454.244	819.55
454.618	797.63
454.992	833.57
455.365	826.79
455.739	830.63
456.112	834.24
456.486	824.3
456.859	858.2
457.232	833.79
457.606	850.06
457.979	868.59
458.352	891.42
458.725	870.17
459.099	876.5
459.472	928.03
459.845	934.81
460.218	886.45
460.591	900.23
460.964	921.7
461.337	947.91
461.71	941.36
462.083	975.93
462.456	940
462.829	941.13
463.201	991.3
463.574	968.93
463.947	990.17
464.32	1022.94
464.692	1009.38
465.065	1012.32
465.438	1017.74
465.81	1022.26
466.183	1058.87
466.555	1051.86
466.928	1066.33
467.3	1085.31
467.672	1079.21
468.045	1086.44
468.417	1127.57
468.789	1134.57
469.161	1141.58
469.534	1159.66
469.906	1165.99
470.278	1163.27
470.65	1188.36
471.022	1202.82
471.394	1241.01
471.766	1213.89
472.138	1261.13
472.51	1258.19
472.882	1289.6
473.253	1318.75
473.625	1301.35
473.997	1353.33
474.369	1364.4
474.74	1361.01
475.112	1419.31
475.484	1410.27
475.855	1413.89
476.227	1438.75
476.598	1496.15
476.97	1474.9
477.341	1521.68
477.713	1564.62
478.084	1583.83
478.455	1624.28
478.827	1596.48
479.198	1654.79
479.569	1707.44
479.94	1735.24
480.311	1761.22
480.682	1799.19
481.053	1842.35
481.424	1877.15
481.795	1841.9
482.166	1899.07
482.537	1916.25
482.908	1963.25
483.279	1992.18
483.65	2019.98
484.021	2077.15
484.391	2105.17
484.762	2118.73
485.133	2142.23
485.503	2144.72
485.874	2160.99
486.244	2239.86
486.615	2297.26
486.985	2306.07
487.356	2384.03
487.726	2398.5
488.097	2472.62
488.467	2436.24
488.837	2504.26
489.207	2572.05
489.578	2544.26
489.948	2565.95
490.318	2614.31
490.688	2645.5
491.058	2691.14
491.428	2761.42
491.798	2771.59
492.168	2816.56
492.538	2838.71
492.908	2867.86
493.278	2885.72
493.648	2940.63
494.017	3006.62
494.387	2976.56
494.757	3025.6
495.126	3057.01
495.496	3049.33
495.866	3088.2
496.235	3121.87
496.605	3178.81
496.974	3160.96
497.344	3210.68
497.713	3198.02
498.082	3265.14
498.452	3289.55
498.821	3318.25
499.19	3290.68
499.559	3366.83
499.928	3382.43
500.298	3384.01
500.667	3404.12
501.036	3402.31
501.405	3422.2
501.774	3502.87
502.143	3492.7
502.512	3508.52
502.88	3555.53
503.249	3501.97
503.618	3575.87
503.987	3579.26
504.356	3586.04
504.724	3595.07
505.093	3623.32
505.462	3646.6
505.83	3711.68
506.199	3713.94
506.567	3705.35
506.936	3745.35
507.304	3779.02
507.672	3748.07
508.041	3832.58
508.409	3796.65
508.777	3848.63
509.145	3844.33
509.514	3863.99
509.882	3878.01
510.25	3864.67
510.618	3918.91
510.986	3956.2
511.354	3957.55
511.722	3951
512.09	3977.89
512.458	4002.97
512.826	4024.89
513.193	4024.89
513.561	4016.08
513.929	3998.91
514.297	4101.28
514.664	4053.59
515.032	4066.93
515.4	4128.17
515.767	4115.29
516.135	4149.41
516.502	4121.39
516.869	4196.19
517.237	4132.69
517.604	4172.46
517.972	4212.69
518.339	4221.73
518.706	4223.31
519.073	4237.54
519.44	4256.3
519.808	4291.78
520.175	4311.21
520.542	4308.73
520.909	4341.27
521.276	4269.18
521.643	4322.97
522.009	4325.45
522.376	4340.59
522.743	4339.24
523.11	4428.05
523.477	4453.36
523.843	4464.66
524.21	4475.5
524.577	4548.5
524.943	4548.04
525.31	4543.07
525.676	4595.95
526.043	4613.35
526.409	4578.78
526.776	4662.62
527.142	4642.51
527.508	4735.84
527.874	4682.5
528.241	4749.62
528.607	4755.95
528.973	4743.52
529.339	4772.22
529.705	4849.73
530.071	4890.63
530.437	4875.72
530.803	4903.74
531.169	4891.54
531.535	4917.98
531.901	4927.02
532.267	4933.12
532.632	4998.43
532.998	4981.25
533.364	5011.99
533.73	5035.72
534.095	5087.92
534.461	5065.09
534.826	5114.58
535.192	5160.68
535.557	5150.74
535.923	5171.76
536.288	5169.5
536.653	5201.81
537.019	5149.16
537.384	5249.04
537.749	5234.35
538.114	5284.07
538.479	5294.24
538.845	5293.56
539.21	5270.74
539.575	5328.81
539.94	5351.86
540.305	5364.75
540.67	5361.58
541.034	5390.06
541.399	5435.48
541.764	5457.17
542.129	5484.06
542.494	5518.64
542.858	5529.04
543.223	5550.5
543.587	5599.54
543.952	5595.02
544.316	5595.93
544.681	5626.43
545.045	5682.93
545.41	5691.97
545.774	5749.82
546.138	5727.9
546.503	5767.45
546.867	5799.08
547.231	5810.16
547.595	5816.03
547.959	5817.62
548.324	5846.54
548.688	5843.6
549.052	5908.23
549.416	5886.99
549.779	5907.33
550.143	5949.14
550.507	6020.55
550.871	5967.22
551.235	5964.96
551.599	6023.26
551.962	6045.41
552.326	6037.04
552.689	6112.97
553.053	6030.27
553.417	6149.13
553.78	6171.05
554.143	6131.05
554.507	6152.52
554.87	6168.34
555.234	6274.1
555.597	6208.34
555.96	6238.85
556.323	6173.99
556.686	6233.42
557.05	6286.08
557.413	6304.61
557.776	6321.1
558.139	6374.21
558.502	6390.03
558.865	6368.79
559.228	6441.33
559.59	6410.14
559.953	6445.85
560.316	6576.69
560.679	6548.22
561.041	6533.75
561.404	6563.81
561.767	6594.32
562.129	6548.44
562.492	6631.38
562.854	6608.56
563.217	6603.36
563.579	6674.32
563.941	6677.25
564.304	6730.81
564.666	6743.92
565.028	6738.95
565.39	6806.97
565.753	6818.72
566.115	6856.68
566.477	6894.2
566.839	6874.99
567.201	6911.6
567.563	6938.72
567.925	6900.75
568.287	7022.78
568.648	7010.58
569.01	7038.15
569.372	7120.86
569.734	7037.02
570.095	7116.79
570.457	7143.46
570.819	7171.93
571.18	7185.49
571.542	7273.85
571.903	7312.27
572.265	7286.05
572.626	7338.48
572.987	7380.74
573.349	7378.03
573.71	7453.5
574.071	7512.71
574.432	7563.56
574.794	7663.22
575.155	7650.11
575.516	7696.66
575.877	7769.65
576.238	7826.15
576.599	7966.26
576.96	7978.46
577.32	7976.2
577.681	8127.39
578.042	8235.18
578.403	8211.68
578.763	8314.95
579.124	8434.5
579.485	8432.91
579.845	8581.16
580.206	8684.21
580.566	8777.09
580.927	8886.24
581.287	9030.41
581.648	9064.31
582.008	9304.98
582.368	9374.36
582.728	9501.13
583.089	9607.8
583.449	9757.62
583.809	9909.94
584.169	10070.38
584.529	10289.59
584.889	10517.15
585.249	10549.24
585.609	10701.33
585.969	10987.2
586.329	11117.82
586.688	11402.1
587.048	11565.26
587.408	11740.4
587.768	12008.19
588.127	12145.36
588.487	12411.11
588.846	12778.79
589.206	12782.86
589.565	13061.04
589.925	13430.75
590.284	13644.3
590.643	13874.58
591.003	14120.67
591.362	14399.54
591.721	14609.02
592.08	14810.15
592.44	15180.08
592.799	15434.76
593.158	15656.23
593.517	15997.23
593.876	16295.53
594.235	16456.43
594.593	16791.56
594.952	17154.27
595.311	17347.48
595.67	17618.89
596.029	18021.36
596.387	18299.1
596.746	18643.94
597.104	18777.5
597.463	19087.77
597.822	19566.63
598.18	19688.89
598.538	19949.22
598.897	20315.09
599.255	20355.99
599.613	21050.66
599.972	21162.97
600.33	21464.66
600.688	21725.45
601.046	22005.21
601.404	22371.76
601.762	22583.95
602.12	23011.51
602.478	23228.46
602.836	23397.72
603.194	23542.12
603.552	23787.99
603.91	23964.26
604.268	24393.62
604.625	24473.4
604.983	25008.52
605.341	25034.74
605.698	25321.51
606.056	25669.97
606.413	25766.47
606.771	26229.73
607.128	26378.88
607.485	26531.65
607.843	26801.02
608.2	27082.59
608.557	27408.46
608.914	27377.5
609.272	27741.11
609.629	27978.16
609.986	28228.55
610.343	28426.51
610.7	28735.2
611.057	28755.32
611.414	28940.17
611.771	29129.32
612.127	29408.41
612.484	29603.43
612.841	29919.81
613.198	29897.21
613.554	30104.66
613.911	30394.82
614.267	30488.15
614.624	30724.31
614.98	30757.3
615.337	31203.16
615.693	31216.27
616.05	31388.92
616.406	31566.09
616.762	31627.33
617.118	31654.68
617.475	31869.59
617.831	32071.84
618.187	32142.57
618.543	32469.12
618.899	32689
619.255	32721.54
619.611	32758.38
619.967	32999.73
620.323	33162.21
620.678	33194.07
621.034	33167.63
621.39	33242.43
621.746	33358.59
622.101	33727.16
622.457	33532.59
622.812	33724.68
623.168	33975.07
623.523	33916.54
623.879	34198.56
624.234	33964.67
624.589	34170.99
624.945	34233.59
625.3	34446.69
625.655	34469.74
626.01	34559.68
626.365	34681.26
626.72	34665.44
627.075	34653.92
627.43	34732.56
627.785	34604.43
628.14	34866.8
628.495	34984.31
628.85	34901.37
629.205	34995.83
629.559	35149.27
629.914	35051.2
630.269	35063.85
630.623	35012.33
630.978	35058.2
631.332	35168.03
631.687	35375.03
632.041	35197.63
632.396	35269.95
632.75	35195.6
633.104	35375.03
633.459	35234.7
633.813	35314.47
634.167	35335.03
634.521	35351.75
634.875	35197.86
635.229	35274.69
635.583	35211.19
635.937	35236.95
636.291	35274.02
636.645	35343.62
636.999	35130.97
637.352	35340.45
637.706	35245.32
638.06	35445.08
638.413	35239.67
638.767	35260.68
639.121	35254.36
639.474	35199.67
639.828	35248.93
640.181	35183.85
640.534	35247.8
640.888	35281.02
641.241	35068.82
641.594	35168.71
641.947	35220.01
642.301	35150.63
642.654	35232.89
643.007	35112.89
643.36	35173.68
643.713	35075.38
644.066	35339.78
644.419	35128.48
644.771	34907.7
645.124	34526.92
645.477	34492.79
645.83	34309.97
646.182	34147.27
646.535	34109.75
646.888	34115.18
647.24	33926.93
647.593	34175.74
647.945	34096.19
648.298	33973.94
648.65	33796.99
649.002	33802.19
649.355	34008.06
649.707	33922.19
650.059	34131.45
650.411	34421.61
650.763	34565.79
651.115	34854.14
651.467	34699.34
651.819	34762.84
652.171	34712.67
652.523	34681.94
652.875	34744.09
653.227	34533.47
653.578	34735.05
653.93	34682.85
654.282	34532.11
654.633	34429.74
654.985	34561.49
655.337	34549.52
655.688	34669.74
656.039	34585.67
656.391	34381.84
656.742	34389.29
657.094	34466.58
657.445	34532.79
657.796	34368.96
658.147	34465.9
658.498	34478.1
658.849	34396.3
659.2	34326.92
659.551	34366.02
659.902	34568.05
660.253	34478.33
660.604	34408.28
660.955	34360.37
661.306	34494.6
661.656	34345
662.007	34391.33
662.358	34350.88
662.708	34304.78
663.059	34382.06
663.409	34106.59
663.76	34298
664.11	34292.8
664.461	34371.21
664.811	34288.51
665.161	34324.89
665.511	34338.9
665.862	34311.56
666.212	34343.42
666.562	34261.39
666.912	34371.67
667.262	34245.79
667.612	34216.42
667.962	34273.36
668.312	34183.2
668.662	34389.29
669.011	34257.55
669.361	34220.48
669.711	34183.2
670.06	34062.75
670.41	34117.44
670.76	34066.14
671.109	34239.24
671.459	34209.19
671.808	34098.23
672.157	34134.84
672.507	34008.96
672.856	33979.13
673.205	34128.51
673.554	34237.66
673.904	33977.33
674.253	34158.34
674.602	33966.48
674.951	33554.29
675.3	33533.72
675.649	33951.79
675.998	33966.25
676.346	33950.43
676.695	33989.98
677.044	33626.38
677.393	33868.4
677.741	33982.3
678.09	33802.87
678.438	33748.63
678.787	33797.67
679.135	33693.49
679.484	33467.06
679.832	33696.66
680.181	33423.22
680.529	33570.78
680.877	33601.74
681.225	33542.54
681.573	33685.81
681.922	33362.2
682.27	33365.82
682.618	33339.15
682.966	33311.58
683.314	33266.16
683.661	33253.96
684.009	32914.3
684.357	32980.07
684.705	32942.33
685.053	32991.36
685.4	32993.4
685.748	32855.32
686.095	32798.15
686.443	32622.56
686.79	32642.67
687.138	32850.58
687.485	32625.27
687.832	32604.71
688.18	32631.6
688.527	32511.15
688.874	32297.37
689.221	32392.06
689.568	32290.59
689.915	32169.01
690.262	32202.46
690.609	32041.56
690.956	32038.62
691.303	31961.79
691.65	31897.83
691.997	31849.93
692.344	31603.83
692.69	31664.85
693.037	31724.5
693.383	31457.39
693.73	31456.94
694.077	31354.35
694.423	31276.16
694.769	31232.09
695.116	31112.77
695.462	31131.3
695.808	31002.72
696.155	31056.05
696.501	30689.73
696.847	30867.35
697.193	30640.01
697.539	30677.07
697.885	30497.87
698.231	30445.22
698.577	30423.3
698.923	30166.58
699.269	30114.38
699.614	30189.18
699.96	29963.87
700.306	29983.53
700.651	29838.9
700.997	29884.33
701.342	29732.01
701.688	29709.42
702.033	29420.16
702.379	29686.59
702.724	29448.41
703.069	29547.39
703.415	29162.31
703.76	29309.2
704.105	29175.65
704.45	29137.91
704.795	29033.05
705.14	29021.53
705.485	28843.22
705.83	28877.8
706.175	28918.25
706.52	28872.83
706.865	28565.94
707.209	28610.69
707.554	28520.52
707.899	28502.89
708.243	28377.02
708.588	28405.04
708.932	28136.8
709.277	28247.99
709.621	28129.8
709.966	28056.35
710.31	27997.6
710.654	27843.02
710.998	28022.23
711.342	27876.7
711.687	27830.82
712.031	27638.96
712.375	27537.72
712.719	27583.37
713.063	27639.41
713.407	27588.57
713.75	27503.15
714.094	27374.34
714.438	27361.46
714.782	27373.88
715.125	27187.22
715.469	27302.93
715.812	27003.95
716.156	27054.35
716.499	27024.74
716.843	27013.22
717.186	26854.8
717.53	27036.04
717.873	27012.54
718.216	26883.5
718.559	26777.74
718.902	26756.05
719.246	26716.95
719.589	26611.19
719.932	26424.53
720.275	26521.48
720.617	26505.88
720.96	26399
721.303	26389.96
721.646	26330.3
721.989	26131.43
722.331	26276.74
722.674	26224.76
723.016	26132.79
723.359	26153.58
723.701	26213.46
724.044	25962.85
724.386	25842.17
724.729	25914.04
725.071	25916.97
725.413	25947.03
725.755	25849.86
726.097	25822.29
726.439	25618.45
726.782	25628.85
727.124	25897.77
727.465	25727.83
727.807	25537.55
728.149	25506.14
728.491	25378.01
728.833	25507.04
729.175	25338.68
729.516	25296.43
729.858	25243.32
730.199	25266.82
730.541	25222.75
730.882	25242.87
731.224	25262.08
731.565	25124.23
731.906	25100.72
732.248	25092.81
732.589	24976.21
732.93	24843.56
733.271	24989.09
733.612	25084.23
733.953	25059.14
734.294	24892.37
734.635	24920.39
734.976	24847.17
735.317	24643.79
735.658	24691.47
735.999	24786.61
736.339	24702.77
736.68	24815.31
737.021	24570.79
737.361	24557.69
737.702	24699.38
738.042	24552.04
738.383	24468.42
738.723	24498.48
739.063	24444.92
739.404	24400.4
739.744	24339.39
740.084	24191.6
740.424	24328.32
740.764	24249
741.104	24303.46
741.444	24168.32
741.784	24094.65
742.124	24200.18
742.464	24067.08
742.804	24053.07
743.143	24039.74
743.483	24032.28
743.823	23831.83
744.162	23807.2
744.502	23883.36
744.841	23807.65
745.181	23879.29
745.52	23704.83
745.86	23799.74
746.199	23818.72
746.538	23761.55
746.877	23652.85
747.216	23670.71
747.556	23552.06
747.895	23593.19
748.234	23526.53
748.573	23397.49
748.911	23415.8
749.25	23533.53
749.589	23326.53
749.928	23346.19
750.267	23316.36
750.605	23210.6
750.944	23150.94
751.283	23163.37
751.621	23247.44
751.96	23029.59
752.298	23058.97
752.636	23040.44
752.975	23023.49
753.313	22903.49
753.651	22897.84
753.989	22860.11
754.327	22703.5
754.666	22728.58
755.004	22731.75
755.342	22700.79
755.679	22739.2
756.017	22574.24
756.355	22553.22
756.693	22494.92
757.031	22542.6
757.368	22402.04
757.706	22254.92
758.044	22321.81
758.381	22405.2
758.719	22310.06
759.056	22173.12
759.394	22146.45
759.731	22216.28
760.068	21964.99
760.405	21930.86
760.743	21851.09
761.08	21999.11
761.417	21907.36
761.754	21779.91
