Data from hue_30_FLMS001491_64.txt Node
Date: Mon Feb 06 15:05:45 GMT 2017
User: dcchb
Spectrometer: FLMS00149
Trigger mode: 0
Integration Time (sec): 2.000000E-2
Scans to average: 10
Electric dark correction enabled: true
Nonlinearity correction enabled: false
Boxcar width: 0
XAxis mode: Wavelengths
Number of Pixels in Spectrum: 2048
>>>>>Begin Spectral Data<<<<<
341.393	-20.01
341.776	-20.01
342.16	-20.01
342.543	-45.78
342.927	-70.86
343.31	-84.42
343.693	-55.27
344.077	-48.04
344.46	-67.47
344.843	-54.59
345.226	-39.22
345.61	-29.05
345.993	-39.9
346.376	17.95
346.759	21.57
347.142	29.93
347.525	56.59
347.908	41.68
348.291	63.83
348.674	81
349.057	105.41
349.44	133.2
349.823	129.59
350.206	159.87
350.588	193.54
350.971	225.63
351.354	253.65
351.737	245.97
352.119	242.8
352.502	266.08
352.884	266.53
353.267	264.72
353.65	294.55
354.032	281.67
354.414	301.33
354.797	317.15
355.179	324.16
355.562	328.45
355.944	309.47
356.326	348.79
356.709	339.98
357.091	311.96
357.473	336.36
357.855	331.16
358.238	325.74
358.62	344.72
359.002	323.03
359.384	332.52
359.766	333.88
360.148	364.84
360.53	337.27
360.912	335.23
361.294	321.22
361.676	349.24
362.057	322.35
362.439	338.85
362.821	317.83
363.203	333.2
363.584	324.61
363.966	349.92
364.348	320.99
364.729	329.36
365.111	322.58
365.493	320.32
365.874	320.77
366.256	322.12
366.637	323.48
367.019	302.24
367.4	333.2
367.781	324.16
368.163	320.09
368.544	325.74
368.925	309.92
369.306	306.08
369.688	314.89
370.069	323.48
370.45	336.59
370.831	325.51
371.212	311.28
371.593	323.25
371.974	307.21
372.355	321.9
372.736	322.8
373.117	311.73
373.498	310.37
373.879	312.18
374.26	316.93
374.641	342.24
375.021	299.3
375.402	323.71
375.783	323.48
376.163	316.7
376.544	326.19
376.925	324.38
377.305	339.75
377.686	321.45
378.066	323.25
378.447	349.92
378.827	315.34
379.208	344.27
379.588	342.24
379.968	324.84
380.349	323.03
380.729	323.03
381.109	343.14
381.489	349.02
381.87	336.14
382.25	357.83
382.63	339.75
383.01	345.17
383.39	328.9
383.77	344.95
384.15	355.12
384.53	329.36
384.91	338.4
385.29	343.59
385.67	365.74
386.049	353.76
386.429	365.06
386.809	357.38
387.189	338.4
387.568	337.49
387.948	349.02
388.328	364.38
388.707	367.09
389.087	352.41
389.466	348.79
389.846	346.08
390.225	365.29
390.605	365.96
390.984	398.51
391.363	367.55
391.743	383.37
392.122	369.58
392.501	381.56
392.881	394.21
393.26	397.15
393.639	379.52
394.018	401.22
394.397	376.13
394.776	374.1
395.155	379.07
395.534	393.76
395.913	369.35
396.292	392.63
396.671	408.45
397.05	384.04
397.429	399.41
397.808	378.17
398.186	396.25
398.565	392.18
398.944	404.16
399.323	378.39
399.701	392.86
400.08	402.12
400.458	384.27
400.837	407.32
401.215	405.06
401.594	425.4
401.972	421.1
402.351	425.17
402.729	407.09
403.107	419.97
403.486	442.57
403.864	432.18
404.242	435.12
404.62	423.14
404.999	432.86
405.377	437.83
405.755	416.81
406.133	418.17
406.511	426.3
406.889	451.16
407.267	431.95
407.645	441.9
408.023	435.12
408.401	434.66
408.779	449.35
409.156	446.64
409.534	426.53
409.912	455.23
410.29	470.82
410.667	472.63
411.045	469.01
411.422	471.27
411.8	480.76
412.178	495.68
412.555	486.19
412.933	466.53
413.31	492.52
413.687	467.88
414.065	480.09
414.442	502.46
414.819	501.1
415.197	503.59
415.574	505.62
415.951	501.55
416.328	499.75
416.705	504.04
417.082	494.32
417.46	523.25
417.837	512.18
418.214	513.98
418.591	539.52
418.967	507.66
419.344	533.64
419.721	516.7
420.098	521.22
420.475	537.03
420.852	529.35
421.228	526.86
421.605	551.95
421.982	558.05
422.358	570.48
422.735	538.84
423.111	603.25
423.488	570.48
423.864	563.7
424.241	590.37
424.617	582.46
424.994	581.55
425.37	584.94
425.746	584.94
426.123	577.26
426.499	609.12
426.875	600.31
427.251	610.25
427.627	601.89
428.003	612.74
428.379	637.37
428.756	613.19
429.132	641.44
429.507	620.87
429.883	614.32
430.259	649.8
430.635	644.38
431.011	657.71
431.387	642.34
431.763	666.75
432.138	645.05
432.514	664.26
432.89	696.8
433.265	693.19
433.641	686.18
434.016	701.32
434.392	700.42
434.767	721.66
435.143	713.3
435.518	725.05
435.894	728.22
436.269	708.55
436.644	739.97
437.02	724.15
437.395	742
437.77	734.32
438.145	754.66
438.52	756.46
438.895	764.37
439.271	763.92
439.646	787.2
440.021	795.33
440.395	767.99
440.77	776.35
441.145	784.03
441.52	785.39
441.895	801.66
442.27	815.44
442.645	819.06
443.019	801.21
443.394	825.16
443.769	815.22
444.143	826.52
444.518	835.11
444.892	804.6
445.267	852.96
445.641	833.07
446.016	849.12
446.39	873.07
446.764	847.53
447.139	865.84
447.513	867.65
447.887	871.04
448.262	887.53
448.636	878.27
449.01	892.73
449.384	894.99
449.758	883.01
450.132	901.32
450.506	918.27
450.88	895.67
451.254	897.25
451.628	903.35
452.002	937.25
452.376	961.43
452.75	971.37
453.123	957.14
453.497	987.42
453.871	952.16
454.244	977.93
454.618	999.62
454.992	998.04
455.365	1014.31
455.739	1013.41
456.112	1031.94
456.486	1014.31
456.859	1039.85
457.232	1068.09
457.606	1040.75
457.979	1066.51
458.352	1089.34
458.725	1114.42
459.099	1097.92
459.472	1116.91
459.845	1134.98
460.218	1141.31
460.591	1159.39
460.964	1159.16
461.337	1210.91
461.71	1190.35
462.083	1192.61
462.456	1214.08
462.829	1239.39
463.201	1234.19
463.574	1225.15
463.947	1250.46
464.32	1267.41
464.692	1294.98
465.065	1302.89
465.438	1293.62
465.81	1323.23
466.183	1340.18
466.555	1387.63
466.928	1372.72
467.3	1360.74
467.672	1369.1
468.045	1437.58
468.417	1457.24
468.789	1432.83
469.161	1478.25
469.534	1501.53
469.906	1529.32
470.278	1538.14
470.65	1554.41
471.022	1571.36
471.394	1611.81
471.766	1623.33
472.138	1643.67
472.51	1683.44
472.882	1686.61
473.253	1710.79
473.625	1747.85
473.997	1797.34
474.369	1826.72
474.74	1859.49
475.112	1858.36
475.484	1895.42
475.855	1949.88
476.227	1982.19
476.598	2029.65
476.97	2047.05
477.341	2105.81
477.713	2153.26
478.084	2173.38
478.455	2236.2
478.827	2242.3
479.198	2351.68
479.569	2343.99
479.94	2390.77
480.311	2439.36
480.682	2496.98
481.053	2574.04
481.424	2600.93
481.795	2627.15
482.166	2687.49
482.537	2716.19
482.908	2823.98
483.279	2844.77
483.65	2903.53
484.021	2984.43
484.391	3023.3
484.762	3081.6
485.133	3136.74
485.503	3174.48
485.874	3247.7
486.244	3317.75
486.615	3400.01
486.985	3435.04
487.356	3541.93
487.726	3595.71
488.097	3608.37
488.467	3667.8
488.837	3810.39
489.207	3827.57
489.578	3910.28
489.948	3960.67
490.318	4072.76
490.688	4048.35
491.058	4167.9
491.428	4211.97
491.798	4302.13
492.168	4402.24
492.538	4405.41
492.908	4461
493.278	4557.72
493.648	4605.85
494.017	4700.77
494.387	4719.3
494.757	4767.43
495.126	4865.28
495.496	4837.03
495.866	4979.85
496.235	5013.07
496.605	5060.53
496.974	5088.78
497.344	5202.22
497.713	5191.15
498.082	5239.06
498.452	5334.87
498.821	5378.26
499.19	5428.88
499.559	5475.66
499.928	5534.64
500.298	5590.23
500.667	5589.56
501.036	5606.05
501.405	5697.58
501.774	5719.5
502.143	5766.95
502.512	5809.89
502.88	5835.65
503.249	5885.59
503.618	5967.63
503.987	5989.09
504.356	6014.86
504.724	6038.58
505.093	6051.92
505.462	6137.56
505.83	6209.2
506.199	6220.73
506.567	6342.3
506.936	6362.87
507.304	6366.94
507.672	6393.83
508.041	6440.16
508.409	6520.15
508.777	6564.45
509.145	6583.43
509.514	6569.19
509.882	6671.34
510.25	6652.13
510.618	6736.87
510.986	6782.29
511.354	6794.72
511.722	6834.27
512.09	6899.58
512.458	6919.69
512.826	6978.45
513.193	6964.89
513.561	7041.04
513.929	7093.02
514.297	7155.84
514.664	7162.85
515.032	7156.52
515.4	7198.78
515.767	7264.09
516.135	7288.04
516.502	7248.27
516.869	7327.14
517.237	7391.09
517.604	7376.85
517.972	7460.92
518.339	7483.29
518.706	7520.81
519.073	7542.73
519.44	7606.45
519.808	7573.46
520.175	7621.82
520.542	7646.68
520.909	7744.53
521.276	7789.05
521.643	7853.23
522.009	7882.6
522.376	7925.09
522.743	8002.83
523.11	8024.97
523.477	8076.27
523.843	8130.96
524.21	8144.07
524.577	8260.9
524.943	8222.48
525.31	8249.37
525.676	8382.03
526.043	8420.22
526.409	8449.59
526.776	8533.89
527.142	8521.91
527.508	8605.3
527.874	8600.32
528.241	8698.63
528.607	8679.19
528.973	8755.35
529.339	8776.37
529.705	8900.2
530.071	8868.34
530.437	8930.03
530.803	8984.27
531.169	9079.18
531.535	9127.32
531.901	9156.24
532.267	9147.65
532.632	9236.24
532.998	9193.76
533.364	9356.69
533.73	9354.43
534.095	9389.91
534.461	9424.48
534.826	9471.94
535.192	9485.5
535.557	9516.01
535.923	9588.1
536.288	9607.98
536.653	9667.87
537.019	9579.06
537.384	9672.16
537.749	9724.59
538.114	9698.37
538.479	9784.25
538.845	9808.65
539.21	9886.62
539.575	9911.48
539.94	9901.08
540.305	10005.03
540.67	10057.69
541.034	10125.48
541.399	10141.08
541.764	10125.71
542.129	10148.98
542.494	10230.34
542.858	10277.34
543.223	10349.43
543.587	10442.08
543.952	10367.74
544.316	10459.03
544.681	10454.06
545.045	10479.82
545.41	10565.24
545.774	10632.36
546.138	10580.16
546.503	10675.52
546.867	10708.97
547.231	10733.6
547.595	10799.14
547.959	10841.17
548.324	10825.12
548.688	10867.38
549.052	10925.24
549.416	10957.1
549.779	10990.77
550.143	10983.31
550.507	11115.51
550.871	11132.24
551.235	11097.89
551.599	11313.02
551.962	11275.28
552.326	11257.88
552.689	11375.39
553.053	11322.74
553.417	11325
553.78	11462.62
554.143	11437.09
554.507	11425.34
554.87	11523.64
555.234	11692.22
555.597	11575.61
555.96	11632.56
556.323	11640.7
556.686	11656.29
557.05	11714.59
557.413	11814.93
557.776	11815.83
558.139	11888.37
558.502	11846.79
558.865	11914.36
559.228	12067.8
559.59	12072.1
559.953	12055.15
560.316	12135.37
560.679	12196.84
561.041	12316.61
561.404	12264.86
561.767	12389.83
562.129	12316.61
562.492	12437.29
562.854	12411.07
563.217	12474.12
563.579	12521.13
563.941	12551.63
564.304	12620.78
564.666	12729.93
565.028	12674.34
565.39	12737.62
565.753	12867.56
566.115	12817.16
566.477	12835.24
566.839	12932.19
567.201	13026.2
567.563	13013.77
567.925	13135.35
568.287	13041.79
568.648	13176.7
569.01	13241.56
569.372	13312.52
569.734	13234.55
570.095	13385.96
570.457	13464.83
570.819	13585.73
571.18	13500.53
571.542	13686.29
571.903	13681.1
572.265	13723.35
572.626	13726.74
572.987	13830.02
573.349	13924.93
573.71	13930.81
574.071	14061.65
574.432	14104.59
574.794	14247.41
575.155	14312.26
575.516	14251.02
575.877	14410.79
576.238	14482.2
576.599	14581.64
576.96	14736.89
577.32	14756.77
577.681	14839.48
578.042	14955.41
578.403	15005.35
578.763	15139.59
579.124	15278.57
579.485	15422.52
579.845	15577.54
580.206	15655.73
580.566	15790.19
580.927	15933.47
581.287	16083.74
581.648	16178.88
582.008	16493
582.368	16586.56
582.728	16633.11
583.089	16881.69
583.449	17107.9
583.809	17243.71
584.169	17447.78
584.529	17593.53
584.889	17955.11
585.249	18022
585.609	18257.47
585.969	18529.1
586.329	18706.95
586.688	18916.21
587.048	19135.87
587.408	19337.44
587.768	19607.27
588.127	19737.21
588.487	20041.83
588.846	20358.21
589.206	20424.87
589.565	20729.05
589.925	20994.8
590.284	21210.61
590.643	21546.65
591.003	21847.66
591.362	22149.8
591.721	22388.66
592.08	22544.82
592.44	23030.23
592.799	23259.15
593.158	23471.35
593.517	23692.13
593.876	24138.67
594.235	24239.24
594.593	24543.86
594.952	24890.52
595.311	25128.03
595.67	25400.11
596.029	25875.35
596.387	26098.17
596.746	26422.68
597.104	26608.44
597.463	26875.55
597.822	27210.91
598.18	27308.53
598.538	27660.39
598.897	28048.17
599.255	28222.63
599.613	28735.16
599.972	28743.07
600.33	29199.78
600.688	29338.08
601.046	29737.62
601.404	29869.37
601.762	30090.16
602.12	30532.63
602.478	30720.87
602.836	31038.15
603.194	31098.26
603.552	31432.27
603.91	31390.46
604.268	31835.87
604.625	32000.39
604.983	32354.95
605.341	32419.13
605.698	32650.54
606.056	32858.9
606.413	33125.78
606.771	33494.13
607.128	33704.75
607.485	33750.17
607.843	34030.62
608.2	34320.1
608.557	34552.41
608.914	34637.15
609.272	35019.07
609.629	35165.28
609.986	35548.09
610.343	35534.08
610.7	35950.57
611.057	36061.3
611.414	36188.98
611.771	36232.14
612.127	36545.13
612.484	36597.1
612.841	36988.05
613.198	36832.8
613.554	37035.28
613.911	37316.63
614.267	37585.33
614.624	37725.43
614.98	37801.36
615.337	38035.03
615.693	38239.55
616.05	38183.73
616.406	38625.07
616.762	38362.03
617.118	38595.02
617.475	38698.74
617.831	39029.81
618.187	39082.24
618.543	39225.51
618.899	39499.4
619.255	39557.02
619.611	39538.49
619.967	39692.39
620.323	40113.39
620.678	39831.14
621.034	39822.55
621.39	39960.4
621.746	39974.64
622.101	40608.3
622.457	40340.73
622.812	40408.75
623.168	40412.6
623.523	40657.79
623.879	40810.33
624.234	40586.38
624.589	40764.68
624.945	40987.95
625.3	41006.93
625.655	40990.43
626.01	41135.29
626.365	41151.79
626.72	41250.54
627.075	41279.24
627.43	41271.56
627.785	41412.34
628.14	41440.37
628.495	41418.44
628.85	41532.57
629.205	41344.77
629.559	41628.61
629.914	41432
630.269	41502.51
630.623	41558.1
630.978	41387.49
631.332	41714.48
631.687	41781.37
632.041	41672.45
632.396	41719
632.75	41573.24
633.104	41727.14
633.459	41522.4
633.813	41562.4
634.167	41648.04
634.521	41780.92
634.875	41691.43
635.229	41683.07
635.583	41457.99
635.937	41485.34
636.291	41388.84
636.645	41661.83
636.999	41456.41
637.352	41694.37
637.706	41457.31
638.06	41665.44
638.413	41525.79
638.767	41456.41
639.121	41577.76
639.474	41439.91
639.828	41483.08
640.181	41360.82
640.534	41500.25
640.888	41356.75
641.241	41221.16
641.594	41361.27
641.947	41479.69
642.301	41161.05
642.654	41389.52
643.007	41352.91
643.36	41390.87
643.713	41211.22
644.066	41461.16
644.419	41256.42
644.771	40898.01
645.124	40586.6
645.477	40459.83
645.83	40354.52
646.182	40164.01
646.535	40072.27
646.888	40159.04
647.24	39967.41
647.593	40181.19
647.945	40044.7
648.298	39875.89
648.65	39930.57
649.002	39690.81
649.355	40020.97
649.707	39978.71
650.059	40106.16
650.411	40595.42
650.763	40558.35
651.115	41032.92
651.467	40843.09
651.819	40749.99
652.171	40777.11
652.523	40706.37
652.875	40819.82
653.227	40555.19
653.578	40895.07
653.93	40653.95
654.282	40621.18
654.633	40408.3
654.985	40611.46
655.337	40562.65
655.688	40540.5
656.039	40627.96
656.391	40392.94
656.742	40466.38
657.094	40614.62
657.445	40660.05
657.796	40514.29
658.147	40504.8
658.498	40328.76
658.849	40593.61
659.2	40531.01
659.551	40347.51
659.902	40544.57
660.253	40288.98
660.604	40548.86
660.955	40313.62
661.306	40433.16
661.656	40281.07
662.007	40333.5
662.358	40337.57
662.708	40280.62
663.059	40339.6
663.409	40083.79
663.76	40131.25
664.11	40323.78
664.461	40418.02
664.811	40475.19
665.161	40257.12
665.511	40308.64
665.862	40375.08
666.212	40376.44
666.562	40392.03
666.912	40316.78
667.262	40249.21
667.612	40388.87
667.962	40467.96
668.312	40234.3
668.662	40291.47
669.011	40279.27
669.361	40246.05
669.711	40141.87
670.06	40143
670.41	40095.32
670.76	40218.02
671.109	40195.43
671.459	40145.71
671.808	40056.9
672.157	40109.1
672.507	39884.7
672.856	39973.51
673.205	39855.77
673.554	40040.4
673.904	39869.33
674.253	40059.84
674.602	40055.99
674.951	39405.84
675.3	39241.55
675.649	39874.53
675.998	39825.04
676.346	39804.93
676.695	39908.43
677.044	39589.57
677.393	39850.8
677.741	39784.59
678.09	39654.42
678.438	39600.19
678.787	39868.43
679.135	39729.45
679.484	39572.62
679.832	39653.75
680.181	39394.54
680.529	39560.41
680.877	39398.16
681.225	39358.84
681.573	39420.31
681.922	39183.93
682.27	39117.94
682.618	39081.33
682.966	39035.68
683.314	38985.51
683.661	38936.25
684.009	38949.81
684.357	38818.06
684.705	38734
685.053	38765.41
685.4	38640.89
685.748	38540.78
686.095	38565.64
686.443	38298.98
686.79	38330.39
687.138	38382.82
687.485	38451.52
687.832	38206.55
688.18	38364.74
688.527	38112.32
688.874	38110.28
689.221	38042.04
689.568	37953.9
689.915	37759.56
690.262	37916.84
690.609	37668.26
690.956	37657.41
691.303	37580.58
691.65	37544.87
691.997	37392.79
692.344	37232.79
692.69	37043.64
693.037	37206.8
693.383	36976.53
693.73	36939.69
694.077	36727.95
694.423	36877.55
694.769	36619.93
695.116	36511
695.462	36481.85
695.808	36284.34
696.155	36487.05
696.501	36107.17
696.847	36211.12
697.193	35879.16
697.539	36037.12
697.885	35719.39
698.231	35744.7
698.577	35788.54
698.923	35606.39
699.269	35486.62
699.614	35308.77
699.96	35305.61
700.306	35367.3
700.651	35181.32
700.997	35042.34
701.342	35061.32
701.688	34941.78
702.033	34769.35
702.379	35001.89
702.724	34733.2
703.069	34781.33
703.415	34389.03
703.76	34548.34
704.105	34494.11
704.45	34318.29
704.795	34122.59
705.14	34052.08
705.485	34188.13
705.83	33932.09
706.175	33947.23
706.52	33861.81
706.865	33707.24
707.209	33641.47
707.554	33549.73
707.899	33555.37
708.243	33391.31
708.588	33332.33
708.932	33312.22
709.277	33180.24
709.621	33269.28
709.966	32954.49
710.31	32948.61
710.654	32760.59
710.998	32789.75
711.342	32826.81
711.687	32645.79
712.031	32604.67
712.375	32355.41
712.719	32465.69
713.063	32260.49
713.407	32397.67
713.75	32237.9
714.094	32402.41
714.438	32102.53
714.782	32152.25
715.125	32086.26
715.469	32153.83
715.812	31943.44
716.156	31772.82
716.499	31908.41
716.843	31836.55
717.186	31618.93
717.53	31799.71
717.873	31831.8
718.216	31629.32
718.559	31574.18
718.902	31302.1
719.246	31277.02
719.589	31302.55
719.932	31093.97
720.275	31221.65
720.617	31077.93
720.96	31021.43
721.303	31125.16
721.646	31116.12
721.989	30797.48
722.331	31011.94
722.674	30710.03
723.016	30893.98
723.359	30758.61
723.701	30806.29
724.044	30515.45
724.386	30503.93
724.729	30700.99
725.071	30432.52
725.413	30402.69
725.755	30425.97
726.097	30311.62
726.439	30230.72
726.782	30210.15
727.124	30321.11
727.465	30102.58
727.807	30087.67
728.149	29983.49
728.491	29981.01
728.833	30095.8
729.175	29857.62
729.516	29866.21
729.858	29730.62
730.199	29835.47
730.541	29835.92
730.882	29777.17
731.224	29763.38
731.565	29595.93
731.906	29626.21
732.248	29537.4
732.589	29438.65
732.93	29455.14
733.271	29343.73
733.612	29374.47
733.953	29387.12
734.294	29340.57
734.635	29188.03
734.976	29256.05
735.317	29143.74
735.658	29134.25
735.999	29099.45
736.339	28981.03
736.68	29118.2
737.021	28910.98
737.361	28736.97
737.702	28987.81
738.042	28755.05
738.383	28773.58
738.723	28842.05
739.063	28667.82
739.404	28714.82
739.744	28636.18
740.084	28619.46
740.424	28637.76
740.764	28565
741.104	28672.34
741.444	28400.93
741.784	28373.14
742.124	28342.63
742.464	28305.34
742.804	28264.89
743.143	28304.89
743.483	28285.68
743.823	28134.5
744.162	28203.43
744.502	28211.79
744.841	28016.54
745.181	28214.72
745.52	28029.19
745.86	28099.7
746.199	27884.34
746.538	27915.3
746.877	27928.4
747.216	27975.18
747.556	27940.16
747.895	27859.03
748.234	27698.13
748.573	27696.55
748.911	27674.4
749.25	27587.4
749.589	27595.53
749.928	27487.51
750.267	27531.8
750.605	27511.92
750.944	27336.1
751.283	27333.39
751.621	27345.59
751.96	27121.42
752.298	27229.21
752.636	27216.11
752.975	27132.04
753.313	27025.38
753.651	27110.8
753.989	26958.94
754.327	27036.22
754.666	26724.82
755.004	26953.06
755.342	26899.5
755.679	26807.98
756.017	26539.06
756.355	26732.28
756.693	26596.46
757.031	26593.52
757.368	26402.34
757.706	26370.03
758.044	26334.32
758.381	26378.16
