Data from hue_150_FLMS001491_00055.txt Node
Date: Tue Feb 07 16:54:14 GMT 2017
User: dcchb
Spectrometer: FLMS00149
Trigger mode: 0
Integration Time (sec): 2.000000E-2
Scans to average: 10
Electric dark correction enabled: true
Nonlinearity correction enabled: false
Boxcar width: 0
XAxis mode: Wavelengths
Number of Pixels in Spectrum: 2048
>>>>>Begin Spectral Data<<<<<
341.393	-5.16
341.776	-5.16
342.16	-5.16
342.543	-43.8
342.927	-79.28
343.31	-68.66
343.693	-81.76
344.077	-79.05
344.46	-61.42
344.843	-52.84
345.226	-14.65
345.61	-13.74
345.993	-14.87
346.376	-8.32
346.759	23.54
347.142	14.05
347.525	32.36
347.908	49.08
348.291	84.33
348.674	77.55
349.057	114.39
349.44	125.91
349.823	143.77
350.206	154.61
350.588	188.96
350.971	205.01
351.354	213.6
351.737	242.07
352.119	231.9
352.502	249.75
352.884	280.26
353.267	269.41
353.65	272.35
354.032	288.17
354.414	285.68
354.797	320.03
355.179	320.71
355.562	315.51
355.944	317.77
356.326	323.88
356.709	294.05
357.091	325.46
357.473	311.22
357.855	338.11
358.238	348.28
358.62	328.17
359.002	332.01
359.384	315.74
359.766	338.34
360.148	326.14
360.53	309.86
360.912	341.73
361.294	325.68
361.676	308.28
362.057	359.35
362.439	327.04
362.821	324.1
363.203	315.29
363.584	315.97
363.966	328.62
364.348	319.13
364.729	326.36
365.111	312.58
365.493	337.21
365.874	317.32
366.256	287.72
366.637	285.01
367.019	299.92
367.4	293.59
367.781	317.77
368.163	295.85
368.544	306.47
368.925	312.35
369.306	312.12
369.688	306.93
370.069	304.44
370.45	310.99
370.831	301.5
371.212	307.38
371.593	306.25
371.974	299.47
372.355	281.62
372.736	299.47
373.117	303.76
373.498	298.11
373.879	291.11
374.26	291.11
374.641	320.03
375.021	297.66
375.402	293.59
375.783	307.83
376.163	310.32
376.544	318.68
376.925	328.85
377.305	316.42
377.686	313.25
378.066	311.9
378.447	320.26
378.827	314.84
379.208	317.32
379.588	322.97
379.968	318.45
380.349	314.84
380.729	306.47
381.109	335.4
381.489	308.51
381.87	319.81
382.25	306.7
382.63	313.71
383.01	336.98
383.39	312.12
383.77	323.42
384.15	314.16
384.53	333.59
384.91	353.71
385.29	350.99
385.67	338.34
386.049	348.51
386.429	349.64
386.809	358.23
387.189	338.79
387.568	331.79
387.948	337.66
388.328	334.5
388.707	365.46
389.087	355.06
389.466	331.56
389.846	357.55
390.225	365
390.605	360.03
390.984	341.95
391.363	357.55
391.743	371.11
392.122	362.74
392.501	358.23
392.881	362.29
393.26	371.56
393.639	362.29
394.018	376.3
394.397	355.51
394.776	347.6
395.155	381.05
395.534	370.88
395.913	370.43
396.292	355.97
396.671	367.26
397.05	378.56
397.429	372.24
397.808	383.99
398.186	390.31
398.565	387.83
398.944	378.34
399.323	368.17
399.701	381.28
400.08	380.37
400.458	388.73
400.837	388.51
401.215	390.31
401.594	404.33
401.972	413.14
402.351	379.69
402.729	400.26
403.107	399.35
403.486	413.36
403.864	388.73
404.242	414.72
404.62	399.35
404.999	396.42
405.377	397.77
405.755	411.33
406.133	408.17
406.511	419.92
406.889	406.13
407.267	406.13
407.645	427.6
408.023	423.76
408.401	404.33
408.779	406.13
409.156	442.52
409.534	443.42
409.912	442.29
410.29	419.69
410.667	456.3
411.045	439.35
411.422	446.36
411.8	461.27
412.178	460.82
412.555	445.68
412.933	455.62
413.31	452.01
413.687	443.19
414.065	473.48
414.442	460.14
414.819	437.09
415.197	468.05
415.574	481.16
415.951	475.51
416.328	484.1
416.705	468.73
417.082	473.93
417.46	496.53
417.837	487.49
418.214	489.97
418.591	494.72
418.967	502.85
419.344	502.85
419.721	512.12
420.098	494.49
420.475	501.05
420.852	520.48
421.228	511.44
421.605	530.42
421.982	513.25
422.358	534.94
422.735	538.79
423.111	545.34
423.488	555.51
423.864	517.32
424.241	548.73
424.617	556.19
424.994	548.5
425.37	545.34
425.746	538.11
426.123	579.24
426.499	552.12
426.875	570.87
427.251	591.21
427.627	582.85
428.003	588.73
428.379	573.36
428.756	588.95
429.132	605.9
429.507	603.19
429.883	601.16
430.259	610.65
430.635	626.92
431.011	610.87
431.387	627.82
431.763	637.09
432.138	654.71
432.514	661.49
432.89	628.5
433.265	626.47
433.641	656.52
434.016	660.36
434.392	705.11
434.767	677.09
435.143	660.14
435.518	678.22
435.894	702.4
436.269	685
436.644	687.71
437.02	707.14
437.395	723.64
437.77	745.79
438.145	719.57
438.52	741.49
438.895	722.96
439.271	748.72
439.646	757.99
440.021	740.59
440.395	760.7
440.77	772.23
441.145	792.34
441.52	777.2
441.895	773.81
442.27	780.36
442.645	792.79
443.019	809.74
443.394	776.29
443.769	811.09
444.143	818.55
444.518	828.04
444.892	820.81
445.267	838.66
445.641	820.59
446.016	840.92
446.39	860.36
446.764	841.38
447.139	831.43
447.513	869.4
447.887	877.08
448.262	836.18
448.636	885.67
449.01	875.27
449.384	887.93
449.758	901.04
450.132	884.31
450.506	914.59
450.88	934.48
451.254	906.46
451.628	948.72
452.002	908.27
452.376	936.29
452.75	963.86
453.123	950.75
453.497	961.6
453.871	978.32
454.244	982.39
454.618	968.6
454.992	994.82
455.365	1003.86
455.739	1034.14
456.112	1034.14
456.486	1042.95
456.859	1029.17
457.232	1072.1
457.606	1077.75
457.979	1080.24
458.352	1080.69
458.725	1117.3
459.099	1132.22
459.472	1147.13
459.845	1132.89
460.218	1131.76
460.591	1178.77
460.964	1178.99
461.337	1213.57
461.71	1242.04
462.083	1257.86
462.456	1228.94
462.829	1252.21
463.201	1293.79
463.574	1276.62
463.947	1314.36
464.32	1339.22
464.692	1350.29
465.065	1359.55
465.438	1398.42
465.81	1411.08
466.183	1425.54
466.555	1427.8
466.928	1450.17
467.3	1482.94
467.672	1506.44
468.045	1544.18
468.417	1527.69
468.789	1572.88
469.161	1587.35
469.534	1612.66
469.906	1639.32
470.278	1692.43
470.65	1699.88
471.022	1715.48
471.394	1770.62
471.766	1767.45
472.138	1834.8
472.51	1882.25
472.882	1913.21
473.253	1915.47
473.625	1985.53
473.997	2044.51
474.369	2053.77
474.74	2120.21
475.112	2180.55
475.484	2176.26
475.855	2245.86
476.227	2262.58
476.598	2381
476.97	2395.46
477.341	2453.09
477.713	2529.69
478.084	2579.86
478.455	2677.26
478.827	2683.36
479.198	2784.83
479.569	2878.16
479.94	2949.34
480.311	2999.29
480.682	3133.97
481.053	3193.86
481.424	3264.36
481.795	3372.84
482.166	3404.92
482.537	3549.78
482.908	3659.16
483.279	3737.8
483.65	3823.22
484.021	3917.23
484.391	4008.3
484.762	4091.69
485.133	4192.47
485.503	4344.11
485.874	4434.28
486.244	4523.31
486.615	4686.02
486.985	4775.51
487.356	4912.23
487.726	4977.31
488.097	5159.91
488.467	5243.97
488.837	5367.13
489.207	5495.49
489.578	5608.71
489.948	5787.69
490.318	5900.9
490.688	6023.61
491.058	6140.22
491.428	6255.47
491.798	6364.62
492.168	6591.51
492.538	6675.8
492.908	6842.35
493.278	6961.22
493.648	7025.39
494.017	7140.65
494.387	7281.21
494.757	7435.55
495.126	7553.74
495.496	7631.71
495.866	7774.98
496.235	7865.82
496.605	7991.24
496.974	8099.04
497.344	8201.18
497.713	8334.29
498.082	8473.27
498.452	8595.97
498.821	8671.45
499.19	8711.23
499.559	8877.32
499.928	8939.69
500.298	9035.51
500.667	9192.12
501.036	9189.86
501.405	9303.3
501.774	9401.6
502.143	9546.01
502.512	9610.19
502.88	9726.11
503.249	9649.96
503.618	9814.25
503.987	9894.92
504.356	9921.36
504.724	10028.03
505.093	10113.22
505.462	10136.27
505.83	10221.24
506.199	10343.73
506.567	10459.65
506.936	10460.33
507.304	10624.62
507.672	10619.65
508.041	10730.38
508.409	10787.33
508.777	10858.74
509.145	10975.35
509.514	10964.5
509.882	11004.27
510.25	10996.82
510.618	11127.89
510.986	11168.56
511.354	11214.66
511.722	11257.83
512.09	11364.94
512.458	11341.89
512.826	11493.07
513.193	11543.69
513.561	11500.98
513.929	11628.44
514.297	11733.97
514.664	11699.4
515.032	11735.33
515.4	11799.73
515.767	11766.51
516.135	11848.54
516.502	11851.93
516.869	11954.08
517.237	12014.64
517.604	11909.79
517.972	12018.26
518.339	12067.75
518.706	12078.14
519.073	12086.28
519.44	12111.81
519.808	12223.68
520.175	12165.37
520.542	12241.75
520.909	12328.08
521.276	12266.16
521.643	12433.16
522.009	12387.29
522.376	12419.15
522.743	12478.81
523.11	12567.62
523.477	12655.75
523.843	12599.26
524.21	12646.72
524.577	12694.17
524.943	12730.56
525.31	12745.24
525.676	12815.52
526.043	12845.35
526.409	12805.36
526.776	12888.07
527.142	12884.45
527.508	12930.1
527.874	12901.4
528.241	12959.25
528.607	12931
528.973	13001.28
529.339	12969.19
529.705	13030.43
530.071	13007.16
530.437	12989.31
530.803	12977.78
531.169	13098.91
531.535	12991.57
531.901	13036.76
532.267	12964.22
532.632	12976.88
532.998	13030.43
533.364	12999.02
533.73	12986.59
534.095	13021.62
534.461	13107.49
534.826	13011
535.192	12990.21
535.557	13033.82
535.923	12978.91
536.288	12966.71
536.653	12984.56
537.019	12828.63
537.384	12877.44
537.749	12835.41
538.114	12848.97
538.479	12740.72
538.845	12824.34
539.21	12753.61
539.575	12752.25
539.94	12674.29
540.305	12683.55
540.67	12575.3
541.034	12538.02
541.399	12578.69
541.764	12510.67
542.129	12455.53
542.494	12480.62
542.858	12501.86
543.223	12444.23
543.587	12432.71
543.952	12439.04
544.316	12385.25
544.681	12285.82
545.045	12407.63
545.41	12303.22
545.774	12326.5
546.138	12214.41
546.503	12168.08
546.867	12139.16
547.231	12112.27
547.595	12109.33
547.959	12110.46
548.324	11991.59
548.688	12000.4
549.052	12108.88
549.416	11923.34
549.779	11962.21
550.143	11896.9
550.507	11839.73
550.871	11845.38
551.235	11781.88
551.599	11832.5
551.962	11755.21
552.326	11810.58
552.689	11841.09
553.053	11714.31
553.417	11710.69
553.78	11733.07
554.143	11680.87
554.507	11680.64
554.87	11690.36
555.234	11745.72
555.597	11549.12
555.96	11628.44
556.323	11543.24
556.686	11536.01
557.05	11566.07
557.413	11563.58
557.776	11596.8
558.139	11586.18
558.502	11530.59
558.865	11536.24
559.228	11536.24
559.59	11530.59
559.953	11546.63
560.316	11662.33
560.679	11522
561.041	11584.14
561.404	11642.22
561.767	11653.07
562.129	11465.5
562.492	11634.31
562.854	11551.6
563.217	11548.44
563.579	11524.26
563.941	11591.15
564.304	11602.9
564.666	11630.92
565.028	11607.87
565.39	11556.35
565.753	11572.85
566.115	11648.32
566.477	11682
566.839	11654.88
567.201	11656.46
567.563	11620.53
567.925	11757.47
568.287	11764.7
568.648	11767.42
569.01	11664.82
569.372	11733.75
569.734	11710.02
570.095	11787.53
570.457	11786.63
570.819	11808.77
571.18	11851.71
571.542	11853.52
571.903	11873.4
572.265	11872.05
572.626	11869.11
572.987	11856
573.349	11889
573.71	11914.98
574.071	11960.63
574.432	11885.83
574.794	11973.29
575.155	12020.07
575.516	11843.8
575.877	11911.14
576.238	11931.71
576.599	12011.03
576.96	12020.07
577.32	11967.86
577.681	12000.18
578.042	11951.14
578.403	11955.89
578.763	11867.98
579.124	11881.31
579.485	11996.11
579.845	11977.58
580.206	11995.66
580.566	11905.49
580.927	11972.38
581.287	11992.72
581.648	11933.06
582.008	12011.7
582.368	11865.49
582.728	11939.16
583.089	12033.85
583.449	11977.58
583.809	12000.86
584.169	12054.19
584.529	11933.74
584.889	11991.59
585.249	11883.12
585.609	11830.69
585.969	11947.98
586.329	11886.96
586.688	11872.95
587.048	11877.47
587.408	11850.58
587.768	11820.52
588.127	11743.46
588.487	11809.68
588.846	11916.79
589.206	11800.18
589.565	11817.58
589.925	11895.77
590.284	11817.36
590.643	11818.71
591.003	11822.56
591.362	11903.91
591.721	11817.81
592.08	11832.5
592.44	11837.02
592.799	11787.08
593.158	11761.77
593.517	11701.88
593.876	11811.48
594.235	11716.12
594.593	11694.88
594.952	11750.24
595.311	11716.12
595.67	11792.73
596.029	11835.44
596.387	11824.59
596.746	11780.52
597.104	11674.99
597.463	11741.43
597.822	11764.03
598.18	11710.02
598.538	11639.28
598.897	11703.24
599.255	11639.74
599.613	11798.6
599.972	11704.14
600.33	11722.67
600.688	11741.2
601.046	11754.08
601.404	11746.17
601.762	11683.8
602.12	11730.81
602.478	11787.98
602.836	11716.57
603.194	11653.52
603.552	11638.83
603.91	11727.42
604.268	11733.07
604.625	11723.58
604.983	11771.94
605.341	11700.53
605.698	11667.31
606.056	11737.81
606.413	11678.38
606.771	11745.5
607.128	11712.05
607.485	11708.89
607.843	11760.64
608.2	11792.05
608.557	11759.73
608.914	11837.7
609.272	11755.67
609.629	11791.37
609.986	11905.94
610.343	11867.07
610.7	11914.53
611.057	11867.3
611.414	11847.87
611.771	11829.79
612.127	11938.26
612.484	11947.98
612.841	11896.45
613.198	11790.92
613.554	11939.39
613.911	11906.4
614.267	11928.32
614.624	11967.19
614.98	11985.26
615.337	11941.2
615.693	11957.47
616.05	11911.14
616.406	11976.9
616.762	11912.27
617.118	11878.83
617.475	11980.29
617.831	12020.07
618.187	12048.77
618.543	12048.77
618.899	12084.92
619.255	12062.78
619.611	12008.09
619.967	12024.13
620.323	12151.36
620.678	12099.39
621.034	12036.34
621.39	12056.22
621.746	12023.23
622.101	12136.22
622.457	12039.73
622.812	12117.92
623.168	12103.45
623.523	12081.31
623.879	12165.15
624.234	12096.9
624.589	12092.83
624.945	12074.08
625.3	12035.21
625.655	12035.21
626.01	12125.83
626.365	12048.31
626.72	12070.01
627.075	11978.03
627.43	12019.16
627.785	12021.65
628.14	11977.58
628.495	12042.21
628.85	12099.16
629.205	11987.3
629.559	12109.78
629.914	11951.37
630.269	12058.26
630.623	11996.79
630.978	11978.26
631.332	12020.52
631.687	12014.87
632.041	12056.9
632.396	11995.43
632.75	11916.34
633.104	12004.02
633.459	11869.79
633.813	11905.94
634.167	11898.49
634.521	11897.58
634.875	11948.65
635.229	11816.91
635.583	11810.35
635.937	11844.25
636.291	11734.88
636.645	11790.69
636.999	11760.86
637.352	11738.72
637.706	11630.02
638.06	11686.97
638.413	11681.54
638.767	11618.95
639.121	11698.04
639.474	11630.47
639.828	11629.12
640.181	11605.39
640.534	11687.42
640.888	11586.63
641.241	11518.84
641.594	11604.26
641.947	11612.17
642.301	11642
642.654	11570.59
643.007	11651.04
643.36	11532.85
643.713	11536.01
644.066	11516.8
644.419	11497.37
644.771	11408.33
645.124	11312.51
645.477	11358.61
645.83	11237.94
646.182	11170.14
646.535	11151.61
646.888	11204.49
647.24	11156.81
647.593	11113.65
647.945	11155.46
648.298	11155
648.65	11044.27
649.002	11035.46
649.355	11111.16
649.707	11193.65
650.059	11199.07
650.411	11308.9
650.763	11317.71
651.115	11477.03
651.467	11359.52
651.819	11347.09
652.171	11362.23
652.523	11330.14
652.875	11399.52
653.227	11312.74
653.578	11380.99
653.93	11482.68
654.282	11263.48
654.633	11365.62
654.985	11338.73
655.337	11358.39
655.688	11312.51
656.039	11382.34
656.391	11276.81
656.742	11323.36
657.094	11306.86
657.445	11380.31
657.796	11320.87
658.147	11339.18
658.498	11400.65
658.849	11442
659.2	11373.75
659.551	11379.18
659.902	11471.38
660.253	11413.98
660.604	11405.84
660.955	11347.77
661.306	11426.86
661.656	11447.88
662.007	11463.24
662.358	11440.65
662.708	11452.62
663.059	11368.78
663.409	11373.98
663.76	11398.39
664.11	11407.88
664.461	11422.57
664.811	11395
665.161	11441.1
665.511	11418.27
665.862	11354.09
666.212	11426.18
666.562	11442.91
666.912	11417.82
667.262	11400.65
667.612	11425.73
667.962	11375.56
668.312	11429.35
668.662	11434.09
669.011	11403.36
669.361	11436.58
669.711	11380.31
670.06	11381.21
670.41	11376.24
670.76	11350.7
671.109	11420.53
671.459	11355.22
671.808	11351.38
672.157	11367.65
672.507	11321.55
672.856	11289.01
673.205	11331.95
673.554	11361.78
673.904	11311.38
674.253	11346.86
674.602	11305.51
674.951	11104.16
675.3	11106.64
675.649	11292.17
675.998	11150.26
676.346	11238.84
676.695	11293.08
677.044	11168.11
677.393	11197.49
677.741	11215.57
678.09	11194.55
678.438	11190.03
678.787	11138.73
679.135	11157.04
679.484	11156.59
679.832	11206.53
680.181	11080.65
680.529	11157.26
680.877	11025.29
681.225	11043.82
681.573	11092.41
681.922	10980.09
682.27	10934.67
682.618	11038.62
682.966	10988.45
683.314	11034.1
683.661	10891.51
684.009	10801.79
684.357	10851.73
684.705	10858.29
685.053	10901.22
685.4	10844.73
685.748	10791.4
686.095	10751.17
686.443	10696.71
686.79	10680.44
687.138	10629.37
687.485	10715.69
687.832	10626.2
688.18	10683.38
688.527	10618.52
688.874	10500.33
689.221	10511.18
689.568	10439.54
689.915	10485.42
690.262	10520.44
690.609	10476.83
690.956	10371.75
691.303	10406.32
691.65	10342.37
691.997	10352.09
692.344	10279.77
692.69	10209.94
693.037	10255.82
693.383	10171.53
693.73	10195.48
694.077	10098.08
694.423	10131.98
694.769	10068.7
695.116	10088.36
695.462	9998.42
695.808	9923.62
696.155	9997.07
696.501	9901.02
696.847	9954.13
697.193	9867.35
697.539	9850.18
697.885	9760.46
698.231	9711.65
698.577	9694.02
698.923	9718.88
699.269	9667.36
699.614	9616.74
699.96	9546.01
700.306	9535.61
700.651	9544.2
700.997	9414.26
701.342	9411.32
701.688	9440.25
702.033	9406.57
702.379	9384.43
702.724	9299.46
703.069	9350.53
703.415	9199.35
703.76	9250.87
704.105	9218.11
704.45	9219.91
704.795	9138.79
705.14	9123.19
705.485	9115.06
705.83	9002.07
706.175	9064.89
706.52	9019.01
706.865	8962.97
707.209	8934.95
707.554	8928.4
707.899	8955.97
708.243	8901.73
708.588	8833.03
708.932	8802.52
709.277	8790.77
709.621	8782.18
709.966	8805.01
710.31	8749.42
710.654	8656.54
710.998	8618.35
711.342	8649.53
711.687	8666.48
712.031	8609.76
712.375	8553.04
712.719	8564.34
713.063	8561.17
713.407	8568.18
713.75	8554.85
714.094	8531.12
714.438	8517.56
714.782	8497.67
715.125	8456.54
715.469	8464.68
715.812	8397.34
716.156	8355.98
716.499	8376.09
716.843	8350.78
717.186	8352.14
717.53	8349.43
717.873	8380.61
718.216	8365.47
718.559	8260.62
718.902	8242.99
719.246	8269.66
719.589	8280.5
719.932	8207.06
720.275	8218.13
720.617	8203.89
720.96	8277.56
721.303	8203.67
721.646	8201.63
721.989	8164.8
722.331	8224.68
722.674	8192.37
723.016	8183.33
723.359	8166.61
723.701	8177.68
724.044	8139.49
724.386	8128.19
724.729	8165.48
725.071	8198.24
725.413	8116.89
725.755	8102.65
726.097	8072.82
726.439	8075.54
726.782	8081.19
727.124	8130.45
727.465	8046.61
727.807	8113.73
728.149	8087.29
728.491	8081.19
728.833	8063.11
729.175	8073.5
729.516	8055.2
729.858	8035.31
730.199	8060.17
730.541	8009.32
730.882	7982.88
731.224	8019.49
731.565	7974.07
731.906	8033.28
732.248	8012.94
732.589	7928.87
732.93	7970.91
733.271	8029.21
733.612	7974.75
733.953	7992.83
734.294	7956.67
734.635	7956.22
734.976	7998.48
735.317	7930.23
735.658	7998.7
735.999	7993.73
736.339	7955.09
736.68	8055.65
737.021	8023.56
737.361	8022.2
737.702	8019.49
738.042	7977.01
738.383	8032.37
738.723	8007.06
739.063	7966.39
739.404	8007.74
739.744	8010.45
740.084	7991.24
740.424	8052.71
740.764	8138.13
741.104	8142.43
741.444	8053.84
741.784	8075.99
742.124	8117.34
742.464	8127.51
742.804	8142.43
743.143	8217.23
743.483	8258.13
743.823	8161.18
744.162	8202.31
744.502	8276.89
744.841	8228.3
745.181	8288.19
745.52	8361.86
745.86	8402.76
746.199	8417.22
746.538	8369.31
746.877	8419.03
747.216	8577.22
747.556	8491.57
747.895	8569.08
748.234	8593.49
748.573	8628.29
748.911	8734.95
749.25	8779.7
749.589	8799.59
749.928	8901.96
750.267	8896.53
750.605	9015.85
750.944	9012.69
751.283	9074.83
751.621	9193.47
751.96	9217.2
752.298	9362.28
752.636	9502.17
752.975	9450.64
753.313	9557.76
753.651	9705.78
753.989	9709.84
754.327	9881.82
754.666	9945.09
755.004	10120.23
755.342	10233.45
755.679	10319.32
756.017	10405.87
756.355	10593.21
756.693	10625.75
757.031	10853.09
757.368	10839.31
757.706	11027.78
758.044	11160.65
758.381	11348.44
758.719	11431.83
759.056	11647.65
759.394	11782.56
759.731	11804.03
