Data from hue_00_FLMS001491_72.txt Node
Date: Mon Feb 06 15:30:12 GMT 2017
User: dcchb
Spectrometer: FLMS00149
Trigger mode: 0
Integration Time (sec): 2.000000E-2
Scans to average: 10
Electric dark correction enabled: true
Nonlinearity correction enabled: false
Boxcar width: 0
XAxis mode: Wavelengths
Number of Pixels in Spectrum: 2048
>>>>>Begin Spectral Data<<<<<
341.393	-25.92
341.776	-25.92
342.16	-25.92
342.543	-54.39
342.927	-63.88
343.31	-67.72
343.693	-62.07
344.077	-57.55
344.46	-68.63
344.843	-64.79
345.226	-46.03
345.61	-30.44
345.993	-13.71
346.376	-3.77
346.759	-6.26
347.142	36.91
347.525	29.45
347.908	54.31
348.291	75.77
348.674	100.86
349.057	123.68
349.44	130.46
349.823	131.82
350.206	144.25
350.588	177.02
350.971	216.34
351.354	219.27
351.737	211.36
352.119	231.7
352.502	259.72
352.884	272.83
353.267	275.54
353.65	278.03
354.032	308.76
354.414	322.1
354.797	282.55
355.179	319.16
355.562	312.6
355.944	325.03
356.326	332.49
356.709	329.78
357.091	320.74
357.473	316.9
357.855	333.85
358.238	327.75
358.62	330.46
359.002	331.14
359.384	324.36
359.766	340.17
360.148	331.14
360.53	335.2
360.912	343.11
361.294	343.34
361.676	339.72
362.057	318.71
362.439	331.36
362.821	329.33
363.203	317.58
363.584	300.85
363.966	305.83
364.348	320.29
364.729	314.19
365.111	322.1
365.493	314.64
365.874	305.15
366.256	317.12
366.637	307.86
367.019	300.4
367.4	310.34
367.781	325.94
368.163	314.64
368.544	305.37
368.925	288.65
369.306	303.79
369.688	320.74
370.069	309.44
370.45	301.76
370.831	303.79
371.212	315.32
371.593	310.57
371.974	284.36
372.355	301.31
372.736	300.85
373.117	307.86
373.498	313.51
373.879	319.16
374.26	320.74
374.641	325.26
375.021	334.3
375.402	306.05
375.783	309.44
376.163	328.42
376.544	315.99
376.925	330.23
377.305	317.8
377.686	322.55
378.066	329.33
378.447	285.94
378.827	299.27
379.208	323.23
379.588	315.32
379.968	337.69
380.349	314.41
380.729	323.45
381.109	314.64
381.489	332.04
381.87	311.25
382.25	314.64
382.63	319.16
383.01	328.42
383.39	314.19
383.77	342.21
384.15	338.37
384.53	331.59
384.91	321.64
385.29	343.34
385.67	326.39
386.049	336.78
386.429	341.53
386.809	308.76
387.189	319.16
387.568	315.99
387.948	350.12
388.328	351.02
388.707	340.4
389.087	337.01
389.466	351.93
389.846	341.53
390.225	365.48
390.605	346.5
390.984	354.86
391.363	369.1
391.743	341.53
392.122	349.21
392.501	348.31
392.881	345.37
393.26	351.7
393.639	359.61
394.018	336.33
394.397	358.48
394.776	344.69
395.155	350.12
395.534	349.21
395.913	359.84
396.292	382.43
396.671	364.35
397.05	363.68
397.429	384.47
397.808	388.99
398.186	378.82
398.565	371.36
398.944	375.43
399.323	366.61
399.701	366.84
400.08	374.98
400.458	375.65
400.837	395.31
401.215	373.85
401.594	386.5
401.972	383.56
402.351	385.37
402.729	399.83
403.107	377.24
403.486	378.37
403.864	376.11
404.242	372.94
404.62	389.66
404.999	377.91
405.377	391.02
405.755	376.56
406.133	393.73
406.511	394.64
406.889	396.22
407.267	401.19
407.645	381.3
408.023	406.61
408.401	402.55
408.779	414.3
409.156	393.05
409.534	402.77
409.912	410.23
410.29	425.14
410.667	414.52
411.045	428.53
411.422	419.27
411.8	439.38
412.178	414.52
412.555	430.79
412.933	439.61
413.31	430.57
413.687	436.44
414.065	438.25
414.442	453.62
414.819	430.57
415.197	447.52
415.574	451.13
415.951	462.88
416.328	462.66
416.705	461.75
417.082	483.9
417.46	465.82
417.837	472.37
418.214	451.81
418.591	461.3
418.967	470.79
419.344	478.7
419.721	486.16
420.098	459.95
420.475	483.45
420.852	502.2
421.228	494.97
421.605	481.41
421.982	477.35
422.358	504.24
422.735	499.27
423.111	496.55
423.488	494.52
423.864	535.65
424.241	510.79
424.617	512.15
424.994	524.8
425.37	513.96
425.746	519.6
426.123	514.41
426.499	505.14
426.875	529.55
427.251	537.46
427.627	547.85
428.003	523.67
428.379	540.4
428.756	561.86
429.132	562.32
429.507	570.45
429.883	562.77
430.259	549.89
430.635	552.37
431.011	569.55
431.387	585.82
431.763	577.68
432.138	567.74
432.514	579.49
432.89	582.43
433.265	609.09
433.641	620.39
434.016	595.76
434.392	605.93
434.767	618.36
435.143	604.12
435.518	643.44
435.894	626.04
436.269	647.51
436.644	650.45
437.02	646.61
437.395	669.88
437.77	652.26
438.145	660.17
438.52	663.56
438.895	651.58
439.271	642.09
439.646	665.82
440.021	653.84
440.395	666.95
440.77	681.86
441.145	666.72
441.52	680.73
441.895	679.37
442.27	694.29
442.645	679.15
443.019	704.23
443.394	700.62
443.769	694.06
444.143	699.94
444.518	687.28
444.892	705.14
445.267	706.94
445.641	721.86
446.016	725.7
446.39	713.05
446.764	735.64
447.139	729.09
447.513	733.84
447.887	736.55
448.262	740.16
448.636	738.81
449.01	763.89
449.384	759.37
449.758	744.46
450.132	781.07
450.506	764.12
450.88	732.71
451.254	736.55
451.628	778.13
452.002	777.23
452.376	760.28
452.75	764.34
453.123	784.68
453.497	799.6
453.871	806.83
454.244	789.2
454.618	800.5
454.992	815.87
455.365	833.5
455.739	827.85
456.112	849.09
456.486	847.96
456.859	854.51
457.232	866.49
457.606	826.72
457.979	861.97
458.352	892.02
458.725	873.72
459.099	895.19
459.472	927.05
459.845	906.94
460.218	932.02
460.591	915.3
460.964	927.05
461.337	930.67
461.71	953.94
462.083	950.33
462.456	949.42
462.829	972.47
463.201	979.25
463.574	968.86
463.947	989.88
464.32	1007.05
464.692	1035.3
465.065	1028.97
465.438	1031
465.81	1028.97
466.183	1064.9
466.555	1062.64
466.928	1034.39
467.3	1073.49
467.672	1113.26
468.045	1112.36
468.417	1129.08
468.789	1101.74
469.161	1127.27
469.534	1153.71
469.906	1181.06
470.278	1156.65
470.65	1186.48
471.022	1199.81
471.394	1239.59
471.766	1246.37
472.138	1247.5
472.51	1267.38
472.882	1317.78
473.253	1322.52
473.625	1328.62
473.997	1362.97
474.369	1365.91
474.74	1370.2
475.112	1411.33
475.484	1400.49
475.855	1447.04
476.227	1445
476.598	1486.81
476.97	1504.21
477.341	1560.03
477.713	1561.16
478.084	1581.5
478.455	1612.01
478.827	1609.07
479.198	1682.74
479.569	1708.05
479.94	1723.42
480.311	1748.73
480.682	1771.78
481.053	1799.12
481.424	1846.58
481.795	1887.48
482.166	1913.92
482.537	1925.22
482.908	1962.73
483.279	1990.75
483.65	2029.4
484.021	2078.89
484.391	2083.63
484.762	2102.39
485.133	2140.13
485.503	2168.15
485.874	2194.36
486.244	2231.65
486.615	2271.88
486.985	2317.98
487.356	2334.25
487.726	2437.52
488.097	2454.92
488.467	2440.91
488.837	2493.34
489.207	2519.78
489.578	2560
489.948	2626.67
490.318	2665.99
490.688	2639.78
491.058	2678.42
491.428	2743.28
491.798	2794.57
492.168	2832.31
492.538	2828.47
492.908	2928.81
493.278	2887.68
493.648	2904.18
494.017	2976.72
494.387	2992.08
494.757	2994.79
495.126	3069.37
495.496	3066.88
495.866	3091.51
496.235	3091.74
496.605	3164.96
496.974	3155.69
497.344	3175.58
497.713	3250.15
498.082	3236.37
498.452	3316.59
498.821	3313.88
499.19	3319.76
499.559	3356.14
499.928	3350.94
500.298	3398.85
500.667	3428.23
501.036	3376.93
501.405	3445.86
501.774	3502.8
502.143	3500.32
502.512	3508.45
502.88	3503.26
503.249	3534.21
503.618	3534.44
503.987	3566.3
504.356	3584.61
504.724	3600.65
505.093	3619.64
505.462	3672.74
505.83	3673.19
506.199	3687.21
506.567	3714.55
506.936	3711.39
507.304	3802.46
507.672	3763.14
508.041	3751.16
508.409	3787.32
508.777	3846.3
509.145	3886.07
509.514	3890.82
509.882	3906.18
510.25	3882.68
510.618	3901.89
510.986	3914.32
511.354	3900.31
511.722	3973.75
512.09	3982.79
512.458	4013.52
512.826	4009.46
513.193	3997.03
513.561	4025.5
513.929	4066.86
514.297	4064.14
514.664	4043.35
515.032	4079.96
515.4	4122.22
515.767	4093.07
516.135	4133.07
516.502	4098.95
516.869	4182.33
517.237	4154.09
517.604	4153.41
517.972	4208.77
518.339	4224.59
518.706	4234.54
519.073	4229.34
519.44	4237.47
519.808	4259.17
520.175	4262.11
520.542	4298.26
520.909	4332.39
521.276	4293.74
521.643	4349.79
522.009	4344.59
522.376	4429.33
522.743	4372.39
523.11	4404.25
523.477	4465.94
523.843	4456.68
524.21	4517.01
524.577	4540.06
524.943	4514.3
525.31	4564.47
525.676	4580.74
526.043	4619.16
526.409	4602.21
526.776	4617.8
527.142	4665.26
527.508	4699.16
527.874	4706.39
528.241	4714.52
528.607	4740.28
528.973	4821.41
529.339	4804.24
529.705	4802.43
530.071	4878.36
530.437	4877
530.803	4871.58
531.169	4884.69
531.535	4931.24
531.901	4933.73
532.267	4954.06
532.632	5010.33
532.998	5020.5
533.364	5073.16
533.73	5073.61
534.095	5051.92
534.461	5112.25
534.826	5122.42
535.192	5138.24
535.557	5124
535.923	5164.91
536.288	5157.68
536.653	5229.09
537.019	5180.95
537.384	5221.63
537.749	5271.8
538.114	5280.61
538.479	5302.76
538.845	5321.74
539.21	5352.92
539.575	5361.51
539.94	5368.07
540.305	5371.68
540.67	5412.58
541.034	5406.71
541.399	5464.33
541.764	5451.45
542.129	5440.83
542.494	5477.89
542.858	5526.93
543.223	5546.82
543.587	5581.17
543.952	5618.68
544.316	5563.09
544.681	5641.96
545.045	5637.89
545.41	5692.58
545.774	5715.17
546.138	5732.35
546.503	5734.16
546.867	5757.66
547.231	5794.04
547.595	5828.39
547.959	5883.76
548.324	5837.21
548.688	5861.39
549.052	5891.44
549.416	5874.04
549.779	5946.81
550.143	5929.41
550.507	5977.09
550.871	6008.27
551.235	5990.42
551.599	6064.09
551.962	6081.49
552.326	6048.95
552.689	6050.53
553.053	6057.31
553.417	6134.6
553.78	6175.05
554.143	6162.85
554.507	6168.27
554.87	6128.5
555.234	6215.5
555.597	6268.38
555.96	6246.01
556.323	6210.53
556.686	6289.85
557.05	6321.03
557.413	6319
557.776	6355.84
558.139	6385.67
558.502	6344.99
558.865	6430.86
559.228	6438.09
559.59	6455.95
559.953	6458.88
560.316	6526
560.679	6541.59
561.041	6580.24
561.404	6636.73
561.767	6602.83
562.129	6573.46
562.492	6632.21
562.854	6612.55
563.217	6623.63
563.579	6688.26
563.941	6692.1
564.304	6738.2
564.666	6763.73
565.028	6748.59
565.39	6790.17
565.753	6858.42
566.115	6902.71
566.477	6897.06
566.839	6894.58
567.201	6912.21
567.563	6881.25
567.925	7013.45
568.287	6940
568.648	6983.39
569.01	7023.16
569.372	7120.56
569.734	7056.61
570.095	7147.68
570.457	7086.66
570.819	7173.22
571.18	7196.94
571.542	7251.18
571.903	7240.33
572.265	7320.56
572.626	7407.56
572.987	7417.95
573.349	7403.94
573.71	7497.27
574.071	7513.32
574.432	7501.34
574.794	7664.28
575.155	7651.17
575.516	7723.48
575.877	7752.86
576.238	7794.22
576.599	7902.01
576.96	7953.31
577.32	8069.91
577.681	8102.23
578.042	8196.47
578.403	8191.27
578.763	8309.68
579.124	8376.12
579.485	8558.72
579.845	8617.25
580.206	8724.36
580.566	8765.26
580.927	8871.02
581.287	9025.82
581.648	9101.75
582.008	9233.05
582.368	9387.85
582.728	9520.72
583.089	9674.17
583.449	9792.36
583.809	9956.19
584.169	10153.48
584.529	10306.01
584.889	10487.48
585.249	10564.09
585.609	10723.18
585.969	11004.3
586.329	11116.16
586.688	11349.6
587.048	11528.81
587.408	11665.98
587.768	11982.13
588.127	12209.47
588.487	12338.5
588.846	12713.41
589.206	12792.73
589.565	13086.28
589.925	13402.88
590.284	13637
590.643	13822.76
591.003	14128.74
591.362	14404.89
591.721	14582.29
592.08	14880.13
592.44	15242.16
592.799	15407.12
593.158	15717.17
593.517	15957.84
593.876	16226.54
594.235	16560.09
594.593	16789.46
594.952	17077.14
595.311	17347.86
595.67	17746.5
596.029	18037.79
596.387	18369.98
596.746	18567.04
597.104	18850.65
597.463	19110.98
597.822	19401.14
598.18	19767.01
598.538	19916.84
598.897	20344.62
599.255	20394.34
599.613	20992.51
599.972	21175.11
600.33	21469.79
600.688	21702.78
601.046	22018.25
601.404	22329.43
601.762	22528.97
602.12	22890.09
602.478	23182.96
602.836	23389.51
603.194	23527.36
603.552	23823.17
603.91	23989.04
604.268	24452.76
604.625	24508.35
604.983	24931.39
605.341	24971.62
605.698	25401.89
606.056	25686.17
606.413	25911.03
606.771	26187.86
607.128	26362.54
607.485	26540.16
607.843	26677.34
608.2	27034.39
608.557	27337.66
608.914	27516.18
609.272	27927.7
609.629	28017.64
609.986	28148.26
610.343	28318.42
610.7	28652.2
611.057	28869.14
611.414	29023.94
611.771	29117.95
612.127	29451.95
612.484	29589.58
612.841	29870.7
613.198	29951.15
613.554	30103.01
613.911	30440.63
614.267	30609.89
614.624	30604.69
614.98	30938.47
615.337	31261.4
615.693	31256.88
616.05	31217.78
616.406	31610.99
616.762	31576.42
617.118	31708.62
617.475	31807.6
617.831	32034.93
618.187	32265.44
618.543	32341.14
618.899	32521.93
619.255	32645.31
619.611	32748.14
619.967	32979.99
620.323	33142.7
620.678	33110.61
621.034	33040.11
621.39	33184.96
621.746	33304.73
622.101	33853.19
622.457	33591.73
622.812	33770.48
623.168	33987.88
623.523	33985.39
623.879	34188.32
624.234	34046.63
624.589	34096.58
624.945	34280.07
625.3	34421.09
625.655	34456.57
626.01	34432.39
626.365	34614.3
626.72	34649.1
627.075	34715.09
627.43	34736.78
627.785	34729.1
628.14	34705.6
628.495	34970.68
628.85	34885.71
629.205	34842.54
629.559	35355.98
629.914	35021.75
630.269	35185.81
630.623	35182.87
630.978	34954.41
631.332	35103.55
631.687	35291.8
632.041	35228.3
632.396	35323.21
632.75	35212.48
633.104	35325.24
633.459	35273.27
633.813	35204.79
634.167	35319.82
634.521	35336.32
634.875	35438.23
635.229	35287.5
635.583	35228.3
635.937	35135.64
636.291	35224.91
636.645	35245.7
636.999	35194.85
637.352	35365.02
637.706	35212.93
638.06	35414.28
638.413	35274.4
638.767	35158.24
639.121	35297.9
639.474	35107.62
639.828	35203.89
640.181	35226.94
640.534	35313.49
640.888	35155.76
641.241	35115.98
641.594	35231.91
641.947	35286.6
642.301	35158.92
642.654	35188.3
643.007	35256.54
643.36	35149.2
643.713	35060.39
644.066	35168.41
644.419	34986.27
644.771	34709.89
645.124	34520.52
645.477	34497.24
645.83	34318.72
646.182	34222.9
646.535	34093.86
646.888	34124.37
647.24	33968.67
647.593	34242.56
647.945	33983.58
648.298	33903.81
648.65	33860.42
649.002	33885.73
649.355	34024.49
649.707	33970.25
650.059	34088.89
650.411	34380.64
650.763	34493.17
651.115	34840.74
651.467	34836.89
651.819	34841.41
652.171	34708.31
652.523	34738.59
652.875	34604.81
653.227	34551.7
653.578	34723.68
653.93	34752.6
654.282	34612.04
654.633	34534.53
654.985	34619.27
655.337	34527.75
655.688	34448.88
656.039	34686.62
656.391	34389.22
656.742	34412.73
657.094	34419.73
657.445	34512.38
657.796	34458.37
658.147	34412.05
658.498	34428.77
658.849	34564.59
659.2	34525.72
659.551	34393.29
659.902	34490.69
660.253	34335.44
660.604	34399.62
660.955	34259.51
661.306	34380.86
661.656	34345.16
662.007	34250.47
662.358	34206.63
662.708	34268.32
663.059	34453.85
663.409	34167.31
663.76	34312.16
664.11	34279.4
664.461	34277.36
664.811	34353.07
665.161	34378.83
665.511	34298.6
665.862	34182
666.212	34341.09
666.562	34392.16
666.912	34212.05
667.262	34315.1
667.612	34189
667.962	34273.29
668.312	34282.79
668.662	34398.71
669.011	34205.72
669.361	34086.41
669.711	34142.22
670.06	34227.42
670.41	34056.35
670.76	34057.71
671.109	34200.53
671.459	34269.68
671.808	34134.09
672.157	34184.03
672.507	33925.05
672.856	33860.2
673.205	34002.11
673.554	34084.15
673.904	33977.03
674.253	34134.99
674.602	33968.89
674.951	33584.72
675.3	33399.87
675.649	33849.58
675.998	34043.92
676.346	33938.84
676.695	33970.25
677.044	33748.34
677.393	33887.09
677.741	33839.41
678.09	33906.07
678.438	33686.19
678.787	33682.8
679.135	33819.97
679.484	33577.72
679.832	33642.58
680.181	33528.23
680.529	33702.91
680.877	33597.83
681.225	33333.66
681.573	33661.56
681.922	33376.14
682.27	33353.54
682.618	33321.91
682.966	33211.85
683.314	33231.97
683.661	33325.52
684.009	33069.03
684.357	33041.24
684.705	32914.69
685.053	33012.08
685.4	32944.74
685.748	32782.26
686.095	32798.76
686.443	32701.13
686.79	32669.49
687.138	32605.54
687.485	32735.71
687.832	32538.88
688.18	32636.27
688.527	32477.63
688.874	32438.99
689.221	32383.85
689.568	32226.57
689.915	32239.9
690.262	32187.7
690.609	32020.47
690.956	31981.38
691.303	31905.45
691.65	31809.18
691.997	31822.28
692.344	31633.82
692.69	31650.09
693.037	31726.69
693.383	31387.95
693.73	31478.34
694.077	31309.3
694.423	31366.03
694.769	31207.39
695.116	31070.89
695.462	31119.48
695.808	31060.27
696.155	31073.38
696.501	30707.74
696.847	30768.98
697.193	30543.9
697.539	30800.62
697.885	30607.85
698.231	30334.41
698.577	30338.48
698.923	30294.42
699.269	30161.54
699.614	30020.3
699.96	30109.79
700.306	29963.35
700.651	29872.73
700.997	29763.13
701.342	29786.63
701.688	29602
702.033	29698.72
702.379	29651.72
702.724	29365.17
703.069	29561.33
703.415	29178.51
703.76	29209.7
704.105	29157.04
704.45	29154.56
704.795	28996.82
705.14	28979.65
705.485	28841.8
705.83	28788.01
706.175	28920.44
706.52	28792.08
706.865	28623.05
707.209	28600.22
707.554	28420.11
707.899	28512.32
708.243	28440
708.588	28419.44
708.932	28169.5
709.277	28194.81
709.621	28235.26
709.966	28013.8
710.31	28113.46
710.654	27846.8
710.998	27978.77
711.342	27940.8
711.687	27711.88
712.031	27661.94
712.375	27678.66
712.719	27576.29
713.063	27559.35
713.407	27646.12
713.75	27466.24
714.094	27443.64
714.438	27338.33
714.782	27304.66
715.125	27375.85
715.469	27263.76
715.812	27200.71
716.156	27009.53
716.499	27015.86
716.843	27025.35
717.186	26837.33
717.53	26927.27
717.873	26834.85
718.216	26816.99
718.559	26743.77
718.902	26531.12
719.246	26684.57
719.589	26593.95
719.932	26457.91
720.275	26485.02
720.617	26367.06
720.96	26381.98
721.303	26335.65
721.646	26335.88
721.989	26253.17
722.331	26242.54
722.674	26160.06
723.016	26129.33
723.359	26118.03
723.701	26146.73
724.044	25947.86
724.386	25854.08
724.729	26008.65
725.071	25876.68
725.413	25966.39
725.755	25765.04
726.097	25731.15
726.439	25622.22
726.782	25704.48
727.124	25753.97
727.465	25596.91
727.807	25655.89
728.149	25553.07
728.491	25419.29
728.833	25513.98
729.175	25353.3
729.516	25356.01
729.858	25371.83
730.199	25376.8
730.541	25367.31
730.882	25254.55
731.224	25292.06
731.565	25151.5
731.906	25127.77
732.248	25140.2
732.589	24952.63
732.93	24924.61
733.271	24932.97
733.612	25013.42
733.953	24839.19
734.294	24888.23
734.635	24888
734.976	24800.55
735.317	24754.67
735.658	24739.76
735.999	24705.64
736.339	24579.09
736.68	24761.68
737.021	24579.99
737.361	24516.04
737.702	24645.52
738.042	24563.27
738.383	24414.8
738.723	24434.23
739.063	24387.68
739.404	24397.17
739.744	24410.5
740.084	24300.67
740.424	24335.25
740.764	24197.85
741.104	24324.85
741.444	24255.03
741.784	24002.83
742.124	24215.93
742.464	24081.25
742.804	24069.49
743.143	24032.21
743.483	23902.94
743.823	23962.83
744.162	23821.82
744.502	23864.53
744.841	23724.64
745.181	23786.79
745.52	23642.61
745.86	23864.08
746.199	23757.19
746.538	23735.94
746.877	23755.15
747.216	23706.57
747.556	23561.48
747.895	23562.61
748.234	23493.69
748.573	23514.48
748.911	23418.21
749.25	23447.14
749.589	23408.49
749.928	23332.34
750.267	23392.9
750.605	23280.36
750.944	23236.52
751.283	23227.71
751.621	23194.04
751.96	22951.56
752.298	23178.44
752.636	22994.72
752.975	22930.32
753.313	22852.8
753.651	22925.57
753.989	22862.75
754.327	22845.35
754.666	22713.82
755.004	22754.05
755.342	22831.79
755.679	22736.42
756.017	22509.54
756.355	22641.28
756.693	22588.63
757.031	22487.16
757.368	22425.47
757.706	22383.89
758.044	22376.88
758.381	22304.79
758.719	22147.74
759.056	22229.32
759.394	22137.79
759.731	22093.73
760.068	21954.52
760.405	21967.18
760.743	21831.36
761.08	21919.72
761.417	21746.39
