Data from hue_170_FLMS001491_00042.txt Node
Date: Tue Feb 07 16:48:44 GMT 2017
User: dcchb
Spectrometer: FLMS00149
Trigger mode: 0
Integration Time (sec): 2.000000E-2
Scans to average: 10
Electric dark correction enabled: true
Nonlinearity correction enabled: false
Boxcar width: 0
XAxis mode: Wavelengths
Number of Pixels in Spectrum: 2048
>>>>>Begin Spectral Data<<<<<
341.393	-10.73
341.776	-10.73
342.16	-10.73
342.543	-69.94
342.927	-62.94
343.31	-77.63
343.693	-62.71
344.077	-69.72
344.46	-59.55
344.843	-65.65
345.226	-49.83
345.61	-25.2
345.993	-24.75
346.376	-1.92
346.759	11.86
347.142	28.36
347.525	33.11
347.908	64.29
348.291	87.34
348.674	100.45
349.057	111.52
349.44	138.41
349.823	147.23
350.206	172.09
350.588	216.83
350.971	226.32
351.354	219.99
351.737	243.72
352.119	234.01
352.502	276.49
352.884	280.56
353.267	302.03
353.65	276.49
354.032	286.43
354.414	282.59
354.797	310.84
355.179	328.01
355.562	302.48
355.944	315.58
356.326	324.85
356.709	343.15
357.091	342.93
357.473	336.38
357.855	344.28
358.238	336.83
358.62	348.35
359.002	334.57
359.384	349.26
359.766	354.68
360.148	347.67
360.53	336.15
360.912	325.3
361.294	349.48
361.676	330.95
362.057	332.53
362.439	349.71
362.821	357.39
363.203	316.26
363.584	317.17
363.966	330.73
364.348	320.56
364.729	321.23
365.111	331.18
365.493	332.76
365.874	324.17
366.256	319.65
366.637	330.05
367.019	296.6
367.4	325.98
367.781	300.22
368.163	294.57
368.544	308.13
368.925	332.53
369.306	314
369.688	309.03
370.069	311.07
370.45	314.46
370.831	314.68
371.212	324.17
371.593	305.87
371.974	322.14
372.355	306.77
372.736	305.64
373.117	315.81
373.498	331.18
373.879	310.39
374.26	323.72
374.641	302.48
375.021	309.03
375.402	332.53
375.783	325.3
376.163	341.12
376.544	312.87
376.925	337.28
377.305	322.82
377.686	317.62
378.066	347.45
378.447	314.68
378.827	324.4
379.208	334.57
379.588	323.95
379.968	339.31
380.349	342.7
380.729	334.57
381.109	323.27
381.489	350.16
381.87	359.2
382.25	354.45
382.63	352.19
383.01	352.19
383.39	337.96
383.77	354
384.15	339.54
384.53	333.44
384.91	361.69
385.29	349.93
385.67	337.28
386.049	359.43
386.429	362.14
386.809	356.04
387.189	358.3
387.568	383.83
387.948	370.27
388.328	366.88
388.707	370.05
389.087	348.13
389.466	354.91
389.846	370.27
390.225	374.79
390.605	355.58
390.984	352.65
391.363	374.79
391.743	364.4
392.122	363.72
392.501	372.76
392.881	403.49
393.26	394.9
393.639	390.84
394.018	396.49
394.397	377.28
394.776	398.97
395.155	378.86
395.534	389.71
395.913	376.83
396.292	397.39
396.671	392.19
397.05	415.02
397.429	411.63
397.808	385.19
398.186	405.98
398.565	417.5
398.944	406.43
399.323	395.81
399.701	406.66
400.08	398.75
400.458	410.95
400.837	393.32
401.215	418.63
401.594	422.93
401.972	425.19
402.351	435.81
402.729	429.71
403.107	420.67
403.486	445.53
403.864	455.24
404.242	435.58
404.62	458.18
404.999	426.77
405.377	458.41
405.755	459.76
406.133	437.62
406.511	436.94
406.889	443.72
407.267	464.06
407.645	467.45
408.023	464.51
408.401	464.96
408.779	455.24
409.156	468.8
409.534	489.37
409.912	481
410.29	479.65
410.667	483.04
411.045	491.17
411.422	479.42
411.8	505.41
412.178	510.83
412.555	510.16
412.933	524.17
413.31	531.85
413.687	545.64
414.065	536.6
414.442	543.6
414.819	569.14
415.197	562.81
415.574	557.84
415.951	579.98
416.328	581.11
416.705	575.69
417.082	593.77
417.46	593.54
417.837	572.08
418.214	596.93
418.591	598.29
418.967	615.01
419.344	617.95
419.721	624.28
420.098	626.09
420.475	635.12
420.852	643.03
421.228	618.4
421.605	650.49
421.982	654.11
422.358	645.07
422.735	671.51
423.111	683.71
423.488	684.61
423.864	716.93
424.241	690.94
424.617	678.97
424.994	702.02
425.37	732.75
425.746	718.74
426.123	723.03
426.499	731.17
426.875	749.47
427.251	728.91
427.627	758.06
428.003	759.87
428.379	768
428.756	772.3
429.132	797.83
429.507	822.92
429.883	808.91
430.259	831.73
430.635	812.97
431.011	841.22
431.387	840.32
431.763	843.93
432.138	860.2
432.514	857.72
432.89	858.85
433.265	891.16
433.641	901.78
434.016	925.51
434.392	908.11
434.767	912.63
435.143	939.98
435.518	952.63
435.894	965.51
436.269	951.27
436.644	994.89
437.02	984.95
437.395	1001.89
437.77	1020.2
438.145	1039.86
438.52	1025.85
438.895	1055.68
439.271	1074.44
439.646	1099.97
440.021	1087.99
440.395	1096.81
440.77	1092.06
441.145	1113.53
441.52	1161.21
441.895	1135.45
442.27	1140.87
442.645	1134.09
443.019	1173.64
443.394	1179.97
443.769	1167.09
444.143	1206.63
444.518	1189.46
444.892	1203.25
445.267	1225.62
445.641	1214.77
446.016	1229.23
446.39	1250.25
446.764	1245.96
447.139	1264.26
447.513	1296.35
447.887	1263.58
448.262	1284.15
448.636	1302.23
449.01	1309.01
449.384	1332.06
449.758	1320.3
450.132	1341.32
450.506	1354.2
450.88	1330.02
451.254	1372.73
451.628	1395.78
452.002	1393.3
452.376	1400.08
452.75	1420.87
453.123	1445.27
453.497	1466.06
453.871	1484.14
454.244	1520.52
454.618	1516.46
454.992	1532.5
455.365	1528.21
455.739	1560.07
456.112	1607.53
456.486	1610.24
456.859	1614.76
457.232	1657.02
457.606	1652.27
457.979	1659.05
458.352	1714.87
458.725	1693.85
459.099	1715.32
459.472	1770.46
459.845	1780.18
460.218	1801.42
460.591	1793.96
460.964	1802.55
461.337	1885.04
461.71	1888.65
462.083	1929.78
462.456	1972.04
462.829	1959.38
463.201	1979.04
463.574	1989.89
463.947	2026.27
464.32	2095.2
464.692	2064.69
465.065	2188.76
465.438	2160.06
465.81	2201.86
466.183	2237.57
466.555	2259.26
466.928	2310.33
467.3	2336.32
467.672	2333.38
468.045	2404.8
468.417	2461.07
468.789	2479.82
469.161	2509.43
469.534	2548.52
469.906	2598.91
470.278	2579.48
470.65	2666.26
471.022	2712.36
471.394	2778.57
471.766	2865.57
472.138	2862.64
472.51	2947.15
472.882	2975.4
473.253	3038.23
473.625	3085.68
473.997	3177.43
474.369	3254.04
474.74	3247.94
475.112	3340.36
475.484	3462.17
475.855	3505.33
476.227	3541.49
476.598	3627.81
476.97	3693.35
477.341	3798.88
477.713	3869.39
478.084	3892.44
478.455	4045.88
478.827	4143.28
479.198	4301.24
479.569	4292.43
479.94	4390.28
480.311	4521.12
480.682	4628.47
481.053	4745.98
481.424	4863.26
481.795	4978.97
482.166	5103.03
482.537	5143.48
482.908	5252.18
483.279	5401.1
483.65	5538.05
484.021	5655.11
484.391	5769.68
484.762	5825.5
485.133	5962.22
485.503	6039.28
485.874	6260.74
486.244	6330.34
486.615	6509.77
486.985	6651.01
487.356	6745.7
487.726	6861.85
488.097	7048.97
488.467	7124.45
488.837	7310.66
489.207	7417.09
489.578	7551.78
489.948	7650.53
490.318	7766.01
490.688	7870.87
491.058	7980.02
491.428	8159.9
491.798	8331.87
492.168	8508.36
492.538	8570.74
492.908	8693.9
493.278	8824.29
493.648	8870.39
494.017	9050.5
494.387	9138.4
494.757	9286.42
495.126	9450.26
495.496	9434.67
495.866	9553.08
496.235	9683.93
496.605	9831.94
496.974	9904.26
497.344	10020.19
497.713	10095.67
498.082	10103.12
498.452	10165.95
498.821	10374.3
499.19	10376.11
499.559	10559.84
499.928	10636.9
500.298	10683
500.667	10770.68
501.036	10831.69
501.405	10941.52
501.774	10987.17
502.143	11035.08
502.512	11092.93
502.88	11199.82
503.249	11203.89
503.618	11333.15
503.987	11321.62
504.356	11520.04
504.724	11495.18
505.093	11487.04
505.462	11526.82
505.83	11699.24
506.199	11699.47
506.567	11908.5
506.936	11915.28
507.304	12002.74
507.672	12066.24
508.041	12027.59
508.409	12115.27
508.777	12183.75
509.145	12254.48
509.514	12241.37
509.882	12373.35
510.25	12341.71
510.618	12353.91
510.986	12389.84
511.354	12507.81
511.722	12634.81
512.09	12699.89
512.458	12664.19
512.826	12762.72
513.193	12775.6
513.561	12828.02
513.929	12861.7
514.297	12940.11
514.664	13018.53
515.032	12959.09
515.4	13027.79
515.767	13009.26
516.135	13083.16
516.502	12995.7
516.869	13292.19
517.237	13241.12
517.604	13151.63
517.972	13184.4
518.339	13256.49
518.706	13237.51
519.073	13260.78
519.44	13300.55
519.808	13402.25
520.175	13342.81
520.542	13513.2
520.909	13504.16
521.276	13501.68
521.643	13523.83
522.009	13550.27
522.376	13570.6
522.743	13677.95
523.11	13652.18
523.477	13800.2
523.843	13789.58
524.21	13841.56
524.577	13892.86
524.943	13898.73
525.31	13906.19
525.676	13902.35
526.043	13992.06
526.409	13915
526.776	14101.21
527.142	14050.14
527.508	14064.83
527.874	14050.37
528.241	14100.53
528.607	14075.68
528.973	14179.63
529.339	14178.72
529.705	14178.27
530.071	14209.23
530.437	14154.77
530.803	14143.24
531.169	14207.2
531.535	14122
531.901	14152.28
532.267	14193.41
532.632	14147.76
532.998	14032.29
533.364	14048.33
533.73	14091.72
534.095	14136.24
534.461	14093.75
534.826	14118.39
535.192	14127.2
535.557	14214.43
535.923	14003.36
536.288	14150.25
536.653	14152.28
537.019	13974.66
537.384	13969.24
537.749	13924.94
538.114	13908
538.479	13818.28
538.845	13824.83
539.21	13755.23
539.575	13746.19
539.94	13813.76
540.305	13630.49
540.67	13628.91
541.034	13714.55
541.399	13603.15
541.764	13601.34
542.129	13581
542.494	13548.23
542.858	13532.19
543.223	13478.4
543.587	13462.13
543.952	13345.75
544.316	13378.52
544.681	13336.71
545.045	13310.5
545.41	13334.9
545.774	13247.9
546.138	13172.2
546.503	13049.94
546.867	13209.71
547.231	13247
547.595	13096.72
547.959	13134.23
548.324	13004.74
548.688	13031.18
549.052	12949.83
549.416	13024.86
549.779	12967.23
550.143	12881.13
550.507	12851.3
550.871	12826.22
551.235	12685.66
551.599	12772.66
551.962	12742.38
552.326	12637.29
552.689	12745.54
553.053	12590.29
553.417	12508.71
553.78	12688.59
554.143	12540.57
554.507	12566.11
554.87	12568.37
555.234	12637.97
555.597	12548.94
555.96	12521.14
556.323	12547.35
556.686	12489.05
557.05	12521.14
557.413	12475.72
557.776	12486.11
558.139	12479.11
558.502	12432.55
558.865	12373.8
559.228	12402.5
559.59	12457.41
559.953	12415.61
560.316	12491.76
560.679	12405.89
561.041	12518.65
561.404	12433.23
561.767	12495.83
562.129	12386.91
562.492	12442.05
562.854	12443.85
563.217	12424.19
563.579	12418.09
563.941	12447.24
564.304	12468.49
564.666	12481.14
565.028	12504.42
565.39	12519.11
565.753	12534.92
566.115	12564.53
566.477	12466.23
566.839	12590.06
567.201	12664.64
567.563	12572.21
567.925	12604.53
568.287	12622.61
568.648	12533.34
569.01	12551.42
569.372	12634.81
569.734	12596.62
570.095	12596.84
570.457	12667.35
570.819	12673
571.18	12675.49
571.542	12720
571.903	12685.88
572.265	12854.69
572.626	12710.29
572.987	12710.29
573.349	12738.08
573.71	12779.21
574.071	12751.64
574.432	12708.25
574.794	12896.72
575.155	12802.04
575.516	12724.3
575.877	12812.66
576.238	12776.5
576.599	12788.25
576.96	12803.84
577.32	12820.79
577.681	12788.25
578.042	12776.73
578.403	12818.98
578.763	12908.02
579.124	12864.18
579.485	12940.34
579.845	12933.11
580.206	12799.32
580.566	12852.66
580.927	12759.33
581.287	12851.98
581.648	12742.83
582.008	12831.41
582.368	12858.31
582.728	12860.11
583.089	12788.03
583.449	12790.74
583.809	12837.52
584.169	12791.19
584.529	12733.34
584.889	12797.52
585.249	12729.04
585.609	12702.38
585.969	12747.57
586.329	12698.76
586.688	12730.4
587.048	12730.63
587.408	12642.04
587.768	12683.62
588.127	12658.31
588.487	12619.22
588.846	12703.06
589.206	12581.03
589.565	12578.54
589.925	12604.08
590.284	12625.54
590.643	12665.09
591.003	12708.25
591.362	12612.21
591.721	12701.47
592.08	12584.87
592.44	12590.29
592.799	12575.6
593.158	12573.34
593.517	12593.23
593.876	12565.21
594.235	12506.22
594.593	12574.92
594.952	12534.02
595.311	12544.42
595.67	12546.68
596.029	12640.01
596.387	12530.86
596.746	12600.69
597.104	12517.52
597.463	12497.19
597.822	12510.29
598.18	12472.55
598.538	12471.2
598.897	12505.09
599.255	12440.01
599.613	12633.91
599.972	12460.12
600.33	12576.51
600.688	12504.19
601.046	12578.31
601.404	12503.74
601.762	12508.03
602.12	12605.43
602.478	12527.69
602.836	12512.55
603.194	12497.86
603.552	12534.02
603.91	12510.07
604.268	12580.35
604.625	12387.58
604.983	12522.95
605.341	12467.58
605.698	12516.62
606.056	12431.42
606.413	12421.93
606.771	12559.33
607.128	12555.49
607.485	12364.76
607.843	12527.24
608.2	12648.14
608.557	12566.34
608.914	12535.38
609.272	12564.08
609.629	12586
609.986	12627.8
610.343	12607.47
610.7	12650.85
611.057	12673.45
611.414	12622.38
611.771	12621.7
612.127	12657.41
612.484	12589.84
612.841	12690.4
613.198	12625.77
613.554	12641.14
613.911	12774.47
614.267	12735.82
614.624	12703.96
614.98	12704.86
615.337	12704.86
615.693	12735.82
616.05	12700.12
616.406	12828.93
616.762	12780.57
617.118	12752.09
617.475	12676.39
617.831	12755.03
618.187	12762.94
618.543	12822.37
618.899	12858.76
619.255	12884.52
619.611	12747.35
619.967	12833.22
620.323	12820.79
620.678	12801.36
621.034	12808.14
621.39	12711.64
621.746	12819.89
622.101	12915.03
622.457	12834.8
622.812	12821.7
623.168	12916.84
623.523	12885.2
623.879	12893.33
624.234	12886.55
624.589	12834.35
624.945	12784.18
625.3	12840
625.655	12843.17
626.01	12828.48
626.365	12829.83
626.72	12837.29
627.075	12876.84
627.43	12795.93
627.785	12725.2
628.14	12804.97
628.495	12882.03
628.85	12755.03
629.205	12764.98
629.559	12825.76
629.914	12764.98
630.269	12745.99
630.623	12687.01
630.978	12839.32
631.332	12710.29
631.687	12785.77
632.041	12684.3
632.396	12666.9
632.75	12710.74
633.104	12627.8
633.459	12618.99
633.813	12679.78
634.167	12582.38
634.521	12596.17
634.875	12632.78
635.229	12575.38
635.583	12602.49
635.937	12440.24
636.291	12496.51
636.645	12520.24
636.999	12432.78
637.352	12468.94
637.706	12416.28
638.06	12487.69
638.413	12410.86
638.767	12323.86
639.121	12415.83
639.474	12286.8
639.828	12293.8
640.181	12352.1
640.534	12315.95
640.888	12321.37
641.241	12337.64
641.594	12304.87
641.947	12361.37
642.301	12284.54
642.654	12319.56
643.007	12378.09
643.36	12312.33
643.713	12259
644.066	12322.95
644.419	12287.02
644.771	12205.89
645.124	12040.7
645.477	12046.12
645.83	11959.12
646.182	11887.26
646.535	11883.64
646.888	11891.1
647.24	11850.65
647.593	11896.75
647.945	11887.48
648.298	11800.48
648.65	11763.19
649.002	11831.44
649.355	11823.98
649.707	11818.56
650.059	11873.25
650.411	12068.5
650.763	12100.36
651.115	12213.13
651.467	12034.82
651.819	12124.31
652.171	12090.87
652.523	12040.02
652.875	12075.28
653.227	12050.19
653.578	12118.44
653.93	12093.35
654.282	12021.94
654.633	11994.83
654.985	12029.4
655.337	12099
655.688	12086.8
656.039	12108.5
656.391	12012
656.742	11971.55
657.094	12113.47
657.445	12127.7
657.796	12085.67
658.147	12068.27
658.498	11988.95
658.849	12089.06
659.2	12035.95
659.551	12041.6
659.902	12055.84
660.253	12049.97
660.604	12023.3
660.955	12043.86
661.306	12104.2
661.656	12060.13
662.007	12037.76
662.358	12016.07
662.708	12158.89
663.059	12117.31
663.409	12067.14
663.76	12193.46
664.11	12092
664.461	12114.82
664.811	12114.37
665.161	12039.8
665.511	12101.49
665.862	12103.98
666.212	12149.17
666.562	12145.33
666.912	12159.79
667.262	12109.17
667.612	12126.8
667.962	12168.15
668.312	12041.83
668.662	12090.64
669.011	12113.47
669.361	12186.91
669.711	12115.5
670.06	12081.38
670.41	12123.18
670.76	12021.72
671.109	12094.94
671.459	12106.46
671.808	12044.77
672.157	12119.12
672.507	12018.55
672.856	12047.25
673.205	12032.79
673.554	12005
673.904	11980.14
674.253	12102.62
674.602	12081.15
674.951	11809.07
675.3	11788.5
675.649	11948.27
675.998	11958.89
676.346	11946.69
676.695	11958.44
677.044	11836.41
677.393	11964.77
677.741	11887.03
678.09	11868.5
678.438	11936.07
678.787	11933.13
679.135	11814.72
679.484	11707.6
679.832	11790.54
680.181	11800.48
680.529	11785.11
680.877	11802.06
681.225	11751.89
681.573	11752.12
681.922	11656.3
682.27	11642.29
682.618	11715.51
682.966	11601.39
683.314	11615.4
683.661	11540.15
684.009	11579.24
684.357	11482.75
684.705	11496.08
685.053	11442.75
685.4	11489.75
685.748	11361.4
686.095	11331.34
686.443	11327.95
686.79	11379.47
687.138	11369.31
687.485	11374.73
687.832	11301.51
688.18	11282.98
688.527	11241.85
688.874	11216.54
689.221	11207.28
689.568	11194.85
689.915	11134.74
690.262	11079.82
690.609	11027.17
690.956	10976.55
691.303	11042.76
691.65	10949.66
691.997	10929.54
692.344	10864.01
692.69	10885.48
693.037	10796.21
693.383	10745.37
693.73	10723.45
694.077	10716.44
694.423	10749.43
694.769	10606.16
695.116	10614.52
695.462	10586.5
695.808	10555.99
696.155	10581.3
696.501	10452.49
696.847	10484.36
697.193	10397.81
697.539	10486.39
697.885	10379.73
698.231	10351.71
698.577	10277.58
698.923	10259.05
699.269	10181.09
699.614	10119.85
699.96	10064.93
700.306	10020.41
700.651	10027.19
700.997	10012.05
701.342	9981.32
701.688	9927.99
702.033	9918.72
702.379	9911.26
702.724	9813.64
703.069	9849.35
703.415	9720.31
703.76	9726.86
704.105	9758.95
704.45	9615.68
704.795	9613.19
705.14	9566.19
705.485	9581.78
705.83	9494.78
706.175	9513.76
706.52	9432.86
706.865	9424.95
707.209	9439.64
707.554	9376.59
707.899	9429.47
708.243	9356.03
708.588	9361
708.932	9318.74
709.277	9246.42
709.621	9279.42
709.966	9219.08
710.31	9277.84
710.654	9172.75
710.998	9166.43
711.342	9170.27
711.687	9127.33
712.031	9119.42
712.375	9001.01
712.719	9078.74
713.063	9066.32
713.407	9036.94
713.75	9059.54
714.094	8975.24
714.438	8987.9
714.782	8952.87
715.125	8911.97
715.469	9000.33
715.812	8933.44
716.156	8869.94
716.499	8828.58
716.843	8837.39
717.186	8864.06
717.53	8861.35
717.873	8885.3
718.216	8805.53
718.559	8747.45
718.902	8725.53
719.246	8693.22
719.589	8719.66
719.932	8635.82
720.275	8757.85
720.617	8703.16
720.96	8675.14
721.303	8697.74
721.646	8712.2
721.989	8584.29
722.331	8598.08
722.674	8543.39
723.016	8648.02
723.359	8567.35
723.701	8646.89
724.044	8578.19
724.386	8555.37
724.729	8548.81
725.071	8580.68
725.413	8589.49
725.755	8556.72
726.097	8489.61
726.439	8469.95
726.782	8595.59
727.124	8538.65
727.465	8528.25
727.807	8519.44
728.149	8497.06
728.491	8544.75
728.833	8498.19
729.175	8508.14
729.516	8495.03
729.858	8464.52
730.199	8473.11
730.541	8448.93
730.882	8454.81
731.224	8482.38
731.565	8448.25
731.906	8479.44
732.248	8439.44
732.589	8466.78
732.93	8388.14
733.271	8418.87
733.612	8491.19
733.953	8484.41
734.294	8437.63
734.635	8447.8
734.976	8467.91
735.317	8436.5
735.658	8420.91
735.999	8486.67
736.339	8502.71
736.68	8533.22
737.021	8447.12
737.361	8492.55
737.702	8404.41
738.042	8450.74
738.383	8427.91
738.723	8497.97
739.063	8423.39
739.404	8537.29
739.744	8520.79
740.084	8539.32
740.424	8509.04
740.764	8533.22
741.104	8540.68
741.444	8569.61
741.784	8568.48
742.124	8532.09
742.464	8614.12
742.804	8582.94
743.143	8616.38
743.483	8671.52
743.823	8652.99
744.162	8667.46
744.502	8730.28
744.841	8727.12
745.181	8819.54
745.52	8882.82
745.86	8861.12
746.199	8830.39
746.538	8920.1
746.877	9038.75
747.216	9048.46
747.556	9030.84
747.895	9087.33
748.234	9110.38
748.573	9137.27
748.911	9193.32
749.25	9249.81
749.589	9340.21
749.928	9430.83
750.267	9492.97
750.605	9518.51
750.944	9601.44
751.283	9627.66
751.621	9779.52
751.96	9801.21
752.298	9970.25
752.636	9975.44
752.975	9984.03
753.313	10181.99
753.651	10309.22
753.989	10423.34
754.327	10431.25
754.666	10511.48
755.004	10799.15
755.342	10809.32
755.679	10964.12
756.017	11103.1
756.355	11261.29
756.693	11350.77
757.031	11517.32
757.368	11555.52
757.706	11771.33
758.044	11981.27
758.381	12057.2
758.719	12177.19
