Data from hue_330_FLMS001491_60.txt Node
Date: Mon Feb 06 15:45:36 GMT 2017
User: dcchb
Spectrometer: FLMS00149
Trigger mode: 0
Integration Time (sec): 2.000000E-2
Scans to average: 10
Electric dark correction enabled: true
Nonlinearity correction enabled: false
Boxcar width: 0
XAxis mode: Wavelengths
Number of Pixels in Spectrum: 2048
>>>>>Begin Spectral Data<<<<<
341.393	5.11
341.776	5.11
342.16	5.11
342.543	-71.5
342.927	-55.45
343.31	-62.68
343.693	-79.63
344.077	-62
344.46	-71.04
344.843	-48.9
345.226	-33.3
345.61	-42.12
345.993	-5.73
346.376	-17.03
346.759	-2.34
347.142	37.2
347.525	19.8
347.908	64.55
348.291	84.88
348.674	97.09
349.057	121.27
349.44	144.77
349.823	127.82
350.206	173.7
350.588	193.81
350.971	193.81
351.354	221.38
351.737	245.56
352.119	263.64
352.502	264.32
352.884	273.35
353.267	278.1
353.65	296.4
354.032	306.57
354.414	302.28
354.797	323.3
355.179	304.31
355.562	319.23
355.944	320.36
356.326	312.9
356.709	325.33
357.091	337.31
357.473	336.18
357.855	339.34
358.238	347.7
358.62	308.38
359.002	325.33
359.384	353.58
359.766	329.85
360.148	321.71
360.53	335.27
360.912	335.05
361.294	339.34
361.676	326.91
362.057	335.05
362.439	348.83
362.821	341.6
363.203	315.84
363.584	340.02
363.966	327.14
364.348	321.26
364.729	318.78
365.111	309.96
365.493	323.07
365.874	313.13
366.256	315.16
366.637	308.38
367.019	313.58
367.4	326.91
367.781	337.76
368.163	313.13
368.544	326.01
368.925	296.4
369.306	302.73
369.688	319.23
370.069	307.7
370.45	313.81
370.831	298.89
371.212	299.12
371.593	319.91
371.974	321.26
372.355	311.55
372.736	330.98
373.117	321.04
373.498	286.24
373.879	310.19
374.26	310.42
374.641	319
375.021	322.17
375.402	324.65
375.783	304.77
376.163	330.53
376.544	327.82
376.925	311.09
377.305	312.68
377.686	343.64
378.066	349.96
378.447	306.57
378.827	334.82
379.208	335.95
379.588	335.05
379.968	341.15
380.349	335.27
380.729	361.49
381.109	334.82
381.489	325.78
381.87	330.08
382.25	349.06
382.63	356.06
383.01	342.96
383.39	338.44
383.77	336.63
384.15	317.65
384.53	339.79
384.91	333.24
385.29	343.64
385.67	328.04
386.049	342.73
386.429	345.44
386.809	343.41
387.189	359.68
387.568	357.19
387.948	359.45
388.328	333.69
388.707	356.06
389.087	362.39
389.466	364.43
389.846	384.76
390.225	360.58
390.605	372.33
390.984	364.88
391.363	363.75
391.743	366.91
392.122	368.95
392.501	390.64
392.881	358.55
393.26	373.24
393.639	362.84
394.018	374.82
394.397	379.34
394.776	377.08
395.155	383.41
395.534	381.83
395.913	374.82
396.292	400.81
396.671	378.21
397.05	399.9
397.429	387.25
397.808	387.93
398.186	394.03
398.565	396.06
398.944	399
399.323	376.63
399.701	389.28
400.08	403.75
400.458	399.68
400.837	408.94
401.215	428.83
401.594	408.04
401.972	389.96
402.351	420.92
402.729	423.86
403.107	419.79
403.486	435.38
403.864	414.37
404.242	406.01
404.62	422.5
404.999	418.21
405.377	445.1
405.755	444.42
406.133	441.94
406.511	448.49
406.889	468.6
407.267	440.58
407.645	461.82
408.023	454.37
408.401	462.73
408.779	455.27
409.156	461.37
409.534	474.03
409.912	466.34
410.29	477.87
410.667	480.81
411.045	491.88
411.422	464.76
411.8	500.47
412.178	513.12
412.555	510.64
412.933	501.15
413.31	511.54
413.687	528.71
414.065	522.84
414.442	533.23
414.819	525.55
415.197	542.27
415.574	542.5
415.951	561.71
416.328	570.75
416.705	575.49
417.082	586.11
417.46	576.17
417.837	580.01
418.214	598.32
418.591	587.02
418.967	604.87
419.344	595.61
419.721	616.62
420.098	587.92
420.475	623.4
420.852	633.12
421.228	605.55
421.605	640.35
421.982	648.71
422.358	639.22
422.735	648.26
423.111	643.29
423.488	658.65
423.864	694.13
424.241	681.25
424.617	685.32
424.994	691.65
425.37	695.26
425.746	697.07
426.123	706.56
426.499	709.73
426.875	698.43
427.251	707.47
427.627	749.95
428.003	733.91
428.379	748.82
428.756	754.25
429.132	760.12
429.507	764.87
429.883	767.35
430.259	805.32
430.635	800.35
431.011	801.7
431.387	801.48
431.763	803.28
432.138	837.41
432.514	867.01
432.89	820.01
433.265	880.8
433.641	889.61
434.016	861.59
434.392	890.51
434.767	894.58
435.143	907.24
435.518	923.51
435.894	918.99
436.269	931.42
436.644	932.77
437.02	944.07
437.395	923.51
437.77	943.62
438.145	973.22
438.52	962.83
438.895	1004.18
439.271	1014.35
439.646	982.49
440.021	1004.18
440.395	974.58
440.77	1006.22
441.145	1007.57
441.52	1017.52
441.895	1044.63
442.27	1008.48
442.645	1034.01
443.019	1053.22
443.394	1045.09
443.769	1049.15
444.143	1048.7
444.518	1062.94
444.892	1074.69
445.267	1077.85
445.641	1090.06
446.016	1105.65
446.39	1083.73
446.764	1089.83
447.139	1092.54
447.513	1084.41
447.887	1119.43
448.262	1095.71
448.636	1097.06
449.01	1104.07
449.384	1143.39
449.758	1140.9
450.132	1162.14
450.506	1172.09
450.88	1167.79
451.254	1128.7
451.628	1173.9
452.002	1209.37
452.376	1163.5
452.75	1196.72
453.123	1181.81
453.497	1219.32
453.871	1225.42
454.244	1245.98
454.618	1259.77
454.992	1256.38
455.365	1254.8
455.739	1278.53
456.112	1290.73
456.486	1309.94
456.859	1285.98
457.232	1326.21
457.606	1326.89
457.979	1328.02
458.352	1340.9
458.725	1346.32
459.099	1379.31
459.472	1396.71
459.845	1398.52
460.218	1402.59
460.591	1400.78
460.964	1400.56
461.337	1430.61
461.71	1443.49
462.083	1444.4
462.456	1455.47
462.829	1490.05
463.201	1494.57
463.574	1487.79
463.947	1520.78
464.32	1555.81
464.692	1573.43
465.065	1546.54
465.438	1563.26
465.81	1575.02
466.183	1601
466.555	1625.64
466.928	1637.16
467.3	1633.77
467.672	1652.75
468.045	1683.49
468.417	1704.28
468.789	1706.31
469.161	1720.55
469.534	1744.73
469.906	1799.19
470.278	1811.17
470.65	1791.28
471.022	1808.91
471.394	1855.46
471.766	1857.95
472.138	1879.41
472.51	1905.85
472.882	1947.43
473.253	1924.61
473.625	1964.16
473.997	2000.77
474.369	1986.76
474.74	2022.23
475.112	2057.71
475.484	2086.19
475.855	2099.07
476.227	2101.55
476.598	2146.07
476.97	2194.66
477.341	2219.74
477.713	2288.22
478.084	2260.65
478.455	2301.78
478.827	2320.98
479.198	2403.02
479.569	2350.81
479.94	2437.82
480.311	2454.77
480.682	2471.26
481.053	2550.58
481.424	2569.11
481.795	2596.68
482.166	2616.12
482.537	2633.07
482.908	2675.55
483.279	2712.39
483.65	2791.48
484.021	2813.17
484.391	2792.38
484.762	2852.72
485.133	2886.62
485.503	2896.11
485.874	2914.64
486.244	2942.44
486.615	3005.03
486.985	3057.46
487.356	3084.35
487.726	3105.37
488.097	3199.83
488.467	3201.19
488.837	3250
489.207	3253.16
489.578	3300.85
489.948	3341.3
490.318	3372.71
490.688	3395.53
491.058	3464.23
491.428	3465.36
491.798	3475.08
492.168	3548.75
492.538	3539.94
492.908	3564.12
493.278	3634.62
493.648	3612.93
494.017	3678.69
494.387	3730.89
494.757	3725.69
495.126	3785.8
495.496	3795.75
495.866	3790.32
496.235	3826.93
496.605	3846.14
496.974	3896.54
497.344	3904.22
497.713	3913.94
498.082	3955.74
498.452	3977.66
498.821	4062.63
499.19	4004.1
499.559	4021.28
499.928	4086.81
500.298	4046.14
500.667	4136.08
501.036	4112.12
501.405	4185.34
501.774	4151.22
502.143	4165.23
502.512	4189.41
502.88	4216.3
503.249	4253.59
503.618	4255.62
503.987	4268.05
504.356	4297.88
504.724	4287.26
505.093	4376.07
505.462	4338.56
505.83	4330.42
506.199	4377.43
506.567	4416.07
506.936	4418.56
507.304	4472.34
507.672	4466.24
508.041	4487.48
508.409	4512.11
508.777	4515.73
509.145	4546.91
509.514	4489.51
509.882	4566.57
510.25	4544.88
510.618	4607.48
510.986	4586.24
511.354	4624.43
511.722	4608.61
512.09	4671.43
512.458	4706.46
512.826	4684.76
513.193	4715.05
513.561	4697.87
513.929	4716.18
514.297	4797.3
514.664	4815.61
515.032	4753.01
515.4	4825.33
515.767	4787.36
516.135	4862.61
516.502	4822.61
516.869	4868.04
517.237	4955.27
517.604	4861.03
517.972	4924.08
518.339	5008.6
518.706	4984.87
519.073	4940.35
519.44	4978.54
519.808	5042.04
520.175	4998.2
520.542	5084.98
520.909	5067.35
521.276	5047.47
521.643	5091.53
522.009	5166.33
522.376	5176.05
522.743	5179.89
523.11	5248.14
523.477	5270.51
523.843	5301.47
524.21	5313.67
524.577	5331.98
524.943	5366.1
525.31	5419.21
525.676	5388.02
526.043	5421.47
526.409	5475.25
526.776	5468.02
527.142	5541.69
527.508	5517.06
527.874	5589.37
528.241	5571.97
528.607	5616.49
528.973	5630.28
529.339	5651.97
529.705	5737.62
530.071	5741.91
530.437	5748.92
530.803	5780.55
531.169	5831.4
531.535	5799.76
531.901	5799.31
532.267	5812.42
532.632	5888.35
532.998	5915.47
533.364	5978.52
533.73	5962.92
534.095	6015.58
534.461	6027.1
534.826	6067.33
535.192	6128.34
535.557	6081.11
535.923	6126.31
536.288	6117.95
536.653	6186.19
537.019	6154.78
537.384	6159.53
537.749	6230.94
538.114	6210.6
538.479	6298.96
538.845	6279.75
539.21	6253.54
539.575	6331.05
539.94	6277.72
540.305	6416.7
540.67	6404.04
541.034	6392.29
541.399	6426.41
541.764	6525.17
542.129	6486.98
542.494	6486.98
542.858	6564.94
543.223	6595.45
543.587	6574.66
543.952	6609.91
544.316	6664.82
544.681	6695.78
545.045	6719.06
545.41	6818.94
545.774	6735.33
546.138	6702.56
546.503	6828.21
546.867	6798.61
547.231	6905.72
547.595	6853.29
547.959	6956.57
548.324	6940.52
548.688	6962.9
549.052	6972.84
549.416	7004.93
549.779	6981.65
550.143	7032.5
550.507	7023.69
550.871	7073.85
551.235	7076.11
551.599	7126.28
551.962	7114.3
552.326	7167.18
552.689	7260.97
553.053	7259.39
553.417	7255.54
553.78	7341.64
554.143	7263.45
554.507	7361.08
554.87	7308.42
555.234	7460.06
555.597	7377.8
555.96	7392.72
556.323	7402.43
556.686	7439.72
557.05	7521.75
557.413	7486.72
557.776	7470.45
558.139	7573.73
558.502	7592.94
558.865	7602.2
559.228	7653.95
559.59	7668.64
559.953	7646.27
560.316	7765.13
560.679	7740.95
561.041	7797.45
561.404	7724.46
561.767	7823.89
562.129	7773.95
562.492	7871.35
562.854	7825.7
563.217	7872.48
563.579	7961.51
563.941	7955.86
564.304	8012.81
564.666	8019.37
565.028	8089.65
565.39	8073.83
565.753	8131.45
566.115	8114.73
566.477	8158.12
566.839	8206.25
567.201	8196.31
567.563	8253.26
567.925	8287.61
568.287	8251.22
568.648	8336.65
569.01	8420.03
569.372	8427.04
569.734	8415.06
570.095	8465.46
570.457	8529.63
570.819	8498.45
571.18	8550.88
571.542	8599.46
571.903	8617.32
572.265	8676.75
572.626	8775.5
572.987	8745.67
573.349	8826.58
573.71	8840.59
574.071	8990.41
574.432	8975.5
574.794	9021.15
575.155	9106.12
575.516	9135.04
575.877	9217.98
576.238	9328.48
576.599	9370.97
576.96	9373.91
577.32	9425.43
577.681	9530.51
578.042	9646.22
578.403	9725.99
578.763	9781.8
579.124	9838.98
579.485	9989.71
579.845	10060.89
580.206	10172.76
580.566	10233.77
580.927	10370.94
581.287	10544.72
581.648	10686.87
582.008	10781.1
582.368	10948.78
582.728	11085.27
583.089	11237.36
583.449	11372.05
583.809	11563.9
584.169	11772.04
584.529	11824.01
584.889	12129.54
585.249	12283.43
585.609	12447.27
585.969	12651.79
586.329	12833.7
586.688	13062.4
587.048	13231.21
587.408	13434.59
587.768	13703.51
588.127	13848.14
588.487	14150.28
588.846	14541.23
589.206	14552.98
589.565	14879.98
589.925	15209.01
590.284	15433.41
590.643	15633.85
591.003	15972.38
591.362	16318.13
591.721	16542.98
592.08	16756.31
592.44	17176.64
592.799	17435.84
593.158	17633.8
593.517	17913.79
593.876	18260.68
594.235	18475.81
594.593	18804.62
594.952	19130.94
595.311	19438.5
595.67	19654.09
596.029	20014.53
596.387	20355.54
596.746	20765.47
597.104	20877.11
597.463	21067.38
597.822	21545.11
598.18	21638.89
598.538	22030.75
598.897	22518.87
599.255	22520
599.613	23078.63
599.972	23130.61
600.33	23569.01
600.688	23710.48
601.046	24175.1
601.404	24527.41
601.762	24695.09
602.12	25069.31
602.478	25396.08
602.836	25655.74
603.194	25841.27
603.552	26086.01
603.91	26294.14
604.268	26658.88
604.625	26883.95
604.983	27125.98
605.341	27249.14
605.698	27659.98
606.056	27878.96
606.413	28047.99
606.771	28433.52
607.128	28663.12
607.485	28863.34
607.843	29019.72
608.2	29453.38
608.557	29644.11
608.914	29864.67
609.272	30118.9
609.629	30269.85
609.986	30743.51
610.343	30685.44
610.7	31162.03
611.057	31261.24
611.414	31541.23
611.771	31528.58
612.127	32047.21
612.484	32159.07
612.841	32367.43
613.198	32503.69
613.554	32555.67
613.911	33028.43
614.267	33135.32
614.624	33219.83
614.98	33428.41
615.337	33857.78
615.693	33866.82
616.05	33903.2
616.406	34174.84
616.762	34167.6
617.118	34352.46
617.475	34479.46
617.831	34815.27
618.187	34976.17
618.543	35130.06
618.899	35410.06
619.255	35363.51
619.611	35477.17
619.967	35810.73
620.323	35789.03
620.678	35865.41
621.034	35869.03
621.39	35913.1
621.746	36073.99
622.101	36682.79
622.457	36429.24
622.812	36473.76
623.168	36628.1
623.523	36816.57
623.879	36930.47
624.234	36816.57
624.589	37132.05
624.945	37102.44
625.3	37347.86
625.655	37356
626.01	37504.69
626.365	37464.24
626.72	37468.53
627.075	37560.74
627.43	37713.95
627.785	37728.19
628.14	37866.04
628.495	37868.07
628.85	37868.98
629.205	37885.47
629.559	38141.74
629.914	38063.55
630.269	38166.82
630.623	38059.93
630.978	38101.74
631.332	38265.8
631.687	38482.07
632.041	38219.7
632.396	38421.73
632.75	38207.72
633.104	38365.91
633.459	38315.74
633.813	38225.58
634.167	38311.68
634.521	38427.61
634.875	38474.16
635.229	38332.92
635.583	38296.31
635.937	38383.99
636.291	38291.56
636.645	38336.08
636.999	38353.48
637.352	38395.74
637.706	38406.59
638.06	38536.3
638.413	38363.43
638.767	38146.26
639.121	38283.43
639.474	38193.04
639.828	38259.93
640.181	38312.35
640.534	38396.87
640.888	38150.78
641.241	37987.17
641.594	38178.8
641.947	38381.05
642.301	38150.78
642.654	38288.4
643.007	38193.94
643.36	38452.69
643.713	38222.19
644.066	38309.42
644.419	38154.62
644.771	37942.87
645.124	37672.15
645.477	37648.87
645.83	37364.36
646.182	37124.36
646.535	37102.89
646.888	37236
647.24	37082.56
647.593	37310.57
647.945	37202.78
648.298	36966.85
648.65	37096.79
649.002	36994.65
649.355	37148.77
649.707	36989.68
650.059	37253.85
650.411	37609.32
650.763	37649.77
651.115	38016.77
651.467	37939.71
651.819	37765.7
652.171	37862.42
652.523	37827.4
652.875	37791.69
653.227	37599.6
653.578	37845.47
653.93	37648.42
654.282	37597.34
654.633	37449.1
654.985	37647.74
655.337	37666.72
655.688	37593.05
656.039	37873.95
656.391	37286.39
656.742	37659.49
657.094	37580.85
657.445	37718.47
657.796	37586.27
658.147	37475.31
658.498	37407.29
658.849	37537.23
659.2	37497.01
659.551	37429.44
659.902	37504.01
660.253	37546.05
660.604	37515.31
660.955	37420.4
661.306	37556.22
661.656	37404.36
662.007	37423.79
662.358	37376.79
662.708	37312.83
663.059	37635.08
663.409	37245.94
663.76	37551.47
664.11	37482.32
664.461	37528.65
664.811	37541.08
665.161	37414.3
665.511	37323
665.862	37431.25
666.212	37556.44
666.562	37553.73
666.912	37516.89
667.262	37483.45
667.612	37425.37
667.962	37416.33
668.312	37268.31
668.662	37535.43
669.011	37440.29
669.361	37400.06
669.711	37289.33
670.06	37244.81
670.41	37291.14
670.76	37159.16
671.109	37249.56
671.459	37225.38
671.808	37341.98
672.157	37237.81
672.507	37029.68
672.856	37022.22
673.205	37074.42
673.554	37280.97
673.904	37081.88
674.253	37354.41
674.602	37096.79
674.951	36582.91
675.3	36556.47
675.649	36921.88
675.998	37015.67
676.346	37036.68
676.695	37067.64
677.044	36897.93
677.393	36976.57
677.741	37024.03
678.09	36881.88
678.438	36833.52
678.787	36874.88
679.135	36904.71
679.484	36710.81
679.832	36781.1
680.181	36535.23
680.529	36569.35
680.877	36562.57
681.225	36590.82
681.573	36767.08
681.922	36421.1
682.27	36404.38
682.618	36391.5
682.966	36267.89
683.314	36447.09
683.661	36328
684.009	36216.82
684.357	36099.76
684.705	36067.67
685.053	35921.91
685.4	35990.38
685.748	35937.95
686.095	35844.4
686.443	35795.36
686.79	35693.44
687.138	35782.48
687.485	35659.99
687.832	35565.08
688.18	35592.43
688.527	35541.58
688.874	35521.02
689.221	35358.08
689.568	35411.64
689.915	35181.36
690.262	35238.08
690.609	35087.13
690.956	35009.16
691.303	34952.67
691.65	34861.6
691.997	34747.93
692.344	34607.59
692.69	34581.15
693.037	34644.2
693.383	34190.88
693.73	34596.52
694.077	34267.94
694.423	34180.49
694.769	34171.45
695.116	34123.31
695.462	33982.98
695.808	33970.1
696.155	33940.94
696.501	33749.99
696.847	33754.06
697.193	33337.34
697.539	33613.49
697.885	33356.78
698.231	33207.86
698.577	33225.93
698.923	33257.8
699.269	33071.81
699.614	32915.43
699.96	32825.27
700.306	32820.75
700.651	32778.26
700.997	32685.84
701.342	32608.1
701.688	32439.74
702.033	32377.14
702.379	32467.76
702.724	32239.75
703.069	32260.08
703.415	32122.46
703.76	32063.7
704.105	32116.58
704.45	32148.45
704.795	31728.35
705.14	31782.36
705.485	31677.05
705.83	31628.91
706.175	31625.3
706.52	31588.92
706.865	31346.66
707.209	31341.24
707.554	31185.76
707.899	31341.01
708.243	31146.67
708.588	31180.11
708.932	30821.7
709.277	30837.75
709.621	30991.87
709.966	30726.79
710.31	30857.41
710.654	30541.26
710.998	30573.35
711.342	30561.37
711.687	30469.62
712.031	30389.17
712.375	30277.31
712.719	30268.05
713.063	30306.24
713.407	30289.97
713.75	30137.88
714.094	30164.32
714.438	29948.05
714.782	29999.13
715.125	29869.19
715.469	29994.61
715.812	29646.59
716.156	29486.6
716.499	29662.64
716.843	29552.58
717.186	29391.23
717.53	29533.38
717.873	29554.39
718.216	29475.52
718.559	29441.4
718.902	29170.9
719.246	29242.54
719.589	29197.34
719.932	29090.68
720.275	28995.99
720.617	29125.93
720.96	29100.39
721.303	28934.52
721.646	28826.95
721.989	28826.28
722.331	28891.13
722.674	28792.15
723.016	28785.83
723.359	28700.86
723.701	28745.37
724.044	28480.07
724.386	28361.88
724.729	28539.05
725.071	28500.63
725.413	28469
725.755	28466.96
726.097	28197.59
726.439	28170.93
726.782	28245.5
727.124	28222.68
727.465	28071.49
727.807	28095
728.149	27961.44
728.491	27930.93
728.833	27993.08
729.175	27896.13
729.516	27745.63
729.858	27768.9
730.199	27703.82
730.541	27736.14
730.882	27693.42
731.224	27796.25
731.565	27611.39
731.906	27634.22
732.248	27586.53
732.589	27497.05
732.93	27359.42
733.271	27400.78
733.612	27436.93
733.953	27473.09
734.294	27246.43
734.635	27191.06
734.976	27241.46
735.317	27115.36
735.658	27130.73
735.999	27055.25
736.339	27038.75
736.68	27045.08
737.021	27016.38
737.361	26862.26
737.702	26974.12
738.042	26838.76
738.383	26736.16
738.723	26814.13
739.063	26652.55
739.404	26762.38
739.744	26690.51
740.084	26643.06
740.424	26580.69
740.764	26609.61
741.104	26623.62
741.444	26422.27
741.784	26433.57
742.124	26356.51
742.464	26347.25
742.804	26260.69
743.143	26446.23
743.483	26394.02
743.823	26213.46
744.162	26195.38
744.502	26185.67
744.841	26088.72
745.181	26127.36
745.52	26036.52
745.86	25914.94
746.199	26046.46
746.538	26050.98
746.877	26036.07
747.216	25958.55
747.556	25810.99
747.895	25913.58
748.234	25738.22
748.573	25747.71
748.911	25753.81
749.25	25695.96
749.589	25557.44
749.928	25552.46
750.267	25598.34
750.605	25437.89
750.944	25396.31
751.283	25408.51
751.621	25384.78
751.96	25297.56
752.298	25387.5
752.636	25247.61
752.975	25160.16
753.313	25055.53
753.651	25087.84
753.989	25041.29
754.327	24968.98
754.666	24859.37
755.004	24848.75
755.342	24791.81
755.679	24848.53
756.017	24668.42
756.355	24726.95
756.693	24708.87
757.031	24619.15
757.368	24378.48
757.706	24384.13
758.044	24355.89
758.381	24419.61
758.719	24197.02
759.056	24119.96
759.394	24224.82
759.731	23992.96
