Data from hue_230_FLMS001491_00037.txt Node
Date: Tue Feb 07 16:37:09 GMT 2017
User: dcchb
Spectrometer: FLMS00149
Trigger mode: 0
Integration Time (sec): 2.000000E-2
Scans to average: 10
Electric dark correction enabled: true
Nonlinearity correction enabled: false
Boxcar width: 0
XAxis mode: Wavelengths
Number of Pixels in Spectrum: 2048
>>>>>Begin Spectral Data<<<<<
341.393	-4.03
341.776	-4.03
342.16	-4.03
342.543	-66.85
342.927	-70.24
343.31	-79.5
343.693	-73.18
344.077	-71.37
344.46	-55.78
344.843	-37.92
345.226	-33.18
345.61	-39.05
345.993	-16.91
346.376	-12.84
346.759	11.57
347.142	14.96
347.525	33.94
347.908	60.83
348.291	86.59
348.674	85.92
349.057	125.91
349.44	130.66
349.823	134.05
350.206	163.65
350.588	161.39
350.971	202.07
351.354	215.18
351.737	217.21
352.119	248.17
352.502	255.18
352.884	281.84
353.267	287.94
353.65	288.17
354.032	309.19
354.414	307.15
354.797	310.99
355.179	307.83
355.562	315.29
355.944	311.22
356.326	324.1
356.709	313.93
357.091	317.77
357.473	310.09
357.855	329.75
358.238	338.79
358.62	342.86
359.002	335.4
359.384	341.05
359.766	335.85
360.148	340.15
360.53	301.05
360.912	332.01
361.294	329.98
361.676	306.47
362.057	328.17
362.439	310.77
362.821	332.01
363.203	327.94
363.584	317.32
363.966	306.93
364.348	317.1
364.729	320.03
365.111	317.77
365.493	300.83
365.874	305.57
366.256	317.32
366.637	291.79
367.019	301.28
367.4	329.75
367.781	301.05
368.163	311.22
368.544	295.85
368.925	304.89
369.306	313.03
369.688	317.1
370.069	310.99
370.45	295.4
370.831	308.96
371.212	271.9
371.593	298.11
371.974	297.21
372.355	321.62
372.736	310.99
373.117	318.68
373.498	322.75
373.879	307.83
374.26	317.77
374.641	310.09
375.021	311.9
375.402	326.59
375.783	329.75
376.163	327.04
376.544	315.06
376.925	301.05
377.305	327.94
377.686	315.51
378.066	317.32
378.447	302.63
378.827	302.86
379.208	343.08
379.588	331.56
379.968	333.59
380.349	334.5
380.729	338.11
381.109	335.17
381.489	323.88
381.87	329.3
382.25	343.99
382.63	359.81
383.01	343.99
383.39	343.99
383.77	337.43
384.15	332.91
384.53	358.23
384.91	340.15
385.29	351.45
385.67	337.66
386.049	336.3
386.429	343.54
386.809	360.71
387.189	336.3
387.568	369.3
387.948	342.63
388.328	336.76
388.707	355.29
389.087	340.6
389.466	337.43
389.846	347.83
390.225	358.68
390.605	361.39
390.984	360.94
391.363	353.25
391.743	358.45
392.122	365
392.501	367.72
392.881	362.29
393.26	394.61
393.639	373.37
394.018	377.66
394.397	378.11
394.776	372.24
395.155	395.06
395.534	390.09
395.913	383.76
396.292	376.53
396.671	374.72
397.05	368.39
397.429	397.55
397.808	375.85
398.186	378.11
398.565	402.29
398.944	400.48
399.323	396.42
399.701	382.41
400.08	416.53
400.458	392.8
400.837	400.03
401.215	410.2
401.594	409.3
401.972	393.48
402.351	407.72
402.729	416.98
403.107	431.9
403.486	423.76
403.864	429.64
404.242	421.95
404.62	423.99
404.999	440.26
405.377	451.56
405.755	432.35
406.133	444.55
406.511	468.5
406.889	492.01
407.267	461.27
407.645	486.13
408.023	475.51
408.401	467.15
408.779	457.88
409.156	478.22
409.534	494.49
409.912	498.79
410.29	494.72
410.667	500.14
411.045	502.18
411.422	511.22
411.8	520.48
412.178	544.21
412.555	532.01
412.933	533.59
413.31	552.57
413.687	568.84
414.065	551.21
414.442	560.25
414.819	573.36
415.197	574.94
415.574	566.81
415.951	571.78
416.328	597.31
416.705	579.01
417.082	597.31
417.46	583.98
417.837	624.88
418.214	603.64
418.591	629.86
418.967	644.77
419.344	662.85
419.721	648.39
420.098	663.53
420.475	671.21
420.852	673.02
421.228	675.73
421.605	672.79
421.982	697.2
422.358	714.6
422.735	732.68
423.111	719.57
423.488	758.67
423.864	756.86
424.241	798.44
424.617	781.26
424.994	777.42
425.37	807.03
425.746	794.82
426.123	829.63
426.499	793.69
426.875	831.88
427.251	837.08
427.627	871.43
428.003	915.27
428.379	856.29
428.756	902.84
429.132	882.51
429.507	903.97
429.883	921.83
430.259	917.31
430.635	931.54
431.011	954.82
431.387	951.2
431.763	976.97
432.138	990.52
432.514	1004.54
432.89	983.07
433.265	1014.93
433.641	1055.83
434.016	1041.82
434.392	1070.52
434.767	1067.81
435.143	1082.5
435.518	1096.74
435.894	1110.97
436.269	1161.82
436.644	1155.94
437.02	1187.58
437.395	1190.29
437.77	1221.48
438.145	1209.05
438.52	1242.5
438.895	1258.77
439.271	1245.21
439.646	1310.29
440.021	1323.17
440.395	1329.72
440.77	1322.95
441.145	1337.18
441.52	1353.68
441.895	1363.85
442.27	1383.96
442.645	1403.85
443.019	1416.28
443.394	1426.45
443.769	1435.03
444.143	1456.05
444.518	1464.64
444.892	1472.55
445.267	1488.59
445.641	1494.69
446.016	1482.94
446.39	1480.91
446.764	1511.19
447.139	1531.08
447.513	1545.31
447.887	1546.22
448.262	1518.42
448.636	1568.81
449.01	1599.55
449.384	1556.61
449.758	1591.41
450.132	1620.11
450.506	1626.44
450.88	1644.74
451.254	1642.49
451.628	1676.38
452.002	1696.72
452.376	1691.3
452.75	1719.55
453.123	1727
453.497	1749.15
453.871	1752.09
454.244	1800.22
454.618	1793.44
454.992	1818.98
455.365	1777.4
455.739	1870.5
456.112	1886.32
456.486	1889.71
456.859	1884.29
457.232	1922.7
457.606	1919.77
457.979	1955.7
458.352	1957.73
458.725	1976.71
459.099	1988.69
459.472	2098.29
459.845	2065.75
460.218	2094.45
460.591	2072.3
460.964	2110.5
461.337	2159.53
461.71	2153.21
462.083	2210.61
462.456	2226.88
462.829	2220.1
463.201	2259.87
463.574	2237.5
463.947	2270.49
464.32	2363.37
464.692	2352.75
465.065	2349.59
465.438	2429.58
465.81	2429.58
466.183	2481.33
466.555	2471.62
466.928	2506.19
467.3	2536.92
467.672	2537.83
468.045	2611.5
468.417	2578.51
468.789	2656.47
469.161	2683.81
469.534	2669.8
469.906	2738.5
470.278	2782.12
470.65	2831.61
471.022	2835.22
471.394	2872.28
471.766	2927.2
472.138	2958.38
472.51	2971.26
472.882	3040.41
473.253	3063.01
473.625	3092.16
473.997	3135.33
474.369	3151.37
474.74	3192.73
475.112	3203.8
475.484	3229.79
475.855	3324.47
476.227	3384.36
476.598	3411.93
476.97	3431.14
477.341	3533.06
477.713	3542.55
478.084	3586.61
478.455	3643.11
478.827	3670
479.198	3787.51
479.569	3794.07
479.94	3912.03
480.311	3897.12
480.682	3995.87
481.053	4086.94
481.424	4082.42
481.795	4135.75
482.166	4165.36
482.537	4247.84
482.908	4360.38
483.279	4361.28
483.65	4402.41
484.021	4519.47
484.391	4519.92
484.762	4579.81
485.133	4559.92
485.503	4638.56
485.874	4672.01
486.244	4766.47
486.615	4787.94
486.985	4918.33
487.356	4980.93
487.726	5035.39
488.097	5117.42
488.467	5119.23
488.837	5201.94
489.207	5241.03
489.578	5326.91
489.948	5372.33
490.318	5384.53
490.688	5420.46
491.058	5495.94
491.428	5572.55
491.798	5637.86
492.168	5751.3
492.538	5714.24
492.908	5769.61
493.278	5813.45
493.648	5808.93
494.017	5906.33
494.387	5941.58
494.757	5972.09
495.126	6035.59
495.496	6096.38
495.866	6111.29
496.235	6130.28
496.605	6156.72
496.974	6174.57
497.344	6215.25
497.713	6232.42
498.082	6284.62
498.452	6360.33
498.821	6358.29
499.19	6411.85
499.559	6364.17
499.928	6457.27
500.298	6464.51
500.667	6473.32
501.036	6498.63
501.405	6641.45
501.774	6546.99
502.143	6675.8
502.512	6670.83
502.88	6664.73
503.249	6688.68
503.618	6704.72
503.987	6730.71
504.356	6745.4
504.724	6794.67
505.093	6761.9
505.462	6828.79
505.83	6843.03
506.199	6917.15
506.567	6979.29
506.936	6864.27
507.304	6968.22
507.672	6959.18
508.041	7049.8
508.409	7089.35
508.777	7083.02
509.145	7108.78
509.514	7092.51
509.882	7216.58
510.25	7158.27
510.618	7169.12
510.986	7215.45
511.354	7234.43
511.722	7291.15
512.09	7338.15
512.458	7290.47
512.826	7313.75
513.193	7343.13
513.561	7297.25
513.929	7358.04
514.297	7411.6
514.664	7438.04
515.032	7482.78
515.4	7535.21
515.767	7497.47
516.135	7555.32
516.502	7481.43
516.869	7556
517.237	7610.01
517.604	7540.64
517.972	7595.1
518.339	7619.5
518.706	7596.9
519.073	7581.99
519.44	7638.94
519.808	7665.38
520.175	7632.61
520.542	7698.82
520.909	7684.36
521.276	7718.71
521.643	7750.35
522.009	7819.05
522.376	7743.34
522.743	7769.56
523.11	7851.14
523.477	7830.12
523.843	7906.95
524.21	7974.75
524.577	7927.52
524.943	7941.75
525.31	7928.87
525.676	8048.64
526.043	8075.08
526.409	8017.91
526.776	8070.11
527.142	8096.1
527.508	8069.43
527.874	8153.27
528.241	8111.02
528.607	8092.26
528.973	8127.74
529.339	8076.44
529.705	8168.87
530.071	8158.47
530.437	8167.74
530.803	8201.18
531.169	8201.86
531.535	8143.11
531.901	8162.54
532.267	8145.14
532.632	8199.37
532.998	8190.11
533.364	8252.71
533.73	8201.41
534.095	8246.61
534.461	8223.55
534.826	8214.74
535.192	8255.87
535.557	8266.04
535.923	8158.92
536.288	8246.15
536.653	8219.71
537.019	8169.55
537.384	8194.4
537.749	8188.53
538.114	8178.81
538.479	8143.56
538.845	8204.35
539.21	8070.34
539.575	8107.63
539.94	8153.73
540.305	8117.57
540.67	8097.68
541.034	8117.8
541.399	8101.52
541.764	8117.57
542.129	8108.76
542.494	8081.86
542.858	8108.08
543.223	8047.51
543.587	8088.87
543.952	8095.87
544.316	8086.38
544.681	8006.39
545.045	8062.88
545.41	8071.92
545.774	8022.43
546.138	8011.81
546.503	8002.77
546.867	7916.22
547.231	7984.92
547.595	7948.99
547.959	7992.6
548.324	7939.95
548.688	7963.22
549.052	7989.21
549.416	7912.38
549.779	7950.12
550.143	7856.11
550.507	7918.7
550.871	7886.39
551.235	7817.92
551.599	7913.28
551.962	7874.19
552.326	7847.52
552.689	7861.3
553.053	7833.51
553.417	7850.23
553.78	7876.22
554.143	7852.04
554.507	7856.11
554.87	7836.67
555.234	7826.96
555.597	7868.76
555.96	7841.19
556.323	7842.77
556.686	7788.09
557.05	7832.38
557.413	7856.56
557.776	7834.86
558.139	7807.52
558.502	7848.88
558.865	7833.51
559.228	7786.28
559.59	7894.52
559.953	7832.6
560.316	7899.72
560.679	7915.31
561.041	7891.81
561.404	7885.94
561.767	7971.36
562.129	7860.17
562.492	7979.49
562.854	8018.14
563.217	7965.71
563.579	7917.57
563.941	7989.44
564.304	8009.32
564.666	7999.61
565.028	8050.23
565.39	8034.41
565.753	8010.91
566.115	8017.91
566.477	8129.55
566.839	8088.42
567.201	8147.17
567.563	8099.72
567.925	8137.23
568.287	8215.87
568.648	8168.87
569.01	8184.69
569.372	8259.94
569.734	8238.02
570.095	8235.31
570.457	8246.61
570.819	8274.4
571.18	8237.79
571.542	8254.29
571.903	8301.07
572.265	8288.86
572.626	8371.12
572.987	8342.65
573.349	8359.82
573.71	8302.65
574.071	8413.15
574.432	8456.09
574.794	8467.84
575.155	8436.43
575.516	8458.58
575.877	8470.33
576.238	8492.47
576.599	8597.33
576.96	8522.3
577.32	8552.81
577.681	8545.81
578.042	8589.2
578.403	8596.2
578.763	8628.29
579.124	8603.88
579.485	8685.92
579.845	8670.55
580.206	8784.44
580.566	8678.91
580.927	8718.91
581.287	8708.51
581.648	8775.63
582.008	8768.63
582.368	8774.05
582.728	8793.26
583.089	8874.61
583.449	8838.91
583.809	8797.33
584.169	8865.8
584.529	8868.51
584.889	8992.35
585.249	8863.31
585.609	8874.84
585.969	8953.93
586.329	8927.27
586.688	8911.67
587.048	8856.08
587.408	8962.29
587.768	8946.47
588.127	8923.88
588.487	8917.1
588.846	9034.38
589.206	8967.04
589.565	8967.49
589.925	9015.85
590.284	8999.13
590.643	9053.36
591.003	9065.34
591.362	9142.17
591.721	9103.53
592.08	9018.34
592.44	9148.5
592.799	9080.26
593.158	9029.18
593.517	9072.35
593.876	9114.83
594.235	9110.09
594.593	9137.2
594.952	9160.71
595.311	9147.6
595.67	9169.97
596.029	9259.91
596.387	9179.46
596.746	9256.07
597.104	9176.52
597.463	9227.14
597.822	9243.64
598.18	9223.75
598.538	9233.7
598.897	9280.93
599.255	9194.15
599.613	9283.41
599.972	9266.69
600.33	9325.9
600.688	9213.59
601.046	9278.44
601.404	9264.66
601.762	9305.33
602.12	9337.65
602.478	9328.38
602.836	9364.09
603.194	9258.1
603.552	9323.87
603.91	9319.35
604.268	9311.66
604.625	9258.78
604.983	9292.23
605.341	9224.43
605.698	9369.06
606.056	9339.68
606.413	9322.06
606.771	9393.02
607.128	9335.62
607.485	9366.12
607.843	9356.86
608.2	9451.32
608.557	9444.99
608.914	9370.64
609.272	9445.44
609.629	9466.46
609.986	9476.86
610.343	9451.09
610.7	9506.23
611.057	9462.84
611.414	9504.43
611.771	9519.79
612.127	9518.21
612.484	9509.4
612.841	9575.38
613.198	9553.24
613.554	9560.92
613.911	9634.14
614.267	9603.41
614.624	9503.07
614.98	9559.11
615.337	9572.45
615.693	9583.52
616.05	9579.9
616.406	9652.44
616.762	9583.75
617.118	9675.27
617.475	9593.69
617.831	9645.44
618.187	9632.56
618.543	9662.61
618.899	9684.76
619.255	9626.91
619.611	9644.08
619.967	9721.14
620.323	9734.02
620.678	9658.55
621.034	9677.3
621.39	9651.31
621.746	9658.09
622.101	9683.4
622.457	9644.53
622.812	9693.35
623.168	9755.04
623.523	9689.73
623.879	9753.01
624.234	9715.95
624.589	9712.56
624.945	9713.23
625.3	9654.03
625.655	9720.24
626.01	9683.18
626.365	9652.9
626.72	9717.75
627.075	9710.3
627.43	9667.58
627.785	9665.1
628.14	9686.57
628.495	9659.45
628.85	9672.56
629.205	9628.26
629.559	9671.65
629.914	9602.28
630.269	9630.98
630.623	9660.35
630.978	9606.8
631.332	9638.21
631.687	9631.88
632.041	9595.04
632.396	9643.86
632.75	9610.64
633.104	9599.34
633.459	9575.84
633.813	9543.52
634.167	9565.21
634.521	9568.83
634.875	9533.8
635.229	9502.39
635.583	9492
635.937	9414.26
636.291	9501.71
636.645	9415.16
636.999	9450.64
637.352	9482.73
637.706	9436.86
638.06	9486.35
638.413	9360.25
638.767	9398.67
639.121	9340.81
639.474	9319.12
639.828	9312.79
640.181	9351.89
640.534	9309.63
640.888	9293.13
641.241	9263.3
641.594	9311.66
641.947	9280.02
642.301	9329.74
642.654	9298.55
643.007	9315.5
643.36	9287.93
643.713	9214.49
644.066	9265.11
644.419	9195.28
644.771	9204.55
645.124	9144.21
645.477	9142.85
645.83	9020.37
646.182	9026.25
646.535	9012.91
646.888	9019.47
647.24	8916.42
647.593	9075.96
647.945	8977.21
648.298	8953.93
648.65	8923.42
649.002	8915.97
649.355	8959.58
649.707	8936.76
650.059	8970.65
650.411	9059.69
650.763	9106.02
651.115	9174.26
651.467	9134.72
651.819	9119.58
652.171	9183.53
652.523	9087.71
652.875	9139.92
653.227	9100.82
653.578	9116.41
653.93	9097.66
654.282	9083.42
654.633	9113.48
654.985	9069.63
655.337	9079.35
655.688	9105.57
656.039	9176.75
656.391	9058.56
656.742	9050.88
657.094	9110.99
657.445	9125.9
657.796	9046.13
658.147	9019.69
658.498	9093.81
658.849	9113.7
659.2	9127.49
659.551	9087.71
659.902	9153.47
660.253	9093.59
660.604	9149.63
660.955	9079.13
661.306	9096.07
661.656	9112.35
662.007	9106.92
662.358	9074.83
662.708	9172.68
663.059	9174.04
663.409	9083.42
663.76	9173.13
664.11	9046.58
664.461	9141.95
664.811	9172.46
665.161	9114.38
665.511	9155.28
665.862	9173.13
666.212	9132.91
666.562	9140.82
666.912	9197.31
667.262	9108.28
667.612	9146.47
667.962	9161.84
668.312	9226.47
668.662	9200.48
669.011	9096.53
669.361	9096.07
669.711	9155.73
670.06	9141.95
670.41	9095.17
670.76	9030.09
671.109	9139.69
671.459	9150.54
671.808	9111.22
672.157	9094.27
672.507	9045.91
672.856	9019.92
673.205	9041.39
673.554	9115.06
673.904	9026.7
674.253	9113.02
674.602	9082.06
674.951	8933.82
675.3	8863.31
675.649	9021.5
675.998	8985.34
676.346	9000.26
676.695	9028.73
677.044	8947.83
677.393	8973.82
677.741	8941.5
678.09	8955.29
678.438	8936.3
678.787	8945.34
679.135	8922.07
679.484	8912.12
679.832	8930.2
680.181	8886.36
680.529	8873.03
680.877	8931.33
681.225	8766.82
681.573	8814.73
681.922	8817.66
682.27	8765.46
682.618	8855.63
682.966	8800.49
683.314	8790.77
683.661	8731.56
684.009	8680.49
684.357	8717.1
684.705	8673.26
685.053	8655.41
685.4	8727.95
685.748	8634.17
686.095	8600.04
686.443	8640.49
686.79	8558.24
687.138	8573.15
687.485	8597.1
687.832	8522.76
688.18	8517.56
688.527	8484.11
688.874	8502.64
689.221	8394.85
689.568	8380.16
689.915	8499.25
690.262	8395.98
690.609	8372.7
690.956	8332.93
691.303	8325.47
691.65	8266.72
691.997	8233.5
692.344	8247.96
692.69	8184.46
693.037	8130.45
693.383	8086.38
693.73	8162.31
694.077	8093.16
694.423	8115.99
694.769	8059.72
695.116	8011.13
695.462	7999.15
695.808	7988.53
696.155	7996.22
696.501	7896.11
696.847	7958.03
697.193	7858.37
697.539	7905.15
697.885	7795.32
698.231	7806.16
698.577	7824.47
698.923	7730.91
699.269	7683.68
699.614	7670.8
699.96	7635.32
700.306	7612.95
700.651	7620.63
700.997	7545.38
701.342	7585.38
701.688	7537.25
702.033	7501.09
702.379	7509.9
702.724	7472.16
703.069	7457.7
703.415	7364.14
703.76	7388.32
704.105	7412.73
704.45	7349.68
704.795	7324.14
705.14	7269
705.485	7305.16
705.83	7264.71
706.175	7266.07
706.52	7161.21
706.865	7156.92
707.209	7170.48
707.554	7148.55
707.899	7136.35
708.243	7057.03
708.588	7136.13
708.932	7017.26
709.277	6971.38
709.621	6982.01
709.966	7039.86
710.31	7055.22
710.654	6935.45
710.998	6908.56
711.342	6986.3
711.687	6978.62
712.031	6907.88
712.375	6840.99
712.719	6884.38
713.063	6863.82
713.407	6829.02
713.75	6825.85
714.094	6833.99
714.438	6795.12
714.782	6824.95
715.125	6792.63
715.469	6795.12
715.812	6760.09
716.156	6749.92
716.499	6693.43
716.843	6743.14
717.186	6716.7
717.53	6680.09
717.873	6649.13
718.216	6700.43
718.559	6630.15
718.902	6623.82
719.246	6645.07
719.589	6648.68
719.932	6626.53
720.275	6601.22
720.617	6586.76
720.96	6570.49
721.303	6567.78
721.646	6574.33
721.989	6521.45
722.331	6591.96
722.674	6532.53
723.016	6559.42
723.359	6525.29
723.701	6556.48
724.044	6467.67
724.386	6486.43
724.729	6551.51
725.071	6465.18
725.413	6498.85
725.755	6462.7
726.097	6466.09
726.439	6436.94
726.782	6452.98
727.124	6463.6
727.465	6483.04
727.807	6485.75
728.149	6393.09
728.491	6436.48
728.833	6434.22
729.175	6410.04
729.516	6418.63
729.858	6426.31
730.199	6399.2
730.541	6424.28
730.882	6406.43
731.224	6466.76
731.565	6387.22
731.906	6369.59
732.248	6404.85
732.589	6450.27
732.93	6366.2
733.271	6391.96
733.612	6411.63
733.953	6375.92
734.294	6375.24
734.635	6395.13
734.976	6396.26
735.317	6419.99
735.658	6370.5
735.999	6419.31
736.339	6372.76
736.68	6418.18
737.021	6367.56
737.361	6400.55
737.702	6388.57
738.042	6386.09
738.383	6365.07
738.723	6433.55
739.063	6404.85
739.404	6394.68
739.744	6403.04
740.084	6454.34
740.424	6419.08
740.764	6403.72
741.104	6480.55
741.444	6462.92
741.784	6435.13
742.124	6451.17
742.464	6474.9
742.804	6511.06
743.143	6471.51
743.483	6544.5
743.823	6498.18
744.162	6577.27
744.502	6593.09
744.841	6628.34
745.181	6725.06
745.52	6548.12
745.86	6705.18
746.199	6724.61
746.538	6727.32
746.877	6831.73
747.216	6816.81
747.556	6797.83
747.895	6854.55
748.234	6842.57
748.573	6863.14
748.911	6907.88
749.25	6959.63
749.589	6992.4
749.928	7019.29
750.267	7111.27
750.605	7148.33
750.944	7237.37
751.283	7257.93
751.621	7344.93
751.96	7384.93
752.298	7459.28
752.636	7531.6
752.975	7556.68
753.313	7665.83
753.651	7701.53
753.989	7809.33
754.327	7809.1
754.666	8000.74
755.004	8040.06
755.342	8146.04
755.679	8229.88
756.017	8279.37
756.355	8412.93
756.693	8488.86
757.031	8583.77
757.368	8672.58
757.706	8734.05
758.044	8896.98
758.381	9010.2
758.719	9098.79
759.056	9256.75
759.394	9274.6
759.731	9411.55
760.068	9497.65
760.405	9612.44
760.743	9645.44
761.08	9859.67
761.417	9953.23
761.754	10060.34
762.091	10173.33
762.428	10270.28
762.765	10358.41
763.102	10503.72
763.438	10602.48
763.775	10565.87
764.112	10793.88
764.449	10971.28
764.785	10989.36
765.122	11077.94
765.458	11161.33
765.795	11326.3
766.131	11334.43
766.467	11466.86
766.804	11584.82
767.14	11596.57
767.476	11720.41
767.812	11866.17
768.148	11878.83
768.485	11972.61
768.821	12080.63
