Data from hue_320_FLMS001491_47.txt Node
Date: Mon Feb 06 15:47:15 GMT 2017
User: dcchb
Spectrometer: FLMS00149
Trigger mode: 0
Integration Time (sec): 2.000000E-2
Scans to average: 10
Electric dark correction enabled: true
Nonlinearity correction enabled: false
Boxcar width: 0
XAxis mode: Wavelengths
Number of Pixels in Spectrum: 2048
>>>>>Begin Spectral Data<<<<<
341.393	-12.58
341.776	-12.58
342.16	-12.58
342.543	-55.97
342.927	-61.85
343.31	-51
343.693	-87.38
344.077	-74.05
344.46	-53.04
344.843	-51.45
345.226	-23.66
345.61	-13.49
345.993	-8.97
346.376	-26.82
346.759	17.92
347.142	17.02
347.525	43.01
347.908	51.37
348.291	72.16
348.674	74.64
349.057	113.74
349.44	124.59
349.823	133.85
350.206	158.26
350.588	199.16
350.971	188.09
351.354	196
351.737	246.62
352.119	264.7
352.502	258.14
352.884	273.28
353.267	283.68
353.65	278.71
354.032	299.95
354.414	314.19
354.797	286.62
355.179	304.47
355.562	330.68
355.944	333.85
356.326	336.33
356.709	335.43
357.091	327.75
357.473	339.04
357.855	345.82
358.238	315.09
358.62	318.93
359.002	329.55
359.384	328.2
359.766	337.91
360.148	341.3
360.53	327.52
360.912	326.62
361.294	319.16
361.676	340.85
362.057	319.38
362.439	310.57
362.821	333.4
363.203	318.93
363.584	307.41
363.966	324.81
364.348	323.45
364.729	307.18
365.111	303.57
365.493	313.96
365.874	302.44
366.256	311.93
366.637	309.67
367.019	303.57
367.4	315.54
367.781	301.53
368.163	301.08
368.544	310.57
368.925	297.24
369.306	312.83
369.688	298.82
370.069	280.52
370.45	293.4
370.831	308.31
371.212	318.93
371.593	291.14
371.974	311.47
372.355	285.26
372.736	330.01
373.117	313.06
373.498	297.92
373.879	300.18
374.26	299.95
374.641	308.09
375.021	310.34
375.402	306.28
375.783	316.9
376.163	299.27
376.544	325.26
376.925	321.42
377.305	319.84
377.686	316.9
378.066	319.16
378.447	322.77
378.827	321.42
379.208	314.64
379.588	304.7
379.968	315.54
380.349	303.79
380.729	315.77
381.109	365.71
381.489	326.16
381.87	312.38
382.25	326.39
382.63	352.6
383.01	318.93
383.39	323
383.77	329.55
384.15	322.55
384.53	346.05
384.91	303.79
385.29	344.47
385.67	346.05
386.049	339.27
386.429	344.02
386.809	344.24
387.189	332.72
387.568	343.56
387.948	344.47
388.328	350.34
388.707	345.37
389.087	354.19
389.466	347.18
389.846	330.68
390.225	364.13
390.605	356.22
390.984	332.04
391.363	356.9
391.743	358.71
392.122	352.6
392.501	354.41
392.881	366.61
393.26	338.14
393.639	353.73
394.018	345.37
394.397	368.65
394.776	356.22
395.155	370.68
395.534	352.83
395.913	361.64
396.292	359.16
396.671	381.98
397.05	384.69
397.429	365.94
397.808	383.79
398.186	342.43
398.565	369.78
398.944	371.13
399.323	389.21
399.701	393.73
400.08	391.25
400.458	389.89
400.837	373.17
401.215	390.79
401.594	377.91
401.972	391.25
402.351	392.38
402.729	400.74
403.107	398.93
403.486	389.66
403.864	383.79
404.242	412.72
404.62	419.72
404.999	408.42
405.377	435.77
405.755	395.99
406.133	397.35
406.511	413.39
406.889	394.86
407.267	420.85
407.645	421.53
408.023	437.57
408.401	453.17
408.779	422.88
409.156	456.33
409.534	461.08
409.912	441.41
410.29	439.38
410.667	441.87
411.045	465.82
411.422	470.11
411.8	457.91
412.178	479.83
412.555	482.54
412.933	484.8
413.31	514.63
413.687	496.78
414.065	501.98
414.442	522.77
414.819	511.92
415.197	527.74
415.574	532.49
415.951	556.89
416.328	534.97
416.705	548.53
417.082	530.23
417.46	544.46
417.837	568.42
418.214	571.36
418.591	586.04
418.967	585.14
419.344	586.27
419.721	592.15
420.098	609.55
420.475	603.44
420.852	608.19
421.228	614.97
421.605	630.11
421.982	610.45
422.358	655.87
422.735	647.74
423.111	639.83
423.488	654.52
423.864	666.49
424.241	681.41
424.617	646.38
424.994	680.96
425.37	670.79
425.746	686.61
426.123	691.58
426.499	693.39
426.875	712.82
427.251	713.72
427.627	707.85
428.003	709.88
428.379	724.57
428.756	766.15
429.132	751.46
429.507	764.34
429.883	759.37
430.259	766.15
430.635	760.5
431.011	781.52
431.387	814.51
431.763	815.42
432.138	812.03
432.514	845.7
432.89	824
433.265	814.06
433.641	842.31
434.016	874.62
434.392	885.25
434.767	869.65
435.143	860.61
435.518	877.34
435.894	892.25
436.269	916.88
436.644	923.44
437.02	932.48
437.395	927.5
437.77	912.14
438.145	931.12
438.52	935.87
438.895	949.42
439.271	947.84
439.646	976.77
440.021	974.73
440.395	961.18
440.77	969.54
441.145	974.51
441.52	1013.6
441.895	1019.03
442.27	1034.17
442.645	1015.86
443.019	1009.99
443.394	1017.44
443.769	1028.52
444.143	1031.46
444.518	1053.83
444.892	1034.17
445.267	1058.57
445.641	1047.5
446.016	1068.52
446.39	1035.98
446.764	1080.04
447.139	1068.29
447.513	1084.34
447.887	1116.2
448.262	1092.92
448.636	1075.97
449.01	1087.5
449.384	1093.6
449.758	1083.88
450.132	1095.41
450.506	1094.73
450.88	1108.29
451.254	1150.77
451.628	1108.29
452.002	1139.02
452.376	1133.83
452.75	1135.63
453.123	1161.85
453.497	1158.46
453.871	1170.66
454.244	1162.53
454.618	1184.67
454.992	1177.89
455.365	1200.72
455.739	1207.72
456.112	1232.13
456.486	1222.41
456.859	1225.58
457.232	1253.6
457.606	1258.57
457.979	1247.27
458.352	1271.22
458.725	1260.38
459.099	1296.76
459.472	1290.66
459.845	1297.66
460.218	1316.19
460.591	1294.27
460.964	1331.79
461.337	1325.46
461.71	1348.96
462.083	1376.08
462.456	1381.5
462.829	1367.27
463.201	1377.21
463.574	1390.99
463.947	1398
464.32	1407.49
464.692	1439.13
465.065	1426.7
465.438	1439.35
465.81	1428.73
466.183	1452.69
466.555	1510.99
466.928	1516.87
467.3	1490.43
467.672	1511.9
468.045	1543.76
468.417	1520.93
468.789	1562.52
469.161	1547.83
469.534	1577.66
469.906	1580.59
470.278	1594.15
470.65	1588.73
471.022	1660.37
471.394	1630.99
471.766	1669.18
472.138	1683.19
472.51	1703.08
472.882	1687.94
473.253	1692.91
473.625	1749.86
473.997	1778.1
474.369	1759.35
474.74	1764.32
475.112	1772.23
475.484	1821.27
475.855	1846.8
476.227	1843.41
476.598	1886.8
476.97	1922.28
477.341	1955.73
477.713	1944.2
478.084	1962.5
478.455	2007.02
478.827	2040.47
479.198	2079.79
479.569	2063.97
479.94	2116.17
480.311	2082.95
480.682	2168.38
481.053	2143.07
481.424	2226.23
481.795	2198.66
482.166	2274.59
482.537	2270.75
482.908	2285.66
483.279	2278.43
483.65	2327.69
484.021	2369.05
484.391	2380.35
484.762	2388.71
485.133	2374.25
485.503	2416.96
485.874	2463.28
486.244	2505.77
486.615	2520.91
486.985	2549.16
487.356	2554.35
487.726	2593.45
488.097	2663.28
488.467	2656.27
488.837	2674.8
489.207	2703.5
489.578	2749.83
489.948	2731.75
490.318	2820.79
490.688	2780.34
491.058	2823.27
491.428	2841.35
491.798	2894.01
492.168	2893.33
492.538	2893.33
492.908	2949.15
493.278	2953.89
493.648	2956.38
494.017	3025.08
494.387	3014.68
494.757	3025.98
495.126	3080.22
495.496	3054.68
495.866	3065.98
496.235	3076.37
496.605	3126.54
496.974	3141.68
497.344	3168.8
497.713	3168.8
498.082	3212.19
498.452	3216.03
498.821	3233.66
499.19	3216.94
499.559	3258.52
499.928	3284.28
500.298	3234.34
500.667	3264.17
501.036	3293.09
501.405	3319.76
501.774	3291.06
502.143	3312.98
502.512	3338.51
502.88	3380.77
503.249	3376.7
503.618	3365.18
503.987	3398.17
504.356	3398.63
504.724	3413.77
505.093	3360.66
505.462	3478.17
505.83	3478.17
506.199	3428.23
506.567	3516.14
506.936	3522.01
507.304	3540.99
507.672	3552.07
508.041	3562.91
508.409	3584.84
508.777	3559.53
509.145	3621.9
509.514	3563.82
509.882	3564.95
510.25	3586.87
510.618	3590.71
510.986	3604.72
511.354	3607.66
511.722	3659.64
512.09	3638.62
512.458	3632.74
512.826	3678.39
513.193	3637.49
513.561	3653.31
513.929	3695.57
514.297	3734.44
514.664	3710.26
515.032	3758.62
515.4	3758.84
515.767	3790.93
516.135	3779.63
516.502	3748.67
516.869	3805.39
517.237	3797.26
517.604	3798.61
517.972	3804.72
518.339	3803.13
518.706	3788.22
519.073	3819.63
519.44	3844.94
519.808	3864.6
520.175	3876.58
520.542	3886.3
520.909	3854.21
521.276	3852.4
521.643	3910.7
522.009	3956.58
522.376	3944.15
522.743	3955.67
523.11	3956.8
523.477	3985.05
523.843	4007.42
524.21	4024.15
524.577	4000.19
524.943	4033.86
525.31	4042.9
525.676	4075.67
526.043	4099.17
526.409	4115.67
526.776	4174.42
527.142	4154.99
527.508	4163.8
527.874	4218.72
528.241	4248.55
528.607	4260.52
528.973	4257.13
529.339	4262.33
529.705	4297.81
530.071	4335.1
530.437	4313.18
530.803	4292.16
531.169	4387.98
531.535	4347.3
531.901	4410.58
532.267	4389.56
532.632	4421.42
532.998	4489.22
533.364	4463.91
533.73	4463.68
534.095	4493.29
534.461	4541.87
534.826	4555.21
535.192	4580.06
535.557	4570.12
535.923	4595.2
536.288	4592.94
536.653	4629.1
537.019	4608.76
537.384	4631.59
537.749	4689.44
538.114	4732.38
538.479	4687.18
538.845	4712.49
539.21	4694.64
539.575	4782.09
539.94	4751.13
540.305	4800.17
540.67	4773.28
541.034	4825.71
541.399	4834.07
541.764	4866.16
542.129	4888.53
542.494	4920.85
542.858	4878.81
543.223	4982.99
543.587	4968.75
543.952	4954.74
544.316	4973.27
544.681	4992.71
545.045	5082.42
545.41	5068.19
545.774	5075.42
546.138	5128.3
546.503	5105.02
546.867	5099.6
547.231	5149.54
547.595	5166.49
547.959	5186.15
548.324	5197.9
548.688	5210.1
549.052	5231.12
549.416	5267.73
549.779	5298.69
550.143	5267.73
550.507	5288.52
550.871	5335.52
551.235	5330.1
551.599	5352.25
551.962	5355.41
552.326	5376.88
552.689	5384.34
553.053	5449.64
553.417	5452.13
553.78	5465.24
554.143	5479.47
554.507	5469.53
554.87	5513.37
555.234	5568.74
555.597	5559.25
555.96	5540.49
556.323	5546.59
556.686	5569.87
557.05	5616.42
557.413	5622.75
557.776	5599.92
558.139	5617.55
558.502	5658.68
558.865	5699.58
559.228	5698
559.59	5791.56
559.953	5733.71
560.316	5702.75
560.679	5782.07
561.041	5788.62
561.404	5807.6
561.767	5829.07
562.129	5850.31
562.492	5868.62
562.854	5913.81
563.217	5865.45
563.579	5868.16
563.941	5930.31
564.304	5921.27
564.666	5977.09
565.028	6010.31
565.39	5988.39
565.753	6020.48
566.115	6052.57
566.477	6034.04
566.839	6051.66
567.201	6083.07
567.563	6138.21
567.925	6144.77
568.287	6192.22
568.648	6204.2
569.01	6263.18
569.372	6205.56
569.734	6236.29
570.095	6270.41
570.457	6334.82
570.819	6363.07
571.18	6348.6
571.542	6415.72
571.903	6475.15
572.265	6454.82
572.626	6541.82
572.987	6484.42
573.349	6579.56
573.71	6610.52
574.071	6700.69
574.432	6711.31
574.794	6770.06
575.155	6790.63
575.516	6833.56
575.877	6897.06
576.238	6933
576.599	6987.91
576.96	7019.1
577.32	7135.02
577.681	7198.07
578.042	7318.3
578.403	7280.33
578.763	7393.1
579.124	7487.33
579.485	7628.8
579.845	7652.3
580.206	7786.08
580.566	7869.69
580.927	7990.14
581.287	8105.17
581.648	8241.21
582.008	8438.04
582.368	8489.11
582.728	8636.23
583.089	8745.6
583.449	8931.14
583.809	9111.24
584.169	9197.57
584.529	9409.77
584.889	9567.73
585.249	9679.36
585.609	9836.2
585.969	10099.69
586.329	10287.03
586.688	10519.34
587.048	10696.74
587.408	10816.51
587.768	11084.75
588.127	11295.14
588.487	11516.6
588.846	11858.52
589.206	12032.75
589.565	12295.79
589.925	12518.61
590.284	12777.36
590.643	13042.89
591.003	13301.64
591.362	13593.84
591.721	13865.47
592.08	14008.29
592.44	14435.4
592.799	14643.75
593.158	14984.99
593.517	15126.23
593.876	15516.5
594.235	15659.09
594.593	16038.74
594.952	16338.17
595.311	16573.87
595.67	16919.85
596.029	17344.25
596.387	17627.18
596.746	17889.32
597.104	18035.75
597.463	18353.03
597.822	18834.6
598.18	19007.71
598.538	19326.57
598.897	19594.81
599.255	19648.59
599.613	20241.8
599.972	20508.23
600.33	20825.74
600.688	21036.35
601.046	21365.38
601.404	21690.57
601.762	21896.44
602.12	22250.56
602.478	22556.31
602.836	22716.76
603.194	22948.62
603.552	23183.87
603.91	23408.27
604.268	23797.64
604.625	23887.8
604.983	24254.35
605.341	24356.49
605.698	24803.26
606.056	25057.72
606.413	25247.77
606.771	25579.51
607.128	25808.66
607.485	25974.98
607.843	26181.08
608.2	26487.74
608.557	26837.33
608.914	26846.14
609.272	27197.32
609.629	27373.36
609.986	27746.01
610.343	27948.49
610.7	28240.68
611.057	28360.68
611.414	28469.15
611.771	28714.34
612.127	29120.43
612.484	29054.45
612.841	29374.67
613.198	29495.11
613.554	29584.15
613.911	29966.51
614.267	30151.14
614.624	30181.2
614.98	30430.23
615.337	30718.36
615.693	30895.53
616.05	30946.38
616.406	31242.19
616.762	31244.22
617.118	31361.51
617.475	31436.53
617.831	31824.32
618.187	31803.08
618.543	32046.23
618.899	32341.82
619.255	32323.74
619.611	32481.93
619.967	32614.81
620.323	32805.99
620.678	32900
621.034	32816.38
621.39	32988.13
621.746	33138.86
622.101	33443.03
622.457	33299.99
622.812	33355.58
623.168	33556.25
623.523	33641.45
623.879	33753.76
624.234	33834.21
624.589	33951.04
624.945	34085.73
625.3	34057.48
625.655	34077.14
626.01	34193.52
626.365	34346.29
626.72	34354.42
627.075	34464.25
627.43	34457.02
627.785	34443.01
628.14	34615.66
628.495	34705.15
628.85	34710.12
629.205	34683.45
629.559	34786.73
629.914	34825.14
630.269	34814.07
630.623	34829.66
630.978	34892.94
631.332	35083.67
631.687	35062.2
632.041	34979.49
632.396	35110.11
632.75	35022.65
633.104	35095.64
633.459	35134.51
633.813	35116.66
634.167	35039.15
634.521	35102.65
634.875	35277.34
635.229	35269.2
635.583	35171.58
635.937	35044.12
636.291	35137.68
636.645	35204.57
636.999	35124.57
637.352	35400.5
637.706	35195.3
638.06	35312.14
638.413	35109.2
638.767	35159.37
639.121	35192.14
639.474	35053.84
639.828	35145.59
640.181	35245.02
640.534	35370.67
640.888	34992.6
641.241	35101.52
641.594	35093.84
641.947	35156.66
642.301	35059.71
642.654	35079.6
643.007	35193.27
643.36	35111.24
643.713	35181.97
644.066	35238.01
644.419	35045.93
644.771	34778.37
645.124	34445.04
645.477	34381.31
645.83	34281.66
646.182	34148.1
646.535	33997.14
646.888	34220.41
647.24	33949.69
647.593	34209.57
647.945	34104.94
648.298	33932.29
648.65	33889.58
649.002	33772.97
649.355	34051.83
649.707	33822.46
650.059	34033.75
650.411	34360.07
650.763	34534.76
651.115	34929.32
651.467	34713.96
651.819	34753.51
652.171	34786.73
652.523	34743.11
652.875	34658.37
653.227	34450.01
653.578	34770.68
653.93	34704.69
654.282	34527.07
654.633	34530.01
654.985	34511.25
655.337	34576.79
655.688	34531.82
656.039	34599.61
656.391	34380.64
656.742	34436.45
657.094	34585.15
657.445	34627.63
657.796	34478.71
658.147	34401.43
658.498	34429.9
658.849	34420.63
659.2	34462.44
659.551	34451.14
659.902	34343.35
660.253	34474.42
660.604	34514.64
660.955	34364.36
661.306	34437.58
661.656	34452.27
662.007	34376.79
662.358	34287.3
662.708	34286.17
663.059	34279.4
663.409	34226.52
663.76	34415.66
664.11	34420.86
664.461	34441.2
664.811	34455.66
665.161	34450.01
665.511	34402.56
665.862	34390.35
666.212	34382.22
666.562	34516.45
666.912	34373.86
667.262	34299.73
667.612	34302.45
667.962	34332.05
668.312	34316.68
668.662	34292.73
669.011	34341.99
669.361	34293.41
669.711	34241.2
670.06	34260.64
670.41	34169.34
670.76	34042.34
671.109	34260.19
671.459	34121.89
671.808	34007.31
672.157	34238.72
672.507	34025.62
672.856	34055.45
673.205	33963.7
673.554	34238.94
673.904	33953.98
674.253	34194.88
674.602	34052.73
674.951	33553.76
675.3	33493.65
675.649	33938.84
675.998	33928.44
676.346	33936.58
676.695	34157.36
677.044	33748.56
677.393	33955.34
677.741	33931.83
678.09	33772.06
678.438	33670.6
678.787	33828.79
679.135	33844.6
679.484	33677.6
679.832	33757.6
680.181	33560.32
680.529	33679.86
680.877	33568.23
681.225	33622.24
681.573	33872.85
681.922	33545.18
682.27	33504.73
682.618	33456.59
682.966	33402.36
683.314	33495.24
683.661	33319.87
684.009	33216.37
684.357	33125.3
684.705	33029.71
685.053	33163.72
685.4	33150.39
685.748	32888.7
686.095	32823.61
686.443	32760.34
686.79	32797.63
687.138	32904.74
687.485	32761.47
687.832	32636.95
688.18	32674.47
688.527	32638.76
688.874	32425.88
689.221	32420.46
689.568	32400.57
689.915	32342.72
690.262	32357.64
690.609	32239.67
690.956	32051.21
691.303	32111.99
691.65	31874.71
691.997	31968.72
692.344	31672.91
692.69	31772.12
693.037	31670.42
693.383	31577.09
693.73	31616.64
694.077	31375.97
694.423	31391.56
694.769	31298.91
695.116	31294.84
695.462	31141.17
695.808	31007.39
696.155	31169.65
696.501	30861.18
696.847	30924.91
697.193	30698.47
697.539	30877.45
697.885	30684.91
698.231	30476.56
698.577	30506.84
698.923	30445.6
699.269	30341.19
699.614	30188.88
699.96	30133.74
700.306	30109.56
700.651	29994.31
700.997	29922.45
701.342	29888.55
701.688	29761.32
702.033	29790.25
702.379	29729.01
702.724	29586.41
703.069	29614.21
703.415	29297.83
703.76	29426.64
704.105	29476.58
704.45	29428.22
704.795	29094.22
705.14	29172.64
705.485	29103.94
705.83	28929.93
706.175	29074.56
706.52	28958.18
706.865	28802.7
707.209	28779.65
707.554	28618.53
707.899	28735.81
708.243	28553.22
708.588	28431.64
708.932	28399.78
709.277	28325.88
709.621	28264.86
709.966	28091.99
710.31	28293.56
710.654	27976.51
710.998	28094.7
711.342	27957.53
711.687	27891.99
712.031	27860.81
712.375	27764.54
712.719	27685.44
713.063	27761.37
713.407	27779.91
713.75	27606.12
714.094	27666.91
714.438	27445
714.782	27505.11
715.125	27351.44
715.469	27401.38
715.812	27233.7
716.156	27188.28
716.499	27186.47
716.843	27162.75
717.186	26937.67
717.53	27094.95
717.873	27050.43
718.216	26960.27
718.559	26848.18
718.902	26661.74
719.246	26819.7
719.589	26671.23
719.932	26680.95
720.275	26648.86
720.617	26671.46
720.96	26590.11
721.303	26509.43
721.646	26600.05
721.989	26365.93
722.331	26497.68
722.674	26346.5
723.016	26310.57
723.359	26279.38
723.701	26237.12
724.044	26129.33
724.386	26052.72
724.729	26112.15
725.071	25954.42
725.413	26050.23
725.755	25952.38
726.097	25844.81
726.439	25739.96
726.782	25775.21
727.124	25756.46
727.465	25695.89
727.807	25633.29
728.149	25576.57
728.491	25470.14
728.833	25611.83
729.175	25521.66
729.516	25575.9
729.858	25491.38
730.199	25535.22
730.541	25354.66
730.882	25392.85
731.224	25429.01
731.565	25296.13
731.906	25216.36
732.248	25267.43
732.589	25235.57
732.93	25005.29
733.271	25159.41
733.612	25195.57
733.953	25159.86
734.294	25053.42
734.635	25020.66
734.976	25008.45
735.317	24863.6
735.658	24920.09
735.999	24814.11
736.339	24834.9
736.68	24774.79
737.021	24733.88
737.361	24476.49
737.702	24774.11
738.042	24719.19
738.383	24634
738.723	24614.11
739.063	24492.31
739.404	24604.4
739.744	24377.51
740.084	24355.59
740.424	24468.58
740.764	24348.36
741.104	24451.63
741.444	24233.56
741.784	24100.91
742.124	24168.47
742.464	24185.2
742.804	24171.19
743.143	24092.77
743.483	24064.97
743.823	23894.81
744.162	23916.05
744.502	23963.06
744.841	23888.71
745.181	23958.54
745.52	23889.84
745.86	23745.66
746.199	23965.09
746.538	23800.57
746.877	23693.23
747.216	23844.64
747.556	23643.06
747.895	23866.79
748.234	23659.79
748.573	23567.13
748.911	23562.39
749.25	23477.65
749.589	23453.24
749.928	23429.96
750.267	23441.49
750.605	23276.97
750.944	23279.01
751.283	23342.96
751.621	23368.04
751.96	23142.29
752.298	23136.86
752.636	23160.14
752.975	23017.32
753.313	22943.42
753.651	23087.15
753.989	22889.19
754.327	22784.1
754.666	22787.95
755.004	22808.28
755.342	22773.71
755.679	22726.25
756.017	22563.09
756.355	22603.54
756.693	22561.29
757.031	22507.5
757.368	22366.04
757.706	22404
758.044	22289.2
758.381	22350.22
758.719	22317.22
759.056	22294.4
759.394	22171.92
759.731	21957.91
760.068	22004.92
