Data from hue_220_FLMS001491_00069.txt Node
Date: Tue Feb 07 16:39:48 GMT 2017
User: dcchb
Spectrometer: FLMS00149
Trigger mode: 0
Integration Time (sec): 2.000000E-2
Scans to average: 10
Electric dark correction enabled: true
Nonlinearity correction enabled: false
Boxcar width: 0
XAxis mode: Wavelengths
Number of Pixels in Spectrum: 2048
>>>>>Begin Spectral Data<<<<<
341.393	-20.73
341.776	-20.73
342.16	-20.73
342.543	-60.73
342.927	-71.13
343.31	-77.91
343.693	-67.74
344.077	-68.64
344.46	-60.96
344.843	-36.1
345.226	-51.02
345.61	-49.66
345.993	-24.8
346.376	5.03
346.759	3.45
347.142	34.63
347.525	56.33
347.908	54.07
348.291	79.15
348.674	93.39
349.057	110.79
349.44	119.15
349.823	133.16
350.206	157.79
350.588	184.23
350.971	210.22
351.354	212.03
351.737	219.26
352.119	228.3
352.502	259.94
352.884	286.15
353.267	279.6
353.65	299.03
354.032	285.47
354.414	282.31
354.797	306.72
355.179	304.68
355.562	311.01
355.944	339.93
356.326	335.19
356.709	334.06
357.091	323.44
357.473	322.76
357.855	334.06
358.238	338.35
358.62	334.74
359.002	342.42
359.384	334.96
359.766	309.43
360.148	323.21
360.53	332.03
360.912	327.05
361.294	325.7
361.676	326.38
362.057	331.8
362.439	306.04
362.821	314.4
363.203	323.44
363.584	296.55
363.966	314.17
364.348	322.76
364.729	307.39
365.111	320.73
365.493	303.78
365.874	312.82
366.256	317.11
366.637	300.39
367.019	300.61
367.4	303.33
367.781	319.14
368.163	304.91
368.544	300.16
368.925	309.2
369.306	330.22
369.688	306.94
370.069	308.3
370.45	312.82
370.831	288.41
371.212	301.52
371.593	279.37
371.974	309.88
372.355	292.03
372.736	325.47
373.117	313.04
373.498	320.05
373.879	309.88
374.26	310.33
374.641	305.81
375.021	295.19
375.402	327.51
375.783	306.94
376.163	333.61
376.544	307.39
376.925	314.85
377.305	323.89
377.686	304
378.066	306.26
378.447	327.96
378.827	320.95
379.208	319.37
379.588	326.6
379.968	337.9
380.349	325.47
380.729	326.15
381.109	321.18
381.489	324.34
381.87	319.82
382.25	320.95
382.63	346.94
383.01	334.06
383.39	340.39
383.77	350.56
384.15	339.48
384.53	353.72
384.91	307.39
385.29	312.82
385.67	326.83
386.049	334.06
386.429	331.12
386.809	330.67
387.189	351.69
387.568	329.77
387.948	337.9
388.328	350.33
388.707	352.59
389.087	341.97
389.466	368.63
389.846	340.39
390.225	352.82
390.605	368.41
390.984	343.32
391.363	358.01
391.743	362.76
392.122	393.94
392.501	381.74
392.881	377
393.26	377.45
393.639	364.57
394.018	352.59
394.397	368.63
394.776	379.26
395.155	371.57
395.534	382.65
395.913	402.08
396.292	374.51
396.671	387.62
397.05	376.09
397.429	367.73
397.808	381.06
398.186	381.29
398.565	406.6
398.944	392.36
399.323	379.71
399.701	393.27
400.08	387.84
400.458	396.2
400.837	398.69
401.215	418.12
401.594	392.81
401.972	407.5
402.351	408.86
402.729	413.6
403.107	399.14
403.486	412.93
403.864	404.34
404.242	407.73
404.62	429.42
404.999	425.58
405.377	418.58
405.755	434.62
406.133	447.05
406.511	467.84
406.889	443.21
407.267	457.67
407.645	461.51
408.023	465.58
408.401	464.9
408.779	469.2
409.156	469.87
409.534	471.23
409.912	487.28
410.29	494.05
410.667	502.64
411.045	495.64
411.422	506.71
411.8	503.77
412.178	549.65
412.555	542.19
412.933	544.67
413.31	543.55
413.687	583.32
414.065	593.49
414.442	575.86
414.819	559.36
415.197	581.06
415.574	603.88
415.951	638.46
416.328	607.95
416.705	617.22
417.082	606.82
417.46	631
417.837	650.66
418.214	648.4
418.591	657.21
418.967	652.69
419.344	680.72
419.721	669.19
420.098	684.33
420.475	704.67
420.852	724.56
421.228	723.65
421.605	730.88
421.982	724.33
422.358	732.47
422.735	760.26
423.111	763.65
423.488	781.05
423.864	811.56
424.241	823.31
424.617	839.36
424.994	859.24
425.37	872.12
425.746	835.51
426.123	880.71
426.499	872.58
426.875	915.06
427.251	916.19
427.627	935.63
428.003	946.92
428.379	934.5
428.756	967.94
429.132	953.25
429.507	978.34
429.883	1009.97
430.259	1041.39
430.635	1003.42
431.011	1018.11
431.387	1031.22
431.763	1067.15
432.138	1055.85
432.514	1072.8
432.89	1112.12
433.265	1095.62
433.641	1122.51
434.016	1139.46
434.392	1148.95
434.767	1217.88
435.143	1236.41
435.518	1218.56
435.894	1246.13
436.269	1280.47
436.644	1275.96
437.02	1326.12
437.395	1307.37
437.77	1348.95
438.145	1376.52
438.52	1404.09
438.895	1411.09
439.271	1429.4
439.646	1426.46
440.021	1477.31
440.395	1492.9
440.77	1482.73
441.145	1505.55
441.52	1539.23
441.895	1579
442.27	1579.22
442.645	1615.16
443.019	1625.1
443.394	1607.7
443.769	1638.66
444.143	1638.88
444.518	1675.94
444.892	1670.3
445.267	1692.44
445.641	1735.6
446.016	1742.38
446.39	1714.36
446.764	1761.59
447.139	1760.91
447.513	1770.18
447.887	1772.67
448.262	1760.91
448.636	1794.36
449.01	1839.1
449.384	1835.94
449.758	1839.1
450.132	1883.62
450.506	1876.84
450.88	1871.42
451.254	1901.7
451.628	1896.73
452.002	1920.23
452.376	1940.34
452.75	1970.4
453.123	1998.42
453.497	2048.82
453.871	2048.14
454.244	2051.53
454.618	2075.93
454.992	2097.18
455.365	2121.81
455.739	2136.5
456.112	2163.16
456.486	2167.91
456.859	2252.65
457.232	2275.48
457.606	2211.75
457.979	2264.63
458.352	2305.53
458.725	2358.41
459.099	2315.02
459.472	2372.2
459.845	2416.04
460.218	2436.83
460.591	2444.29
460.964	2433.66
461.337	2513.66
461.71	2505.98
462.083	2539.88
462.456	2585.3
462.829	2571.06
463.201	2628.24
463.574	2644.51
463.947	2700.78
464.32	2737.84
464.692	2738.29
465.065	2767.22
465.438	2836.59
465.81	2835.91
466.183	2862.81
466.555	2893.99
466.928	2908.91
467.3	2885.86
467.672	2953.65
468.045	3021.45
468.417	3044.04
468.789	3011.95
469.161	3095.34
469.534	3126.98
469.906	3213.98
470.278	3211.5
470.65	3256.47
471.022	3308.22
471.394	3369.01
471.766	3396.35
472.138	3429.8
472.51	3491.49
472.882	3513.64
473.253	3555.44
473.625	3602.22
473.997	3680.64
474.369	3643.35
474.74	3737.13
475.112	3810.58
475.484	3794.08
475.855	3898.03
476.227	3861.88
476.598	4003.79
476.97	4016.45
477.341	4069.55
477.713	4134.64
478.084	4140.74
478.455	4235.2
478.827	4294.18
479.198	4369.66
479.569	4410.79
479.94	4526.94
480.311	4563.78
480.682	4610.78
481.053	4733.49
481.424	4742.76
481.795	4842.64
482.166	4886.26
482.537	4882.19
482.908	4980.26
483.279	5034.05
483.65	5122.18
484.021	5189.3
484.391	5232.91
484.762	5290.09
485.133	5309.52
485.503	5401.5
485.874	5497.31
486.244	5512.45
486.615	5567.37
486.985	5641.72
487.356	5744.99
487.726	5752.67
488.097	5922.84
488.467	5891.43
488.837	5982.72
489.207	6067.92
489.578	6136.17
489.948	6181.36
490.318	6220.68
490.688	6270.17
491.058	6292.32
491.428	6400.57
491.798	6406.89
492.168	6550.84
492.538	6556.49
492.908	6580.67
493.278	6696.6
493.648	6701.12
494.017	6767.34
494.387	6822.25
494.757	6832.19
495.126	6874
495.496	6862.7
495.866	6916.71
496.235	6977.73
496.605	7072.19
496.974	7041.91
497.344	7075.8
497.713	7155.12
498.082	7154.67
498.452	7243.93
498.821	7209.36
499.19	7249.13
499.559	7314.89
499.928	7334.1
500.298	7327.55
500.667	7392.18
501.036	7348.11
501.405	7476.02
501.774	7442.8
502.143	7424.72
502.512	7516.92
502.88	7545.39
503.249	7565.73
503.618	7569.57
503.987	7602.34
504.356	7638.27
504.724	7597.14
505.093	7651.15
505.462	7653.87
505.83	7715.11
506.199	7795.11
506.567	7803.92
506.936	7767.76
507.304	7916.91
507.672	7902
508.041	7859.06
508.409	7890.02
508.777	7963.01
509.145	7997.81
509.514	8014.31
509.882	7976.12
510.25	8019.28
510.618	7992.16
510.986	8019.51
511.354	8040.3
511.722	8096.57
512.09	8085.95
512.458	8077.58
512.826	8124.36
513.193	8190.35
513.561	8171.59
513.929	8203.46
514.297	8204.59
514.664	8254.98
515.032	8197.36
515.4	8243.46
515.767	8244.59
516.135	8229.67
516.502	8208.2
516.869	8276.68
517.237	8296.11
517.604	8239.61
517.972	8228.77
518.339	8296.79
518.706	8287.07
519.073	8254.98
519.44	8274.19
519.808	8373.4
520.175	8290.69
520.542	8404.81
520.909	8323.45
521.276	8318.26
521.643	8381.08
522.009	8370.23
522.376	8369.55
522.743	8394.41
523.11	8417.01
523.477	8424.02
523.843	8436.67
524.21	8433.28
524.577	8479.16
524.943	8476.9
525.31	8501.75
525.676	8533.62
526.043	8551.92
526.409	8510.57
526.776	8551.47
527.142	8568.19
527.508	8522.54
527.874	8569.55
528.241	8546.05
528.607	8534.3
528.973	8575.2
529.339	8511.7
529.705	8596.89
530.071	8622.65
530.437	8555.31
530.803	8524.58
531.169	8486.16
531.535	8545.37
531.901	8376.79
532.267	8431.25
532.632	8512.15
532.998	8486.84
533.364	8484.81
533.73	8475.77
534.095	8546.95
534.461	8438.7
534.826	8417.46
535.192	8443.45
535.557	8468.53
535.923	8375.2
536.288	8382.43
536.653	8367.52
537.019	8341.53
537.384	8351.7
537.749	8279.61
538.114	8236.45
538.479	8286.84
538.845	8257.24
539.21	8264.02
539.575	8223.34
539.94	8173.17
540.305	8203.68
540.67	8144.48
541.034	8172.5
541.399	8064.48
541.764	8096.11
542.129	8080.97
542.494	8076
542.858	8043.46
543.223	8080.97
543.587	8006.4
543.952	8000.75
544.316	7949
544.681	7877.36
545.045	7887.76
545.41	7914.65
545.774	7819.96
546.138	7894.99
546.503	7839.85
546.867	7724.15
547.231	7740.19
547.595	7745.39
547.959	7732.51
548.324	7742.23
548.688	7700.64
549.052	7653.64
549.416	7709.01
549.779	7604.6
550.143	7622.91
550.507	7590.37
550.871	7599.4
551.235	7571.61
551.599	7545.39
551.962	7517.6
552.326	7488.9
552.689	7503.14
553.053	7417.49
553.417	7477.6
553.78	7509.69
554.143	7413.87
554.507	7436.25
554.87	7424.27
555.234	7427.21
555.597	7289.58
555.96	7334.1
556.323	7360.77
556.686	7321.22
557.05	7323.71
557.413	7343.59
557.776	7311.05
558.139	7259.3
558.502	7330.49
558.865	7292.97
559.228	7230.6
559.59	7274.44
559.953	7238.96
560.316	7309.02
560.679	7256.81
561.041	7329.58
561.404	7292.75
561.767	7259.98
562.129	7265.18
562.492	7356.25
562.854	7280.99
563.217	7256.81
563.579	7263.59
563.941	7324.16
564.304	7194.67
564.666	7334.33
565.028	7246.65
565.39	7273.76
565.753	7241.45
566.115	7312.86
566.477	7312.63
566.839	7347.43
567.201	7409.58
567.563	7341.11
567.925	7389.69
568.287	7368
568.648	7371.84
569.01	7352.63
569.372	7466.75
569.734	7380.88
570.095	7444.38
570.457	7382.01
570.819	7464.27
571.18	7401.44
571.542	7442.8
571.903	7452.97
572.265	7466.07
572.626	7517.15
572.987	7477.83
573.349	7481.22
573.71	7546.98
574.071	7495.9
574.432	7450.48
574.794	7569.12
575.155	7545.39
575.516	7563.93
575.877	7553.76
576.238	7606.86
576.599	7646.64
576.96	7616.81
577.32	7594.89
577.681	7643.02
578.042	7676.92
578.403	7640.08
578.763	7645.51
579.124	7727.08
579.485	7704.71
579.845	7738.84
580.206	7685.05
580.566	7778.38
580.927	7756.01
581.287	7815.44
581.648	7768.67
582.008	7870.81
582.368	7803.02
582.728	7801.66
583.089	7841.21
583.449	7805.73
583.809	7861.32
584.169	7830.59
584.529	7901.54
584.889	7949.23
585.249	7904.48
585.609	7901.09
585.969	7977.47
586.329	7959.85
586.688	7948.77
587.048	7979.73
587.408	7941.32
587.768	7971.37
588.127	7977.02
588.487	7998.72
588.846	7967.98
589.206	7993.52
589.565	8111.48
589.925	8052.5
590.284	7988.55
590.643	7986.51
591.003	8056.79
591.362	8107.64
591.721	8118.94
592.08	8111.93
592.44	8149.22
592.799	8083.01
593.158	8113.29
593.517	8101.31
593.876	8110.13
594.235	8182.89
594.593	8167.07
594.952	8139.73
595.311	8156
595.67	8181.76
596.029	8237.81
596.387	8214.3
596.746	8267.86
597.104	8197.36
597.463	8221.76
597.822	8231.03
598.18	8215.66
598.538	8219.5
598.897	8311.7
599.255	8213.63
599.613	8264.47
599.972	8252.72
600.33	8292.95
600.688	8244.36
601.046	8353.06
601.404	8334.07
601.762	8280.74
602.12	8358.03
602.478	8338.37
602.836	8388.08
603.194	8365.03
603.552	8312.15
603.91	8304.7
604.268	8333.62
604.625	8344.7
604.983	8375.43
605.341	8282.32
605.698	8360.06
606.056	8377.24
606.413	8352.15
606.771	8464.01
607.128	8447.29
607.485	8392.6
607.843	8312.61
608.2	8460.85
608.557	8471.25
608.914	8386.05
609.272	8448.42
609.629	8539.49
609.986	8451.13
610.343	8466.27
610.7	8471.25
611.057	8550.34
611.414	8521.64
611.771	8424.69
612.127	8589.66
612.484	8508.99
612.841	8532.71
613.198	8524.13
613.554	8565.48
613.911	8547.4
614.267	8598.25
614.624	8533.84
614.98	8622.43
615.337	8609.1
615.693	8596.67
616.05	8582.2
616.406	8610.23
616.762	8589.21
617.118	8623.56
617.475	8610.23
617.831	8649.55
618.187	8661.52
618.543	8714.63
618.899	8702.65
619.255	8705.36
619.611	8706.04
619.967	8682.99
620.323	8645.03
620.678	8684.8
621.034	8716.44
621.39	8635.08
621.746	8622.2
622.101	8719.15
622.457	8677.57
622.812	8702.43
623.168	8670.79
623.523	8678.47
623.879	8667.63
624.234	8653.39
624.589	8687.74
624.945	8725.25
625.3	8683.9
625.655	8725.25
626.01	8721.41
626.365	8669.89
626.72	8735.19
627.075	8684.8
627.43	8692.03
627.785	8663.78
628.14	8659.26
628.495	8669.43
628.85	8664.01
629.205	8656.78
629.559	8711.24
629.914	8592.15
630.269	8633.73
630.623	8600.06
630.978	8614.75
631.332	8674.4
631.687	8638.25
632.041	8569.32
632.396	8591.92
632.75	8572.49
633.104	8589.66
633.459	8546.95
633.813	8548.53
634.167	8579.94
634.521	8626.5
634.875	8502.21
635.229	8481.87
635.583	8460.17
635.937	8483
636.291	8480.51
636.645	8423.79
636.999	8447.29
637.352	8440.51
637.706	8391.02
638.06	8465.6
638.413	8447.07
638.767	8440.29
639.121	8426.73
639.474	8379.05
639.828	8423.34
640.181	8405.71
640.534	8398.93
640.888	8346.73
641.241	8334.3
641.594	8274.87
641.947	8281.87
642.301	8345.83
642.654	8336.11
643.007	8369.78
643.36	8410.46
643.713	8307.63
644.066	8340.85
644.419	8310.8
644.771	8290.69
645.124	8158.94
645.477	8170.24
645.83	8181.08
646.182	8134.08
646.535	8073.29
646.888	8116.23
647.24	8101.99
647.593	8122.78
647.945	8083.91
648.298	8055.21
648.65	8065.38
649.002	8002.33
649.355	8089.34
649.707	8018.83
650.059	8116
650.411	8191.48
650.763	8191.93
651.115	8262.66
651.467	8212.95
651.819	8268.54
652.171	8297.24
652.523	8220.41
652.875	8228.09
653.227	8124.81
653.578	8227.64
653.93	8212.5
654.282	8085.72
654.633	8150.35
654.985	8183.57
655.337	8155.32
655.688	8182.89
656.039	8223.12
656.391	8140.18
656.742	8253.4
657.094	8192.38
657.445	8307.41
657.796	8202.78
658.147	8247.3
658.498	8207.52
658.849	8225.38
659.2	8235.32
659.551	8222.67
659.902	8197.81
660.253	8225.38
660.604	8239.84
660.955	8255.21
661.306	8293.85
661.656	8285.49
662.007	8261.53
662.358	8264.92
662.708	8258.6
663.059	8240.97
663.409	8204.36
663.76	8261.53
664.11	8319.84
664.461	8326.39
664.811	8300.63
665.161	8315.09
665.511	8331.36
665.862	8302.66
666.212	8390.12
666.562	8304.7
666.912	8311.7
667.262	8292.27
667.612	8311.02
667.962	8349.44
668.312	8321.87
668.662	8289.33
669.011	8255.66
669.361	8308.31
669.711	8291.59
670.06	8299.73
670.41	8272.83
670.76	8304.02
671.109	8338.14
671.459	8198.26
671.808	8250.24
672.157	8296.11
672.507	8239.39
672.856	8293.62
673.205	8256.34
673.554	8295.88
673.904	8226.05
674.253	8250.91
674.602	8270.35
674.951	8223.12
675.3	8113.97
675.649	8220.86
675.998	8214.98
676.346	8186.73
676.695	8177.92
677.044	8133.85
677.393	8128.88
677.741	8172.05
678.09	8155.77
678.438	8152.16
678.787	8142.44
679.135	8175.43
679.484	8040.3
679.832	8110.35
680.181	8084.59
680.529	8093.63
680.877	8062.9
681.225	8051.14
681.573	8068.54
681.922	7984.71
682.27	7966.85
682.618	8003.91
682.966	8018.6
683.314	7950.58
683.661	7938.15
684.009	7918.72
684.357	7899.28
684.705	7888.66
685.053	7897.48
685.4	7840.53
685.748	7786.97
686.095	7850.25
686.443	7754.88
686.79	7784.71
687.138	7744.03
687.485	7810.7
687.832	7722.11
688.18	7695
688.527	7660.65
688.874	7710.81
689.221	7592.63
689.568	7620.42
689.915	7575.45
690.262	7657.93
690.609	7546.3
690.956	7531.38
691.303	7496.81
691.65	7479.86
691.997	7410.48
692.344	7411.39
692.69	7489.35
693.037	7393.99
693.383	7360.54
693.73	7347.66
694.077	7357.6
694.423	7286.87
694.769	7334.33
695.116	7309.24
695.462	7280.32
695.808	7243.71
696.155	7269.7
696.501	7187.89
696.847	7142.92
697.193	7127.78
697.539	7085.07
697.885	7047.1
698.231	7079.87
698.577	6995.13
698.923	7016.82
699.269	6921.68
699.614	6950.38
699.96	6889.59
700.306	6919.42
700.651	6876.71
700.997	6839.2
701.342	6831.97
701.688	6795.36
702.033	6766.21
702.379	6802.59
702.724	6744.96
703.069	6748.35
703.415	6697.28
703.76	6664.29
704.105	6625.87
704.45	6663.61
704.795	6597.17
705.14	6577.51
705.485	6610.28
705.83	6532.09
706.175	6546.1
706.52	6495.48
706.865	6484.18
707.209	6438.08
707.554	6432.43
707.899	6470.17
708.243	6372.09
708.588	6376.84
708.932	6361.92
709.277	6330.96
709.621	6379.55
709.966	6279.89
710.31	6340.68
710.654	6249.84
710.998	6212.55
711.342	6245.77
711.687	6283.06
712.031	6229.05
712.375	6210.06
712.719	6193.57
713.063	6219.33
713.407	6176.39
713.75	6114.25
714.094	6119.9
714.438	6104.98
714.782	6069.28
715.125	6081.7
715.469	6088.26
715.812	6099.11
716.156	6090.52
716.499	6023.85
716.843	6085.55
717.186	6074.25
717.53	6009.39
717.873	6052.33
718.216	6056.17
718.559	6076.51
718.902	6027.24
719.246	5998.54
719.589	5952.44
719.932	5921.48
720.275	5978.88
720.617	5985.89
720.96	5945.66
721.303	5908.15
721.646	5993.35
721.989	5878.55
722.331	5909.96
722.674	5933.91
723.016	5871.31
723.359	5930.97
723.701	5903.63
724.044	5900.47
724.386	5918.32
724.729	5886.68
725.071	5867.25
725.413	5874.25
725.755	5921.03
726.097	5844.87
726.439	5812.79
726.782	5824.08
727.124	5849.39
727.465	5865.44
727.807	5788.83
728.149	5784.54
728.491	5773.92
728.833	5848.49
729.175	5859.79
729.516	5827.25
729.858	5821.6
730.199	5829.06
730.541	5796.74
730.882	5828.15
731.224	5826.57
731.565	5815.95
731.906	5806.68
732.248	5803.75
732.589	5820.47
732.93	5776.63
733.271	5827.93
733.612	5839.45
733.953	5845.55
734.294	5811.88
734.635	5802.16
734.976	5834.48
735.317	5761.03
735.658	5790.19
735.999	5806.46
736.339	5834.25
736.68	5860.24
737.021	5842.39
737.361	5805.1
737.702	5832.9
738.042	5852.11
738.383	5830.86
738.723	5904.53
739.063	5851.65
739.404	5937.98
739.744	5946.11
740.084	5908.38
740.424	5925.78
740.764	5907.7
741.104	5958.09
741.444	5951.54
741.784	5950.63
742.124	5994.48
742.464	5993.57
742.804	5986.34
743.143	6018.43
743.483	6075.15
743.823	5988.83
744.162	6095.04
744.502	6129.61
744.841	6132.78
745.181	6199.67
745.52	6127.35
745.86	6181.81
746.199	6198.76
746.538	6241.93
746.877	6361.25
747.216	6401.47
747.556	6358.76
747.895	6489.15
748.234	6469.72
748.573	6477.4
748.911	6606.66
749.25	6648.24
749.589	6610.05
749.928	6760.33
750.267	6822.25
750.605	6911.29
750.944	6944.51
751.283	6982.47
751.621	7099.98
751.96	7122.58
752.298	7205.29
752.636	7328.68
752.975	7393.08
753.313	7490.48
753.651	7569.8
753.989	7669.01
754.327	7757.37
754.666	7874.2
755.004	7977.25
755.342	8162.78
755.679	8286.62
756.017	8369.55
756.355	8508.53
756.693	8648.19
757.031	8763.22
757.368	8870.11
757.706	9035.98
758.044	9189.42
758.381	9382.86
758.719	9415.85
759.056	9635.51
759.394	9765.45
759.731	9889.29
760.068	10062.39
760.405	10135.38
760.743	10366.11
761.08	10513.68
761.417	10688.14
761.754	10880.22
762.091	11001.35
762.428	11198.18
762.765	11334.22
763.102	11558.17
763.438	11672.74
763.775	11768.11
764.112	12027.08
764.449	12187.08
764.785	12353.4
765.122	12456.9
765.458	12498.94
765.795	12791.58
766.131	12987.29
766.467	13023.22
766.804	13195.19
767.14	13332.59
767.476	13425.69
767.812	13672.92
768.148	13774.38
768.485	13821.61
768.821	14008.05
769.157	14138.89
