Data from hue_330_FLMS001491_92.txt Node
Date: Mon Feb 06 15:46:10 GMT 2017
User: dcchb
Spectrometer: FLMS00149
Trigger mode: 0
Integration Time (sec): 2.000000E-2
Scans to average: 10
Electric dark correction enabled: true
Nonlinearity correction enabled: false
Boxcar width: 0
XAxis mode: Wavelengths
Number of Pixels in Spectrum: 2048
>>>>>Begin Spectral Data<<<<<
341.393	-7.44
341.776	-7.44
342.16	-7.44
342.543	-57.61
342.927	-41.11
343.31	-55.35
343.693	-74.11
344.077	-58.52
344.46	-68.01
344.843	-47.44
345.226	-28.23
345.61	-23.04
345.993	-18.29
346.376	1.82
346.759	-9.7
347.142	25.32
347.525	32.56
347.908	59
348.291	54.93
348.674	103.06
349.057	106
349.44	127.24
349.823	156.62
350.206	177.64
350.588	202.72
350.971	209.5
351.354	215.15
351.737	221.7
352.119	256.73
352.502	272.55
352.884	252.89
353.267	276.39
353.65	298.54
354.032	293.79
354.414	297.86
354.797	315.03
355.179	324.53
355.562	323.62
355.944	329.72
356.326	344.19
356.709	331.76
357.091	327.46
357.473	336.05
357.855	350.51
358.238	344.86
358.62	327.69
359.002	360.46
359.384	334.24
359.766	331.53
360.148	333.34
360.53	337.18
360.912	336.5
361.294	348.25
361.676	331.76
362.057	338.54
362.439	310.51
362.821	340.34
363.203	330.4
363.584	322.94
363.966	330.17
364.348	320.91
364.729	318.2
365.111	309.38
365.493	312.55
365.874	305.32
366.256	325.88
366.637	323.62
367.019	311.42
367.4	295.37
367.781	307.35
368.163	320.01
368.544	326.56
368.925	305.09
369.306	325.66
369.688	304.41
370.069	311.19
370.45	313.23
370.831	310.51
371.212	332.43
371.593	334.24
371.974	316.84
372.355	313.23
372.736	317.52
373.117	310.51
373.498	294.47
373.879	319.1
374.26	321.81
374.641	303.73
375.021	313.68
375.402	306.9
375.783	322.27
376.163	316.62
376.544	317.07
376.925	321.14
377.305	310.74
377.686	318.2
378.066	329.72
378.447	320.91
378.827	334.92
379.208	333.56
379.588	333.79
379.968	327.24
380.349	298.09
380.729	330.85
381.109	324.3
381.489	330.17
381.87	317.75
382.25	319.55
382.63	336.95
383.01	344.86
383.39	343.73
383.77	341.02
384.15	348.25
384.53	349.84
384.91	360.23
385.29	361.13
385.67	348.71
386.049	350.29
386.429	350.97
386.809	357.97
387.189	331.98
387.568	350.74
387.948	344.86
388.328	363.62
388.707	349.84
389.087	351.64
389.466	365.2
389.846	355.49
390.225	358.2
390.605	358.87
390.984	387.57
391.363	354.58
391.743	343.06
392.122	356.84
392.501	363.85
392.881	367.91
393.26	355.26
393.639	382.38
394.018	364.75
394.397	374.92
394.776	370.63
395.155	364.3
395.534	363.85
395.913	389.16
396.292	378.99
396.671	377.18
397.05	362.26
397.429	377.63
397.808	392.32
398.186	386.9
398.565	381.92
398.944	375.37
399.323	383.05
399.701	392.55
400.08	382.15
400.458	397.97
400.837	403.17
401.215	409.27
401.594	384.18
401.972	405.65
402.351	398.42
402.729	407.24
403.107	388.03
403.486	434.58
403.864	427.12
404.242	386.22
404.62	410.4
404.999	431.64
405.377	424.86
405.755	419.66
406.133	439.78
406.511	417.18
406.889	436.16
407.267	443.84
407.645	456.05
408.023	436.61
408.401	457.18
408.779	454.01
409.156	441.58
409.534	461.7
409.912	459.21
410.29	494.46
410.667	477.97
411.045	454.92
411.422	474.35
411.8	499.21
412.178	501.02
412.555	497.85
412.933	499.44
413.31	520.9
413.687	519.77
414.065	515.25
414.442	508.7
414.819	529.49
415.197	549.6
415.574	532.2
415.951	549.38
416.328	543.5
416.705	557.29
417.082	563.62
417.46	562.49
417.837	591.41
418.214	576.72
418.591	588.7
418.967	594.57
419.344	593.9
419.721	605.65
420.098	603.61
420.475	625.31
420.852	618.08
421.228	630.51
421.605	613.56
421.982	625.53
422.358	636.61
422.735	665.08
423.111	658.08
423.488	673.22
423.864	684.06
424.241	673.22
424.617	690.17
424.994	665.76
425.37	713.67
425.746	708.02
426.123	700.11
426.499	696.27
426.875	712.99
427.251	703.05
427.627	733.33
428.003	717.28
428.379	734.23
428.756	769.26
429.132	748.47
429.507	771.07
429.883	788.92
430.259	803.61
430.635	786.89
431.011	806.09
431.387	807.9
431.763	823.72
432.138	802.48
432.514	835.25
432.89	843.38
433.265	853.78
433.641	862.82
434.016	868.69
434.392	860.78
434.767	864.62
435.143	898.75
435.518	889.93
435.894	900.56
436.269	928.35
436.644	934.9
437.02	939.2
437.395	942.59
437.77	943.27
438.145	978.97
438.52	958.86
438.895	954.79
439.271	959.31
439.646	993.43
440.021	982.59
440.395	1000.89
440.77	966.32
441.145	1026.43
441.52	1030.04
441.895	1009.03
442.27	1041.57
442.645	1020.1
443.019	1028.91
443.394	1038.18
443.769	1060.33
444.143	1040.89
444.518	1101.45
444.892	1068.01
445.267	1038.18
445.641	1078.4
446.016	1062.59
446.39	1075.01
446.764	1089.48
447.139	1091.51
447.513	1114.56
447.887	1080.21
448.262	1085.18
448.636	1096.71
449.01	1090.38
449.384	1118.85
449.758	1103.26
450.132	1147.1
450.506	1131.74
450.88	1139.65
451.254	1150.49
451.628	1140.78
452.002	1174.45
452.376	1156.14
452.75	1156.37
453.123	1194.33
453.497	1208.8
453.871	1214.67
454.244	1201.11
454.618	1196.37
454.992	1227.55
455.365	1208.34
455.739	1251.05
456.112	1246.08
456.486	1255.8
456.859	1271.85
457.232	1255.12
457.606	1274.1
457.979	1271.39
458.352	1334.22
458.725	1341
459.099	1329.7
459.472	1321.56
459.845	1366.08
460.218	1367.89
460.591	1362.24
460.964	1356.36
461.337	1402.24
461.71	1379.41
462.083	1417.15
462.456	1427.55
462.829	1453.08
463.201	1449.47
463.574	1451.05
463.947	1443.82
464.32	1482.69
464.692	1483.14
465.065	1500.77
465.438	1537.83
465.81	1558.39
466.183	1546.87
466.555	1583.02
466.928	1548.22
467.3	1592.97
467.672	1581.67
468.045	1624.83
468.417	1648.78
468.789	1644.94
469.161	1656.02
469.534	1682.46
469.906	1686.98
470.278	1661.44
470.65	1726.75
471.022	1727.2
471.394	1749.12
471.766	1762
472.138	1803.81
472.51	1806.07
472.882	1836.12
473.253	1838.38
473.625	1882.22
473.997	1896.01
474.369	1907.08
474.74	1922
475.112	1946.18
475.484	1989.34
475.855	2054.42
476.227	2018.04
476.598	2107.08
476.97	2060.3
477.341	2121.31
477.713	2129.68
478.084	2177.36
478.455	2210.8
478.827	2194.98
479.198	2298.48
479.569	2272.27
479.94	2301.65
480.311	2300.52
480.682	2377.58
481.053	2451.25
481.424	2479.95
481.795	2464.13
482.166	2502.55
482.537	2530.8
482.908	2558.36
483.279	2601.75
483.65	2648.31
484.021	2662.77
484.391	2681.3
484.762	2730.79
485.133	2691.69
485.503	2759.26
485.874	2779.83
486.244	2817.34
486.615	2881.97
486.985	2897.57
487.356	2921.75
487.726	2941.18
488.097	2983.21
488.467	3017.79
488.837	3071.35
489.207	3079.48
489.578	3128.75
489.948	3150.67
490.318	3178.69
490.688	3209.42
491.058	3223.88
491.428	3295.29
491.798	3314.05
492.168	3361.51
492.538	3398.12
492.908	3427.27
493.278	3433.82
493.648	3454.39
494.017	3490.54
494.387	3428.85
494.757	3524.89
495.126	3551.11
495.496	3566.25
495.866	3568.96
496.235	3623.87
496.605	3680.37
496.974	3699.58
497.344	3690.99
497.713	3695.74
498.082	3712.46
498.452	3730.09
498.821	3742.74
499.19	3784.55
499.559	3809.41
499.928	3818.67
500.298	3882.4
500.667	3872.45
501.036	3873.81
501.405	3907.03
501.774	3907.26
502.143	3953.13
502.512	3992.9
502.88	4001.94
503.249	3980.25
503.618	3996.07
503.987	4041.49
504.356	4020.02
504.724	4051.88
505.093	4067.48
505.462	4060.02
505.83	4124.88
506.199	4078.55
506.567	4165.33
506.936	4178.21
507.304	4214.59
507.672	4220.47
508.041	4213.46
508.409	4218.21
508.777	4260.24
509.145	4310.64
509.514	4253.01
509.882	4293.46
510.25	4251.2
510.618	4334.14
510.986	4328.04
511.354	4359.45
511.722	4351.31
512.09	4345.21
512.458	4368.49
512.826	4424.76
513.193	4420.24
513.561	4431.99
513.929	4467.24
514.297	4492.1
514.664	4549.73
515.032	4508.14
515.4	4495.49
515.767	4559.67
516.135	4533.91
516.502	4488.26
516.869	4555.6
517.237	4531.19
517.604	4571.42
517.972	4591.08
518.339	4573.91
518.706	4654.36
519.073	4621.81
519.44	4637.63
519.808	4678.99
520.175	4698.87
520.542	4735.93
520.909	4730.74
521.276	4739.55
521.643	4722.15
522.009	4756.73
522.376	4803.73
522.743	4825.2
523.11	4809.83
523.477	4873.56
523.843	4852.99
524.21	4899.09
524.577	4913.56
524.943	4982.26
525.31	5007.11
525.676	5016.61
526.043	5014.12
526.409	5035.36
526.776	5056.15
527.142	5064.97
527.508	5086.21
527.874	5158.75
528.241	5138.41
528.607	5159.65
528.973	5209.82
529.339	5250.72
529.705	5247.79
530.071	5255.47
530.437	5301.8
530.803	5296.37
531.169	5333.21
531.535	5369.36
531.901	5347.67
532.267	5367.1
532.632	5369.36
532.998	5417.5
533.364	5434.22
533.73	5475.35
534.095	5517.16
534.461	5533.88
534.826	5526.65
535.192	5628.34
535.557	5652.75
535.923	5660.2
536.288	5658.17
536.653	5667.66
537.019	5706.3
537.384	5716.93
537.749	5740.2
538.114	5821.56
538.479	5759.64
538.845	5807.77
539.21	5826.98
539.575	5826.3
539.94	5818.62
540.305	5915.11
540.67	5899.29
541.034	5932.51
541.399	5918.95
541.764	5977.71
542.129	6003.02
542.494	6023.36
542.858	6070.36
543.223	6073.75
543.587	6075.11
543.952	6121.89
544.316	6122.11
544.681	6146.52
545.045	6189
545.41	6164.6
545.774	6224.03
546.138	6248.21
546.503	6262.45
546.867	6278.27
547.231	6348.55
547.595	6378.6
547.959	6357.59
548.324	6332.28
548.688	6420.18
549.052	6448.43
549.416	6463.57
549.779	6524.14
550.143	6493.18
550.507	6526.62
550.871	6540.18
551.235	6515.1
551.599	6579.28
551.962	6612.95
552.326	6635.09
552.689	6667.18
553.053	6580.63
553.417	6623.79
553.78	6749.22
554.143	6687.07
554.507	6760.51
554.87	6736.33
555.234	6801.87
555.597	6742.66
555.96	6788.99
556.323	6831.7
556.686	6845.71
557.05	6874.18
557.413	6888.42
557.776	6934.75
558.139	6899.04
558.502	6983.33
558.865	6970.68
559.228	7041.18
559.59	7067.85
559.953	7083.9
560.316	7147.85
560.679	7117.12
561.041	7157.34
561.404	7181.97
561.767	7194.85
562.129	7198.02
562.492	7244.57
562.854	7234.17
563.217	7221.75
563.579	7248.19
563.941	7304.68
564.304	7322.53
564.666	7386.26
565.028	7400.5
565.39	7414.06
565.753	7426.03
566.115	7455.86
566.477	7521.85
566.839	7507.61
567.201	7519.36
567.563	7552.58
567.925	7580.38
568.287	7618.12
568.648	7707.16
569.01	7687.5
569.372	7748.96
569.734	7691.34
570.095	7818.34
570.457	7800.94
570.819	7831.45
571.18	7817.66
571.542	7871.67
571.903	7950.77
572.265	7973.82
572.626	7961.84
572.987	8039.8
573.349	8140.37
573.71	8152.34
574.071	8196.86
574.432	8304.43
574.794	8334.71
575.155	8338.33
575.516	8409.96
575.877	8504.88
576.238	8582.84
576.599	8613.8
576.96	8691.09
577.32	8712.55
577.681	8814.47
578.042	8830.97
578.403	9035.03
578.763	9085.2
579.124	9163.16
579.485	9265.31
579.845	9399.77
580.206	9451.97
580.566	9634.56
580.927	9695.8
581.287	9837.04
581.648	9928.34
582.008	10118.62
582.368	10228.67
582.728	10394.32
583.089	10567.65
583.449	10653.75
583.809	10938.03
584.169	11060.29
584.529	11255.54
584.889	11503.67
585.249	11612.59
585.609	11874.28
585.969	12046.7
586.329	12240.14
586.688	12479.01
587.048	12747.02
587.408	12790.64
587.768	13180.91
588.127	13352.21
588.487	13548.81
588.846	13907.22
589.206	14059.53
589.565	14299.53
589.925	14636.01
590.284	14848.89
590.643	15166.85
591.003	15417.01
591.362	15779.49
591.721	15985.36
592.08	16245.24
592.44	16594.83
592.799	16869.18
593.158	17105.33
593.517	17371.08
593.876	17757.74
594.235	18110.72
594.593	18279.08
594.952	18687.43
595.311	18900.08
595.67	19349.34
596.029	19588.88
596.387	19880.17
596.746	20264.57
597.104	20514.5
597.463	20710.66
597.822	21089.63
598.18	21403.29
598.538	21590.18
598.897	22038.98
599.255	22044.86
599.613	22699.3
599.972	22897.49
600.33	23296.8
600.688	23470.13
601.046	23831.03
601.404	24178.81
601.762	24412.71
602.12	24827.38
602.478	24943.31
602.836	25219.01
603.194	25278.45
603.552	25681.37
603.91	25852.89
604.268	26362.26
604.625	26544.17
604.983	26791.4
605.341	26827.78
605.698	27308.67
606.056	27499.86
606.413	27740.08
606.771	28115.89
607.128	28355.88
607.485	28505.25
607.843	28668.64
608.2	28992.92
608.557	29385
608.914	29469.97
609.272	29848.27
609.629	30071.54
609.986	30422.72
610.343	30359.44
610.7	30830.62
611.057	30930.05
611.414	31068.35
611.771	31330.72
612.127	31632.4
612.484	31673.98
612.841	32050.7
613.198	31974.54
613.554	32234.19
613.911	32493.62
614.267	32886.38
614.624	32743.33
614.98	33061.52
615.337	33385.13
615.693	33356.2
616.05	33540.38
616.406	33852.23
616.762	33857.88
617.118	33934.49
617.475	34077.08
617.831	34370.86
618.187	34668.26
618.543	34677.52
618.899	35035.48
619.255	34943.73
619.611	35027.79
619.967	35248.58
620.323	35464.17
620.678	35343.04
621.034	35512.98
621.39	35606.76
621.746	35795.46
622.101	36187.54
622.457	35903.25
622.812	36271.6
623.168	36402.22
623.523	36448.1
623.879	36676.11
624.234	36429.79
624.589	36709.78
624.945	36741.87
625.3	36763.79
625.655	36882.89
626.01	37010.57
626.365	37179.15
626.72	37022.77
627.075	37105.03
627.43	37105.71
627.785	37226.15
628.14	37284.46
628.495	37305.7
628.85	37389.54
629.205	37279.03
629.559	37578.91
629.914	37530.33
630.269	37735.75
630.623	37608.52
630.978	37656.65
631.332	37632.47
631.687	37899.36
632.041	37788.17
632.396	37865.46
632.75	37730.55
633.104	37932.8
633.459	37709.08
633.813	37892.8
634.167	37820.26
634.521	37825.01
634.875	37948.62
635.229	37837.66
635.583	37733.49
635.937	37705.46
636.291	37721.96
636.645	37813.26
636.999	37665.69
637.352	37932.58
637.706	37736.87
638.06	37919.02
638.413	37900.49
638.767	37769.87
639.121	37808.29
639.474	37757.21
639.828	37765.57
640.181	37768.51
640.534	37794.27
640.888	37771.9
641.241	37661.17
641.594	37936.42
641.947	37821.17
642.301	37751.34
642.654	37758.57
643.007	37833.6
643.36	37853.03
643.713	37629.53
644.066	37811.22
644.419	37623.43
644.771	37562.19
645.124	37104.8
645.477	37014.86
645.83	36956.78
646.182	36826.39
646.535	36681.76
646.888	36750.91
647.24	36679.05
647.593	36675.66
647.945	36751.36
648.298	36553.4
648.65	36533.97
649.002	36203.36
649.355	36604.7
649.707	36487.42
650.059	36663
650.411	37055.31
650.763	37155.65
651.115	37465.92
651.467	37234.29
651.819	37378.47
652.171	37335.76
652.523	37159.04
652.875	37151.35
653.227	37140.28
653.578	37225.25
653.93	37256.66
654.282	37065.03
654.633	37006.05
654.985	37183.9
655.337	37197.68
655.688	37160.39
656.039	37264.35
656.391	37015.99
656.742	37117.68
657.094	37064.8
657.445	37285.14
657.796	37090.34
658.147	37058.7
658.498	37034.97
658.849	37050.79
659.2	37027.06
659.551	36985.03
659.902	37004.46
660.253	37043.11
660.604	37062.54
660.955	36916.56
661.306	37084.69
661.656	36955.2
662.007	36979.83
662.358	36970.12
662.708	36889.67
663.059	36765.6
663.409	36766.05
663.76	37018.93
664.11	36867.07
664.461	37035.88
664.811	37100.51
665.161	37050.79
665.511	36892.15
665.862	36898.48
666.212	36927.86
666.562	36958.59
666.912	36845.37
667.262	36880.4
667.612	36902.55
667.962	36722.21
668.312	36784.13
668.662	36821.19
669.011	36842.66
669.361	36805.83
669.711	36787.52
670.06	36810.35
670.41	36772.61
670.76	36748.65
671.109	36728.99
671.459	36851.25
671.808	36712.27
672.157	36808.31
672.507	36569.9
672.856	36641.76
673.205	36717.92
673.554	36740.52
673.904	36697.58
674.253	36985.93
674.602	36767.41
674.951	36265.5
675.3	36080.65
675.649	36578.94
675.998	36468.89
676.346	36509.11
676.695	36685.15
677.044	36261.43
677.393	36588.43
677.741	36357.93
678.09	36317.25
678.438	36393.41
678.787	36321.09
679.135	36397.02
679.484	36163.58
679.832	36404.03
680.181	36041.55
680.529	36246.07
680.877	36050.37
681.225	36080.42
681.573	36270.25
681.922	35906.19
682.27	35797.94
682.618	35997.03
682.966	35761.56
683.314	35835.23
683.661	35832.07
684.009	35675.23
684.357	35403.15
684.705	35399.99
685.053	35555.24
685.4	35456.93
685.748	35244.29
686.095	35275.47
686.443	35235.25
686.79	35174.68
687.138	35212.65
687.485	35321.12
687.832	35104.63
688.18	35080.22
688.527	34991.64
688.874	34961.58
689.221	34868.25
689.568	34830.06
689.915	34689.95
690.262	34718.2
690.609	34518.65
690.956	34480.01
691.303	34435.49
691.65	34317.53
691.997	34321.6
692.344	34117.76
692.69	33995.96
693.037	33997.99
693.383	33839.12
693.73	33942.85
694.077	33690.88
694.423	33728.62
694.769	33653.14
695.116	33663.54
695.462	33521.62
695.808	33446.59
696.155	33562.3
696.501	33208.63
696.847	33209.76
697.193	33041.86
697.539	33156.88
697.885	32874.4
698.231	32727.97
698.577	32764.35
698.923	32736.33
699.269	32623.11
699.614	32372.95
699.96	32436
700.306	32361.65
700.651	32313.97
700.997	32171.82
701.342	32099.06
701.688	32100.41
702.033	31929.12
702.379	31976.35
702.724	31796.24
703.069	31847.54
703.415	31589.92
703.76	31523.48
704.105	31709.91
704.45	31502.69
704.795	31271.51
705.14	31204.62
705.485	31175.01
705.83	31153.55
706.175	31158.52
706.52	31051.4
706.865	30887.11
707.209	30902.93
707.554	30763.95
707.899	30781.58
708.243	30758.53
708.588	30664.97
708.932	30516.05
709.277	30351.76
709.621	30409.84
709.966	30360.8
710.31	30345.66
710.654	29966.68
710.998	30189.73
711.342	30227.92
711.687	30023.18
712.031	29983.63
712.375	29914.26
712.719	29928.04
713.063	29817.76
713.407	29853.01
713.75	29640.59
714.094	29649.86
714.438	29508.84
714.782	29594.72
715.125	29396.98
715.469	29458.22
715.812	29280.15
716.156	29180.94
716.499	29208.29
716.843	29162.86
717.186	29039.7
717.53	29134.16
717.873	29142.75
718.216	28989.53
718.559	28995.86
718.902	28632.48
719.246	28787.28
719.589	28658.47
719.932	28566.27
720.275	28684.01
720.617	28581.64
720.96	28425.48
721.303	28541.41
721.646	28563.33
721.989	28374.41
722.331	28477.91
722.674	28274.07
723.016	28295.99
723.359	28268.42
723.701	28248.99
724.044	28161.76
724.386	27983.91
724.729	28091.93
725.071	27993.18
725.413	28070.24
725.755	27937.58
726.097	27826.4
726.439	27698.04
726.782	27796.8
727.124	27846.51
727.465	27687.42
727.807	27607.42
728.149	27568.78
728.491	27584.37
728.833	27606.52
729.175	27484.94
729.516	27374.44
729.858	27470.03
730.199	27419.63
730.541	27279.3
730.882	27253.53
731.224	27283.36
731.565	27084.27
731.906	27185.29
732.248	27126.08
732.589	27124.5
732.93	26978.06
733.271	26934.45
733.612	26996.59
733.953	27083.14
734.294	26893.77
734.635	26822.36
734.976	26827.78
735.317	26810.83
735.658	26771.74
735.999	26586.21
736.339	26669.37
736.68	26754.56
737.021	26598.18
737.361	26474.57
737.702	26585.08
738.042	26429.15
738.383	26513.44
738.723	26590.5
739.063	26327.46
739.404	26472.76
739.744	26291.53
740.084	26242.26
740.424	26259.66
740.764	26046.11
741.104	26193.9
741.444	26049.5
741.784	26009.05
742.124	26141.7
742.464	26016.73
742.804	25967.24
743.143	25909.62
743.483	25828.04
743.823	25792.56
744.162	25629.85
744.502	25788.71
744.841	25601.37
745.181	25727.93
745.52	25645.22
745.86	25550.75
746.199	25630.3
746.538	25462.62
746.877	25521.83
747.216	25495.39
747.556	25397.76
747.895	25503.07
748.234	25179.69
748.573	25243.87
748.911	25259.24
749.25	25215.4
749.589	25028.51
749.928	25189.86
750.267	25154.61
750.605	25028.96
750.944	24978.34
751.283	24940.83
751.621	24948.74
751.96	24782.41
752.298	24832.58
752.636	24790.55
752.975	24640.27
753.313	24623.32
753.651	24782.87
753.989	24534.28
754.327	24551.91
754.666	24435.08
755.004	24529.09
755.342	24339.71
755.679	24399.82
756.017	24251.13
756.355	24348.3
756.693	24180.4
757.031	24143.56
757.368	24080.74
757.706	24014.3
758.044	23949.44
758.381	23953.96
758.719	23854.98
759.056	23883.68
759.394	23705.15
759.731	23701.09
760.068	23600.07
