Data from hue_220_FLMS001491_00047.txt Node
Date: Tue Feb 07 16:39:31 GMT 2017
User: dcchb
Spectrometer: FLMS00149
Trigger mode: 0
Integration Time (sec): 2.000000E-2
Scans to average: 10
Electric dark correction enabled: true
Nonlinearity correction enabled: false
Boxcar width: 0
XAxis mode: Wavelengths
Number of Pixels in Spectrum: 2048
>>>>>Begin Spectral Data<<<<<
341.393	-15.69
341.776	-15.69
342.16	-15.69
342.543	-83.03
342.927	-63.37
343.31	-75.35
343.693	-81.9
344.077	-63.83
344.46	-31.51
344.843	-66.31
345.226	-43.94
345.61	-36.03
345.993	-21.79
346.376	20.01
346.759	1.93
347.142	36.51
347.525	33.57
347.908	57.75
348.291	83.74
348.674	74.93
349.057	112.21
349.44	92.1
349.823	131.2
350.206	166.68
350.588	190.18
350.971	196.51
351.354	217.75
351.737	234.47
352.119	227.47
352.502	258.43
352.884	263.4
353.267	293.9
353.65	280.12
354.032	281.93
354.414	297.52
354.797	302.94
355.179	292.77
355.562	286.45
355.944	324.86
356.326	342.72
356.709	315.6
357.091	330.51
357.473	317.86
357.855	323.73
358.238	313.34
358.62	331.87
359.002	348.82
359.384	329.16
359.766	305.88
360.148	336.62
360.53	324.64
360.912	341.59
361.294	313.11
361.676	317.18
362.057	323.96
362.439	314.47
362.821	299.55
363.203	331.87
363.584	313.11
363.966	318.76
364.348	342.72
364.729	300.23
365.111	306.56
365.493	303.4
365.874	303.17
366.256	313.11
366.637	305.43
367.019	312.21
367.4	320.57
367.781	297.29
368.163	313.79
368.544	309.5
368.925	303.17
369.306	298.65
369.688	317.63
370.069	325.99
370.45	301.81
370.831	299.55
371.212	299.1
371.593	279.89
371.974	301.36
372.355	305.2
372.736	306.79
373.117	302.04
373.498	298.2
373.879	313.57
374.26	299.33
374.641	291.64
375.021	297.52
375.402	306.33
375.783	295.71
376.163	316.28
376.544	318.31
376.925	318.76
377.305	336.16
377.686	329.61
378.066	328.03
378.447	306.56
378.827	315.37
379.208	337.52
379.588	323.28
379.968	332.32
380.349	340.23
380.729	340.01
381.109	333.68
381.489	326.45
381.87	316.5
382.25	323.96
382.63	319.89
383.01	338.2
383.39	325.09
383.77	319.67
384.15	340.23
384.53	335.94
384.91	341.36
385.29	334.36
385.67	352.43
386.049	353.79
386.429	328.71
386.809	336.39
387.189	342.72
387.568	345.65
387.948	347.01
388.328	354.92
388.707	349.72
389.087	351.98
389.466	343.39
389.846	363.96
390.225	364.19
390.605	363.06
390.984	357.63
391.363	366.9
391.743	380.23
392.122	358.08
392.501	367.12
392.881	364.19
393.26	370.96
393.639	365.99
394.018	364.41
394.397	365.77
394.776	377.97
395.155	379.33
395.534	368.48
395.913	375.71
396.292	398.76
396.671	394.47
397.05	390.85
397.429	394.02
397.808	385.2
398.186	397.4
398.565	379.1
398.944	401.92
399.323	402.6
399.701	380.46
400.08	397.18
400.458	412.09
400.837	412.32
401.215	405.99
401.594	403.73
401.972	424.07
402.351	422.26
402.729	441.7
403.107	423.17
403.486	431.53
403.864	428.82
404.242	430.62
404.62	456.84
404.999	437.63
405.377	449.83
405.755	462.94
406.133	466.56
406.511	466.1
406.889	457.74
407.267	493
407.645	485.09
408.023	483.5
408.401	473.34
408.779	496.16
409.156	498.19
409.534	495.48
409.912	501.36
410.29	555.82
410.667	527.34
411.045	558.53
411.422	549.49
411.8	560.56
412.178	551.53
412.555	576.84
412.933	564.41
413.31	580
413.687	597.17
414.065	600.34
414.442	629.04
414.819	628.59
415.197	623.84
415.574	640.11
415.951	644.86
416.328	652.99
416.705	656.38
417.082	667.68
417.46	676.27
417.837	693.67
418.214	688.47
418.591	728.7
418.967	711.97
419.344	696.61
419.721	722.59
420.098	723.27
420.475	757.17
420.852	757.62
421.228	771.18
421.605	780.45
421.982	796.72
422.358	799.65
422.735	834
423.111	818.64
423.488	838.3
423.864	864.74
424.241	871.29
424.617	885.08
424.994	892.08
425.37	915.81
425.746	894.11
426.123	939.76
426.499	941.35
426.875	949.93
427.251	969.59
427.627	1014.11
428.003	1003.94
428.379	1017.73
428.756	1017.73
429.132	1054.11
429.507	1053.88
429.883	1055.92
430.259	1086.2
430.635	1086.43
431.011	1088.91
431.387	1111.96
431.763	1148.12
432.138	1142.92
432.514	1171.17
432.89	1190.6
433.265	1208.68
433.641	1225.86
434.016	1232.86
434.392	1255.69
434.767	1313.54
435.143	1301.34
435.518	1352.63
435.894	1357.15
436.269	1398.96
436.644	1422.91
437.02	1441.22
437.395	1429.02
437.77	1454.33
438.145	1483.48
438.52	1505.4
438.895	1549.24
439.271	1523.02
439.646	1580.42
440.021	1605.51
440.395	1617.26
440.77	1620.2
441.145	1667.65
441.52	1680.53
441.895	1689.35
442.27	1702.68
442.645	1711.04
443.019	1733.64
443.394	1745.62
443.769	1760.08
444.143	1754.21
444.518	1795.11
444.892	1816.12
445.267	1832.62
445.641	1859.06
446.016	1874.88
446.39	1864.03
446.764	1867.87
447.139	1864.71
447.513	1906.07
447.887	1938.38
448.262	1951.71
448.636	1971.15
449.01	1956.01
449.384	2004.14
449.758	2011.15
450.132	2019.28
450.506	2044.37
450.88	2076
451.254	2045.95
451.628	2072.16
452.002	2116.23
452.376	2102.22
452.75	2150.13
453.123	2142.67
453.497	2175.44
453.871	2205.72
454.244	2253.85
454.618	2290.69
454.992	2254.98
455.365	2266.73
455.739	2337.92
456.112	2342.44
456.486	2420.85
456.859	2377.24
457.232	2424.24
457.606	2436.9
457.979	2448.42
458.352	2499.27
458.725	2527.29
459.099	2556.44
459.472	2601.87
459.845	2624.69
460.218	2658.81
460.591	2627.4
460.964	2641.87
461.337	2755.76
461.71	2767.74
462.083	2776.33
462.456	2798.47
462.829	2811.58
463.201	2849.09
463.574	2884.57
463.947	2878.24
464.32	2929.77
464.692	2978.35
465.065	2987.39
465.438	3057
465.81	3105.13
466.183	3103.77
466.555	3196.65
466.928	3190.78
467.3	3174.96
467.672	3252.7
468.045	3337.89
468.417	3326.14
468.789	3367.27
469.161	3395.07
469.534	3430.55
469.906	3532.69
470.278	3501.96
470.65	3568.85
471.022	3598
471.394	3663.99
471.766	3710.76
472.138	3737.88
472.51	3803.87
472.882	3875.28
473.253	3891.55
473.625	3904.21
473.997	3996.41
474.369	4028.5
474.74	4072.11
475.112	4160.47
475.484	4166.35
475.855	4280.47
476.227	4334.48
476.598	4397.3
476.97	4437.07
477.341	4455.15
477.713	4546.22
478.084	4574.24
478.455	4699.21
478.827	4732.43
479.198	4872.32
479.569	4881.81
479.94	4960.22
480.311	5049.94
480.682	5087.45
481.053	5134.68
481.424	5275.69
481.795	5299.65
482.166	5384.62
482.537	5445.18
482.908	5518.17
483.279	5582.13
483.65	5612.86
484.021	5765.63
484.391	5821.22
484.762	5869.58
485.133	5864.38
485.503	5965.39
485.874	6113.86
486.244	6117.93
486.615	6212.17
486.985	6279.96
487.356	6375.55
487.726	6381.2
488.097	6490.58
488.467	6508.2
488.837	6704.81
489.207	6702.1
489.578	6793.17
489.948	6845.6
490.318	6881.53
490.688	6935.76
491.058	7039.04
491.428	7126.04
491.798	7086.72
492.168	7274.96
492.538	7304.12
492.908	7301.86
493.278	7419.59
493.648	7411.23
494.017	7491.91
494.387	7597.89
494.757	7611.45
495.126	7672.24
495.496	7706.37
495.866	7742.52
496.235	7839.24
496.605	7891.9
496.974	7938.22
497.344	7982.97
497.713	7995.4
498.082	8027.49
498.452	8091.44
498.821	8128.73
499.19	8182.74
499.559	8181.38
499.928	8241.49
500.298	8311.1
500.667	8331.89
501.036	8321.49
501.405	8387.03
501.774	8414.14
502.143	8403.97
502.512	8447.36
502.88	8489.17
503.249	8429.51
503.618	8528.94
503.987	8575.04
504.356	8492.11
504.724	8608.71
505.093	8583.18
505.462	8620.69
505.83	8664.53
506.199	8747.92
506.567	8754.02
506.936	8768.48
507.304	8857.75
507.672	8873.79
508.041	8936.39
508.409	8935.71
508.777	8995.82
509.145	9048.7
509.514	8977.74
509.882	9039.66
510.25	9034.47
510.618	9086.44
510.986	9105.65
511.354	9119.44
511.722	9154.24
512.09	9263.84
512.458	9183.16
512.826	9253.67
513.193	9334.8
513.561	9247.79
513.929	9266.78
514.297	9313.33
514.664	9352.42
515.032	9344.29
515.4	9357.4
515.767	9385.42
516.135	9419.99
516.502	9372.08
516.869	9388.58
517.237	9446.66
517.604	9371.41
517.972	9455.02
518.339	9531.63
518.706	9447.56
519.073	9430.16
519.44	9539.54
519.808	9504.74
520.175	9489.37
520.542	9549.48
520.909	9538.63
521.276	9547.22
521.643	9663.38
522.009	9645.3
522.376	9677.16
522.743	9598.07
523.11	9694.34
523.477	9726.88
523.843	9791.28
524.21	9777.5
524.577	9781.11
524.943	9826.99
525.31	9798.97
525.676	9885.06
526.043	9845.97
526.409	9909.7
526.776	9910.38
527.142	9991.5
527.508	9906.76
527.874	9945.63
528.241	9902.92
528.607	9937.27
528.973	9990.15
529.339	9989.69
529.705	9969.36
530.071	10060.65
530.437	9950.15
530.803	10006.19
531.169	9995.34
531.535	10014.1
531.901	9956.02
532.267	9996.47
532.632	10015.01
532.998	9995.12
533.364	9979.98
533.73	9944.05
534.095	9998.73
534.461	10003.25
534.826	9990.6
535.192	9972.07
535.557	10005.74
535.923	9941.79
536.288	9947.66
536.653	9963.71
537.019	9895.01
537.384	9930.04
537.749	9901.56
538.114	9925.06
538.479	9827.67
538.845	9821.79
539.21	9871.96
539.575	9799.64
539.94	9840.55
540.305	9765.75
540.67	9821.11
541.034	9755.35
541.399	9790.6
541.764	9736.14
542.129	9789.93
542.494	9730.94
542.858	9716.26
543.223	9654.79
543.587	9722.36
543.952	9630.83
544.316	9689.59
544.681	9651.17
545.045	9591.29
545.41	9652.98
545.774	9563.27
546.138	9574.11
546.503	9604.39
546.867	9546.09
547.231	9580.89
547.595	9562.14
547.959	9489.6
548.324	9365.08
548.688	9467.45
549.052	9405.98
549.416	9409.37
549.779	9397.62
550.143	9377.51
550.507	9416.15
550.871	9413.89
551.235	9367.34
551.599	9334.8
551.962	9262.03
552.326	9259.32
552.689	9279.43
553.053	9249.15
553.417	9255.7
553.78	9335.93
554.143	9239.88
554.507	9343.61
554.87	9239.88
555.234	9279.66
555.597	9165.54
555.96	9229.04
556.323	9224.74
556.686	9181.81
557.05	9291.41
557.413	9218.64
557.776	9219.77
558.139	9204.63
558.502	9206.44
558.865	9180.68
559.228	9178.19
559.59	9178.87
559.953	9267.45
560.316	9215.48
560.679	9230.17
561.041	9221.13
561.404	9259.77
561.767	9284.63
562.129	9213.44
562.492	9268.13
562.854	9249.15
563.217	9291.41
563.579	9245.31
563.941	9341.12
564.304	9285.76
564.666	9333.89
565.028	9312.2
565.39	9335.02
565.753	9394
566.115	9385.42
566.477	9352.88
566.839	9463.38
567.201	9387.45
567.563	9361.91
567.925	9451.4
568.287	9471.52
568.648	9460.67
569.01	9462.03
569.372	9594.23
569.734	9445.3
570.095	9569.37
570.457	9557.84
570.819	9589.03
571.18	9485.08
571.542	9556.94
571.903	9537.96
572.265	9626.99
572.626	9625.41
572.987	9689.14
573.349	9728.01
573.71	9732.98
574.071	9676.93
574.432	9689.82
574.794	9808.68
575.155	9777.05
575.516	9725.75
575.877	9826.76
576.238	9792.64
576.599	9817.72
576.96	9815.01
577.32	9829.47
577.681	9893.88
578.042	9923.03
578.403	9929.36
578.763	9865.4
579.124	9985.4
579.485	9992.41
579.845	10015.91
580.206	10015.01
580.566	10022.01
580.927	10034.67
581.287	10109.24
581.648	10078.28
582.008	10068.34
582.368	10089.81
582.728	10095.23
583.089	10125.06
583.449	10133.19
583.809	10179.52
584.169	10200.08
584.529	10148.56
584.889	10224.72
585.249	10224.49
585.609	10156.24
585.969	10250.48
586.329	10238.28
586.688	10299.29
587.048	10296.58
587.408	10251.61
587.768	10289.8
588.127	10232.63
588.487	10270.59
588.846	10368.22
589.206	10334.77
589.565	10414.32
589.925	10323.02
590.284	10396.92
590.643	10390.81
591.003	10431.04
591.362	10466.52
591.721	10440.08
592.08	10394.66
592.44	10503.58
592.799	10504.03
593.158	10485.05
593.517	10513.97
593.876	10484.15
594.235	10507.87
594.593	10456.8
594.952	10560.98
595.311	10458.61
595.67	10543.35
596.029	10593.75
596.387	10586.29
596.746	10585.61
597.104	10572.73
597.463	10580.41
597.822	10674.87
598.18	10573.86
598.538	10590.36
598.897	10597.59
599.255	10527.99
599.613	10672.61
599.972	10615.89
600.33	10631.94
600.688	10597.81
601.046	10666.29
601.404	10650.02
601.762	10676.23
602.12	10685.95
602.478	10711.71
602.836	10727.75
603.194	10680.3
603.552	10706.74
603.91	10674.2
604.268	10701.31
604.625	10674.65
604.983	10789.9
605.341	10758.04
605.698	10778.6
606.056	10777.7
606.413	10791.03
606.771	10751.71
607.128	10778.6
607.485	10749.9
607.843	10787.64
608.2	10791.93
608.557	10854.98
608.914	10795.78
609.272	10829.45
609.629	10868.99
609.986	10878.49
610.343	10837.81
610.7	10891.82
611.057	10908.31
611.414	10886.85
611.771	10878.94
612.127	10986.5
612.484	10990.35
612.841	10985.83
613.198	10944.02
613.554	10903.12
613.911	11000.29
614.267	11012.94
614.624	11003.23
614.98	11012.04
615.337	11056.33
615.693	11022.21
616.05	11016.33
616.406	11157.35
616.762	11024.24
617.118	11078.48
617.475	11072.6
617.831	11068.99
618.187	11174.97
618.543	11116.67
618.899	11103.34
619.255	11157.35
619.611	11103.56
619.967	11169.78
620.323	11186.05
620.678	11123.9
621.034	11141.3
621.39	11084.36
621.746	11074.41
622.101	11259.49
622.457	11178.59
622.812	11140.4
623.168	11226.27
623.523	11121.42
623.879	11184.47
624.234	11141.08
624.589	11167.29
624.945	11133.39
625.3	11175.88
625.655	11216.33
626.01	11189.44
626.365	11182.21
626.72	11154.41
627.075	11106.95
627.43	11170.23
627.785	11163
628.14	11144.24
628.495	11163.9
628.85	11079.84
629.205	11104.24
629.559	11171.36
629.914	11088.65
630.269	11118.93
630.623	11066.73
630.978	11057.92
631.332	11039.38
631.687	11211.58
632.041	11071.47
632.396	11014.53
632.75	11040.06
633.104	10949.22
633.459	10978.37
633.813	10995.77
634.167	10973.62
634.521	10947.41
634.875	10997.8
635.229	11005.04
635.583	10854.76
635.937	10947.18
636.291	10893.63
636.645	10843.46
636.999	10864.02
637.352	10855.43
637.706	10772.73
638.06	10833.74
638.413	10805.72
638.767	10781.99
639.121	10840.75
639.474	10775.89
639.828	10730.47
640.181	10780.18
640.534	10709.45
640.888	10694.99
641.241	10689.34
641.594	10716.91
641.947	10777.92
642.301	10767.75
642.654	10686.4
643.007	10669.68
643.36	10691.6
643.713	10641.88
644.066	10751.03
644.419	10619.28
644.771	10608.44
645.124	10554.43
645.477	10565.27
645.83	10474.65
646.182	10386.52
646.535	10339.74
646.888	10389.01
647.24	10306.52
647.593	10377.48
647.945	10316.47
648.298	10222.01
648.65	10278.27
649.002	10300.2
649.355	10337.93
649.707	10277.82
650.059	10362.34
650.411	10464.48
650.763	10534.99
651.115	10578.83
651.467	10539.06
651.819	10543.35
652.171	10609.34
652.523	10464.26
652.875	10431.72
653.227	10548.55
653.578	10513.07
653.93	10502.9
654.282	10481.89
654.633	10457.25
654.985	10462.45
655.337	10481.66
655.688	10537.7
656.039	10584.93
656.391	10472.62
656.742	10466.52
657.094	10579.74
657.445	10523.92
657.796	10424.26
658.147	10484.6
658.498	10520.3
658.849	10573.63
659.2	10499.51
659.551	10503.81
659.902	10549.45
660.253	10537.25
660.604	10575.89
660.955	10517.82
661.306	10600.3
661.656	10543.58
662.007	10500.64
662.358	10509.23
662.708	10536.35
663.059	10516.91
663.409	10491.38
663.76	10575.44
664.11	10548.32
664.461	10560.3
664.811	10562.11
665.161	10505.16
665.511	10531.83
665.862	10553.97
666.212	10567.31
666.562	10544.48
666.912	10568.21
667.262	10505.61
667.612	10539.06
667.962	10525.5
668.312	10544.48
668.662	10549.68
669.011	10510.59
669.361	10520.53
669.711	10499.96
670.06	10496.57
670.41	10546.06
670.76	10474.2
671.109	10522.79
671.459	10519.62
671.808	10410.25
672.157	10581.54
672.507	10439.63
672.856	10435.11
673.205	10451.6
673.554	10443.02
673.904	10426.52
674.253	10458.84
674.602	10469.46
674.951	10337.48
675.3	10308.78
675.649	10372.28
675.998	10386.07
676.346	10337.03
676.695	10406.86
677.044	10294.77
677.393	10357.14
677.741	10369.8
678.09	10372.74
678.438	10278.95
678.787	10293.42
679.135	10318.95
679.484	10232.63
679.832	10292.51
680.181	10206.64
680.529	10237.37
680.877	10294.09
681.225	10182.46
681.573	10267.65
681.922	10144.72
682.27	10136.81
682.618	10116.25
682.966	10053.42
683.314	10063.37
683.661	10076.25
684.009	10039.64
684.357	10024.72
684.705	10015.46
685.053	10016.59
685.4	9982.92
685.748	9914.89
686.095	9915.12
686.443	9890.71
686.79	9859.53
687.138	9921.67
687.485	9870.83
687.832	9767.55
688.18	9842.58
688.527	9823.15
688.874	9749.93
689.221	9719.87
689.568	9678.52
689.915	9676.03
690.262	9671.96
690.609	9653.88
690.956	9562.81
691.303	9586.77
691.65	9534.34
691.997	9505.41
692.344	9434.91
692.69	9447.34
693.037	9352.2
693.383	9317.4
693.73	9408.24
694.077	9267.91
694.423	9315.14
694.769	9232.88
695.116	9143.16
695.462	9198.53
695.808	9167.57
696.155	9209.38
696.501	9071.3
696.847	9102.71
697.193	8982.72
697.539	8984.3
697.885	8927.12
698.231	8935.94
698.577	8889.84
698.923	8930.97
699.269	8884.41
699.614	8756.28
699.96	8749.05
700.306	8780.91
700.651	8732.33
700.997	8686.68
701.342	8629.05
701.688	8653.01
702.033	8571.43
702.379	8580.92
702.724	8512.67
703.069	8543.41
703.415	8458.66
703.76	8454.14
704.105	8519.23
704.45	8416.63
704.795	8405.78
705.14	8351.55
705.485	8319
705.83	8290.98
706.175	8284.88
706.52	8253.02
706.865	8213.02
707.209	8208.72
707.554	8192.91
707.899	8190.87
708.243	8126.69
708.588	8144.32
708.932	8095.06
709.277	8050.99
709.621	8088.28
709.966	8015.74
710.31	7972.35
710.654	8020.48
710.998	7971.89
711.342	7970.99
711.687	7968.28
712.031	7858.68
712.375	7841.95
712.719	7867.72
713.063	7858.23
713.407	7848.73
713.75	7768.51
714.094	7792.24
714.438	7681.28
714.782	7795.63
715.125	7753.37
715.469	7745.23
715.812	7722.86
716.156	7693.94
716.499	7620.49
716.843	7697.1
717.186	7680.15
717.53	7719.25
717.873	7664.78
718.216	7714.5
718.559	7653.49
718.902	7551.34
719.246	7552.02
719.589	7602.19
719.932	7562.87
720.275	7541.17
720.617	7531
720.96	7523.77
721.303	7572.36
721.646	7526.03
721.989	7514.51
722.331	7502.53
722.674	7499.36
723.016	7445.81
723.359	7474.51
723.701	7504.11
724.044	7502.08
724.386	7416.66
724.729	7497.78
725.071	7446.26
725.413	7448.52
725.755	7436.54
726.097	7340.05
726.439	7394.06
726.782	7414.17
727.124	7401.51
727.465	7350.89
727.807	7383.21
728.149	7395.64
728.491	7308.41
728.833	7336.21
729.175	7338.47
729.516	7352.7
729.858	7278.58
730.199	7342.53
730.541	7297.34
730.882	7376.43
731.224	7335.08
731.565	7340.95
731.906	7336.21
732.248	7351.57
732.589	7313.38
732.93	7269.99
733.271	7315.64
733.612	7291.91
733.953	7315.19
734.294	7328.75
734.635	7314.51
734.976	7350.44
735.317	7319.71
735.658	7321.29
735.999	7320.39
736.339	7294.17
736.68	7387.05
737.021	7334.4
737.361	7386.6
737.702	7386.37
738.042	7323.78
738.383	7399.71
738.723	7363.55
739.063	7368.07
739.404	7394.51
739.744	7431.34
740.084	7371.01
740.424	7374.85
740.764	7426.37
741.104	7504.11
741.444	7471.8
741.784	7404.9
742.124	7515.64
742.464	7527.39
742.804	7482.64
743.143	7515.64
743.483	7488.74
743.823	7505.01
744.162	7534.39
744.502	7615.97
744.841	7594.05
745.181	7676.76
745.52	7589.98
745.86	7716.31
746.199	7758.12
746.538	7788.17
746.877	7800.6
747.216	7857.32
747.556	7902.74
747.895	7945.68
748.234	7989.3
748.573	7987.26
748.911	8091.67
749.25	8124.66
749.589	8157.65
749.928	8257.31
750.267	8327.82
750.605	8403.75
750.944	8436.06
751.283	8485.78
751.621	8602.84
751.96	8575.72
752.298	8702.5
752.636	8871.08
752.975	8916.05
753.313	8987.01
753.651	9122.37
753.989	9170.06
754.327	9299.32
754.666	9392.42
755.004	9557.84
755.342	9632.64
755.679	9793.09
756.017	9895.69
756.355	10057.04
756.693	10205.96
757.031	10369.35
757.368	10428.78
757.706	10577.48
758.044	10709.45
758.381	10859.05
758.719	10923.23
759.056	11183.56
759.394	11342.43
759.731	11489.54
760.068	11593.49
760.405	11751.91
760.743	11806.37
761.08	12089.53
761.417	12239.58
761.754	12396.41
762.091	12649.74
762.428	12844.31
762.765	12913.23
