Data from hue_160_FLMS001491_00046.txt Node
Date: Tue Feb 07 16:51:14 GMT 2017
User: dcchb
Spectrometer: FLMS00149
Trigger mode: 0
Integration Time (sec): 2.000000E-2
Scans to average: 10
Electric dark correction enabled: true
Nonlinearity correction enabled: false
Boxcar width: 0
XAxis mode: Wavelengths
Number of Pixels in Spectrum: 2048
>>>>>Begin Spectral Data<<<<<
341.393	-35.41
341.776	-35.41
342.16	-35.41
342.543	-64.56
342.927	-66.14
343.31	-81.96
343.693	-71.57
344.077	-47.39
344.46	-72.24
344.843	-40.38
345.226	-55.97
345.61	-29.76
345.993	-19.59
346.376	3.01
346.759	1.2
347.142	27.19
347.525	34.42
347.908	48.66
348.291	88.2
348.674	94.76
349.057	121.42
349.44	105.6
349.823	142.21
350.206	147.19
350.588	179.95
350.971	217.69
351.354	223.12
351.737	223.79
352.119	243.91
352.502	260.63
352.884	280.52
353.267	273.96
353.65	289.78
354.032	276.67
354.414	306.05
354.797	301.31
355.179	304.47
355.562	320.74
355.944	301.31
356.326	339.95
356.709	319.61
357.091	324.36
357.473	346.28
357.855	323.45
358.238	327.75
358.62	353.51
359.002	332.49
359.384	339.5
359.766	339.04
360.148	328.65
360.53	315.09
360.912	324.58
361.294	315.32
361.676	314.86
362.057	320.74
362.439	304.02
362.821	325.03
363.203	313.51
363.584	302.21
363.966	304.02
364.348	306.96
364.729	299.05
365.111	306.73
365.493	302.44
365.874	291.59
366.256	335.66
366.637	329.78
367.019	330.01
367.4	306.05
367.781	291.14
368.163	307.41
368.544	303.57
368.925	310.12
369.306	312.38
369.688	301.76
370.069	313.06
370.45	294.53
370.831	303.34
371.212	302.66
371.593	301.08
371.974	322.32
372.355	288.65
372.736	322.1
373.117	315.99
373.498	299.27
373.879	304.24
374.26	318.03
374.641	307.41
375.021	308.54
375.402	287.52
375.783	295.88
376.163	305.83
376.544	311.47
376.925	315.77
377.305	302.89
377.686	315.99
378.066	313.73
378.447	328.42
378.827	333.4
379.208	332.04
379.588	341.3
379.968	328.88
380.349	318.71
380.729	317.35
381.109	349.67
381.489	313.73
381.87	330.68
382.25	313.06
382.63	309.44
383.01	342.66
383.39	312.6
383.77	343.79
384.15	332.49
384.53	341.3
384.91	342.21
385.29	353.51
385.67	337.46
386.049	321.87
386.429	320.29
386.809	341.08
387.189	336.56
387.568	337.01
387.948	336.56
388.328	349.89
388.707	330.23
389.087	365.26
389.466	340.4
389.846	350.8
390.225	336.11
390.605	324.13
390.984	347.86
391.363	347.41
391.743	354.41
392.122	366.16
392.501	365.94
392.881	328.42
393.26	357.8
393.639	358.71
394.018	380.4
394.397	363.9
394.776	356.9
395.155	369.33
395.534	374.52
395.913	371.13
396.292	371.59
396.671	384.02
397.05	363
397.429	362.32
397.808	381.08
398.186	376.33
398.565	385.37
398.944	367.97
399.323	363.22
399.701	392.38
400.08	380.17
400.458	372.26
400.837	392.83
401.215	386.28
401.594	388.08
401.972	385.6
402.351	382.89
402.729	377.24
403.107	414.07
403.486	376.33
403.864	399.83
404.242	383.56
404.62	391.47
404.999	421.75
405.377	419.95
405.755	414.75
406.133	410.23
406.511	419.72
406.889	419.49
407.267	437.12
407.645	400.51
408.023	438.7
408.401	420.4
408.779	418.14
409.156	416.78
409.534	435.99
409.912	431.25
410.29	444.35
410.667	450.91
411.045	449.78
411.422	445.71
411.8	440.96
412.178	452.49
412.555	456.78
412.933	452.71
413.31	451.36
413.687	441.87
414.065	473.5
414.442	457.69
414.819	461.3
415.197	493.84
415.574	479.38
415.951	501.98
416.328	478.02
416.705	492.26
417.082	507.63
417.46	497.46
417.837	505.59
418.214	504.46
418.591	486.39
418.967	512.15
419.344	498.14
419.721	495.42
420.098	509.44
420.475	506.72
420.852	507.4
421.228	535.2
421.605	533.16
421.982	531.13
422.358	539.27
422.735	542.88
423.111	542.43
423.488	565.93
423.864	546.04
424.241	555.54
424.617	551.02
424.994	573.39
425.37	573.84
425.746	552.82
426.123	583.33
426.499	582.2
426.875	568.42
427.251	559.83
427.627	595.31
428.003	575.87
428.379	609.77
428.756	602.09
429.132	584.24
429.507	623.78
429.883	611.35
430.259	608.64
430.635	623.78
431.011	639.38
431.387	685.7
431.763	667.17
432.138	654.06
432.514	663.56
432.89	651.8
433.265	680.5
433.641	685.48
434.016	689.32
434.392	696.55
434.767	723.44
435.143	699.94
435.518	723.22
435.894	702.88
436.269	712.59
436.644	704.46
437.02	729.09
437.395	739.71
437.77	767.06
438.145	759.6
438.52	753.5
438.895	760.73
439.271	777
439.646	787.62
440.021	785.59
440.395	787.17
440.77	770.22
441.145	791.01
441.52	845.02
441.895	822.42
442.27	821.74
442.645	809.77
443.019	825.36
443.394	817
443.769	861.97
444.143	853.16
444.518	853.83
444.892	858.13
445.267	858.35
445.641	882.76
446.016	885.7
446.39	864.91
446.764	892.48
447.139	876.88
447.513	882.99
447.887	925.47
448.262	904
448.636	915.07
449.01	901.52
449.384	943.32
449.758	938.8
450.132	932.7
450.506	932.93
450.88	964.57
451.254	954.4
451.628	959.82
452.002	998.24
452.376	985.58
452.75	1013.6
453.123	992.81
453.497	1001.85
453.871	1008.41
454.244	1037.33
454.618	1051.12
454.992	1066.94
455.365	1061.51
455.739	1078.01
456.112	1115.07
456.486	1102.41
456.859	1082.53
457.232	1121.85
457.606	1129.53
457.979	1134.73
458.352	1166.14
458.725	1176.54
459.099	1199.59
459.472	1240.26
459.845	1217.44
460.218	1216.99
460.591	1238.91
460.964	1242.52
461.337	1252.02
461.71	1288.62
462.083	1299.25
462.456	1315.52
462.829	1326.59
463.201	1347.61
463.574	1355.29
463.947	1388.73
464.32	1435.29
464.692	1415.85
465.065	1444.55
465.438	1452.69
465.81	1501.95
466.183	1508.05
466.555	1550.31
466.928	1516.87
467.3	1557.32
467.672	1590.99
468.045	1626.47
468.417	1632.8
468.789	1648.39
469.161	1728.61
469.534	1699.69
469.906	1765.45
470.278	1762.96
470.65	1830.76
471.022	1843.64
471.394	1885.67
471.766	1917.31
472.138	1928.38
472.51	1958.44
472.882	2040.69
473.253	2089.28
473.625	2110.98
473.997	2167.92
474.369	2225.32
474.74	2254.93
475.112	2298.32
475.484	2349.84
475.855	2414.02
476.227	2436.39
476.598	2468.25
476.97	2595.71
477.341	2629.61
477.713	2710.96
478.084	2743.95
478.455	2822.6
478.827	2895.36
479.198	2951.41
479.569	3046.54
479.94	3125.64
480.311	3188.01
480.682	3275.92
481.053	3402.92
481.424	3474.33
481.795	3565.4
482.166	3611.95
482.537	3714.78
482.908	3806.3
483.279	3906.63
483.65	4050.81
484.021	4131.49
484.391	4239.28
484.762	4315.44
485.133	4399.05
485.503	4466.17
485.874	4656.67
486.244	4741.19
486.615	4898.47
486.985	4970.79
487.356	5157
487.726	5215.53
488.097	5357.44
488.467	5400.38
488.837	5613.71
489.207	5709.98
489.578	5855.06
489.948	5937.77
490.318	6087.82
490.688	6213.24
491.058	6389.06
491.428	6469.96
491.798	6579.11
492.168	6706.56
492.538	6868.59
492.908	6985.42
493.278	7133.44
493.648	7155.59
494.017	7360.33
494.387	7481.91
494.757	7525.52
495.126	7708.34
495.496	7768.91
495.866	7829.24
496.235	8019.52
496.605	8124.83
496.974	8219.97
497.344	8349.23
497.713	8460.87
498.082	8520.52
498.452	8663.8
498.821	8751.25
499.19	8767.52
499.559	8960.51
499.928	9065.37
500.298	9062.21
500.667	9260.84
501.036	9243.67
501.405	9407.05
501.774	9430.33
502.143	9530.44
502.512	9618.8
502.88	9697.22
503.249	9697.89
503.618	9779.25
503.987	9865.57
504.356	9991.9
504.724	10005.46
505.093	10055.17
505.462	10099.47
505.83	10180.82
506.199	10285
506.567	10350.53
506.936	10373.36
507.304	10515.27
507.672	10585.33
508.041	10664.65
508.409	10664.65
508.777	10781.03
509.145	10873.23
509.514	10893.34
509.882	10886.56
510.25	10884.53
510.618	11025.54
510.986	10971.31
511.354	11083.85
511.722	11116.16
512.09	11260.57
512.458	11210.85
512.826	11345.08
513.193	11404.29
513.561	11367
513.929	11511.18
514.297	11475.25
514.664	11586.88
515.032	11606.09
515.4	11627.56
515.767	11602.25
516.135	11662.81
516.502	11603.61
516.869	11743.94
517.237	11762.25
517.604	11748.46
517.972	11803.38
518.339	11898.97
518.706	11826.88
519.073	11855.35
519.44	11971.28
519.808	12009.92
520.175	11931.96
520.542	12032.75
520.909	12076.82
521.276	12057.61
521.643	12156.81
522.009	12159.07
522.376	12151.16
522.743	12119.75
523.11	12300.31
523.477	12269.58
523.843	12293.08
524.21	12490.36
524.577	12389.8
524.943	12413.98
525.31	12387.99
525.676	12493.08
526.043	12507.99
526.409	12482.68
526.776	12632.28
527.142	12548.44
527.508	12562.9
527.874	12611.26
528.241	12583.47
528.607	12559.29
528.973	12649.23
529.339	12593.64
529.705	12609.68
530.071	12732.39
530.437	12644.26
530.803	12729.23
531.169	12684.26
531.535	12580.08
531.901	12594.77
532.267	12590.7
532.632	12623.02
532.998	12585.73
533.364	12624.6
533.73	12583.02
534.095	12605.39
534.461	12592.96
534.826	12560.19
535.192	12569.46
535.557	12590.7
535.923	12517.93
536.288	12509.8
536.653	12495.56
537.019	12383.93
537.384	12472.29
537.749	12403.13
538.114	12373.98
538.479	12261.9
538.845	12382.34
539.21	12180.32
539.575	12179.19
539.94	12252.63
540.305	12265.51
540.67	12085.18
541.034	12111.84
541.399	12076.59
541.764	12091.28
542.129	12051.05
542.494	11990.26
542.858	12002.69
543.223	11952.52
543.587	12006.99
543.952	11891.06
544.316	11821.68
544.681	11805.18
545.045	11778.97
545.41	11884.05
545.774	11767.22
546.138	11664.4
546.503	11712.98
546.867	11636.37
547.231	11690.38
547.595	11632.76
547.959	11576.72
548.324	11594.57
548.688	11512.54
549.052	11539.88
549.416	11476.83
549.779	11439.09
550.143	11408.81
550.507	11410.84
550.871	11342.6
551.235	11315.03
551.599	11339.43
551.962	11264.41
552.326	11231.19
552.689	11218.98
553.053	11109.83
553.417	11168.59
553.78	11250.4
554.143	11108.71
554.507	11131.76
554.87	11138.53
555.234	11091.08
555.597	11071.19
555.96	11083.17
556.323	11017.18
556.686	11005.43
557.05	11000.69
557.413	11060.34
557.776	10954.13
558.139	10937.64
558.502	10986
558.865	10972.21
559.228	10988.03
559.59	10968.37
559.953	10984.64
560.316	10988.93
560.679	10888.15
561.041	10947.13
561.404	11036.84
561.767	11069.84
562.129	11031.87
562.492	11019.67
562.854	10932.89
563.217	10971.53
563.579	11005.43
563.941	11002.95
564.304	11022.83
564.666	11025.09
565.028	11001.14
565.39	11039.55
565.753	11038.2
566.115	10989.39
566.477	11047.69
566.839	11080.91
567.201	11040.01
567.563	11101.7
567.925	11114.13
568.287	11128.82
568.648	11090.63
569.01	11098.54
569.372	11122.94
569.734	11125.65
570.095	11219.44
570.457	11243.62
570.819	11150.51
571.18	11251.53
571.542	11222.15
571.903	11175.82
572.265	11300.34
572.626	11260.11
572.987	11211.08
573.349	11221.02
573.71	11240
574.071	11223.28
574.432	11322.26
574.794	11298.08
575.155	11274.8
575.516	11246.55
575.877	11285.42
576.238	11353.67
576.599	11350.96
576.96	11345.99
577.32	11338.98
577.681	11371.3
578.042	11371.75
578.403	11321.35
578.763	11282.94
579.124	11423.95
579.485	11364.07
579.845	11323.16
580.206	11346.21
580.566	11317.74
580.927	11309.6
581.287	11350.96
581.648	11251.98
582.008	11409.94
582.368	11344.86
582.728	11327.91
583.089	11310.06
583.449	11281.81
583.809	11315.48
584.169	11355.48
584.529	11299.66
584.889	11331.75
585.249	11247.91
585.609	11211.98
585.969	11432.99
586.329	11263.05
586.688	11270.96
587.048	11258.76
587.408	11266.44
587.768	11238.65
588.127	11261.7
588.487	11156.16
588.846	11225.09
589.206	11186.44
589.565	11167.01
589.925	11173.11
590.284	11165.65
590.643	11129.72
591.003	11218.76
591.362	11195.48
591.721	11161.13
592.08	11175.6
592.44	11229.83
592.799	11192.54
593.158	11135.6
593.517	11042.04
593.876	11155.48
594.235	11118.65
594.593	11035.49
594.952	11096.5
595.311	11113.22
595.67	11020.57
596.029	11163.84
596.387	11125.65
596.746	11064.19
597.104	11080.23
597.463	11045.2
597.822	11111.64
598.18	11071.42
598.538	11019.67
598.897	11030.74
599.255	11014.92
599.613	11103.73
599.972	11059.44
600.33	11047.01
600.688	11048.59
601.046	11076.16
601.404	11094.24
601.762	11029.84
602.12	11092.43
602.478	11009.27
602.836	11149.83
603.194	11041.14
603.552	11093.11
603.91	10947.13
604.268	11044.98
604.625	11102.38
604.983	11068.25
605.341	11007.69
605.698	11087.69
606.056	11007.01
606.413	11079.33
606.771	11141.02
607.128	11127.46
607.485	11013.11
607.843	11074.36
608.2	11113.45
608.557	11150.06
608.914	11029.39
609.272	11115.03
609.629	11138.08
609.986	11158.2
610.343	11133.79
610.7	11185.54
611.057	11183.73
611.414	11176.05
611.771	11148.03
612.127	11200.45
612.484	11164.75
612.841	11258.98
613.198	11159.78
613.554	11202.26
613.911	11264.63
614.267	11197.74
614.624	11254.01
614.98	11265.09
615.337	11292.66
615.693	11262.37
616.05	11248.14
616.406	11253.56
616.762	11283.16
617.118	11254.69
617.475	11298.53
617.831	11286.1
618.187	11336.04
618.543	11321.81
618.899	11341.02
619.255	11345.99
619.611	11345.76
619.967	11360.22
620.323	11412.2
620.678	11289.94
621.034	11325.87
621.39	11251.75
621.746	11344.63
622.101	11455.59
622.457	11312.54
622.812	11381.47
623.168	11446.1
623.523	11315.25
623.879	11419.21
624.234	11245.2
624.589	11338.53
624.945	11356.38
625.3	11388.02
625.655	11453.1
626.01	11384.63
626.365	11331.98
626.72	11358.19
627.075	11377.85
627.43	11265.31
627.785	11300.34
628.14	11314.35
628.495	11412.43
628.85	11329.04
629.205	11349.83
629.559	11377.85
629.914	11289.27
630.269	11330.62
630.623	11281.81
630.978	11229.61
631.332	11275.71
631.687	11286.78
632.041	11264.63
632.396	11251.53
632.75	11211.08
633.104	11163.17
633.459	11167.46
633.813	11181.02
634.167	11200.68
634.521	11189.38
634.875	11188.03
635.229	11141.7
635.583	11147.8
635.937	11131.76
636.291	11042.27
636.645	11152.55
636.999	11029.61
637.352	11088.37
637.706	11081.81
638.06	11096.5
638.413	11038.2
638.767	10901.03
639.121	11004.3
639.474	10892.44
639.828	11013.34
640.181	11003.4
640.534	10965.43
640.888	10997.07
641.241	10895.15
641.594	10964.08
641.947	10961.14
642.301	10907.13
642.654	10917.98
643.007	10937.86
643.36	10914.13
643.713	10916.62
644.066	10888.82
644.419	10813.12
644.771	10729.28
645.124	10629.4
645.477	10690.19
645.83	10617.64
646.182	10551.66
646.535	10579.23
646.888	10576.06
647.24	10538.78
647.593	10584.43
647.945	10560.7
648.298	10527.93
648.65	10527.7
649.002	10495.84
649.355	10501.94
649.707	10536.52
650.059	10512.56
650.411	10662.39
650.763	10647.25
651.115	10808.6
651.467	10713.01
651.819	10720.92
652.171	10736.74
652.523	10700.13
652.875	10717.98
653.227	10559.79
653.578	10755.49
653.93	10702.61
654.282	10686.12
654.633	10625.78
654.985	10709.17
655.337	10716.4
655.688	10681.82
656.039	10733.35
656.391	10673.91
656.742	10748.49
657.094	10750.75
657.445	10756.17
657.796	10700.35
658.147	10764.53
658.498	10694.93
658.849	10754.14
659.2	10650.19
659.551	10703.52
659.902	10775.83
660.253	10723.63
660.604	10747.58
660.955	10707.36
661.306	10732.67
661.656	10717.08
662.007	10751.2
662.358	10720.24
662.708	10779.67
663.059	10758.66
663.409	10737.42
663.76	10807.7
664.11	10767.7
664.461	10823.06
664.811	10830.29
665.161	10787.13
665.511	10757.08
665.862	10799.56
666.212	10842.95
666.562	10814.25
666.912	10752.33
667.262	10746.45
667.612	10755.04
667.962	10804.08
668.312	10836.62
668.662	10787.36
669.011	10779.9
669.361	10782.84
669.711	10783.97
670.06	10765.66
670.41	10686.57
670.76	10809.5
671.109	10738.32
671.459	10771.76
671.808	10724.76
672.157	10732.22
672.507	10695.83
672.856	10706.68
673.205	10664.2
673.554	10689.51
673.904	10706
674.253	10743.52
674.602	10712.33
674.951	10588.94
675.3	10426.46
675.649	10603.41
675.998	10625.1
676.346	10596.63
676.695	10623.75
677.044	10546.69
677.393	10628.27
677.741	10591.2
678.09	10607.7
678.438	10514.82
678.787	10569.51
679.135	10594.82
679.484	10499.46
679.832	10514.37
680.181	10434.15
680.529	10471.21
680.877	10481.83
681.225	10428.27
681.573	10444.32
681.922	10337.2
682.27	10368.39
682.618	10290.87
682.966	10341.72
683.314	10352.79
683.661	10310.31
684.009	10275.73
684.357	10280.93
684.705	10230.99
685.053	10208.16
685.4	10146.7
685.748	10185.11
686.095	10095.17
686.443	10101.5
686.79	10084.1
687.138	10106.92
687.485	10100.6
687.832	10020.37
688.18	10068.28
688.527	10032.35
688.874	9997.55
689.221	10005.01
689.568	9920.71
689.915	9930.88
690.262	9919.58
690.609	9855.18
690.956	9777.21
691.303	9797.78
691.65	9745.8
691.997	9772.92
692.344	9731.57
692.69	9625.81
693.037	9606.15
693.383	9606.37
693.73	9581.74
694.077	9522.98
694.423	9531.8
694.769	9567.73
695.116	9472.82
695.462	9401.41
695.808	9445.92
696.155	9362.99
696.501	9334.29
696.847	9345.81
697.193	9260.39
697.539	9258.81
697.885	9226.04
698.231	9140.17
698.577	9198.47
698.923	9149.43
699.269	9155.54
699.614	9065.37
699.96	9006.16
700.306	8974.07
700.651	8939.04
700.997	8977.01
701.342	8911.25
701.688	8906.96
702.033	8877.13
702.379	8823.79
702.724	8748.77
703.069	8812.27
703.415	8659.5
703.76	8708.99
704.105	8686.17
704.45	8670.35
704.795	8579.73
705.14	8540.41
705.485	8556.68
705.83	8493.41
706.175	8584.48
706.52	8511.26
706.865	8465.84
707.209	8516.68
707.554	8417.48
707.899	8476.01
708.243	8377.03
708.588	8339.06
708.932	8299.51
709.277	8230.81
709.621	8289.12
709.966	8226.07
710.31	8238.95
710.654	8209.35
710.998	8199.4
711.342	8206.86
711.687	8168.44
712.031	8145.85
712.375	8104.26
712.719	8151.95
713.063	8146.52
713.407	8087.54
713.75	8097.26
714.094	8020.42
714.438	7974.55
714.782	8059.97
715.125	7931.39
715.469	8062.01
715.812	7925.74
716.156	7892.52
716.499	7915.57
716.843	7975.68
717.186	7913.76
717.53	7889.81
717.873	7910.37
718.216	7896.13
718.559	7805.97
718.902	7841.67
719.246	7797.15
719.589	7771.39
719.932	7766.19
720.275	7786.76
720.617	7832.86
720.96	7762.13
721.303	7788.34
721.646	7717.38
721.989	7744.05
722.331	7817.49
722.674	7735.46
723.016	7745.18
723.359	7720.09
723.701	7736.36
724.044	7708.34
724.386	7682.81
724.729	7665.41
725.071	7738.17
725.413	7680.55
725.755	7651.85
726.097	7692.3
726.439	7626.99
726.782	7664.95
727.124	7631.28
727.465	7586.76
727.807	7593.54
728.149	7584.05
728.491	7576.37
728.833	7615.01
729.175	7666.08
729.516	7617.05
729.858	7620.44
730.199	7641
730.541	7599.19
730.882	7662.92
731.224	7630.15
731.565	7554.45
731.906	7621.34
732.248	7608.91
732.589	7570.94
732.93	7552.87
733.271	7517.16
733.612	7549.02
733.953	7563.94
734.294	7555.13
734.635	7547.89
734.976	7570.49
735.317	7489.59
735.658	7533.21
735.999	7533.43
736.339	7524.62
736.68	7569.82
737.021	7537.05
737.361	7580.44
737.702	7575.69
738.042	7575.69
738.383	7603.94
738.723	7627.44
739.063	7594.45
739.404	7635.58
739.744	7603.94
740.084	7650.26
740.424	7625.86
740.764	7635.58
741.104	7678.29
741.444	7657.5
741.784	7669.02
742.124	7753.77
742.464	7719.87
742.804	7726.42
743.143	7729.36
743.483	7709.25
743.823	7750.15
744.162	7733.65
744.502	7823.14
744.841	7855.46
745.181	7872.86
745.52	7875.34
745.86	7977.26
746.199	8003.7
746.538	7975.23
746.877	8072.17
747.216	8062.68
747.556	8112.63
747.895	8198.95
748.234	8180.19
748.573	8201.89
748.911	8299.51
749.25	8312.62
749.589	8374.54
749.928	8426.52
750.267	8570.69
750.605	8531.82
750.944	8634.65
751.283	8706.51
751.621	8714.64
751.96	8868.99
752.298	8968.87
752.636	9055.2
752.975	9057.69
753.313	9162.54
753.651	9297.68
753.989	9360.73
754.327	9522.08
754.666	9579.71
755.004	9671.68
755.342	9814.28
755.679	9977.21
756.017	9970.2
756.355	10184.44
756.693	10302.17
757.031	10405.22
757.368	10506.91
757.706	10616.74
758.044	10859.45
758.381	10953.68
758.719	11066.67
759.056	11281.36
759.394	11375.82
759.731	11514.57
760.068	11651.97
