Data from hue_240_FLMS001491_00056.txt Node
Date: Tue Feb 07 16:35:40 GMT 2017
User: dcchb
Spectrometer: FLMS00149
Trigger mode: 0
Integration Time (sec): 2.000000E-2
Scans to average: 10
Electric dark correction enabled: true
Nonlinearity correction enabled: false
Boxcar width: 0
XAxis mode: Wavelengths
Number of Pixels in Spectrum: 2048
>>>>>Begin Spectral Data<<<<<
341.393	-5.85
341.776	-5.85
342.16	-5.85
342.543	-64.38
342.927	-71.38
343.31	-56.92
343.693	-89.01
344.077	-70.7
344.46	-36.35
344.843	-38.16
345.226	-50.37
345.61	-27.32
345.993	-30.25
346.376	6.13
346.759	3.42
347.142	28.95
347.525	35.96
347.908	72.34
348.291	69.86
348.674	80.48
349.057	101.95
349.44	132.23
349.823	131.55
350.206	175.62
350.588	177.65
350.971	190.76
351.354	197.09
351.737	243.19
352.119	226.01
352.502	268.04
352.884	254.03
353.267	278.44
353.65	267.37
354.032	280.92
354.414	281.6
354.797	304.88
355.179	299.91
355.562	300.36
355.944	312.11
356.326	329.51
356.709	324.09
357.091	315.05
357.473	329.51
357.855	346.46
358.238	332.9
358.62	338.32
359.002	343.97
359.384	346.46
359.766	325.44
360.148	341.49
360.53	322.96
360.912	311.21
361.294	324.77
361.676	315.27
362.057	326.35
362.439	331.32
362.821	307.14
363.203	316.63
363.584	323.41
363.966	322.28
364.348	353.24
364.729	310.53
365.111	327.7
365.493	302.39
365.874	317.53
366.256	309.62
366.637	306.46
367.019	320.47
367.4	307.36
367.781	328.38
368.163	303.3
368.544	274.37
368.925	303.98
369.306	313.69
369.688	291.32
370.069	305.33
370.45	298.33
370.831	305.56
371.212	308.49
371.593	293.81
371.974	312.79
372.355	315.5
372.736	309.4
373.117	307.82
373.498	295.39
373.879	332.67
374.26	304.2
374.641	314.37
375.021	307.14
375.402	310.98
375.783	306.69
376.163	328.16
376.544	322.51
376.925	333.35
377.305	308.49
377.686	305.33
378.066	325.44
378.447	334.26
378.827	318.89
379.208	318.21
379.588	336.06
379.968	314.82
380.349	321.15
380.729	324.99
381.109	337.65
381.489	333.35
381.87	334.93
382.25	342.17
382.63	332.9
383.01	316.63
383.39	322.73
383.77	332.45
384.15	338.32
384.53	334.48
384.91	335.84
385.29	349.17
385.67	360.7
386.049	344.65
386.429	336.74
386.809	343.75
387.189	359.57
387.568	354.14
387.948	353.69
388.328	347.82
388.707	345.78
389.087	339.45
389.466	361.6
389.846	351.88
390.225	367.25
390.605	348.27
390.984	374.93
391.363	348.04
391.743	364.54
392.122	353.69
392.501	370.87
392.881	365.89
393.26	360.7
393.639	360.02
394.018	369.06
394.397	377.87
394.776	392.33
395.155	369.28
395.534	364.09
395.913	390.98
396.292	389.4
396.671	377.19
397.05	396.4
397.429	366.57
397.808	363.41
398.186	383.3
398.565	383.75
398.944	386.91
399.323	397.08
399.701	403.18
400.08	396.63
400.458	410.19
400.837	401.83
401.215	414.71
401.594	401.37
401.972	401.6
402.351	394.37
402.729	404.76
403.107	428.04
403.486	413.58
403.864	420.36
404.242	423.29
404.62	426.23
404.999	444.99
405.377	418.32
405.755	443.41
406.133	465.1
406.511	440.02
406.889	428.27
407.267	432.33
407.645	459.23
408.023	482.05
408.401	476.4
408.779	464.87
409.156	467.13
409.534	476.63
409.912	487.7
410.29	493.57
410.667	484.31
411.045	485.89
411.422	493.57
411.8	498.09
412.178	518.43
412.555	498.09
412.933	519.56
413.31	509.85
413.687	538.09
414.065	555.27
414.442	538.32
414.819	583.29
415.197	554.14
415.574	572.22
415.951	564.53
416.328	578.77
416.705	569.05
417.082	572.22
417.46	587.81
417.837	577.64
418.214	604.76
418.591	583.06
418.967	614.48
419.344	625.77
419.721	618.54
420.098	637.75
420.475	623.06
420.852	653.8
421.228	656.28
421.605	669.16
421.982	640.46
422.358	673.23
422.735	679.56
423.111	683.17
423.488	715.04
423.864	695.83
424.241	696.96
424.617	716.39
424.994	718.88
425.37	715.26
425.746	747.35
426.123	786.67
426.499	769.5
426.875	768.82
427.251	780.12
427.627	793.23
428.003	798.2
428.379	814.02
428.756	810.63
429.132	845.88
429.507	847.24
429.883	823.74
430.259	864.64
430.635	874.13
431.011	869.84
431.387	891.76
431.763	900.8
432.138	886.11
432.514	929.27
432.89	925.43
433.265	931.3
433.641	925.65
434.016	930.17
434.392	967.01
434.767	973.34
435.143	1002.49
435.518	1017.85
435.894	1041.36
436.269	1063.28
436.644	1094.46
437.02	1082.03
437.395	1070.28
437.77	1098.76
438.145	1123.84
438.52	1110.51
438.895	1129.04
439.271	1160
439.646	1181.69
440.021	1182.14
440.395	1194.8
440.77	1164.52
441.145	1211.75
441.52	1243.16
441.895	1228.7
442.27	1258.75
442.645	1257.17
443.019	1258.3
443.394	1274.35
443.769	1266.89
444.143	1289.49
444.518	1295.36
444.892	1322.03
445.267	1310.95
445.641	1364.96
446.016	1313.89
446.39	1351.41
446.764	1371.97
447.139	1347.56
447.513	1344.85
447.887	1394.34
448.262	1395.25
448.636	1393.66
449.01	1427.11
449.384	1434.57
449.758	1438.86
450.132	1451.06
450.506	1452.87
450.88	1484.51
451.254	1474.79
451.628	1530.84
452.002	1516.82
452.376	1507.11
452.75	1541.23
453.123	1522.93
453.497	1569.7
453.871	1581.23
454.244	1579.87
454.618	1618.06
454.992	1641.57
455.365	1646.54
455.739	1656.48
456.112	1696.25
456.486	1669.14
456.859	1725.86
457.232	1738.74
457.606	1752.07
457.979	1751.62
458.352	1787.78
458.725	1755.91
459.099	1809.47
459.472	1821.9
459.845	1862.58
460.218	1849.47
460.591	1866.65
460.964	1894.44
461.337	1939.86
461.71	1922.24
462.083	1955.68
462.456	2011.95
462.829	1973.08
463.201	1994.55
463.574	2016.7
463.947	2015.57
464.32	2110.48
464.692	2102.8
465.065	2111.61
465.438	2133.08
465.81	2179.41
466.183	2169.24
466.555	2258.5
466.928	2245.84
467.3	2235.68
467.672	2248.1
468.045	2318.39
468.417	2338.5
468.789	2333.3
469.161	2378.72
469.534	2393.41
469.906	2465.73
470.278	2462.79
470.65	2465.5
471.022	2507.08
471.394	2550.24
471.766	2572.62
472.138	2591.82
472.51	2616.46
472.882	2658.94
473.253	2716.34
473.625	2741.88
473.997	2775.1
474.369	2768.77
474.74	2841.08
475.112	2906.84
475.484	2887.41
475.855	2918.6
476.227	2965.37
476.598	3070.23
476.97	3034.07
477.341	3135.31
477.713	3170.11
478.084	3152.26
478.455	3266.61
478.827	3260.96
479.198	3387.96
479.569	3412.37
479.94	3459.15
480.311	3485.13
480.682	3516.32
481.053	3614.62
481.424	3657.79
481.795	3702.08
482.166	3720.83
482.537	3753.38
482.908	3824.56
483.279	3883.32
483.65	3889.19
484.021	3963.77
484.391	3991.34
484.762	4036.08
485.133	4055.51
485.503	4093.71
485.874	4154.27
486.244	4210.09
486.615	4317.2
486.985	4375.73
487.356	4428.84
487.726	4439.23
488.097	4512.45
488.467	4481.49
488.837	4576.41
489.207	4596.29
489.578	4688.04
489.948	4742.28
490.318	4802.84
490.688	4802.61
491.058	4905.89
491.428	4879.9
491.798	4994.7
492.168	4992.21
492.538	5061.82
492.908	5075.83
493.278	5150.4
493.648	5158.31
494.017	5207.57
494.387	5247.12
494.757	5249.16
495.126	5326.22
495.496	5368.7
495.866	5338.87
496.235	5425.42
496.605	5428.13
496.974	5455.7
497.344	5528.92
497.713	5537.28
498.082	5591.07
498.452	5613.21
498.821	5627.9
499.19	5644.4
499.559	5678.07
499.928	5700.9
500.298	5730.73
500.667	5803.72
501.036	5804.17
501.405	5804.85
501.774	5854.34
502.143	5890.04
502.512	5861.8
502.88	5910.61
503.249	5944.28
503.618	5969.81
503.987	5981.79
504.356	6007.55
504.724	6038.29
505.093	5987.22
505.462	6021.79
505.83	6106.08
506.199	6092.98
506.567	6150.83
506.936	6111.05
507.304	6200.32
507.672	6228.57
508.041	6219.98
508.409	6262.69
508.777	6315.57
509.145	6300.43
509.514	6246.87
509.882	6316.47
510.25	6353.08
510.618	6392.4
510.986	6368.22
511.354	6433.53
511.722	6513.08
512.09	6540.87
512.458	6450.71
512.826	6541.78
513.193	6581.78
513.561	6478.95
513.929	6556.47
514.297	6590.36
514.664	6624.49
515.032	6648.22
515.4	6675.56
515.767	6682.56
516.135	6693.86
516.502	6685.73
516.869	6722.11
517.237	6756.69
517.604	6707.87
517.972	6766.63
518.339	6738.83
518.706	6765.27
519.073	6796.69
519.44	6838.04
519.808	6889.11
520.175	6832.16
520.542	6824.03
520.909	6921.88
521.276	6845.05
521.643	6925.5
522.009	6929.56
522.376	6947.87
522.743	6939.73
523.11	6988.55
523.477	7041.2
523.843	7052.5
524.21	7080.29
524.577	7136.56
524.943	7176.34
525.31	7101.08
525.676	7219.5
526.043	7181.31
526.409	7191.25
526.776	7235.32
527.142	7206.17
527.508	7260.85
527.874	7261.98
528.241	7283
528.607	7272.38
528.973	7261.76
529.339	7240.06
529.705	7288.88
530.071	7299.95
530.437	7377.91
530.803	7345.37
531.169	7372.04
531.535	7358.93
531.901	7405.94
532.267	7386.27
532.632	7388.53
532.998	7361.42
533.364	7410.68
533.73	7333.17
534.095	7351.93
534.461	7362.09
534.826	7434.64
535.192	7453.17
535.557	7457.69
535.923	7437.35
536.288	7435.54
536.653	7416.33
537.019	7391.92
537.384	7431.02
537.749	7319.16
538.114	7410
538.479	7417.91
538.845	7394.86
539.21	7362.55
539.575	7363.22
539.94	7316.22
540.305	7405.03
540.67	7376.11
541.034	7376.56
541.399	7427.4
541.764	7347.18
542.129	7394.86
542.494	7385.14
542.858	7397.8
543.223	7367.29
543.587	7389.66
543.952	7356.44
544.316	7358.7
544.681	7335.43
545.045	7355.32
545.41	7324.36
545.774	7328.42
546.138	7333.39
546.503	7339.72
546.867	7318.25
547.231	7343.34
547.595	7270.57
547.959	7331.13
548.324	7302.21
548.688	7350.34
549.052	7273.51
549.416	7309.21
549.779	7289.55
550.143	7284.81
550.507	7287.52
550.871	7290.91
551.235	7327.52
551.599	7353.73
551.962	7367.52
552.326	7307.18
552.689	7340.17
553.053	7279.38
553.417	7283.23
553.78	7377.46
554.143	7341.76
554.507	7331.59
554.87	7353.51
555.234	7396.22
555.597	7361.87
555.96	7342.66
556.323	7345.6
556.686	7360.74
557.05	7315.09
557.413	7365.71
557.776	7373.85
558.139	7418.36
558.502	7427.86
558.865	7438.7
559.228	7433.05
559.59	7483.22
559.953	7405.94
560.316	7483.45
560.679	7458.14
561.041	7476.22
561.404	7532.26
561.767	7513.05
562.129	7498.81
562.492	7566.16
562.854	7584.69
563.217	7537.46
563.579	7560.28
563.941	7594.63
564.304	7702.65
564.666	7686.15
565.028	7687.28
565.39	7706.04
565.753	7711.24
566.115	7782.42
566.477	7735.42
566.839	7753.04
567.201	7777
567.563	7734.97
567.925	7875.08
568.287	7820.39
568.648	7802.31
569.01	7895.41
569.372	7906.04
569.734	7954.62
570.095	8071
570.457	7931.35
570.819	8012.02
571.18	8047.73
571.542	7980.61
571.903	8071.91
572.265	8052.25
572.626	8081.62
572.987	8104.45
573.349	8125.92
573.71	8158.46
574.071	8168.85
574.432	8164.11
574.794	8210.43
575.155	8204.33
575.516	8180.83
575.877	8229.64
576.238	8259.02
576.599	8275.29
576.96	8269.42
577.32	8242.98
577.681	8374.72
578.042	8339.24
578.403	8328.62
578.763	8380.15
579.124	8354.61
579.485	8351.22
579.845	8385.8
580.206	8466.92
580.566	8470.77
580.927	8467.83
581.287	8466.92
581.648	8428.06
582.008	8494.72
582.368	8516.87
582.728	8546.02
583.089	8525.91
583.449	8517.09
583.809	8501.95
584.169	8561.39
584.529	8509.41
584.889	8606.13
585.249	8566.13
585.609	8579.92
585.969	8601.38
586.329	8583.76
586.688	8634.6
587.048	8637.32
587.408	8611.1
587.768	8599.12
588.127	8621.27
588.487	8608.16
588.846	8728.84
589.206	8687.94
589.565	8667.37
589.925	8713.92
590.284	8747.37
590.643	8718.22
591.003	8694.71
591.362	8782.17
591.721	8710.31
592.08	8781.27
592.44	8769.74
592.799	8804.77
593.158	8793.92
593.517	8758.44
593.876	8787.14
594.235	8772.45
594.593	8763.87
594.952	8783.07
595.311	8765.45
595.67	8802.96
596.029	8890.64
596.387	8878.89
596.746	8937.87
597.104	8857.65
597.463	8795.05
597.822	8886.35
598.18	8830.08
598.538	8847.25
598.897	8920.47
599.255	8762.51
599.613	8922.73
599.972	8944.43
600.33	8917.31
600.688	8917.99
601.046	8957.76
601.404	8985.33
601.762	8945.1
602.12	9009.96
602.478	8990.3
602.836	9033.69
603.194	8942.17
603.552	8940.36
603.91	8955.5
604.268	8903.52
604.625	8989.17
604.983	9002.5
605.341	8990.53
605.698	9051.32
606.056	8938.78
606.413	9016.29
606.771	9066.46
607.128	9064.65
607.485	8993.46
607.843	9007.02
608.2	8987.36
608.557	9112.56
608.914	9041.6
609.272	9061.94
609.629	9083.86
609.986	9115.72
610.343	9124.08
610.7	9115.49
611.057	9158.88
611.414	9237.75
611.771	9108.72
612.127	9208.83
612.484	9171.09
612.841	9222.16
613.198	9118.43
613.554	9215.15
613.911	9206.34
614.267	9191.42
614.624	9218.77
614.98	9230.07
615.337	9299.22
615.693	9210.18
616.05	9293.12
616.406	9322.27
616.762	9203.4
617.118	9293.12
617.475	9254.02
617.831	9275.04
618.187	9220.58
618.543	9264.19
618.899	9304.19
619.255	9289.28
619.611	9350.52
619.967	9417.63
620.323	9345.77
620.678	9368.6
621.034	9321.59
621.39	9353
621.746	9245.66
622.101	9442.94
622.457	9354.13
622.812	9324.53
623.168	9336.28
623.523	9404.75
623.879	9339.9
624.234	9324.3
624.589	9363.17
624.945	9370.86
625.3	9337.86
625.655	9303.74
626.01	9386.9
626.365	9327.24
626.72	9333.57
627.075	9323.85
627.43	9294.93
627.785	9362.72
628.14	9392.1
628.495	9273.68
628.85	9286.56
629.205	9261.93
629.559	9313.91
629.914	9263.97
630.269	9275.26
630.623	9296.51
630.978	9256.51
631.332	9268.71
631.687	9216.28
632.041	9270.74
632.396	9307.13
632.75	9173.12
633.104	9306.22
633.459	9168.6
633.813	9203.85
634.167	9175.83
634.521	9126.34
634.875	9207.47
635.229	9134.7
635.583	9113.01
635.937	9139.45
636.291	9101.03
636.645	9125.66
636.999	9100.58
637.352	9111.88
637.706	9104.2
638.06	9087.25
638.413	9126.57
638.767	9086.79
639.121	9050.64
639.474	9026.68
639.828	9057.42
640.181	9011.99
640.534	8992.33
640.888	8966.57
641.241	8939
641.594	8961.83
641.947	9040.69
642.301	8974.71
642.654	9002.05
643.007	8933.8
643.36	8950.3
643.713	8933.58
644.066	8885.67
644.419	8884.54
644.771	8877.31
645.124	8737.65
645.477	8756.41
645.83	8695.39
646.182	8641.61
646.535	8620.37
646.888	8648.16
647.24	8590.76
647.593	8665.79
647.945	8652.91
648.298	8551.89
648.65	8546.02
649.002	8589.18
649.355	8588.28
649.707	8619.69
650.059	8631.89
650.411	8743.98
650.763	8742.85
651.115	8793.24
651.467	8770.87
651.819	8772.23
652.171	8784.43
652.523	8723.87
652.875	8739.69
653.227	8696.3
653.578	8727.93
653.93	8792.11
654.282	8695.62
654.633	8733.81
654.985	8699.01
655.337	8730.65
655.688	8692.23
656.039	8740.82
656.391	8649.07
656.742	8716.86
657.094	8722.51
657.445	8778.78
657.796	8700.36
658.147	8672.34
658.498	8676.86
658.849	8725
659.2	8672.34
659.551	8679.8
659.902	8712.12
660.253	8716.86
660.604	8714.6
660.955	8710.08
661.306	8730.42
661.656	8715.05
662.007	8751.89
662.358	8685.68
662.708	8749.4
663.059	8703.53
663.409	8680.7
663.76	8764.09
664.11	8703.98
664.461	8778.1
664.811	8736.97
665.161	8749.4
665.511	8680.48
665.862	8653.13
666.212	8779.01
666.562	8732
666.912	8688.84
667.262	8683.19
667.612	8659.24
667.962	8695.39
668.312	8709.63
668.662	8726.13
669.011	8630.99
669.361	8636.41
669.711	8674.6
670.06	8605.68
670.41	8662.17
670.76	8572.68
671.109	8652.23
671.459	8638.45
671.808	8632.34
672.157	8664.66
672.507	8552.8
672.856	8578.33
673.205	8637.32
673.554	8644.32
673.904	8554.38
674.253	8649.07
674.602	8597.09
674.951	8432.57
675.3	8466.02
675.649	8561.16
675.998	8562.51
676.346	8555.06
676.695	8581.05
677.044	8583.53
677.393	8557.32
677.741	8527.04
678.09	8504.44
678.438	8500.6
678.787	8514.83
679.135	8544.44
679.484	8451.56
679.832	8460.37
680.181	8420.15
680.529	8445.46
680.877	8451.33
681.225	8390.32
681.573	8429.41
681.922	8351.67
682.27	8350.09
682.618	8417.89
682.966	8276.65
683.314	8343.31
683.661	8353.71
684.009	8274.84
684.357	8278.91
684.705	8242.52
685.053	8243.65
685.4	8234.84
685.748	8256.31
686.095	8174.73
686.443	8119.36
686.79	8146.25
687.138	8154.39
687.485	8119.14
687.832	8114.84
688.18	8162.53
688.527	8076.88
688.874	8071.91
689.221	8019.25
689.568	8011.12
689.915	7987.39
690.262	7997.11
690.609	7950.33
690.956	7977.9
691.303	7914.62
691.65	7948.07
691.997	7888.63
692.344	7831.46
692.69	7854.51
693.037	7856.09
693.383	7741.75
693.73	7759.82
694.077	7693.84
694.423	7735.87
694.769	7676.44
695.116	7637.79
695.462	7671.69
695.808	7624.91
696.155	7633.73
696.501	7618.13
696.847	7565.71
697.193	7542.43
697.539	7562.99
697.885	7462.2
698.231	7473.73
698.577	7483
698.923	7485.03
699.269	7425.14
699.614	7339.04
699.96	7345.15
700.306	7378.59
700.651	7273.74
700.997	7262.66
701.342	7242.32
701.688	7233.06
702.033	7231.7
702.379	7222.44
702.724	7205.94
703.069	7113.74
703.415	7097.92
703.76	7140.41
704.105	7088.2
704.45	7082.1
704.795	7060.86
705.14	7075.77
705.485	7015.66
705.83	6993.06
706.175	6940.64
706.52	6931.37
706.865	6934.54
707.209	6900.64
707.554	6924.59
707.899	6924.37
708.243	6902.9
708.588	6862.22
708.932	6850.02
709.277	6832.62
709.621	6778.16
709.966	6781.54
710.31	6751.26
710.654	6705.16
710.998	6688.67
711.342	6758.95
711.687	6675.56
712.031	6652.28
712.375	6610.7
712.719	6675.56
713.063	6644.6
713.407	6658.16
713.75	6592.62
714.094	6614.09
714.438	6600.98
714.782	6619.06
715.125	6597.14
715.469	6557.6
715.812	6473.3
716.156	6505.39
716.499	6482.57
716.843	6544.94
717.186	6535.68
717.53	6470.37
717.873	6505.39
718.216	6488.45
718.559	6477.6
718.902	6438.95
719.246	6432.4
719.589	6452.29
719.932	6466.07
720.275	6347.66
720.617	6434.44
720.96	6404.61
721.303	6392.18
721.646	6417.49
721.989	6304.04
722.331	6344.72
722.674	6341.56
723.016	6378.84
723.359	6299.98
723.701	6349.47
724.044	6280.32
724.386	6299.52
724.729	6316.47
725.071	6256.36
725.413	6259.75
725.755	6316.7
726.097	6274.89
726.439	6191.73
726.782	6249.58
727.124	6289.81
727.465	6236.02
727.807	6212.75
728.149	6244.84
728.491	6263.59
728.833	6250.71
729.175	6192.41
729.516	6250.26
729.858	6223.37
730.199	6247.32
730.541	6152.63
730.882	6202.58
731.224	6162.58
731.565	6194.89
731.906	6168.23
732.248	6184.5
732.589	6158.28
732.93	6153.31
733.271	6138.17
733.612	6223.37
733.953	6161.22
734.294	6154.89
734.635	6116.25
734.976	6131.62
735.317	6138.62
735.658	6109.7
735.999	6151.05
736.339	6117.16
736.68	6256.81
737.021	6127.32
737.361	6123.26
737.702	6191.5
738.042	6139.75
738.383	6150.6
738.723	6158.96
739.063	6094.78
739.404	6213.42
739.744	6156.7
740.084	6195.8
740.424	6180.43
740.764	6133.65
741.104	6226.53
741.444	6166.65
741.784	6242.8
742.124	6219.75
742.464	6265.17
742.804	6206.19
743.143	6174.78
743.483	6255.01
743.823	6200.54
744.162	6272.41
744.502	6234.44
744.841	6265.17
745.181	6323.03
745.52	6320.77
745.86	6295.91
746.199	6363.48
746.538	6357.38
746.877	6363.93
747.216	6419.07
747.556	6436.92
747.895	6446.19
748.234	6475.56
748.573	6496.81
748.911	6518.27
749.25	6570.25
749.589	6571.83
749.928	6648.22
750.267	6709.23
750.605	6689.57
750.944	6705.84
751.283	6707.2
751.621	6823.13
751.96	6809.79
752.298	6902.22
752.636	6997.58
752.975	7001.2
753.313	7033.74
753.651	7092.72
753.989	7170.24
754.327	7230.57
754.666	7253.85
755.004	7323
755.342	7366.39
755.679	7457.23
756.017	7539.72
756.355	7638.25
756.693	7675.76
757.031	7768.64
757.368	7789.65
757.706	7881.85
758.044	7998.01
758.381	8071.23
758.719	8186.03
759.056	8266.03
759.394	8322.3
759.731	8323.43
760.068	8419.47
760.405	8533.59
760.743	8550.09
761.08	8758.67
761.417	8818.55
761.754	8894.71
762.091	9040.24
762.428	9089.28
762.765	9185.78
763.102	9303.96
763.438	9381.02
763.775	9470.06
764.112	9532.43
764.449	9671.19
764.785	9752.77
765.122	9788.47
765.458	9847.9
765.795	9905.53
766.131	10040.67
766.467	10122.47
766.804	10089.25
767.14	10169.48
767.476	10251.96
767.812	10365.86
768.148	10517.27
768.485	10455.35
768.821	10515.46
769.157	10625.74
769.492	10639.97
769.828	10649.92
