Data from hue_26_FLMS001491_00094.txt Node
Date: Tue Feb 07 17:14:50 GMT 2017
User: dcchb
Spectrometer: FLMS00149
Trigger mode: 0
Integration Time (sec): 2.000000E-2
Scans to average: 10
Electric dark correction enabled: true
Nonlinearity correction enabled: false
Boxcar width: 0
XAxis mode: Wavelengths
Number of Pixels in Spectrum: 2048
>>>>>Begin Spectral Data<<<<<
341.393	-0.97
341.776	-0.97
342.16	-0.97
342.543	-59.05
342.927	-66.96
343.31	-65.61
343.693	-55.44
344.077	-62.67
344.46	-75.77
344.843	-43.69
345.226	-45.95
345.61	-31.71
345.993	-17.47
346.376	-8.43
346.759	27.05
347.142	21.62
347.525	28.4
347.908	60.04
348.291	65.24
348.674	83.99
349.057	120.38
349.44	135.07
349.823	155.18
350.206	166.7
350.588	192.24
350.971	226.59
351.354	222.97
351.737	260.49
352.119	247.15
352.502	276.76
352.884	283.09
353.267	300.03
353.65	282.86
354.032	311.56
354.414	322.18
354.797	312.24
355.179	329.86
355.562	331.9
355.944	334.16
356.326	321.73
356.709	327.83
357.091	347.49
357.473	341.84
357.855	357.66
358.238	335.97
358.62	387.94
359.002	353.14
359.384	370.54
359.766	343.65
360.148	338.45
360.53	350.43
360.912	347.49
361.294	332.58
361.676	322.63
362.057	329.19
362.439	347.04
362.821	344.33
363.203	326.7
363.584	352.24
363.966	321.95
364.348	326.47
364.729	333.03
365.111	334.84
365.493	343.2
365.874	338.23
366.256	333.48
366.637	321.95
367.019	333.03
367.4	320.37
367.781	360.37
368.163	315.85
368.544	331.45
368.925	352.69
369.306	331.45
369.688	324.89
370.069	349.52
370.45	327.83
370.831	337.55
371.212	327.6
371.593	337.77
371.974	353.59
372.355	332.35
372.736	318.79
373.117	349.98
373.498	333.71
373.879	320.37
374.26	348.17
374.641	327.6
375.021	342.07
375.402	341.84
375.783	351.56
376.163	343.88
376.544	355.63
376.925	343.65
377.305	341.62
377.686	342.75
378.066	359.02
378.447	345.68
378.827	353.82
379.208	362.86
379.588	345.01
379.968	376.42
380.349	341.84
380.729	344.55
381.109	361.5
381.489	361.95
381.87	357.89
382.25	375.74
382.63	357.89
383.01	358.11
383.39	374.61
383.77	376.42
384.15	366.02
384.53	424.33
384.91	396.53
385.29	374.83
385.67	361.95
386.049	401.95
386.429	396.76
386.809	375.96
387.189	378
387.568	410.54
387.948	395.17
388.328	394.04
388.707	403.76
389.087	384.55
389.466	410.77
389.846	410.99
390.225	414.61
390.605	414.61
390.984	395.4
391.363	439.01
391.743	413.25
392.122	413.93
392.501	390.2
392.881	416.19
393.26	413.25
393.639	436.3
394.018	412.57
394.397	416.19
394.776	443.08
395.155	418
395.534	414.83
395.913	419.58
396.292	426.36
396.671	444.44
397.05	442.86
397.429	436.75
397.808	441.5
398.186	455.06
398.565	458.45
398.944	467.04
399.323	454.83
399.701	450.54
400.08	447.38
400.458	465.45
400.837	479.01
401.215	446.25
401.594	477.88
401.972	474.04
402.351	476.3
402.729	459.35
403.107	486.24
403.486	476.3
403.864	486.7
404.242	463.65
404.62	505
404.999	495.06
405.377	485.57
405.755	521.05
406.133	519.46
406.511	522.85
406.889	516.07
407.267	512.23
407.645	520.37
408.023	520.82
408.401	530.31
408.779	510.42
409.156	529.63
409.534	546.13
409.912	557.88
410.29	542.74
410.667	561.04
411.045	555.85
411.422	566.69
411.8	560.82
412.178	559.24
412.555	561.72
412.933	577.32
413.31	571.44
413.687	594.49
414.065	590.42
414.442	593.81
414.819	608.05
415.197	606.92
415.574	628.61
415.951	622.51
416.328	632
416.705	596.52
417.082	615.05
417.46	614.38
417.837	627.71
418.214	635.39
418.591	637.65
418.967	656.18
419.344	642.4
419.721	631.33
420.098	653.25
420.475	656.41
420.852	669.29
421.228	683.53
421.605	674.71
421.982	708.84
422.358	680.14
422.735	693.92
423.111	700.02
423.488	687.14
423.864	712.23
424.241	708.16
424.617	692.57
424.994	699.12
425.37	743.19
425.746	725.79
426.123	749.74
426.499	731.66
426.875	746.8
427.251	763.75
427.627	775.73
428.003	768.27
428.379	794.71
428.756	773.69
429.132	785.9
429.507	799.91
429.883	815.05
430.259	817.76
430.635	840.81
431.011	820.92
431.387	835.39
431.763	859.34
432.138	843.97
432.514	888.95
432.89	885.78
433.265	879
433.641	876.52
434.016	900.02
434.392	917.42
434.767	912.67
435.143	927.59
435.518	928.72
435.894	925.78
436.269	966.46
436.644	957.42
437.02	937.98
437.395	969.4
437.77	972.79
438.145	976.85
438.52	1003.07
438.895	1011.2
439.271	1031.31
439.646	1034.03
440.021	1052.11
440.395	1047.13
440.77	1028.38
441.145	1049.62
441.52	1055.49
441.895	1044.65
442.27	1098.88
442.645	1098.21
443.019	1100.47
443.394	1115.38
443.769	1073.35
444.143	1074.25
444.518	1076.96
444.892	1109.28
445.267	1113.12
445.641	1134.14
446.016	1147.47
446.39	1137.53
446.764	1135.04
447.139	1122.61
447.513	1165.32
447.887	1187.92
448.262	1187.47
448.636	1189.05
449.01	1176.17
449.384	1217.3
449.758	1215.04
450.132	1227.47
450.506	1240.12
450.88	1262.04
451.254	1247.13
451.628	1257.52
452.002	1253.68
452.376	1287.58
452.75	1301.59
453.123	1323.06
453.497	1336.84
453.871	1329.39
454.244	1333.91
454.618	1359.89
454.992	1381.14
455.365	1373.9
455.739	1409.38
456.112	1405.09
456.486	1407.58
456.859	1449.61
457.232	1462.49
457.606	1467.01
457.979	1454.58
458.352	1502.04
458.725	1521.02
459.099	1539.32
459.472	1568.48
459.845	1584.29
460.218	1573.9
460.591	1602.37
460.964	1607.34
461.337	1655.25
461.71	1662.26
462.083	1663.39
462.456	1692.54
462.829	1742.26
463.201	1721.69
463.574	1718.98
463.947	1781.8
464.32	1801.46
464.692	1834.23
465.065	1838.07
465.438	1869.26
465.81	1876.72
466.183	1886.89
466.555	1930.5
466.928	1941.8
467.3	1954
467.672	1999.88
468.045	2034.23
468.417	2046.2
468.789	2076.26
469.161	2073.1
469.534	2134.11
469.906	2175.01
470.278	2184.73
470.65	2239.19
471.022	2255.69
471.394	2330.26
471.766	2327.78
472.138	2384.27
472.51	2403.71
472.882	2438.74
473.253	2463.37
473.625	2544.04
473.997	2606.87
474.369	2598.28
474.74	2645.96
475.112	2665.62
475.484	2692.51
475.855	2823.13
476.227	2814.54
476.598	2924.15
476.97	2906.97
477.341	3005.05
477.713	3053.63
478.084	3094.76
478.455	3166.4
478.827	3203.23
479.198	3293.18
479.569	3310.58
479.94	3368.43
480.311	3396.22
480.682	3559.84
481.053	3604.13
481.424	3676.22
481.795	3715.31
482.166	3803.67
482.537	3842.77
482.908	3912.82
483.279	3982.65
483.65	4082.76
484.021	4148.97
484.391	4212.93
484.762	4269.42
485.133	4292.02
485.503	4357.1
485.874	4502.18
486.244	4542.86
486.615	4642.97
486.985	4708.96
487.356	4802.97
487.726	4869.41
488.097	4950.99
488.467	5037.54
488.837	5102.85
489.207	5213.58
489.578	5252.45
489.948	5359.34
490.318	5415.61
490.688	5438.66
491.058	5549.61
491.428	5662.15
491.798	5705.09
492.168	5830.51
492.538	5845.88
492.908	5925.65
493.278	6013.56
493.648	6076.61
494.017	6087
494.387	6201.35
494.757	6304.62
495.126	6354.34
495.496	6425.75
495.866	6453.09
496.235	6566.31
496.605	6543.49
496.974	6607.89
497.344	6689.47
497.713	6768.34
498.082	6824.38
498.452	6813.31
498.821	6893.31
499.19	6919.97
499.559	7045.39
499.928	7067.54
500.298	7103.25
500.667	7196.8
501.036	7190.7
501.405	7327.19
501.774	7303.47
502.143	7337.14
502.512	7366.74
502.88	7496.46
503.249	7499.17
503.618	7567.87
503.987	7627.98
504.356	7618.71
504.724	7711.14
505.093	7714.75
505.462	7844.02
505.83	7879.72
506.199	7865.49
506.567	8020.96
506.936	8000.85
507.304	8092.15
507.672	8114.29
508.041	8167.17
508.409	8146.38
508.777	8272.71
509.145	8315.87
509.514	8322.2
509.882	8362.65
510.25	8352.7
510.618	8385.02
510.986	8447.62
511.354	8521.06
511.722	8548.41
512.09	8616.65
512.458	8650.32
512.826	8714.73
513.193	8777.55
513.561	8745.24
513.929	8852.13
514.297	8938.23
514.664	8873.59
515.032	8909.07
515.4	8998.34
515.767	9126.24
516.135	9129.63
516.502	9071.78
516.869	9201.72
517.237	9236.3
517.604	9236.75
517.972	9364.65
518.339	9372.11
518.706	9410.3
519.073	9445.56
519.44	9492.34
519.808	9547.93
520.175	9582.5
520.542	9669.28
520.909	9702.27
521.276	9676.06
521.643	9834.25
522.009	9863.62
522.376	9908.14
522.743	9944.98
523.11	9990.63
523.477	10106.33
523.843	10147.91
524.21	10212.99
524.577	10322.14
524.943	10302.48
525.31	10323.73
525.676	10521.23
526.043	10467.22
526.409	10620.44
526.776	10656.82
527.142	10751.74
527.508	10708.35
527.874	10789.48
528.241	10928.91
528.607	10853.2
528.973	11013.2
529.339	11066.76
529.705	11195.57
530.071	11196.47
530.437	11204.38
530.803	11296.36
531.169	11361.89
531.535	11369.8
531.901	11440.08
532.267	11542.68
532.632	11560.98
532.998	11562.11
533.364	11680.98
533.73	11622
534.095	11848.88
534.461	11782.44
534.826	11933.63
535.192	11948.32
535.557	12010.69
535.923	11984.92
536.288	12088.2
536.653	12106.96
537.019	12038.48
537.384	12192.15
537.749	12245.71
538.114	12353.73
538.479	12308.53
538.845	12428.08
539.21	12446.16
539.575	12476.44
539.94	12541.97
540.305	12624.68
540.67	12598.47
541.034	12656.32
541.399	12752.59
541.764	12778.8
542.129	12775.41
542.494	12855.41
542.858	12898.35
543.223	12843.43
543.587	12988.06
543.952	13001.4
544.316	13096.31
544.681	13156.65
545.045	13230.54
545.41	13283.65
545.774	13341.5
546.138	13310.54
546.503	13392.35
546.867	13446.58
547.231	13654.03
547.595	13541.49
547.959	13616.75
548.324	13659.68
548.688	13746.91
549.052	13722.05
549.416	13827.36
549.779	13839.57
550.143	13866.01
550.507	14014.25
550.871	14016.51
551.235	14008.83
551.599	14086.56
551.962	14112.55
552.326	14171.99
552.689	14262.61
553.053	14137.41
553.417	14278.65
553.78	14411.75
554.143	14367.01
554.507	14539.89
554.87	14532.2
555.234	14700.56
555.597	14569.94
555.96	14603.16
556.323	14770.39
556.686	14730.16
557.05	14799.99
557.413	14886.77
557.776	14854.23
558.139	14976.94
558.502	14997.73
558.865	15058.74
559.228	15203.6
559.59	15176.03
559.953	15235.01
560.316	15314.33
560.679	15373.31
561.041	15423.25
561.404	15507.32
561.767	15609.91
562.129	15563.36
562.492	15621.21
562.854	15652.63
563.217	15775.79
563.579	15828.44
563.941	15819.63
564.304	15957.7
564.666	16015.55
565.028	16109.11
565.39	16091.03
565.753	16138.94
566.115	16222.55
566.477	16319.73
566.839	16350.01
567.201	16448.54
567.563	16435.43
567.925	16563.56
568.287	16592.04
568.648	16701.19
569.01	16820.5
569.372	16815.76
569.734	16803.78
570.095	16934.17
570.457	16979.82
570.819	17051.46
571.18	17149.76
571.542	17173.49
571.903	17284.22
572.265	17394.5
572.626	17373.94
572.987	17427.95
573.349	17566.47
573.71	17631.56
574.071	17741.84
574.432	17839.46
574.794	18045.56
575.155	18060.47
575.516	18038.78
575.877	18159.23
576.238	18330.07
576.599	18436.05
576.96	18580.91
577.32	18565.32
577.681	18759.21
578.042	18841.69
578.403	18942.26
578.763	19010.05
579.124	19212.98
579.485	19424.73
579.845	19507.67
580.206	19693.65
580.566	19891.16
580.927	20088.89
581.287	20211.6
581.648	20312.62
582.008	20700.18
582.368	20742.43
582.728	21019.49
583.089	21029.88
583.449	21345.81
583.809	21621.73
584.169	21939.92
584.529	22083.42
584.889	22536.29
585.249	22588.49
585.609	22796.62
585.969	23103.95
586.329	23390.5
586.688	23670.72
587.048	23915.91
587.408	24119.3
587.768	24364.03
588.127	24598.83
588.487	25026.16
588.846	25494.4
589.206	25598.8
589.565	25792.47
589.925	26464.09
590.284	26675.16
590.643	27033.34
591.003	27390.62
591.362	27878.97
591.721	28133.65
592.08	28611.83
592.44	28890.92
592.799	29299.27
593.158	29632.6
593.517	29965.24
593.876	30361.62
594.235	30687.26
594.593	30944.2
594.952	31465.99
595.311	31750.73
595.67	32226.43
596.029	32860.08
596.387	33176.23
596.746	33406.06
597.104	33741.19
597.463	34081.52
597.822	34641.96
598.18	34878.79
598.538	35226.35
598.897	35645.55
599.255	35930.51
599.613	36722.81
599.972	36714.9
600.33	37286.18
600.688	37578.15
601.046	37930.01
601.404	38432.37
601.762	38562.31
602.12	39142.63
602.478	39417.65
602.836	39746
603.194	39993.91
603.552	40322.94
603.91	40490.84
604.268	41004.5
604.625	41262.12
604.983	41776.68
605.341	41831.15
605.698	42435.65
606.056	42675.42
606.413	42953.83
606.771	43347.26
607.128	43541.38
607.485	43639.91
607.843	43946.8
608.2	44454.13
608.557	44803.95
608.914	45008.69
609.272	45332.97
609.629	45598.96
609.986	45917.37
610.343	46006.86
610.7	46338.6
611.057	46571.13
611.414	46735.42
611.771	47052.25
612.127	47329.31
612.484	47477.1
612.841	47699.01
613.198	47816.53
613.554	48057.2
613.911	48438.66
614.267	48483.63
614.624	48636.84
614.98	48800
615.337	49114.57
615.693	49193.44
616.05	49242.7
616.406	49657.61
616.762	49609.7
617.118	49784.16
617.475	49886.98
617.831	50139.85
618.187	50328.55
618.543	50390.69
618.899	50545.72
619.255	50601.99
619.611	50614.64
619.967	50833.62
620.323	51058.93
620.678	50954.97
621.034	50987.06
621.39	51060.06
621.746	51185.25
622.101	51656.88
622.457	51453.72
622.812	51602.87
623.168	51686.71
623.523	51806.7
623.879	51883.08
624.234	51841.05
624.589	51962.86
624.945	52015.74
625.3	52196.75
625.655	52107.49
626.01	52299.35
626.365	52297.09
626.72	52403.07
627.075	52340.7
627.43	52537.08
627.785	52495.72
628.14	52515.61
628.495	52623.18
628.85	52670.41
629.205	52544.31
629.559	52791.08
629.914	52601.94
630.269	52728.94
630.623	52716.74
630.978	52692.78
631.332	52809.39
631.687	52880.8
632.041	52807.81
632.396	52869.27
632.75	52775.26
633.104	52832.89
633.459	52750.63
633.813	52682.16
634.167	52780.91
634.521	52722.16
634.875	52847.58
635.229	52872.21
635.583	52689.17
635.937	52831.53
636.291	52714.7
636.645	52861.59
636.999	52745.44
637.352	52879.67
637.706	52649.62
638.06	52832.21
638.413	52733.68
638.767	52710.41
639.121	52764.19
639.474	52621.37
639.828	52665.44
640.181	52749.5
640.534	52702.95
640.888	52646.91
641.241	52558.77
641.594	52611.88
641.947	52688.26
642.301	52657.53
642.654	52634.03
643.007	52655.27
643.36	52530.98
643.713	52636.96
644.066	52751.76
644.419	52496.85
644.771	52368.04
645.124	52006.25
645.477	51979.13
645.83	51775.74
646.182	51769.87
646.535	51651.23
646.888	51717.67
647.24	51558.57
647.593	51750.66
647.945	51679.7
648.298	51487.16
648.65	51413.27
649.002	51465.69
649.355	51648.97
649.707	51568.06
650.059	51695.07
650.411	52038.34
650.763	52068.62
651.115	52378.21
651.467	52321.94
651.819	52245.56
652.171	52096.41
652.523	52113.81
652.875	52114.94
653.227	51996.98
653.578	52259.12
653.93	52068.16
654.282	52030.88
654.633	51961.27
654.985	52069.29
655.337	52034.27
655.688	52101.61
656.039	52231.32
656.391	51959.92
656.742	51949.52
657.094	51975.06
657.445	52140.25
657.796	52010.99
658.147	52003.76
658.498	51912.46
658.849	52018.22
659.2	51959.02
659.551	51802.18
659.902	51913.82
660.253	51880.83
660.604	52025.68
660.955	51835.85
661.306	51973.03
661.656	51896.64
662.007	51980.03
662.358	51970.09
662.708	51908.85
663.059	51946.81
663.409	51693.71
663.76	51989.75
664.11	51981.16
664.461	52000.6
664.811	51974.61
665.161	51944.33
665.511	51803.31
665.862	51826.14
666.212	51844.44
666.562	51862.07
666.912	51829.53
667.262	51793.37
667.612	51806.02
667.962	51828.62
668.312	51785.01
668.662	51926.93
669.011	51706.14
669.361	51710.43
669.711	51733.26
670.06	51643.09
670.41	51619.82
670.76	51549.53
671.109	51693.71
671.459	51638.8
671.808	51524.9
672.157	51675.86
672.507	51413.49
672.856	51474.96
673.205	51589.31
673.554	51565.35
673.904	51393.83
674.253	51714.28
674.602	51584.34
674.951	51028.19
675.3	50974.86
675.649	51504.11
675.998	51469.08
676.346	51413.49
676.695	51456.66
677.044	51290.33
677.393	51504.79
677.741	51425.24
678.09	51401.74
678.438	51250.79
678.787	51348.64
679.135	51322.42
679.484	51092.6
679.832	51201.97
680.181	51050.56
680.529	51153.61
680.877	51046.5
681.225	50987.97
681.573	51189.77
681.922	50912.26
682.27	50920.17
682.618	50800.4
682.966	50762.44
683.314	50849.44
683.661	50759.05
684.009	50538.04
684.357	50441.54
684.705	50424.59
685.053	50517.02
685.4	50413.29
685.748	50322.9
686.095	50395.89
686.443	50107.76
686.79	50153.41
687.138	50172.17
687.485	50034.55
687.832	50031.38
688.18	50090.82
688.527	49845.4
688.874	49885.85
689.221	49663.26
689.568	49735.57
689.915	49656.48
690.262	49680.66
690.609	49465.07
690.956	49284.74
691.303	49301.91
691.65	49234.57
691.997	49163.61
692.344	48993.44
692.69	48968.81
693.037	48937.17
693.383	48504.42
693.73	48685.65
694.077	48568.14
694.423	48462.38
694.769	48378.77
695.116	48329.51
695.462	48113.92
695.808	48199.79
696.155	48224.42
696.501	47955.73
696.847	47863.53
697.193	47565.23
697.539	47842.06
697.885	47462.41
698.231	47429.87
698.577	47406.82
698.923	47356.42
699.269	47293.6
699.614	47083.44
699.96	46961.63
700.306	47094.74
700.651	46868.75
700.997	46747.17
701.342	46743.33
701.688	46511.93
702.033	46490.01
702.379	46466.5
702.724	46306.06
703.069	46242.78
703.415	45965.73
703.76	45992.17
704.105	45977.03
704.45	45859.06
704.795	45551.5
705.14	45498.62
705.485	45592.63
705.83	45318.74
706.175	45368.68
706.52	45372.97
706.865	45125.3
707.209	45090.95
707.554	44877.17
707.899	44960.1
708.243	44659.55
708.588	44578.87
708.932	44400.8
709.277	44307.24
709.621	44387.91
709.966	44122.84
710.31	44246.22
710.654	43929.17
710.998	43968.94
711.342	43928.49
711.687	43832.9
712.031	43783.18
712.375	43562.17
712.719	43753.58
713.063	43520.82
713.407	43581.61
713.75	43457.54
714.094	43382.29
714.438	43244.44
714.782	43321.95
715.125	42979.14
715.469	43017.33
715.812	43028.18
716.156	42754.96
716.499	42763.32
716.843	42816.66
717.186	42611.46
717.53	42669.99
717.873	42743.66
718.216	42553.39
718.559	42358.36
718.902	42078.37
719.246	42227.07
719.589	42115.88
719.932	41939.84
720.275	42079.5
720.617	41962.44
720.96	41894.42
721.303	41937.81
721.646	41941.65
721.989	41583.92
722.331	41733.07
722.674	41540.53
723.016	41496.47
723.359	41549.57
723.701	41587.54
724.044	41427.54
724.386	41092.63
724.729	41302.12
725.071	41109.13
725.413	40969.93
725.755	40925.18
726.097	40818.97
726.439	40779.42
726.782	40592.31
727.124	40773.32
727.465	40442.93
727.807	40623.27
728.149	40494.91
728.491	40489.03
728.833	40503.95
729.175	40333.33
729.516	40301.24
729.858	40242.94
730.199	40247.23
730.541	40141.02
730.882	40037.75
731.224	40237.06
731.565	39928.6
731.906	39924.76
732.248	39973.34
732.589	39680.47
732.93	39705.78
733.271	39702.84
733.612	39762.95
733.953	39684.08
734.294	39458.55
734.635	39420.81
734.976	39546.69
735.317	39443.19
735.658	39388.72
735.999	39328.16
736.339	39328.16
736.68	39366.35
737.021	39110.54
737.361	39029.64
737.702	39048.62
738.042	39035.06
738.383	38902.41
738.723	38926.59
739.063	38762.3
739.404	38774.96
739.744	38823.54
740.084	38614.51
740.424	38661.74
740.764	38634.62
741.104	38573.15
741.444	38387.17
741.784	38380.62
742.124	38307.17
742.464	38271.01
742.804	38195.99
743.143	38222.65
743.483	38088.65
743.823	37944.92
744.162	38019.95
744.502	38032.15
744.841	37968.87
745.181	37990.79
745.52	37683.46
745.86	37850.91
746.199	37765.26
746.538	37658.83
746.877	37770.24
747.216	37664.02
747.556	37576.34
747.895	37629
748.234	37598.94
748.573	37440.07
748.911	37403.47
749.25	37349
749.589	37202.34
749.928	37382.45
750.267	37210.48
750.605	36993.31
750.944	37030.14
751.283	36914.89
751.621	36959.64
751.96	36711.28
752.298	36755.12
752.636	36835.35
752.975	36662.24
753.313	36413.89
753.651	36599.65
753.989	36354.45
754.327	36265.42
754.666	36121.01
755.004	36253.21
755.342	36329.6
755.679	36187.45
756.017	35907.01
756.355	36057.29
756.693	35862.04
