Data from hue_350_FLMS001491_89.txt Node
Date: Mon Feb 06 15:38:39 GMT 2017
User: dcchb
Spectrometer: FLMS00149
Trigger mode: 0
Integration Time (sec): 2.000000E-2
Scans to average: 10
Electric dark correction enabled: true
Nonlinearity correction enabled: false
Boxcar width: 0
XAxis mode: Wavelengths
Number of Pixels in Spectrum: 2048
>>>>>Begin Spectral Data<<<<<
341.393	-16.43
341.776	-16.43
342.16	-16.43
342.543	-71.11
342.927	-57.1
343.31	-79.7
343.693	-67.95
344.077	-45.13
344.46	-56.2
344.843	-61.85
345.226	-40.83
345.61	-25.92
345.993	-0.38
346.376	-1.96
346.759	24.48
347.142	23.8
347.525	20.64
347.908	45.04
348.291	59.05
348.674	97.92
349.057	108.99
349.44	116.45
349.823	163.23
350.206	170.91
350.588	208.2
350.971	214.53
351.354	214.75
351.737	245.71
352.119	248.88
352.502	234.19
352.884	241.65
353.267	263.11
353.65	265.37
354.032	310.8
354.414	300.4
354.797	275.54
355.179	313.28
355.562	317.8
355.944	308.54
356.326	339.5
356.709	339.72
357.091	356.45
357.473	336.33
357.855	329.78
358.238	315.09
358.62	345.15
359.002	341.98
359.384	331.81
359.766	332.94
360.148	327.52
360.53	328.88
360.912	328.88
361.294	337.46
361.676	332.72
362.057	316.67
362.439	318.48
362.821	309.22
363.203	323.23
363.584	329.1
363.966	317.8
364.348	328.42
364.729	320.29
365.111	314.19
365.493	324.81
365.874	299.5
366.256	325.26
366.637	318.25
367.019	335.88
367.4	309.44
367.781	295.88
368.163	306.28
368.544	318.03
368.925	311.47
369.306	316.22
369.688	309.89
370.069	329.1
370.45	314.41
370.831	313.96
371.212	308.09
371.593	314.64
371.974	298.37
372.355	302.66
372.736	316.45
373.117	302.44
373.498	313.96
373.879	315.77
374.26	339.72
374.641	296.56
375.021	297.01
375.402	323.23
375.783	309.44
376.163	311.02
376.544	311.47
376.925	327.07
377.305	326.39
377.686	318.48
378.066	321.19
378.447	318.93
378.827	329.78
379.208	325.26
379.588	314.64
379.968	335.43
380.349	325.03
380.729	329.33
381.109	336.11
381.489	319.84
381.87	341.98
382.25	309.22
382.63	342.21
383.01	335.88
383.39	314.64
383.77	329.1
384.15	348.54
384.53	342.89
384.91	346.5
385.29	354.64
385.67	320.74
386.049	320.97
386.429	349.21
386.809	363
387.189	319.84
387.568	359.61
387.948	344.92
388.328	351.7
388.707	364.81
389.087	332.27
389.466	358.48
389.846	348.54
390.225	346.05
390.605	361.19
390.984	357.58
391.363	357.12
391.743	354.19
392.122	360.51
392.501	382.21
392.881	359.38
393.26	342.21
393.639	374.75
394.018	365.94
394.397	359.38
394.776	351.93
395.155	375.2
395.534	376.11
395.913	374.07
396.292	359.61
396.671	371.59
397.05	392.83
397.429	370.46
397.808	369.1
398.186	365.48
398.565	382.43
398.944	366.39
399.323	391.25
399.701	379.72
400.08	387.86
400.458	386.05
400.837	405.03
401.215	397.35
401.594	418.14
401.972	410.46
402.351	381.53
402.729	390.79
403.107	409.55
403.486	409.55
403.864	375.88
404.242	408.42
404.62	409.55
404.999	381.3
405.377	414.97
405.755	402.09
406.133	412.26
406.511	417.23
406.889	423.11
407.267	418.36
407.645	405.26
408.023	429.66
408.401	437.12
408.779	415.43
409.156	429.66
409.534	426.5
409.912	437.35
410.29	411.13
410.667	440.06
411.045	452.04
411.422	462.66
411.8	446.84
412.178	453.17
412.555	457.46
412.933	458.14
413.31	466.73
413.687	460.17
414.065	448.87
414.442	457.91
414.819	484.35
415.197	467.85
415.574	480.06
415.951	480.06
416.328	483.22
416.705	473.28
417.082	510.79
417.46	492.94
417.837	492.26
418.214	503.56
418.591	501.98
418.967	497.01
419.344	499.04
419.721	512.37
420.098	520.51
420.475	518.02
420.852	513.05
421.228	515.09
421.605	523.67
421.982	516.89
422.358	552.82
422.735	544.69
423.111	538.81
423.488	542.2
423.864	544.92
424.241	567.29
424.617	558.93
424.994	557.57
425.37	565.71
425.746	560.06
426.123	559.38
426.499	561.64
426.875	579.72
427.251	595.31
427.627	583.33
428.003	604.12
428.379	601.86
428.756	619.49
429.132	600.28
429.507	599.15
429.883	605.7
430.259	635.99
430.635	626.49
431.011	618.36
431.387	649.09
431.763	659.49
432.138	649.55
432.514	647.06
432.89	661.07
433.265	654.29
433.641	672.6
434.016	678.47
434.392	677.79
434.767	672.37
435.143	685.7
435.518	679.37
435.894	697.23
436.269	705.81
436.644	719.15
437.02	726.61
437.395	720.5
437.77	724.35
438.145	734.06
438.52	718.47
438.895	737.68
439.271	725.25
439.646	756.43
440.021	746.49
440.395	763.67
440.77	744.01
441.145	765.25
441.52	791.91
441.895	766.6
442.27	786.94
442.645	772.71
443.019	772.03
443.394	763.67
443.769	807.73
444.143	791.24
444.518	795.98
444.892	811.57
445.267	819.71
445.641	802.76
446.016	818.13
446.39	797.79
446.764	811.35
447.139	822.65
447.513	838.92
447.887	849.54
448.262	827.17
448.636	835.08
449.01	830.78
449.384	876.43
449.758	874.62
450.132	868.52
450.506	851.8
450.88	885.92
451.254	889.76
451.628	871.01
452.002	910.33
452.376	858.81
452.75	877.34
453.123	905.81
453.497	893.83
453.871	939.93
454.244	914.4
454.618	925.24
454.992	951.68
455.365	956.2
455.739	957.11
456.112	975.41
456.486	971.12
456.859	975.86
457.232	966.82
457.606	986.49
457.979	988.07
458.352	1016.09
458.725	1022.42
459.099	1041.17
459.472	1052.92
459.845	1064.45
460.218	1053.38
460.591	1071.68
460.964	1066.94
461.337	1112.58
461.71	1103.32
462.083	1090.21
462.456	1118.46
462.829	1094.73
463.201	1139.25
463.574	1167.05
463.947	1162.53
464.32	1173.37
464.692	1171.79
465.065	1176.99
465.438	1183.09
465.81	1221.06
466.183	1238.23
466.555	1236.87
466.928	1252.02
467.3	1252.47
467.672	1290.43
468.045	1305.57
468.417	1309.19
468.789	1308.06
469.161	1325.69
469.534	1335.85
469.906	1354.84
470.278	1409.3
470.65	1360.26
471.022	1381.5
471.394	1437.32
471.766	1402.07
472.138	1452.91
472.51	1478.9
472.882	1510.99
473.253	1516.19
473.625	1528.62
473.997	1576.75
474.369	1562.52
474.74	1607.94
475.112	1626.24
475.484	1641.61
475.855	1692.23
476.227	1691.78
476.598	1742.4
476.97	1751.21
477.341	1765.45
477.713	1776.07
478.084	1787.59
478.455	1853.36
478.827	1879.12
479.198	1927.48
479.569	1952.34
479.94	1976.52
480.311	2009.74
480.682	2037.76
481.053	2100.13
481.424	2128.6
481.795	2148.04
482.166	2193.91
482.537	2192.1
482.908	2219.22
483.279	2250.41
483.65	2280.01
484.021	2354.81
484.391	2378.54
484.762	2391.65
485.133	2411.76
485.503	2460.8
485.874	2536.95
486.244	2545.99
486.615	2596.61
486.985	2618.98
487.356	2633.22
487.726	2703.05
488.097	2710.06
488.467	2715.71
488.837	2810.62
489.207	2858.3
489.578	2885.19
489.948	2885.19
490.318	2921.12
490.688	2941.91
491.058	3007.9
491.428	3026.21
491.798	3065.75
492.168	3164.96
492.538	3134.9
492.908	3212.42
493.278	3204.73
493.648	3252.64
494.017	3261.45
494.387	3306.42
494.757	3322.92
495.126	3373.09
495.496	3356.59
495.866	3396.14
496.235	3426.42
496.605	3471.17
496.974	3496.7
497.344	3526.53
497.713	3554.1
498.082	3544.16
498.452	3579.86
498.821	3641.1
499.19	3658.28
499.559	3637.49
499.928	3718.16
500.298	3713.42
500.667	3751.38
501.036	3749.58
501.405	3785.51
501.774	3830.03
502.143	3794.77
502.512	3823.47
502.88	3861.66
503.249	3859.18
503.618	3896.24
503.987	3854.66
504.356	3909.35
504.724	3933.98
505.093	3947.99
505.462	4004.03
505.83	3999.97
506.199	4050.81
506.567	4077.03
506.936	4074.54
507.304	4115.22
507.672	4093.52
508.041	4115.22
508.409	4152.96
508.777	4176.01
509.145	4206.97
509.514	4216.91
509.882	4210.81
510.25	4259.17
510.618	4243.8
510.986	4248.77
511.354	4281.54
511.722	4350.92
512.09	4351.59
512.458	4340.07
512.826	4400.41
513.193	4411.71
513.561	4395.89
513.929	4415.55
514.297	4430.69
514.664	4515.21
515.032	4474.76
515.4	4499.84
515.767	4556.79
516.135	4553.85
516.502	4520.18
516.869	4599.27
517.237	4584.13
517.604	4555.88
517.972	4582.32
518.339	4628.2
518.706	4658.93
519.073	4631.14
519.44	4683.34
519.808	4697.12
520.175	4677.46
520.542	4700.96
520.909	4780.96
521.276	4755.43
521.643	4804.92
522.009	4836.1
522.376	4828.64
522.743	4853.5
523.11	4872.94
523.477	4898.7
523.843	4894.63
524.21	4969.21
524.577	5008.98
524.943	5010.33
525.31	5046.94
525.676	5065.47
526.043	5094.17
526.409	5080.61
526.776	5177.56
527.142	5161.74
527.508	5192.48
527.874	5226.15
528.241	5255.53
528.607	5270.21
528.973	5298.46
529.339	5288.52
529.705	5331.68
530.071	5379.59
530.437	5427.05
530.803	5429.08
531.169	5520.38
531.535	5469.98
531.901	5531
532.267	5516.08
532.632	5568.51
532.998	5593.37
533.364	5521.96
533.73	5598.34
534.095	5668.17
534.461	5654.16
534.826	5705.91
535.192	5654.61
535.557	5771.22
535.923	5723.76
536.288	5748.62
536.653	5820.26
537.019	5776.87
537.384	5832.46
537.749	5866.81
538.114	5894.6
538.479	5909.97
538.845	5937.09
539.21	5913.59
539.575	5935.96
539.94	5985.9
540.305	6032.45
540.67	6009.18
541.034	6048.95
541.399	6092.34
541.764	6104.09
542.129	6176.63
542.494	6133.24
542.858	6151.1
543.223	6207.59
543.587	6226.57
543.952	6231.77
544.316	6264.54
544.681	6193.35
545.045	6296.85
545.41	6319.45
545.774	6323.75
546.138	6389.51
546.503	6401.26
546.867	6464.99
547.231	6470.63
547.595	6479
547.959	6550.63
548.324	6511.76
548.688	6527.13
549.052	6534.14
549.416	6587.02
549.779	6562.84
550.143	6577.07
550.507	6679.67
550.871	6680.35
551.235	6608.26
551.599	6689.61
551.962	6776.84
552.326	6765.77
552.689	6828.82
553.053	6789.27
553.417	6787.69
553.78	6888.03
554.143	6917.18
554.507	6912.21
554.87	6902.04
555.234	6918.76
555.597	6961.92
555.96	6947.68
556.323	7043.73
556.686	7041.69
557.05	7044.86
557.413	7044.41
557.776	7097.06
558.139	7175.25
558.502	7163.5
558.865	7158.98
559.228	7238.98
559.59	7252.54
559.953	7259.54
560.316	7335.92
560.679	7342.48
561.041	7325.53
561.404	7378.41
561.767	7371.85
562.129	7342.02
562.492	7426.32
562.854	7429.25
563.217	7441.23
563.579	7500.66
563.941	7521
564.304	7597.16
564.666	7569.59
565.028	7650.72
565.39	7645.52
565.753	7628.34
566.115	7673.54
566.477	7727.78
566.839	7728.91
567.201	7836.02
567.563	7809.81
567.925	7848.9
568.287	7911.73
568.648	7853.65
569.01	7904.27
569.372	7943.14
569.734	7968.45
570.095	8040.09
570.457	8008.67
570.819	8050.71
571.18	8133.19
571.542	8130.93
571.903	8184.04
572.265	8238.27
572.626	8322.11
572.987	8347.2
573.349	8303.36
573.71	8423.13
574.071	8437.81
574.432	8505.38
574.794	8576.57
575.155	8567.98
575.516	8605.95
575.877	8680.52
576.238	8694.53
576.599	8817.24
576.96	8812.04
577.32	8867.18
577.681	9009.78
578.042	9024.92
578.403	9135.88
578.763	9135.88
579.124	9316.66
579.485	9419.03
579.845	9514.62
580.206	9605.69
580.566	9650.66
580.927	9745.58
581.287	9886.14
581.648	9982.18
582.008	10198.67
582.368	10260.82
582.728	10421.04
583.089	10506.24
583.449	10717.08
583.809	10846.11
584.169	11010.63
584.529	11070.97
584.889	11334.24
585.249	11477.96
585.609	11565.64
585.969	11798.4
586.329	12027.32
586.688	12212.86
587.048	12353.64
587.408	12524.04
587.768	12756.57
588.127	13008.99
588.487	13195.66
588.846	13522.2
589.206	13641.29
589.565	13844.23
589.925	14232.01
590.284	14428.39
590.643	14613.7
591.003	14973.69
591.362	15266.56
591.721	15437.4
592.08	15672.65
592.44	16014.79
592.799	16416.59
593.158	16481.22
593.517	16771.61
593.876	17124.37
594.235	17402.1
594.593	17663.11
594.952	17878.92
595.311	18137.67
595.67	18556.64
596.029	18879.35
596.387	19170.41
596.746	19479.56
597.104	19691.98
597.463	20008.36
597.822	20331.29
598.18	20427.56
598.538	20917.49
598.897	21141.44
599.255	21351.37
599.613	21937.57
599.972	21884.69
600.33	22253.5
600.688	22479.93
601.046	22773.03
601.404	23158.78
601.762	23481.71
602.12	23786.56
602.478	24107.46
602.836	24205.54
603.194	24431.97
603.552	24835.35
603.91	24906.99
604.268	25467.2
604.625	25489.34
604.983	25941.76
605.341	26044.36
605.698	26358.7
606.056	26549.43
606.413	26836.88
606.771	27134.27
607.128	27476.18
607.485	27551.66
607.843	27717.76
608.2	28189.39
608.557	28396.84
608.914	28470.73
609.272	28844.74
609.629	29014.45
609.986	29357.94
610.343	29369.02
610.7	29888.55
611.057	29984.59
611.414	30112.73
611.771	30398.14
612.127	30757.68
612.484	30799.94
612.841	31074.51
613.198	31030.89
613.554	31301.39
613.911	31693.25
614.267	31711.78
614.624	31890.08
614.98	32102.28
615.337	32445.32
615.693	32454.13
616.05	32564.41
616.406	32815.7
616.762	32905.65
617.118	33139.31
617.475	33142.25
617.831	33481.45
618.187	33590.83
618.543	33714.21
618.899	34046.63
619.255	34187.19
619.611	34160.08
619.967	34404.14
620.323	34556
620.678	34585.83
621.034	34600.29
621.39	34654.98
621.746	34654.3
622.101	35142.65
622.457	35191.01
622.812	35168.64
623.168	35489.53
623.523	35429.42
623.879	35644.33
624.234	35480.27
624.589	35631.9
624.945	35826.25
625.3	35929.07
625.655	35983.53
626.01	36022.85
626.365	36142.85
626.72	36214.71
627.075	36133.81
627.43	36290.19
627.785	36261.94
628.14	36463.52
628.495	36473.91
628.85	36526.79
629.205	36463.07
629.559	36733.12
629.914	36601.82
630.269	36709.84
630.623	36529.96
630.978	36792.78
631.332	36942.83
631.687	37012.88
632.041	36875.03
632.396	36949.38
632.75	36932.43
633.104	37056.95
633.459	36967.46
633.813	36920.91
634.167	37062.37
634.521	36983.5
634.875	37092.88
635.229	37064.63
635.583	37058.53
635.937	37028.25
636.291	37042.26
636.645	37025.76
636.999	36868.03
637.352	37120.45
637.706	36986.44
638.06	37118.87
638.413	37095.59
638.767	37003.39
639.121	37097.85
639.474	36821.25
639.828	36998.19
640.181	37045.88
640.534	37109.83
640.888	36898.99
641.241	36810.18
641.594	36844.75
641.947	37007.23
642.301	36900.34
642.654	36953.68
643.007	36940.79
643.36	36937.18
643.713	36836.84
644.066	37102.82
644.419	36870.06
644.771	36529.73
645.124	36204.54
645.477	36187.37
645.83	36069.4
646.182	35922.97
646.535	35898.34
646.888	35981.5
647.24	35764.33
647.593	36099.46
647.945	35868.73
648.298	35793.48
648.65	35721.62
649.002	35637.55
649.355	35739.24
649.707	35687.72
650.059	35906.47
650.411	36311.66
650.763	36328.83
651.115	36684.3
651.467	36574.48
651.819	36686.11
652.171	36384.2
652.523	36477.3
652.875	36431.66
653.227	36280.25
653.578	36491.31
653.93	36535.38
654.282	36315.95
654.633	36201.15
654.985	36333.35
655.337	36277.31
655.688	36282.05
656.039	36415.38
656.391	36163.87
656.742	36255.39
657.094	36312.11
657.445	36369.51
657.796	36269.63
658.147	36182.62
658.498	36266.69
658.849	36389.85
659.2	36310.08
659.551	36189.85
659.902	36317.08
660.253	36321.6
660.604	36143.53
660.955	36143.08
661.306	36282.73
661.656	36157.76
662.007	36197.76
662.358	36060.82
662.708	36134.49
663.059	36136.52
663.409	36008.39
663.76	36155.5
664.11	36137.2
664.461	36154.83
664.811	36269.85
665.161	36217.2
665.511	36145.56
665.862	36118.89
666.212	36165.45
666.562	36208.61
666.912	36173.81
667.262	36082.96
667.612	36156.63
667.962	36132.45
668.312	36053.36
668.662	36262.39
669.011	36135.39
669.361	36110.31
669.711	36184.2
670.06	36032.8
670.41	35906.47
670.76	35896.08
671.109	36087.03
671.459	36073.25
671.808	35923.65
672.157	35969.52
672.507	35771.56
672.856	35751.67
673.205	35906.02
673.554	35878.68
673.904	35819.69
674.253	35968.84
674.602	35853.14
674.951	35488.85
675.3	35063.78
675.649	35881.16
675.998	35712.58
676.346	35721.84
676.695	35786.25
677.044	35520.72
677.393	35602.52
677.741	35811.33
678.09	35616.99
678.438	35539.48
678.787	35506.71
679.135	35594.39
679.484	35418.12
679.832	35453.38
680.181	35494.73
680.529	35503.32
680.877	35443.66
681.225	35399.59
681.573	35435.98
681.922	35222.87
682.27	35108.3
682.618	35173.61
682.966	35036.44
683.314	35233.27
683.661	34990.11
684.009	34901.98
684.357	34773.62
684.705	34826.73
685.053	34740.17
685.4	34760.74
685.748	34593.29
686.095	34570.01
686.443	34515.55
686.79	34418.37
687.138	34593.51
687.485	34511.03
687.832	34422.67
688.18	34315.1
688.527	34134.77
688.874	34145.16
689.221	34164.82
689.568	34001.89
689.915	33849.12
690.262	33945.39
690.609	33796.7
690.956	33715.79
691.303	33700.65
691.65	33606.42
691.997	33663.59
692.344	33404.84
692.69	33363.04
693.037	33358.74
693.383	33145.41
693.73	33216.82
694.077	33091.63
694.423	33068.35
694.769	32982.48
695.116	32943.16
695.462	32929.83
695.808	32783.16
696.155	32829.04
696.501	32546.33
696.847	32554.24
697.193	32348.82
697.539	32470.86
697.885	32095.05
698.231	32101.15
698.577	32163.97
698.923	31971.21
699.269	31746.81
699.614	31755.17
699.96	31729.86
700.306	31742.51
700.651	31503.42
700.997	31500.49
701.342	31435.63
701.688	31433.59
702.033	31261.62
702.379	31268.4
702.724	31036.99
703.069	31271.56
703.415	30874.97
703.76	30966.49
704.105	30834.97
704.45	30874.74
704.795	30646.5
705.14	30509.78
705.485	30550.91
705.83	30357.92
706.175	30433.39
706.52	30244.47
706.865	30260.29
707.209	30200.41
707.554	30161.76
707.899	30227.98
708.243	30036.12
708.588	30005.16
708.932	29801.55
709.277	29682.91
709.621	29753.41
709.966	29576.92
710.31	29645.39
710.654	29469.35
710.998	29464.15
711.342	29499.18
711.687	29395.23
712.031	29365.17
712.375	29217.16
712.719	29160.43
713.063	29081.79
713.407	29211.96
713.75	29019.19
714.094	29131.73
714.438	28921.57
714.782	28820.1
715.125	28671.63
715.469	28831.85
715.812	28729.26
716.156	28543.05
716.499	28499.66
716.843	28551.18
717.186	28345.31
717.53	28458.31
717.873	28490.85
718.216	28422.37
718.559	28269.16
718.902	28099.22
719.246	28152.32
719.589	27993.23
719.932	27913.69
720.275	27976.74
720.617	28030.75
720.96	27884.54
721.303	27760.7
721.646	27858.77
721.989	27708.72
722.331	27734.03
722.674	27679.57
723.016	27709.17
723.359	27608.16
723.701	27648.61
724.044	27478.44
724.386	27379.46
724.729	27441.61
725.071	27316.41
725.413	27382.85
725.755	27461.5
726.097	27293.36
726.439	27201.62
726.782	27061.96
727.124	27174.95
727.465	27049.3
727.807	27125.23
728.149	26941.96
728.491	26860.83
728.833	27009.3
729.175	26840.49
729.516	26601.63
729.858	26693.83
730.199	26790.33
730.541	26674.85
730.882	26736.09
731.224	26722.08
731.565	26582.42
731.906	26457.91
732.248	26567.28
732.589	26420.62
732.93	26393.05
733.271	26316.89
733.612	26364.8
733.953	26311.92
734.294	26278.02
734.635	26283
734.976	26246.84
735.317	26124.36
735.658	26236.22
735.999	26194.86
736.339	26067.63
736.68	26094.75
737.021	26018.37
737.361	25880.29
737.702	26076
738.042	25901.99
738.383	25861.99
738.723	25950.8
739.063	25768.88
739.404	25932.95
739.744	25734.99
740.084	25675.1
740.424	25569.57
740.764	25642.11
741.104	25640.53
741.444	25599.4
741.784	25436.46
742.124	25521.89
742.464	25468.1
742.804	25466.29
743.143	25437.14
743.483	25396.69
743.823	25254.55
744.162	25263.81
744.502	25317.37
744.841	25060.65
745.181	25269.91
745.52	24951.73
745.86	25114.44
746.199	25039.19
746.538	25095.46
746.877	25026.53
747.216	25053.88
747.556	24905.63
747.895	24987.66
748.234	24940.88
748.573	24837.38
748.911	24841.23
749.25	24787.44
749.589	24720.78
749.928	24600.55
750.267	24662.7
750.605	24604.17
750.944	24584.96
751.283	24555.81
751.621	24541.8
751.96	24471.74
752.298	24403.72
752.636	24344.74
752.975	24270.84
753.313	24203.95
753.651	24190.17
753.989	24173.22
754.327	24154.46
754.666	23967.8
755.004	24046.22
755.342	24093.22
755.679	23919.67
756.017	23782.27
756.355	23886.22
756.693	23822.72
757.031	23794.02
757.368	23703.85
757.706	23608.26
758.044	23503.41
758.381	23555.61
758.719	23492.33
759.056	23515.61
759.394	23422.28
759.731	23193.13
760.068	23203.75
760.405	23140.71
