Data from hue_34_FLMS001491_00020.txt Node
Date: Tue Feb 07 17:25:16 GMT 2017
User: dcchb
Spectrometer: FLMS00149
Trigger mode: 0
Integration Time (sec): 2.000000E-2
Scans to average: 10
Electric dark correction enabled: true
Nonlinearity correction enabled: false
Boxcar width: 0
XAxis mode: Wavelengths
Number of Pixels in Spectrum: 2048
>>>>>Begin Spectral Data<<<<<
341.393	-0.92
341.776	-0.92
342.16	-0.92
342.543	-62.39
342.927	-76.4
343.31	-72.78
343.693	-48.15
344.077	-73.46
344.46	-66.91
344.843	-63.29
345.226	-58.54
345.61	-33.46
345.993	2.25
346.376	6.09
346.759	1.34
347.142	22.81
347.525	42.92
347.908	84.96
348.291	57.61
348.674	85.86
349.057	112.75
349.44	147.78
349.823	140.77
350.206	158.63
350.588	191.85
350.971	204.5
351.354	227.78
351.737	237.72
352.119	250.83
352.502	279.3
352.884	282.24
353.267	300.99
353.65	282.24
354.032	305.74
354.414	311.16
354.797	328.79
355.179	325.18
355.562	320.43
355.944	316.81
356.326	321.56
356.709	332.86
357.091	338.28
357.473	354.33
357.855	344.84
358.238	370.6
358.62	331.28
359.002	350.26
359.384	329.24
359.766	347.32
360.148	362.01
360.53	342.58
360.912	323.82
361.294	348.9
361.676	337.83
362.057	329.47
362.439	322.46
362.821	342.12
363.203	340.54
363.584	334.67
363.966	321.33
364.348	323.14
364.729	328.34
365.111	321.79
365.493	332.63
365.874	326.3
366.256	362.91
366.637	321.33
367.019	328.79
367.4	336.02
367.781	325.85
368.163	310.03
368.544	311.62
368.925	323.14
369.306	347.77
369.688	317.49
370.069	329.02
370.45	313.65
370.831	300.99
371.212	331.73
371.593	299.64
371.974	318.85
372.355	340.54
372.736	309.13
373.117	325.63
373.498	323.37
373.879	315.68
374.26	315.91
374.641	319.75
375.021	322.01
375.402	333.99
375.783	326.3
376.163	337.38
376.544	316.81
376.925	358.62
377.305	339.64
377.686	324.95
378.066	345.51
378.447	348.68
378.827	313.65
379.208	329.92
379.588	323.82
379.968	350.94
380.349	338.96
380.729	330.82
381.109	359.07
381.489	331.95
381.87	336.47
382.25	352.52
382.63	343.03
383.01	331.05
383.39	337.83
383.77	320.66
384.15	356.59
384.53	342.35
384.91	361.33
385.29	352.52
385.67	350.94
386.049	344.16
386.429	352.74
386.809	362.24
387.189	377.6
387.568	365.63
387.948	343.71
388.328	349.81
388.707	364.5
389.087	358.39
389.466	362.24
389.846	377.38
390.225	378.28
390.605	356.59
390.984	353.42
391.363	376.25
391.743	397.72
392.122	392.74
392.501	369.24
392.881	373.08
393.26	382.12
393.639	388.9
394.018	397.49
394.397	378.06
394.776	364.72
395.155	387.09
395.534	379.41
395.913	391.84
396.292	434.1
396.671	376.47
397.05	421.67
397.429	393.2
397.808	378.73
398.186	388.68
398.565	379.86
398.944	371.95
399.323	402.01
399.701	384.16
400.08	402.46
400.458	399.3
400.837	409.01
401.215	405.4
401.594	382.35
401.972	389.58
402.351	409.24
402.729	407.43
403.107	418.96
403.486	416.47
403.864	407.88
404.242	417.83
404.62	420.99
404.999	411.73
405.377	404.72
405.755	428.9
406.133	439.07
406.511	420.54
406.889	438.84
407.267	444.49
407.645	444.72
408.023	449.69
408.401	443.82
408.779	458.5
409.156	463.48
409.534	431.16
409.912	427.09
410.29	450.82
410.667	441.1
411.045	467.77
411.422	453.53
411.8	481.1
412.178	479.75
412.555	472.29
412.933	464.83
413.31	488.56
413.687	477.49
414.065	465.96
414.442	489.01
414.819	498.28
415.197	505.96
415.574	483.36
415.951	500.76
416.328	505.96
416.705	487.2
417.082	487.66
417.46	497.15
417.837	511.38
418.214	508
418.591	511.84
418.967	533.98
419.344	521.78
419.721	525.85
420.098	549.12
420.475	531.95
420.852	523.81
421.228	526.3
421.605	556.81
421.982	544.15
422.358	538.73
422.735	532.63
423.111	556.58
423.488	540.54
423.864	528.33
424.241	547.77
424.617	572.4
424.994	554.1
425.37	558.39
425.746	579.41
426.123	591.61
426.499	582.34
426.875	583.02
427.251	566.98
427.627	590.25
428.003	571.5
428.379	593.42
428.756	611.5
429.132	614.21
429.507	604.26
429.883	634.32
430.259	613.98
430.635	630.03
431.011	643.58
431.387	629.57
431.763	618.95
432.138	643.58
432.514	642.23
432.89	640.42
433.265	667.76
433.641	672.06
434.016	656.69
434.392	678.16
434.767	665.96
435.143	702.57
435.518	686.52
435.894	704.6
436.269	693.75
436.644	722.23
437.02	723.81
437.395	690.14
437.77	720.19
438.145	745.73
438.52	721.32
438.895	732.85
439.271	759.29
439.646	749.34
440.021	749.8
440.395	754.09
440.77	764.49
441.145	756.12
441.52	772.85
441.895	770.36
442.27	771.72
442.645	770.81
443.019	811.72
443.394	775.11
443.769	802.22
444.143	790.93
444.518	802.68
444.892	784.82
445.267	785.5
445.641	797.93
446.016	839.74
446.39	817.59
446.764	820.53
447.139	831.38
447.513	859.4
447.887	811.94
448.262	842.45
448.636	831.15
449.01	861.43
449.384	829.57
449.758	868.21
450.132	876.57
450.506	864.14
450.88	876.35
451.254	874.99
451.628	878.61
452.002	902.56
452.376	916.35
452.75	896.46
453.123	921.09
453.497	928.1
453.871	933.29
454.244	955.89
454.618	976.91
454.992	970.13
455.365	957.7
455.739	994.76
456.112	993.18
456.486	1006.97
456.859	999.28
457.232	1020.07
457.606	1020.07
457.979	1052.39
458.352	1056.23
458.725	1071.6
459.099	1068.66
459.472	1067.53
459.845	1082.67
460.218	1072.73
460.591	1092.39
460.964	1124.48
461.337	1128.32
461.71	1138.26
462.083	1157.47
462.456	1137.81
462.829	1150.01
463.201	1172.84
463.574	1197.92
463.947	1232.5
464.32	1250.35
464.692	1233.17
465.065	1239.5
465.438	1298.03
465.81	1308.65
466.183	1324.24
466.555	1328.99
466.928	1346.62
467.3	1325.37
467.672	1367.41
468.045	1393.85
468.417	1418.03
468.789	1419.84
469.161	1437.24
469.534	1447.86
469.906	1498.7
470.278	1552.71
470.65	1516.1
471.022	1545.03
471.394	1574.86
471.766	1626.84
472.138	1641.07
472.51	1669.09
472.882	1686.5
473.253	1714.74
473.625	1773.5
473.997	1789.54
474.369	1789.32
474.74	1845.36
475.112	1877.22
475.484	1917.22
475.855	1951.8
476.227	1952.48
476.598	2029.54
476.97	2086.03
477.341	2132.59
477.713	2164.22
478.084	2198.35
478.455	2248.06
478.827	2312.92
479.198	2394.95
479.569	2407.38
479.94	2455.74
480.311	2502.07
480.682	2586.58
481.053	2657.77
481.424	2734.6
481.795	2789.74
482.166	2837.65
482.537	2885.11
482.908	3000.81
483.279	3027.02
483.65	3105.67
484.021	3199.45
484.391	3249.62
484.762	3317.41
485.133	3383.17
485.503	3488.26
485.874	3540.91
486.244	3624.3
486.615	3725.09
486.985	3806.21
487.356	3874.91
487.726	3966.44
488.097	4028.13
488.467	4120.33
488.837	4270.16
489.207	4297.95
489.578	4377.72
489.948	4469.02
490.318	4637.83
490.688	4662.69
491.058	4746.3
491.428	4866.07
491.798	4941.55
492.168	5057.03
492.538	5123.92
492.908	5189
493.278	5314.2
493.648	5341.99
494.017	5454.31
494.387	5518.48
494.757	5581.08
495.126	5687.75
495.496	5754.86
495.866	5846.84
496.235	5960.28
496.605	5987.85
496.974	6118.92
497.344	6184.46
497.713	6223.55
498.082	6279.37
498.452	6397.78
498.821	6473.04
499.19	6465.35
499.559	6578.57
499.928	6625.57
500.298	6705.8
500.667	6816.08
501.036	6887.94
501.405	6919.8
501.774	6978.33
502.143	7073.02
502.512	7109.18
502.88	7207.71
503.249	7192.57
503.618	7286.8
503.987	7382.62
504.356	7469.85
504.724	7473.24
505.093	7570.63
505.462	7585.1
505.83	7643.63
506.199	7758.65
506.567	7817.86
506.936	7902.38
507.304	7957.74
507.672	8009.49
508.041	8067.12
508.409	8132.88
508.777	8175.59
509.145	8248.81
509.514	8289.94
509.882	8340.78
510.25	8349.14
510.618	8475.92
510.986	8451.29
511.354	8566.54
511.722	8575.35
512.09	8762.47
512.458	8666.88
512.826	8807.89
513.193	8824.39
513.561	8859.19
513.929	8932.86
514.297	8998.39
514.664	9118.16
515.032	9064.15
515.4	9162.23
515.767	9226.64
516.135	9316.35
516.502	9185.73
516.869	9442.9
517.237	9377.14
517.604	9408.1
517.972	9451.49
518.339	9567.42
518.706	9602.9
519.073	9625.5
519.44	9673.63
519.808	9724.7
520.175	9663.91
520.542	9796.11
520.909	9895.32
521.276	9918.6
521.643	9996.56
522.009	10069.78
522.376	10204.69
522.743	10135.09
523.11	10307.51
523.477	10376.21
523.843	10403.1
524.21	10466.83
524.577	10524.23
524.943	10604
525.31	10745.47
525.676	10722.19
526.043	10813.03
526.409	10728.97
526.776	10906.59
527.142	10950.88
527.508	11029.98
527.874	11142.29
528.241	11178.22
528.607	11250.09
528.973	11309.52
529.339	11280.14
529.705	11359.24
530.071	11455.28
530.437	11466.13
530.803	11566.24
531.169	11708.38
531.535	11617.76
531.901	11709.73
532.267	11707.7
532.632	11843.74
532.998	11845.55
533.364	11928.26
533.73	11945.66
534.095	12125.32
534.461	12203.51
534.826	12158.08
535.192	12213.68
535.557	12280.11
535.923	12272.21
536.288	12371.41
536.653	12464.06
537.019	12435.14
537.384	12475.59
537.749	12557.85
538.114	12632.42
538.479	12644.17
538.845	12784.06
539.21	12669.26
539.575	12851.63
539.94	12747.22
540.305	12856.6
540.67	12902.47
541.034	12947.89
541.399	13002.81
541.764	13020.66
542.129	13088.68
542.494	13164.16
542.858	13221.11
543.223	13271.5
543.587	13248.45
543.952	13248.9
544.316	13326.87
544.681	13382.46
545.045	13494.32
545.41	13556.24
545.774	13561.21
546.138	13606.86
546.503	13691.15
546.867	13795.33
547.231	13773.18
547.595	13852.5
547.959	13898.83
548.324	13942.67
548.688	13948.09
549.052	14022.89
549.416	14066.06
549.779	14053.85
550.143	14080.07
550.507	14213.62
550.871	14199.84
551.235	14270.8
551.599	14342.66
551.962	14358.48
552.326	14478.25
552.689	14518.47
553.053	14513.73
553.417	14593.05
553.78	14787.39
554.143	14713.5
554.507	14826.71
554.87	14704.01
555.234	14866.26
555.597	14933.15
555.96	14875.75
556.323	15058.8
556.686	14997.56
557.05	15082.08
557.413	15147.38
557.776	15188.97
558.139	15205.91
558.502	15253.37
558.865	15331.79
559.228	15470.09
559.59	15449.52
559.953	15449.75
560.316	15635.05
560.679	15631.44
561.041	15779.01
561.404	15762.96
561.767	15861.94
562.129	15852
562.492	15983.07
562.854	15993.69
563.217	16068.49
563.579	16036.17
563.941	16195.04
564.304	16155.27
564.666	16322.72
565.028	16406.33
565.39	16359.56
565.753	16439.33
566.115	16436.39
566.477	16654.92
566.839	16627.12
567.201	16707.34
567.563	16665.08
567.925	16872.08
568.287	16894.23
568.648	16939.2
569.01	16952.31
569.372	17177.16
569.734	17206.54
570.095	17229.82
570.457	17309.14
570.819	17366.76
571.18	17333.09
571.542	17533.54
571.903	17525.4
572.265	17626.42
572.626	17677.94
572.987	17838.61
573.349	17835.22
573.71	17941.44
574.071	18018.04
574.432	18159.51
574.794	18335.77
575.155	18336.23
575.516	18399.95
575.877	18556.11
576.238	18568.09
576.599	18703.67
576.96	18842.43
577.32	18804.69
577.681	19014.18
578.042	19193.38
578.403	19232.7
578.763	19313.83
579.124	19491
579.485	19667.27
579.845	19791.78
580.206	19916.07
580.566	20055.5
580.927	20164.65
581.287	20417.3
581.648	20570.97
582.008	20825.88
582.368	20845.99
582.728	21214.8
583.089	21082.6
583.449	21426.54
583.809	21673.54
584.169	21851.39
584.529	21982.46
584.889	22310.81
585.249	22372.73
585.609	22488.66
585.969	22896.56
586.329	22971.36
586.688	23184.24
587.048	23465.58
587.408	23610.66
587.768	23780.6
588.127	24110.09
588.487	24336.75
588.846	24696.51
589.206	24865.55
589.565	24953.91
589.925	25325.65
590.284	25562.25
590.643	25804.05
591.003	26134.67
591.362	26437.26
591.721	26559.51
592.08	26768.32
592.44	27079.73
592.799	27271.36
593.158	27513.84
593.517	27880.16
593.876	28120.6
594.235	28251.45
594.593	28511.55
594.952	28786.35
595.311	28846.69
595.67	29284.19
596.029	29627.91
596.387	29770.05
596.746	30131.17
597.104	30202.58
597.463	30592.18
597.822	30762.34
598.18	30946.97
598.538	31128.88
598.897	31596.22
599.255	31524.35
599.613	32235.97
599.972	32141.29
600.33	32581.73
600.688	32602.74
601.046	32905.34
601.404	33331.31
601.762	33262.16
602.12	33804.97
602.478	33860.11
602.836	34105.53
603.194	33980.34
603.552	34381.45
603.91	34443.6
604.268	34725.63
604.625	34756.36
604.983	35019.63
605.341	35184.82
605.698	35473.4
606.056	35715.88
606.413	35601.31
606.771	35997.01
607.128	36172.59
607.485	36225.02
607.843	36459.37
608.2	36734.39
608.557	36868.17
608.914	36883.99
609.272	37142.96
609.629	37410.3
609.986	37750.86
610.343	37614.59
610.7	37925.99
611.057	37962.15
611.414	38145.88
611.771	38264.97
612.127	38501.8
612.484	38606.88
612.841	38949.02
613.198	38766.65
613.554	38940.88
613.911	39216.13
614.267	39219.75
614.624	39269.46
614.98	39603.92
615.337	39849.11
615.693	39904.7
616.05	39745.61
616.406	40188.08
616.762	40233.96
617.118	40215.65
617.475	40259.27
617.831	40401.41
618.187	40638.01
618.543	40593.49
618.899	40916.88
619.255	40941.28
619.611	40922.98
619.967	41101.5
620.323	41312.12
620.678	41278
621.034	41329.29
621.39	41311.22
621.746	41390.76
622.101	41839.79
622.457	41532.68
622.812	41858.55
623.168	41790.07
623.523	41903.97
623.879	41947.36
624.234	41715.73
624.589	42000.69
624.945	41993.68
625.3	42169.27
625.655	42088.82
626.01	42281.81
626.365	42349.61
626.72	42339.66
627.075	42357.06
627.43	42330.85
627.785	42493.33
628.14	42558.41
628.495	42634.8
628.85	42564.97
629.205	42280.68
629.559	42538.08
629.914	42534.46
630.269	42600.22
630.623	42446.1
630.978	42474.58
631.332	42593.67
631.687	42767.22
632.041	42692.65
632.396	42642.71
632.75	42460.34
633.104	42637.51
633.459	42636.38
633.813	42600
634.167	42563.16
634.521	42589.83
634.875	42691.29
635.229	42675.47
635.583	42482.71
635.937	42531.75
636.291	42449.49
636.645	42379.89
636.999	42443.16
637.352	42561.35
637.706	42503.73
638.06	42560
638.413	42444.52
638.767	42405.65
639.121	42482.48
639.474	42345.54
639.828	42298.53
640.181	42451.3
640.534	42348.02
640.888	42237.29
641.241	42145.09
641.594	42310.51
641.947	42255.15
642.301	42170.85
642.654	42252.66
643.007	42311.19
643.36	42283.85
643.713	42113.45
644.066	42270.74
644.419	42055.38
644.771	41794.82
645.124	41475.96
645.477	41452.23
645.83	41233.25
646.182	40910.55
646.535	40913.03
646.888	41144.67
647.24	40791.46
647.593	41111.9
647.945	40898.57
648.298	40791.23
648.65	40835.97
649.002	40643.89
649.355	40741.74
649.707	40738.35
650.059	41018.79
650.411	41473.47
650.763	41525.45
651.115	41774.03
651.467	41749.17
651.819	41730.87
652.171	41570.42
652.523	41662.39
652.875	41616.52
653.227	41336.3
653.578	41688.38
653.93	41566.58
654.282	41442.74
654.633	41335.17
654.985	41328.16
655.337	41427.82
655.688	41309.63
656.039	41574.94
656.391	41156.42
656.742	41369.29
657.094	41450.65
657.445	41648.83
657.796	41440.7
658.147	41334.72
658.498	41296.98
658.849	41387.15
659.2	41266.47
659.551	41248.17
659.902	41311.44
660.253	41342.4
660.604	41295.85
660.955	41060.38
661.306	41334.04
661.656	41174.04
662.007	41269.41
662.358	41182.63
662.708	41194.83
663.059	41212.69
663.409	40931.34
663.76	41329.75
664.11	41329.52
664.461	41309.86
664.811	41303.53
665.161	41146.02
665.511	41115.06
665.862	41099.02
666.212	41099.02
666.562	41287.04
666.912	41158.45
667.262	41071.22
667.612	41081.39
667.962	41115.51
668.312	40948.06
668.662	41203.87
669.011	41077.78
669.361	41093.14
669.711	41040.71
670.06	41113.71
670.41	40998
670.76	40854.96
671.109	41148.51
671.459	41022.64
671.808	40895.18
672.157	41098.57
672.507	40806.37
672.856	40801.85
673.205	40850.21
673.554	40893.83
673.904	40816.77
674.253	40921.4
674.602	40912.36
674.951	40260.17
675.3	40199.38
675.649	40831.68
675.998	40853.15
676.346	40682.08
676.695	40766.37
677.044	40662.19
677.393	40733.15
677.741	40609.09
678.09	40541.74
678.438	40540.61
678.787	40557.79
679.135	40588.75
679.484	40269.89
679.832	40406.61
680.181	40297.68
680.529	40429.21
680.877	40189.66
681.225	40208.65
681.573	40445.25
681.922	40007.52
682.27	40015.43
682.618	39937.01
682.966	39930.69
683.314	39979.05
683.661	39821.99
684.009	39821.54
684.357	39687.08
684.705	39541.55
685.053	39724.82
685.4	39532.28
685.748	39372.96
686.095	39354.21
686.443	39294.77
686.79	39224.94
687.138	39275.11
687.485	39327.77
687.832	39082.12
688.18	39215.23
688.527	39067.66
688.874	38996.7
689.221	38903.37
689.568	38782.92
689.915	38618.18
690.262	38712.19
690.609	38640.1
690.956	38470.39
691.303	38497.5
691.65	38359.2
691.997	38347.68
692.344	38168.02
692.69	38050.28
693.037	37993.56
693.383	37772.78
693.73	37840.12
694.077	37689.39
694.423	37602.16
694.769	37624.08
695.116	37513.35
695.462	37398.1
695.808	37316.97
696.155	37448.49
696.501	37057.32
696.847	37036.98
697.193	36734.16
697.539	37047.6
697.885	36767.15
698.231	36608.97
698.577	36585.01
698.923	36496.88
699.269	36536.43
699.614	36218.24
699.96	36236.55
700.306	36350.22
700.651	36123.78
700.997	35893.28
701.342	35921.08
701.688	35675.21
702.033	35783.45
702.379	35719.5
702.724	35639.27
703.069	35755.43
703.415	35257.82
703.76	35261.43
704.105	35302.33
704.45	35138.05
704.795	34939.63
705.14	34816.25
705.485	34925.85
705.83	34715.68
706.175	34645.85
706.52	34660.54
706.865	34475.92
707.209	34549.13
707.554	34370.38
707.899	34458.97
708.243	34222.59
708.588	34146.88
708.932	34003.16
709.277	33890.62
709.621	33944.18
709.966	33812.66
710.31	33889.72
710.654	33572.66
710.998	33722.49
711.342	33674.81
711.687	33482.04
712.031	33296.96
712.375	33258.09
712.719	33322.05
713.063	33374.48
713.407	33324.76
713.75	33087.25
714.094	33111.66
714.438	33061.26
714.782	33005.45
715.125	32849.52
715.469	32961.83
715.812	32875.05
716.156	32565.46
716.499	32606.13
716.843	32596.19
717.186	32356.65
717.53	32569.07
717.873	32523.2
718.216	32440.49
718.559	32390.55
718.902	32065.58
719.246	32127.05
719.589	32130.67
719.932	31965.02
720.275	31960.05
720.617	31957.11
720.96	31899.26
721.303	31894.29
721.646	31825.59
721.989	31692.49
722.331	31854.74
722.674	31788.75
723.016	31795.53
723.359	31681.86
723.701	31711.24
724.044	31371.59
724.386	31273.97
724.729	31424.92
725.071	31394.19
725.413	31404.36
725.755	31195.55
726.097	31222.44
726.439	31001.2
726.782	30925.73
727.124	31250.46
727.465	30928.44
727.807	30921.66
728.149	30922.34
728.491	30950.58
728.833	30962.79
729.175	30687.77
729.516	30721.89
729.858	30607.54
730.199	30721.44
730.541	30502.01
730.882	30574.1
731.224	30570.93
731.565	30309.02
731.906	30377.94
732.248	30419.53
732.589	30332.07
732.93	30172.75
733.271	30071.51
733.612	30209.14
733.953	30186.99
734.294	30112.41
734.635	29893.21
734.976	30055.92
735.317	29897.73
735.658	29836.72
735.999	29815.47
736.339	29761.69
736.68	29755.36
737.021	29732.31
737.361	29622.94
737.702	29846.88
738.042	29558.53
738.383	29615.7
738.723	29601.24
739.063	29603.05
739.404	29603.05
739.744	29496.84
740.084	29327.35
740.424	29514.92
740.764	29342.27
741.104	29326.9
741.444	29177.52
741.784	29095.72
742.124	29208.94
742.464	29121.71
742.804	29192.21
743.143	29087.81
743.483	29059.79
743.823	28960.81
744.162	28894.82
744.502	28902.95
744.841	28857.31
745.181	28756.29
745.52	28782.96
745.86	28714.03
746.199	28668.61
746.538	28634.71
746.877	28807.59
747.216	28692.79
747.556	28505.68
747.895	28618.67
748.234	28502.51
748.573	28448.28
748.911	28344.1
749.25	28262.75
749.589	28187.49
749.928	28243.31
750.267	28394.27
750.605	28267.49
750.944	28041.51
751.283	28019.36
751.621	28119.7
751.96	27898.24
752.298	27833.6
752.636	27926.03
752.975	27752.02
753.313	27722.87
753.651	27707.51
753.989	27589.99
754.327	27587.28
754.666	27446.5
755.004	27573.5
755.342	27437.68
755.679	27439.04
756.017	27274.07
756.355	27378.25
756.693	27149.55
757.031	27166.5
757.368	27144.36
757.706	26991.59
