Data from hue_260_FLMS001491_00042.txt Node
Date: Tue Feb 07 15:59:02 GMT 2017
User: dcchb
Spectrometer: FLMS00149
Trigger mode: 0
Integration Time (sec): 2.000000E-2
Scans to average: 10
Electric dark correction enabled: true
Nonlinearity correction enabled: false
Boxcar width: 0
XAxis mode: Wavelengths
Number of Pixels in Spectrum: 2048
>>>>>Begin Spectral Data<<<<<
341.393	5.31
341.776	5.31
342.16	5.31
342.543	-57.06
342.927	-55.93
343.31	-48.47
343.693	-69.72
344.077	-80.34
344.46	-48.47
344.843	-64.29
345.226	-30.39
345.61	-30.85
345.993	-22.03
346.376	-1.92
346.759	1.47
347.142	19.77
347.525	54.35
347.908	66.78
348.291	64.97
348.674	78.3
349.057	110.84
349.44	127.12
349.823	126.89
350.206	142.26
350.588	150.17
350.971	194.23
351.354	215.47
351.737	214.12
352.119	227.68
352.502	251.63
352.884	256.6
353.267	263.38
353.65	296.15
354.032	268.35
354.414	282.14
354.797	306.32
355.179	291.18
355.562	301.57
355.944	294.79
356.326	306.55
356.709	301.8
357.091	336.15
357.473	311.97
357.855	322.82
358.238	331.86
358.62	307
359.002	333.44
359.384	329.37
359.766	324.85
360.148	360.78
360.53	328.47
360.912	314.46
361.294	331.18
361.676	333.44
362.057	342.25
362.439	316.71
362.821	305.19
363.203	313.33
363.584	316.94
363.966	315.81
364.348	303.38
364.729	298.18
365.111	292.08
365.493	285.76
365.874	318.97
366.256	284.85
366.637	300.67
367.019	300.9
367.4	288.02
367.781	302.48
368.163	293.89
368.544	310.16
368.925	305.87
369.306	310.39
369.688	324.17
370.069	292.76
370.45	298.86
370.831	306.77
371.212	297.05
371.593	301.35
371.974	301.57
372.355	297.96
372.736	298.18
373.117	298.41
373.498	286.66
373.879	313.1
374.26	297.28
374.641	297.28
375.021	307.22
375.402	315.81
375.783	290.5
376.163	335.7
376.544	305.19
376.925	332.99
377.305	308.81
377.686	306.55
378.066	316.71
378.447	316.71
378.827	334.12
379.208	322.82
379.588	309.71
379.968	305.19
380.349	342.25
380.729	330.73
381.109	303.61
381.489	315.81
381.87	332.99
382.25	343.38
382.63	325.53
383.01	324.17
383.39	341.12
383.77	337.96
384.15	321.23
384.53	332.08
384.91	339.54
385.29	357.84
385.67	338.64
386.049	354.23
386.429	333.44
386.809	323.27
387.189	352.42
387.568	341.35
387.948	339.99
388.328	329.82
388.707	372.76
389.087	345.41
389.466	348.58
389.846	344.06
390.225	356.94
390.605	337.05
390.984	346.77
391.363	358.97
391.743	365.53
392.122	361.69
392.501	373.44
392.881	370.05
393.26	345.41
393.639	363.72
394.018	391.97
394.397	374.79
394.776	366.88
395.155	369.14
395.534	396.26
395.913	372.53
396.292	371.85
396.671	384.51
397.05	387.9
397.429	394
397.808	383.38
398.186	377.05
398.565	391.52
398.944	391.52
399.323	378.63
399.701	412.76
400.08	398.07
400.458	394.9
400.837	398.97
401.215	410.27
401.594	419.76
401.972	417.73
402.351	407.79
402.729	409.37
403.107	404.4
403.486	438.52
403.864	433.55
404.242	427.22
404.62	435.58
404.999	439.2
405.377	434.68
405.755	432.42
406.133	431.74
406.511	445.98
406.889	477.84
407.267	450.04
407.645	447.56
408.023	459.08
408.401	473.77
408.779	462.25
409.156	487.78
409.534	479.42
409.912	486.2
410.29	512.19
410.667	487.78
411.045	504.28
411.422	522.13
411.8	490.72
412.178	517.16
412.555	527.1
412.933	547.44
413.31	544.28
413.687	533.43
414.065	565.75
414.442	580.89
414.819	573.43
415.197	590.38
415.574	594.9
415.951	597.16
416.328	604.39
416.705	605.29
417.082	612.07
417.46	631.06
417.837	615.24
418.214	641.23
418.591	633.99
418.967	656.37
419.344	643.03
419.721	648.91
420.098	676.71
420.475	663.15
420.852	713.54
421.228	695.69
421.605	680.55
421.982	718.06
422.358	714.67
422.735	756.48
423.111	730.94
423.488	745.4
423.864	743.37
424.241	764.39
424.617	776.82
424.994	801.22
425.37	814.33
425.746	810.26
426.123	845.97
426.499	845.29
426.875	852.52
427.251	864.5
427.627	876.7
428.003	885.74
428.379	896.59
428.756	889.58
429.132	908.79
429.507	909.69
429.883	915.34
430.259	930.48
430.635	955.79
431.011	971.16
431.387	986.75
431.763	994.66
432.138	1005.06
432.514	1010.48
432.89	1043.7
433.265	1024.94
433.641	1066.3
434.016	1071.95
434.392	1077.37
434.767	1129.57
435.143	1111.95
435.518	1130.7
435.894	1134.55
436.269	1165.73
436.644	1184.49
437.02	1190.59
437.395	1215.22
437.77	1229.69
438.145	1248.22
438.52	1262.23
438.895	1273.98
439.271	1291.38
439.646	1328.44
440.021	1332.73
440.395	1353.98
440.77	1344.71
441.145	1370.47
441.52	1388.78
441.895	1397.59
442.27	1407.99
442.645	1414.99
443.019	1438.49
443.394	1439.17
443.769	1471.03
444.143	1463.8
444.518	1488.66
444.892	1479.17
445.267	1516.68
445.641	1493.86
446.016	1499.96
446.39	1538.6
446.764	1548.77
447.139	1540.19
447.513	1564.82
447.887	1589.22
448.262	1556.91
448.636	1605.49
449.01	1599.84
449.384	1615.44
449.758	1604.36
450.132	1634.65
450.506	1678.03
450.88	1683.01
451.254	1671.03
451.628	1693.85
452.002	1696.57
452.376	1706.51
452.75	1731.14
453.123	1751.71
453.497	1804.59
453.871	1779.5
454.244	1803.23
454.618	1814.75
454.992	1828.31
455.365	1868.31
455.739	1891.36
456.112	1874.87
456.486	1940.63
456.859	1908.09
457.232	1949.89
457.606	1957.58
457.979	1966.16
458.352	1999.83
458.725	2053.39
459.099	2034.18
459.472	2089.55
459.845	2092.49
460.218	2102.88
460.591	2146.05
460.964	2121.19
461.337	2157.57
461.71	2181.98
462.083	2224.91
462.456	2255.65
462.829	2250
463.201	2323.89
463.574	2302.2
463.947	2311.92
464.32	2380.39
464.692	2358.24
465.065	2386.72
465.438	2447.73
465.81	2473.72
466.183	2459.26
466.555	2525.7
466.928	2560.27
467.3	2530.67
467.672	2584.9
468.045	2632.36
468.417	2647.5
468.789	2678.23
469.161	2680.72
469.534	2735.18
469.906	2763.43
470.278	2796.88
470.65	2817.89
471.022	2865.57
471.394	2931.79
471.766	2930.43
472.138	2957.1
472.51	2992.35
472.882	3060.6
473.253	3044.55
473.625	3053.82
473.997	3213.59
474.369	3174.27
474.74	3210.88
475.112	3250.2
475.484	3310.99
475.855	3380.14
476.227	3388.05
476.598	3469.85
476.97	3494.26
477.341	3528.38
477.713	3599.79
478.084	3623.52
478.455	3701.94
478.827	3708.26
479.198	3830.29
479.569	3834.59
479.94	3899.9
480.311	3946.68
480.682	4022.83
481.053	4095.6
481.424	4109.84
481.795	4157.97
482.166	4207.91
482.537	4249.27
482.908	4292.88
483.279	4360.45
483.65	4425.76
484.021	4489.49
484.391	4570.61
484.762	4575.81
485.133	4646.32
485.503	4673.44
485.874	4789.59
486.244	4807.9
486.615	4876.14
486.985	4917.72
487.356	4988.46
487.726	4995.69
488.097	5125.63
488.467	5110.49
488.837	5217.15
489.207	5240.43
489.578	5331.72
489.948	5323.59
490.318	5417.82
490.688	5454.43
491.058	5458.05
491.428	5597.71
491.798	5582.34
492.168	5686.07
492.538	5724.03
492.908	5754.31
493.278	5787.76
493.648	5819.62
494.017	5888.55
494.387	5917.25
494.757	5960.18
495.126	6071.37
495.496	6040.63
495.866	6079.95
496.235	6118.14
496.605	6124.92
496.974	6218.93
497.344	6225.71
497.713	6244.92
498.082	6290.57
498.452	6306.39
498.821	6321.3
499.19	6371.47
499.559	6405.14
499.928	6441.3
500.298	6399.49
500.667	6500.28
501.036	6492.15
501.405	6554.74
501.774	6528.3
502.143	6561.07
502.512	6586.61
502.88	6690.78
503.249	6644.01
503.618	6725.59
503.987	6731.91
504.356	6728.52
504.724	6730.33
505.093	6782.76
505.462	6754.06
505.83	6840.61
506.199	6898.01
506.567	6930.1
506.936	6899.14
507.304	6971
507.672	6945.02
508.041	7020.49
508.409	6985.01
508.777	7113.15
509.145	7045.8
509.514	7059.36
509.882	7103.88
510.25	7123.54
510.618	7173.26
510.986	7195.4
511.354	7201.73
511.722	7231.56
512.09	7238.11
512.458	7206.03
512.826	7313.37
513.193	7333.71
513.561	7245.12
513.929	7357.89
514.297	7403.08
514.664	7368.51
515.032	7356.76
515.4	7387.94
515.767	7390.43
516.135	7463.42
516.502	7394.04
516.869	7483.08
517.237	7490.76
517.604	7433.59
517.972	7551.1
518.339	7533.7
518.706	7521.5
519.073	7485.11
519.44	7574.83
519.808	7559.91
520.175	7580.93
520.542	7614.38
520.909	7620.03
521.276	7672.23
521.643	7672.68
522.009	7718.33
522.376	7707.48
522.743	7735.28
523.11	7736.86
523.477	7798.78
523.843	7737.31
524.21	7852.79
524.577	7829.06
524.943	7863.18
525.31	7846.23
525.676	7940.7
526.043	7926.68
526.409	7919.23
526.776	7975.5
527.142	7923.29
527.508	7996.96
527.874	7991.54
528.241	8052.56
528.607	8019.34
528.973	8061.14
529.339	8002.39
529.705	8060.24
530.071	8085.32
530.437	8101.82
530.803	8092.1
531.169	8119
531.535	8087.36
531.901	8132.78
532.267	8060.01
532.632	8120.35
532.998	8068.6
533.364	8120.58
533.73	8071.99
534.095	8122.84
534.461	8064.99
534.826	8097.3
535.192	8161.25
535.557	8133.91
535.923	8064.99
536.288	8118.09
536.653	8147.24
537.019	8107.7
537.384	8126.23
537.749	8124.19
538.114	8097.53
538.479	8031.77
538.845	8087.58
539.21	8054.14
539.575	8071.09
539.94	8057.08
540.305	8099.79
540.67	8033.57
541.034	7996.96
541.399	8062.5
541.764	7991.54
542.129	7980.69
542.494	8031.31
542.858	8009.62
543.223	8014.14
543.587	8020.69
543.952	7975.5
544.316	8045.55
544.681	7956.51
545.045	7981.82
545.41	8018.66
545.774	8016.4
546.138	7984.99
546.503	7914.26
546.867	7954.03
547.231	7976.17
547.595	7923.29
547.959	7927.14
548.324	7940.47
548.688	7882.62
549.052	7888.49
549.416	7895.5
549.779	7817.08
550.143	7880.36
550.507	7937.31
550.871	7879
551.235	7837.87
551.599	7899.57
551.962	7841.71
552.326	7901.83
552.689	7853.24
553.053	7831.09
553.417	7781.6
553.78	7972.78
554.143	7790.87
554.507	7817.08
554.87	7854.6
555.234	7872.45
555.597	7817.99
555.96	7824.99
556.323	7872.67
556.686	7845.56
557.05	7838.1
557.413	7839
557.776	7821.6
558.139	7892.56
558.502	7807.82
558.865	7902.96
559.228	7904.76
559.59	7900.02
559.953	7889.17
560.316	7914.48
560.679	7950.19
561.041	7945.67
561.404	7923.75
561.767	8008.49
562.129	7944.08
562.492	7966.46
562.854	7940.7
563.217	7954.25
563.579	7986.57
563.941	7980.92
564.304	8030.18
564.666	8105.44
565.028	8029.96
565.39	8013.91
565.753	8110.86
566.115	8120.13
566.477	8104.08
566.839	8087.81
567.201	8139.79
567.563	8172.78
567.925	8179.33
568.287	8144.08
568.648	8138.43
569.01	8253.68
569.372	8288.26
569.734	8252.78
570.095	8268.37
570.457	8278.31
570.819	8343.17
571.18	8287.35
571.542	8386.33
571.903	8405.09
572.265	8370.29
572.626	8377.97
572.987	8435.15
573.349	8397.86
573.71	8464.3
574.071	8409.84
574.432	8471.75
574.794	8511.75
575.155	8540.91
575.516	8526.67
575.877	8571.19
576.238	8585.2
576.599	8642.82
576.96	8597.85
577.32	8636.04
577.681	8725.99
578.042	8690.96
578.403	8666.33
578.763	8726.89
579.124	8710.62
579.485	8717.4
579.845	8774.35
580.206	8747.45
580.566	8812.54
580.927	8772.76
581.287	8819.54
581.648	8838.52
582.008	8848.02
582.368	8874
582.728	8969.14
583.089	8924.4
583.449	8893.89
583.809	8920.1
584.169	8968.24
584.529	8971.4
584.889	9017.95
585.249	9023.6
585.609	8988.58
585.969	9064.06
586.329	9023.83
586.688	8997.62
587.048	9028.58
587.408	9055.47
587.768	9055.02
588.127	9076.03
588.487	9140.21
588.846	9152.41
589.206	9088.24
589.565	9118.52
589.925	9242.36
590.284	9190.83
590.643	9240.77
591.003	9252.53
591.362	9269.25
591.721	9242.36
592.08	9221.34
592.44	9287.55
592.799	9226.99
593.158	9267.21
593.517	9266.08
593.876	9276.93
594.235	9266.31
594.593	9296.37
594.952	9373.43
595.311	9246.65
595.67	9330.26
596.029	9404.84
596.387	9332.75
596.746	9353.09
597.104	9384.05
597.463	9318.06
597.822	9404.84
598.18	9390.83
598.538	9353.99
598.897	9448
599.255	9341.34
599.613	9503.14
599.972	9430.6
600.33	9442.12
600.688	9406.65
601.046	9438.51
601.404	9469.69
601.762	9463.82
602.12	9430.6
602.478	9520.99
602.836	9471.95
603.194	9422.24
603.552	9478.96
603.91	9413.65
604.268	9497.26
604.625	9468.79
604.983	9514.67
605.341	9530.71
605.698	9529.81
606.056	9582.46
606.413	9580.43
606.771	9567.77
607.128	9568.67
607.485	9529.58
607.843	9538.85
608.2	9597.83
608.557	9611.16
608.914	9607.54
609.272	9568.9
609.629	9650.03
609.986	9722.34
610.343	9621.1
610.7	9713.53
611.057	9682.57
611.414	9659.29
611.771	9704.49
612.127	9704.94
612.484	9716.02
612.841	9700.2
613.198	9679.63
613.554	9670.14
613.911	9797.6
614.267	9698.16
614.624	9713.53
614.98	9781.55
615.337	9770.25
615.693	9780.87
616.05	9800.99
616.406	9820.42
616.762	9822.91
617.118	9819.74
617.475	9846.86
617.831	9825.62
618.187	9821.78
618.543	9866.52
618.899	9932.28
619.255	9860.64
619.611	9840.53
619.967	9928.44
620.323	9914.88
620.678	9882.34
621.034	9825.62
621.39	9890.47
621.746	9810.48
622.101	9975.22
622.457	9850.02
622.812	9904.03
623.168	9898.61
623.523	9864.03
623.879	9951.72
624.234	9925.5
624.589	9927.76
624.945	9876.92
625.3	9938.38
625.655	9902
626.01	9884.15
626.365	9912.62
626.72	9836.01
627.075	9922.34
627.43	9894.54
627.785	9803.7
628.14	9891.15
628.495	9901.77
628.85	9817.26
629.205	9845.96
629.559	9880.76
629.914	9828.33
630.269	9839.85
630.623	9790.36
630.978	9827.2
631.332	9769.57
631.687	9869.68
632.041	9801.89
632.396	9882.11
632.75	9774.77
633.104	9762.12
633.459	9750.59
633.813	9739.29
634.167	9737.48
634.521	9752.4
634.875	9788.33
635.229	9719.86
635.583	9684.38
635.937	9666.98
636.291	9708.56
636.645	9672.4
636.999	9601.89
637.352	9637.83
637.706	9652.29
638.06	9608.9
638.413	9571.61
638.767	9616.58
639.121	9617.49
639.474	9593.53
639.828	9499.3
640.181	9497.49
640.534	9528.68
640.888	9566.64
641.241	9469.92
641.594	9493.2
641.947	9493.65
642.301	9533.65
642.654	9514.89
643.007	9479.86
643.36	9457.49
643.713	9479.64
644.066	9522.35
644.419	9408.23
644.771	9333.88
645.124	9334.56
645.477	9308.79
645.83	9241
646.182	9176.37
646.535	9152.64
646.888	9115.58
647.24	9117.16
647.593	9142.47
647.945	9154.22
648.298	9118.07
648.65	9095.69
649.002	9113.77
649.355	9130.27
649.707	9135.69
650.059	9172.98
650.411	9275.58
650.763	9241.9
651.115	9364.84
651.467	9353.31
651.819	9329.81
652.171	9341.11
652.523	9288.91
652.875	9279.42
653.227	9243.94
653.578	9347.21
653.93	9331.62
654.282	9287.1
654.633	9295.69
654.985	9248.46
655.337	9316.93
655.688	9207.1
656.039	9331.17
656.391	9265.86
656.742	9302.02
657.094	9305.86
657.445	9402.8
657.796	9270.15
658.147	9329.13
658.498	9298.17
658.849	9325.97
659.2	9340.66
659.551	9275.35
659.902	9281.22
660.253	9284.39
660.604	9363.93
660.955	9293.65
661.306	9259.76
661.656	9339.08
662.007	9299.76
662.358	9352.41
662.708	9354.22
663.059	9318.96
663.409	9323.48
663.76	9337.95
664.11	9259.3
664.461	9310.38
664.811	9325.29
665.161	9294.11
665.511	9329.13
665.862	9375.69
666.212	9303.37
666.562	9349.02
666.912	9344.5
667.262	9322.35
667.612	9332.97
667.962	9358.51
668.312	9321.22
668.662	9368.45
669.011	9374.78
669.361	9263.37
669.711	9293.43
670.06	9301.34
670.41	9266.76
670.76	9224.73
671.109	9269.7
671.459	9205.97
671.808	9257.04
672.157	9229.93
672.507	9293.2
672.856	9205.97
673.205	9287.1
673.554	9316.03
673.904	9235.58
674.253	9240.77
674.602	9191.06
674.951	9131.4
675.3	9028.12
675.649	9194.67
675.998	9186.31
676.346	9241.9
676.695	9183.83
677.044	9159.87
677.393	9181.57
677.741	9117.16
678.09	9111.74
678.438	9125.97
678.787	9144.05
679.135	9090.95
679.484	9062.47
679.832	9092.98
680.181	9075.81
680.529	9048.24
680.877	9043.04
681.225	9008.69
681.573	9098.63
681.922	9021.34
682.27	8977.96
682.618	8978.41
682.966	8874.91
683.314	8926.66
683.661	8920.1
684.009	8889.14
684.357	8895.02
684.705	8859.99
685.053	8833.78
685.4	8896.6
685.748	8856.38
686.095	8866.09
686.443	8798.07
686.79	8720.11
687.138	8714.46
687.485	8749.04
687.832	8624.07
688.18	8714.01
688.527	8663.84
688.874	8622.26
689.221	8632.65
689.568	8532.54
689.915	8579.55
690.262	8585.88
690.609	8527.57
690.956	8473.11
691.303	8435.37
691.65	8427.46
691.997	8422.26
692.344	8335.94
692.69	8323.96
693.037	8338.42
693.383	8289.39
693.73	8231.76
694.077	8285.77
694.423	8270.18
694.769	8200.12
695.116	8213.68
695.462	8236.28
695.808	8143.85
696.155	8153.57
696.501	8086.45
696.847	8071.54
697.193	7984.99
697.539	8008.94
697.885	7979.56
698.231	7939.11
698.577	7927.14
698.923	7933.24
699.269	7841.26
699.614	7792
699.96	7835.61
700.306	7793.58
700.651	7775.28
700.997	7730.31
701.342	7701.38
701.688	7698.44
702.033	7621.61
702.379	7613.25
702.724	7594.04
703.069	7595.17
703.415	7436.75
703.76	7504.32
704.105	7493.7
704.45	7512.46
704.795	7440.14
705.14	7410.54
705.485	7452.12
705.83	7419.13
706.175	7366.02
706.52	7340.03
706.865	7311.56
707.209	7333.03
707.554	7319.02
707.899	7252.35
708.243	7259.81
708.588	7225.46
708.932	7196.99
709.277	7208.29
709.621	7120.38
709.966	7172.13
710.31	7108.85
710.654	7094.62
710.998	7092.36
711.342	7097.78
711.687	7049.87
712.031	7007.84
712.375	7008.52
712.719	7053.26
713.063	7049.87
713.407	7014.62
713.75	6982.53
714.094	6999.48
714.438	6933.94
714.782	6982.75
715.125	6904.79
715.469	6889.2
715.812	6926.26
716.156	6848.07
716.499	6891.23
716.843	6838.58
717.186	6855.53
717.53	6855.75
717.873	6869.31
718.216	6789.76
718.559	6794.51
718.902	6726.26
719.246	6807.84
719.589	6738.24
719.932	6768.3
720.275	6703.21
720.617	6724.23
720.96	6758.81
721.303	6729.88
721.646	6681.52
721.989	6648.98
722.331	6701.86
722.674	6677
723.016	6692.59
723.359	6688.98
723.701	6718.13
724.044	6695.53
724.386	6609.88
724.729	6683.78
725.071	6588.41
725.413	6657.34
725.755	6606.49
726.097	6613.27
726.439	6594.74
726.782	6615.31
727.124	6633.16
727.465	6632.48
727.807	6634.06
728.149	6585.02
728.491	6549.32
728.833	6542.99
729.175	6563.1
729.516	6573.27
729.858	6530.34
730.199	6585.93
730.541	6559.04
730.882	6574.86
731.224	6571.47
731.565	6540.96
731.906	6557.45
732.248	6533.95
732.589	6514.52
732.93	6514.07
733.271	6500.06
733.612	6528.08
733.953	6545.48
734.294	6473.16
734.635	6517.68
734.976	6510.68
735.317	6555.87
735.658	6465.48
735.999	6505.03
736.339	6478.59
736.68	6568.08
737.021	6513.61
737.361	6514.07
737.702	6535.99
738.042	6466.38
738.383	6551.35
738.723	6528.98
739.063	6561.07
739.404	6589.77
739.744	6541.18
740.084	6547.74
740.424	6602.65
740.764	6560.17
741.104	6564.69
741.444	6582.99
741.784	6589.77
742.124	6576.89
742.464	6571.47
742.804	6571.01
743.143	6628.19
743.483	6650.79
743.823	6624.35
744.162	6686.26
744.502	6671.35
744.841	6710.9
745.181	6785.25
745.52	6732.59
745.86	6753.38
746.199	6842.42
746.538	6812.14
746.877	6925.81
747.216	6890.55
747.556	6926.03
747.895	6946.82
748.234	6964.68
748.573	7028.63
748.911	7039.93
749.25	7111.34
749.589	7121.96
749.928	7198.57
750.267	7252.35
750.605	7374.38
750.944	7399.69
751.283	7401.73
751.621	7524.43
751.96	7526.24
752.298	7621.16
752.636	7672.91
752.975	7786.12
753.313	7797.2
753.651	7901.37
753.989	7991.54
754.327	8055.49
754.666	8183.4
755.004	8268.14
755.342	8416.16
755.679	8405.99
756.017	8541.58
756.355	8664.52
756.693	8751.52
757.031	8752.88
757.368	8957.84
757.706	9063.15
758.044	9088.69
758.381	9299.08
758.719	9404.16
759.056	9605.06
759.394	9613.65
759.731	9723.25
760.068	9805.5
760.405	9938.61
760.743	10130.02
761.08	10169.79
761.417	10288.2
761.754	10391.25
762.091	10533.85
762.428	10734.52
762.765	10731.36
763.102	10900.62
763.438	11078.92
763.775	11164.11
764.112	11194.39
764.449	11434.84
764.785	11449.98
765.122	11598
765.458	11614.04
765.795	11841.38
766.131	11965.45
766.467	12063.07
766.804	12184.43
767.14	12208.83
767.476	12332.44
767.812	12424.42
768.148	12579.9
768.485	12565.88
768.821	12665.54
769.157	12808.59
