Data from hue_90_FLMS001491_54.txt Node
Date: Mon Feb 06 15:25:19 GMT 2017
User: dcchb
Spectrometer: FLMS00149
Trigger mode: 0
Integration Time (sec): 2.000000E-2
Scans to average: 10
Electric dark correction enabled: true
Nonlinearity correction enabled: false
Boxcar width: 0
XAxis mode: Wavelengths
Number of Pixels in Spectrum: 2048
>>>>>Begin Spectral Data<<<<<
341.393	-16.92
341.776	-16.92
342.16	-16.92
342.543	-65.96
342.927	-53.08
343.31	-74.55
343.693	-58.5
344.077	-57.15
344.46	-60.99
344.843	-46.3
345.226	-46.07
345.61	-48.56
345.993	-20.08
346.376	-11.5
346.759	10.42
347.142	26.24
347.525	26.92
347.908	61.04
348.291	78.44
348.674	108.27
349.057	112.34
349.44	131.55
349.823	156.86
350.206	158.44
350.588	167.03
350.971	214.49
351.354	209.97
351.737	227.14
352.119	239.34
352.502	259.91
352.884	280.7
353.267	268.95
353.65	289.96
354.032	309.85
354.414	319.57
354.797	303.52
355.179	296.29
355.562	308.04
355.944	311.43
356.326	348.04
356.709	336.52
357.091	318.66
357.473	328.83
357.855	336.06
358.238	338.32
358.62	320.47
359.002	322.96
359.384	331.54
359.766	331.77
360.148	347.59
360.53	343.97
360.912	353.24
361.294	360.47
361.676	342.39
362.057	339.68
362.439	308.04
362.821	334.03
363.203	333.13
363.584	324.54
363.966	296.29
364.348	321.15
364.729	322.05
365.111	306.46
365.493	329.51
365.874	336.52
366.256	314.6
366.637	323.86
367.019	298.55
367.4	305.56
367.781	306.91
368.163	315.5
368.544	303.07
368.925	294.48
369.306	322.51
369.688	310.3
370.069	307.14
370.45	321.38
370.831	303.75
371.212	312.56
371.593	308.95
371.974	329.29
372.355	310.75
372.736	305.33
373.117	316.18
373.498	303.98
373.879	328.83
374.26	308.72
374.641	317.76
375.021	294.03
375.402	317.31
375.783	312.79
376.163	324.77
376.544	322.51
376.925	344.65
377.305	308.49
377.686	335.16
378.066	313.24
378.447	317.76
378.827	321.15
379.208	339.68
379.588	334.93
379.968	326.57
380.349	336.97
380.729	327.7
381.109	332.67
381.489	345.78
381.87	335.39
382.25	322.28
382.63	317.08
383.01	317.08
383.39	325.44
383.77	340.36
384.15	351.21
384.53	336.74
384.91	366.8
385.29	353.69
385.67	351.21
386.049	370.64
386.429	332.9
386.809	323.41
387.189	354.82
387.568	335.61
387.948	357.08
388.328	358.44
388.707	347.14
389.087	341.71
389.466	357.76
389.846	353.24
390.225	343.52
390.605	362.96
390.984	383.52
391.363	369.06
391.743	352.56
392.122	371.32
392.501	373.58
392.881	382.84
393.26	376.74
393.639	373.13
394.018	360.24
394.397	377.65
394.776	364.76
395.155	362.73
395.534	369.74
395.913	370.19
396.292	376.74
396.671	375.61
397.05	360.02
397.429	375.16
397.808	386.23
398.186	376.29
398.565	381.94
398.944	393.01
399.323	394.59
399.701	396.63
400.08	388.27
400.458	391.88
400.837	386.91
401.215	409.96
401.594	395.95
401.972	391.43
402.351	395.5
402.729	382.39
403.107	402.96
403.486	408.83
403.864	395.27
404.242	395.95
404.62	398.66
404.999	400.92
405.377	391.66
405.755	417.87
406.133	411.99
406.511	422.16
406.889	411.32
407.267	437.53
407.645	408.83
408.023	403.86
408.401	413.35
408.779	418.1
409.156	433.69
409.534	432.11
409.912	459.23
410.29	443.41
410.667	449.28
411.045	442.5
411.422	444.99
411.8	428.72
412.178	443.18
412.555	456.29
412.933	478.43
413.31	464.87
413.687	453.12
414.065	462.61
414.442	469.39
414.819	483.86
415.197	449.51
415.574	492.9
415.951	464.42
416.328	462.16
416.705	487.93
417.082	466.68
417.46	470.98
417.837	502.39
418.214	508.04
418.591	514.59
418.967	504.42
419.344	485.89
419.721	502.39
420.098	505.55
420.475	508.26
420.852	511.65
421.228	519.79
421.605	523.86
421.982	519.34
422.358	539.68
422.735	535.16
423.111	546
423.488	541.48
423.864	520.24
424.241	563.63
424.617	546.45
424.994	543.29
425.37	517.08
425.746	571.99
426.123	552.33
426.499	571.54
426.875	585.1
427.251	584.19
427.627	588.94
428.003	579.45
428.379	567.02
428.756	600.01
429.132	575.61
429.507	570.63
429.883	572.44
430.259	601.14
430.635	610.18
431.011	616.06
431.387	625.1
431.763	623.74
432.138	630.97
432.514	637.75
432.89	628.26
433.265	647.24
433.641	658.54
434.016	637.07
434.392	672.55
434.767	658.77
435.143	670.75
435.518	663.29
435.894	669.62
436.269	670.52
436.644	702.38
437.02	687.24
437.395	706.22
437.77	710.07
438.145	704.64
438.52	719.78
438.895	717.52
439.271	716.17
439.646	741.7
440.021	708.71
440.395	732.21
440.77	747.13
441.145	741.25
441.52	784.19
441.895	750.74
442.27	755.94
442.645	781.93
443.019	750.52
443.394	763.17
443.769	800.69
444.143	767.92
444.518	794.81
444.892	793.91
445.267	804.53
445.641	798.65
446.016	808.59
446.39	807.01
446.764	828.48
447.139	816.05
447.513	802.49
447.887	818.31
448.262	809.27
448.636	811.53
449.01	835.26
449.384	847.46
449.758	854.7
450.132	858.76
450.506	866.67
450.88	882.26
451.254	887.46
451.628	877.75
452.002	883.85
452.376	906.9
452.75	914.35
453.123	902.6
453.497	951.87
453.871	924.98
454.244	970.17
454.618	969.72
454.992	974.92
455.365	961.58
455.739	964.52
456.112	986.44
456.486	1005.2
456.859	993
457.232	1010.4
457.606	1027.57
457.979	1038.87
458.352	1054.01
458.725	1062.83
459.099	1057.18
459.472	1080.45
459.845	1078.64
460.218	1071.86
460.591	1103.28
460.964	1129.04
461.337	1141.47
461.71	1201.13
462.083	1187.57
462.456	1203.84
462.829	1200.67
463.201	1213.33
463.574	1215.36
463.947	1229.15
464.32	1235.48
464.692	1280.22
465.065	1308.92
465.438	1298.98
465.81	1313.67
466.183	1302.82
466.555	1367
466.928	1374.46
467.3	1379.2
467.672	1413.55
468.045	1441.8
468.417	1417.62
468.789	1477.28
469.161	1497.62
469.534	1518.63
469.906	1564.96
470.278	1585.3
470.65	1610.83
471.022	1634.79
471.394	1694.45
471.766	1713.2
472.138	1735.12
472.51	1778.51
472.882	1781.45
473.253	1869.13
473.625	1865.52
473.997	1923.59
474.369	1920.66
474.74	1973.54
475.112	2036.36
475.484	2043.82
475.855	2100.31
476.227	2145.96
476.598	2244.49
476.97	2237.26
477.341	2355.9
477.713	2384.82
478.084	2373.75
478.455	2494.88
478.827	2553.63
479.198	2646.51
479.569	2699.39
479.94	2789.79
480.311	2838.82
480.682	2946.39
481.053	2998.82
481.424	3103.45
481.795	3128.31
482.166	3215.54
482.537	3332.37
482.908	3395.19
483.279	3516.55
483.65	3579.82
484.021	3705.47
484.391	3766.48
484.762	3885.58
485.133	3920.38
485.503	4044.44
485.874	4187.71
486.244	4288.73
486.615	4409.63
486.985	4460.7
487.356	4633.35
487.726	4686.68
488.097	4867.02
488.467	4957.41
488.837	5121.48
489.207	5189.72
489.578	5367.34
489.948	5467.23
490.318	5611.86
490.688	5605.53
491.058	5796.26
491.428	5923.94
491.798	5991.96
492.168	6251.39
492.538	6311.27
492.908	6426.75
493.278	6526.18
493.648	6678.72
494.017	6819.06
494.387	6926.4
494.757	7057.92
495.126	7172.72
495.496	7228.99
495.866	7329.55
496.235	7477.35
496.605	7649.54
496.974	7706.04
497.344	7807.28
497.713	7918.92
498.082	8033.26
498.452	8167.5
498.821	8301.73
499.19	8375.85
499.559	8425.34
499.928	8562.97
500.298	8637.99
500.667	8780.36
501.036	8777.2
501.405	8925.9
501.774	8906.91
502.143	9047.02
502.512	9153.01
502.88	9294.7
503.249	9305.77
503.618	9375.37
503.987	9493.11
504.356	9601.58
504.724	9606.78
505.093	9743.05
505.462	9765.65
505.83	9941.46
506.199	9964.06
506.567	10120.44
506.936	10021.91
507.304	10185.52
507.672	10295.58
508.041	10335.12
508.409	10353.2
508.777	10546.42
509.145	10535.8
509.514	10613.99
509.882	10673.65
510.25	10620.31
510.618	10703.7
510.986	10753.64
511.354	10901.21
511.722	10971.04
512.09	11031.6
512.458	11087.87
512.826	11046.97
513.193	11173.07
513.561	11116.57
513.929	11262.33
514.297	11307.3
514.664	11357.47
515.032	11374.19
515.4	11361.54
515.767	11514.08
516.135	11502.55
516.502	11428.88
516.869	11623.23
517.237	11640.85
517.604	11553.17
517.972	11758.59
518.339	11736.22
518.706	11739.15
519.073	11818.93
519.44	11796.55
519.808	11885.14
520.175	11844.69
520.542	11990.67
520.909	11989.32
521.276	11965.82
521.643	12079.94
522.009	12033.84
522.376	12167.84
522.743	12194.06
523.11	12288.74
523.477	12330.1
523.843	12379.59
524.21	12423.66
524.577	12429.08
524.943	12438.8
525.31	12426.82
525.676	12573.26
526.043	12633.59
526.409	12570.55
526.776	12596.99
527.142	12697.77
527.508	12612.8
527.874	12648.28
528.241	12733.25
528.607	12716.76
528.973	12785.45
529.339	12774.83
529.705	12823.42
530.071	12794.95
530.437	12730.54
530.803	12883.98
531.169	12853.93
531.535	12844.89
531.901	12844.21
532.267	12875.4
532.632	12843.98
532.998	12883.31
533.364	12796.53
533.73	12857.54
534.095	12782.52
534.461	12803.76
534.826	12863.64
535.192	12827.26
535.557	12949.97
535.923	12810.76
536.288	12797.66
536.653	12852.12
537.019	12776.42
537.384	12783.87
537.749	12657.32
538.114	12737.77
538.479	12707.49
538.845	12733.7
539.21	12618.23
539.575	12654.61
539.94	12646.02
540.305	12713.14
540.67	12545.69
541.034	12499.36
541.399	12570.77
541.764	12486.93
542.129	12599.47
542.494	12513.6
542.858	12492.58
543.223	12397.89
543.587	12438.35
543.952	12367.16
544.316	12383.21
544.681	12304.11
545.045	12332.81
545.41	12372.81
545.774	12257.33
546.138	12290.55
546.503	12252.81
546.867	12146.6
547.231	12239.93
547.595	12161.52
547.959	12070.67
548.324	12039.94
548.688	12041.75
549.052	12096.21
549.416	12032.71
549.779	12010.11
550.143	11910
550.507	11936.21
550.871	11916.33
551.235	11898.92
551.599	11956.1
551.962	11900.05
552.326	11895.99
552.689	11955.42
553.053	11828.42
553.417	11757.91
553.78	11901.86
554.143	11813.73
554.507	11848.08
554.87	11764.69
555.234	11872.26
555.597	11624.58
555.96	11738.02
556.323	11718.36
556.686	11656.22
557.05	11689.89
557.413	11683.79
557.776	11693.28
558.139	11719.49
558.502	11700.74
558.865	11633.85
559.228	11643.79
559.59	11722.66
559.953	11633.17
560.316	11670
560.679	11676.33
561.041	11637.46
561.404	11709.32
561.767	11766.27
562.129	11681.3
562.492	11695.77
562.854	11706.16
563.217	11792.03
563.579	11738.25
563.941	11717.69
564.304	11783.45
564.666	11709.1
565.028	11848.98
565.39	11881.07
565.753	11880.85
566.115	11818.25
566.477	11910.9
566.839	11884.24
567.201	11839.49
567.563	11907.29
567.925	11932.6
568.287	11862.32
568.648	11840.85
569.01	11913.61
569.372	11998.36
569.734	11896.66
570.095	11995.65
570.457	11978.92
570.819	11992.48
571.18	11968.08
571.542	12077
571.903	12014.85
572.265	12074.29
572.626	12092.59
572.987	12082.65
573.349	12070.22
573.71	12127.17
574.071	12061.63
574.432	12135.75
574.794	12258.46
575.155	12165.13
575.516	12109.54
575.877	12133.95
576.238	12153.16
576.599	12199.93
576.96	12175.53
577.32	12124.91
577.681	12233.6
578.042	12191.12
578.403	12143.44
578.763	12244.68
579.124	12208.07
579.485	12259.14
579.845	12168.52
580.206	12201.74
580.566	12154.51
580.927	12250.1
581.287	12183.21
581.648	12207.39
582.008	12166.26
582.368	12180.05
582.728	12226.37
583.089	12091.91
583.449	12180.05
583.809	12154.51
584.169	12082.65
584.529	12166.04
584.889	12228.41
585.249	12094.85
585.609	12144.57
585.969	12232.25
586.329	12106.38
586.688	12103.89
587.048	12153.16
587.408	12086.94
587.768	12034.29
588.127	12094.17
588.487	11958.36
588.846	12077.68
589.206	11995.65
589.565	12055.76
589.925	12090.33
590.284	12095.98
590.643	12090.56
591.003	12027.96
591.362	12092.37
591.721	11977.11
592.08	11983.22
592.44	12114.51
592.799	11988.19
593.158	12003.33
593.517	11979.6
593.876	12026.15
594.235	11991.8
594.593	11984.35
594.952	11981.18
595.311	12010.11
595.67	11890.79
596.029	11971.92
596.387	12017.11
596.746	12039.94
597.104	11967.17
597.463	11889.21
597.822	11926.04
598.18	11936.44
598.538	11895.76
598.897	11863.67
599.255	11837.91
599.613	12005.59
599.972	11910.68
600.33	11978.02
600.688	11900.51
601.046	11902.77
601.404	11973.27
601.762	11966.72
602.12	12005.36
602.478	11985.02
602.836	11958.36
603.194	11901.41
603.552	11902.99
603.91	11848.98
604.268	11924.91
604.625	11895.31
604.983	11877.91
605.341	11865.48
605.698	11891.69
606.056	11924.23
606.413	11906.83
606.771	11954.97
607.128	11895.76
607.485	11931.92
607.843	11856.44
608.2	11942.77
608.557	11978.7
608.914	11919.49
609.272	11962.88
609.629	12024.34
609.986	12006.94
610.343	12002.42
610.7	12079.03
611.057	11983.89
611.414	12018.47
611.771	12049.88
612.127	12028.19
612.484	12022.76
612.841	12135.75
613.198	12080.39
613.554	12096.43
613.911	12081.74
614.267	12064.57
614.624	12072.03
614.98	12107.28
615.337	12166.26
615.693	12123.1
616.05	12145.25
616.406	12165.36
616.762	12142.31
617.118	12146.83
617.475	12237.9
617.831	12181.63
618.187	12187.05
618.543	12210.78
618.899	12206.71
619.255	12347.95
619.611	12248.07
619.967	12317.44
620.323	12300.95
620.678	12346.37
621.034	12204.68
621.39	12335.52
621.746	12253.94
622.101	12363.54
622.457	12230.67
622.812	12223.21
623.168	12299.37
623.523	12254.17
623.879	12180.05
624.234	12188.18
624.589	12280.61
624.945	12282.42
625.3	12273.83
625.655	12256.88
626.01	12247.39
626.365	12226.6
626.72	12252.14
627.075	12280.84
627.43	12247.16
627.785	12109.54
628.14	12213.49
628.495	12216.43
628.85	12167.62
629.205	12222.31
629.559	12350.21
629.914	12133.27
630.269	12208.07
630.623	12117.22
630.978	12147.51
631.332	12140.27
631.687	12182.08
632.041	12084.23
632.396	12118.35
632.75	12114.74
633.104	12139.6
633.459	12148.18
633.813	12040.16
634.167	12070.45
634.521	12064.57
634.875	12120.39
635.229	12003.55
635.583	12025.7
635.937	12004.23
636.291	11966.27
636.645	11915.87
636.999	11912.26
637.352	11943.67
637.706	11855.08
638.06	11912.26
638.413	11838.59
638.767	11881.98
639.121	11874.52
639.474	11785.26
639.828	11822.99
640.181	11816.44
640.534	11878.59
640.888	11746.84
641.241	11761.53
641.594	11751.13
641.947	11799.04
642.301	11786.39
642.654	11780.74
643.007	11758.82
643.36	11713.17
643.713	11659.38
644.066	11773.96
644.419	11697.35
644.771	11594.07
645.124	11473.17
645.477	11489.67
645.83	11403.12
646.182	11390.69
646.535	11289.45
646.888	11375.77
647.24	11330.35
647.593	11385.72
647.945	11345.49
648.298	11236.12
648.65	11226.17
649.002	11228.43
649.355	11302.33
649.707	11318.37
650.059	11309.56
650.411	11479.27
650.763	11422.1
651.115	11610.12
651.467	11547.52
651.819	11571.48
652.171	11517.01
652.523	11543
652.875	11594.53
653.227	11519.5
653.578	11608.08
653.93	11628.42
654.282	11471.37
654.633	11509.56
654.985	11460.74
655.337	11552.72
655.688	11540.52
656.039	11586.39
656.391	11493.06
656.742	11463.68
657.094	11540.29
657.445	11560.85
657.796	11505.94
658.147	11509.56
658.498	11493.29
658.849	11532.83
659.2	11549.1
659.551	11458.03
659.902	11603.79
660.253	11460.07
660.604	11512.04
660.955	11560.18
661.306	11572.15
661.656	11547.75
662.007	11577.8
662.358	11583
662.708	11599.27
663.059	11672.49
663.409	11563.34
663.76	11585.71
664.11	11551.81
664.461	11638.59
664.811	11635.43
665.161	11565.37
665.511	11657.35
665.862	11592.49
666.212	11596.33
666.562	11632.94
666.912	11492.38
667.262	11632.72
667.612	11622.77
667.962	11576.22
668.312	11611.7
668.662	11602.66
669.011	11616.9
669.361	11583
669.711	11582.1
670.06	11517.47
670.41	11595.66
670.76	11478.37
671.109	11615.32
671.459	11562.66
671.808	11460.07
672.157	11576
672.507	11501.65
672.856	11495.77
673.205	11485.6
673.554	11520.18
673.904	11474.75
674.253	11578.93
674.602	11501.42
674.951	11323.35
675.3	11307.98
675.649	11481.08
675.998	11420.52
676.346	11441.76
676.695	11482.66
677.044	11393.85
677.393	11437.24
677.741	11472.72
678.09	11371.03
678.438	11333.74
678.787	11313.86
679.135	11449.22
679.484	11252.84
679.832	11277.92
680.181	11296.45
680.529	11319.5
680.877	11234.08
681.225	11191.15
681.573	11243.35
681.922	11184.14
682.27	11152.96
682.618	11140.98
682.966	11129.45
683.314	11115.67
683.661	11084.93
684.009	11020.76
684.357	11030.92
684.705	11019.85
685.053	10994.99
685.4	10973.75
685.748	10928.33
686.095	10852.62
686.443	10827.99
686.79	10845.39
687.138	10823.7
687.485	10826.18
687.832	10772.63
688.18	10830.25
688.527	10737.83
688.874	10702.12
689.221	10688.79
689.568	10644.04
689.915	10648.56
690.262	10624.61
690.609	10570.15
690.956	10612.4
691.303	10596.81
691.65	10451.05
691.997	10495.8
692.344	10457.61
692.69	10374.44
693.037	10428.91
693.383	10295.12
693.73	10405.18
694.077	10273.43
694.423	10284.28
694.769	10206.77
695.116	10225.75
695.462	10213.09
695.808	10141.46
696.155	10070.95
696.501	10012.87
696.847	10030.95
697.193	9990.5
697.539	9941.24
697.885	9871.86
698.231	9860.79
698.577	9924.29
698.923	9804.74
699.269	9698.98
699.614	9685.2
699.96	9716.83
700.306	9705.31
700.651	9599.78
700.997	9585.99
701.342	9608.36
701.688	9595.26
702.033	9468.25
702.379	9546.9
702.724	9437.75
703.069	9491.98
703.415	9293.57
703.76	9339.22
704.105	9376.96
704.45	9358.2
704.795	9297.86
705.14	9198.2
705.485	9191.2
705.83	9127.92
706.175	9231.2
706.52	9151.2
706.865	9075.5
707.209	9130.18
707.554	9083.41
707.899	9085.89
708.243	9010.41
708.588	8964.99
708.932	8962.28
709.277	8924.54
709.621	9042.73
709.966	8878.89
710.31	8865.11
710.654	8745.79
710.998	8795.96
711.342	8771.78
711.687	8737.2
712.031	8695.84
712.375	8709.18
712.719	8756.18
713.063	8693.81
713.407	8664.66
713.75	8607.26
714.094	8615.62
714.438	8545.34
714.782	8583.98
715.125	8569.75
715.469	8563.42
715.812	8544.89
716.156	8509.18
716.499	8454.72
716.843	8520.03
717.186	8446.36
717.53	8465.57
717.873	8460.6
718.216	8462.63
718.559	8435.74
718.902	8401.39
719.246	8381.73
719.589	8367.04
719.932	8356.19
720.275	8386.25
720.617	8323.65
720.96	8270.32
721.303	8306.48
721.646	8281.84
721.989	8279.58
722.331	8262.18
722.674	8233.71
723.016	8271.9
723.359	8188.97
723.701	8277.32
724.044	8193.49
724.386	8140.83
724.729	8228.51
725.071	8162.07
725.413	8142.86
725.755	8155.75
726.097	8150.32
726.439	8071.68
726.782	8122.75
727.124	8151.68
727.465	8139.02
727.807	8102.87
728.149	8111.91
728.491	8077.56
728.833	8133.37
729.175	8116.2
729.516	8147.38
729.858	8148.51
730.199	8118.46
730.541	8153.03
730.882	8120.04
731.224	8125.24
731.565	8064.67
731.906	8131.11
732.248	8107.84
732.589	8086.37
732.93	8114.84
733.271	8096.54
733.612	8041.4
733.953	8132.47
734.294	8084.79
734.635	8014.73
734.976	8127.27
735.317	8122.75
735.658	8104.67
735.999	8063.55
736.339	8094.05
736.68	8098.57
737.021	8120.27
737.361	8084.11
737.702	8123.2
738.042	8062.42
738.383	8105.58
738.723	8141.28
739.063	8119.81
739.404	8148.29
739.744	8091.79
740.084	8093.83
740.424	8211.34
740.764	8174.73
741.104	8266.25
741.444	8114.62
741.784	8122.75
742.124	8234.39
742.464	8196.65
742.804	8167.5
743.143	8233.94
743.483	8188.74
743.823	8221.51
744.162	8259.47
744.502	8293.37
744.841	8289.53
745.181	8365.68
745.52	8371.33
745.86	8419.02
746.199	8469.86
746.538	8456.3
746.877	8495.4
747.216	8556.41
747.556	8551.44
747.895	8586.7
748.234	8579.92
748.573	8717.77
748.911	8769.97
749.25	8796.63
749.589	8831.66
749.928	8895.84
750.267	9066
750.605	8991.88
750.944	9105.1
751.283	9140.8
751.621	9272.78
751.96	9260.58
752.298	9351.42
752.636	9380.12
752.975	9504.19
753.313	9600.91
753.651	9747.79
753.989	9834.35
754.327	9936.49
754.666	9995.02
755.004	10039.31
755.342	10226.2
755.679	10289.02
756.017	10421.9
756.355	10490.37
756.693	10659.41
757.031	10782.57
757.368	10805.39
757.706	10958.84
758.044	11022.79
758.381	11181.66
758.719	11382.55
759.056	11480.18
759.394	11663.45
759.731	11670.23
