Data from hue_40_FLMS001491_11.txt Node
Date: Mon Feb 06 15:07:30 GMT 2017
User: dcchb
Spectrometer: FLMS00149
Trigger mode: 0
Integration Time (sec): 2.000000E-2
Scans to average: 10
Electric dark correction enabled: true
Nonlinearity correction enabled: false
Boxcar width: 0
XAxis mode: Wavelengths
Number of Pixels in Spectrum: 2048
>>>>>Begin Spectral Data<<<<<
341.393	-14.55
341.776	-14.55
342.16	-14.55
342.543	-46.86
342.927	-63.13
343.31	-61.78
343.693	-79.18
344.077	-60.87
344.46	-65.17
344.843	-41.21
345.226	-16.13
345.61	-42.8
345.993	-15
346.376	-19.29
346.759	1.72
347.142	11.21
347.525	40.37
347.908	74.26
348.291	78.33
348.674	87.37
349.057	108.16
349.44	129.63
349.823	145
350.206	163.53
350.588	186.8
350.971	217.31
351.354	228.38
351.737	249.4
352.119	254.82
352.502	283.52
352.884	265.67
353.267	284.88
353.65	296.63
354.032	300.92
354.414	310.64
354.797	306.57
355.179	313.13
355.562	318.32
355.944	329.17
356.326	336.63
356.709	338.89
357.091	341.83
357.473	338.21
357.855	340.25
358.238	360.13
358.62	350.19
359.002	336.18
359.384	355.84
359.766	351.09
360.148	360.13
360.53	356.74
360.912	351.77
361.294	352.22
361.676	334.82
362.057	354.48
362.439	328.27
362.821	332.79
363.203	350.41
363.584	337.76
363.966	329.17
364.348	309.29
364.729	328.27
365.111	319.91
365.493	331.88
365.874	325.78
366.256	330.53
366.637	310.42
367.019	319.91
367.4	328.27
367.781	304.09
368.163	316.07
368.544	320.58
368.925	321.94
369.306	318.55
369.688	321.26
370.069	315.84
370.45	330.98
370.831	313.81
371.212	334.37
371.593	312.45
371.974	317.42
372.355	326.91
372.736	319.23
373.117	329.62
373.498	310.42
373.879	328.27
374.26	316.74
374.641	308.16
375.021	326.69
375.402	320.13
375.783	350.41
376.163	328.72
376.544	329.85
376.925	334.6
377.305	336.18
377.686	310.42
378.066	347.93
378.447	343.41
378.827	319.45
379.208	333.01
379.588	338.66
379.968	335.5
380.349	357.19
380.729	332.56
381.109	331.43
381.489	321.94
381.87	351.09
382.25	326.01
382.63	355.16
383.01	339.57
383.39	357.87
383.77	362.39
384.15	329.85
384.53	335.27
384.91	338.89
385.29	356.29
385.67	356.52
386.049	344.99
386.429	347.02
386.809	349.51
387.189	356.29
387.568	347.25
387.948	368.27
388.328	355.61
388.707	360.58
389.087	354.26
389.466	363.52
389.846	386.12
390.225	389.28
390.605	360.81
390.984	352.9
391.363	341.15
391.743	372.79
392.122	376.63
392.501	366.91
392.881	369.85
393.26	383.86
393.639	368.72
394.018	369.85
394.397	378.66
394.776	369.62
395.155	370.08
395.534	373.92
395.913	376.4
396.292	390.87
396.671	393.13
397.05	380.92
397.429	377.53
397.808	378.66
398.186	390.41
398.565	404.42
398.944	376.63
399.323	386.35
399.701	405.33
400.08	397.64
400.458	390.41
400.837	394.26
401.215	393.13
401.594	403.29
401.972	400.58
402.351	401.03
402.729	411.66
403.107	408.72
403.486	405.33
403.864	415.27
404.242	401.49
404.62	423.63
404.999	413.46
405.377	410.07
405.755	413.92
406.133	407.81
406.511	445.33
406.889	435.16
407.267	424.76
407.645	429.96
408.023	430.41
408.401	424.31
408.779	430.41
409.156	438.32
409.534	445.33
409.912	440.58
410.29	448.94
410.667	444.2
411.045	445.55
411.422	452.11
411.8	455.04
412.178	448.94
412.555	458.43
412.933	483.07
413.31	460.24
413.687	469.28
414.065	473.12
414.442	488.49
414.819	485.55
415.197	483.74
415.574	479.45
415.951	501.82
416.328	492.56
416.705	471.09
417.082	506.34
417.46	493.01
417.837	517.42
418.214	511.09
418.591	510.18
418.967	526.46
419.344	495.04
419.721	510.41
420.098	518.55
420.475	516.96
420.852	515.83
421.228	523.07
421.605	517.19
421.982	549.28
422.358	528.49
422.735	521.48
423.111	544.76
423.488	541.37
423.864	574.59
424.241	567.36
424.617	538.21
424.994	550.86
425.37	540.24
425.746	535.27
426.123	558.09
426.499	581.14
426.875	564.19
427.251	551.54
427.627	573.91
428.003	591.54
428.379	573.46
428.756	586.57
429.132	614.36
429.507	593.12
429.883	570.75
430.259	603.52
430.635	612.1
431.011	604.19
431.387	629.73
431.763	622.27
432.138	635.38
432.514	645.55
432.89	650.97
433.265	660.69
433.641	640.12
434.016	661.14
434.392	671.76
434.767	655.27
435.143	668.15
435.518	679.22
435.894	691.65
436.269	692.33
436.644	690.97
437.02	693.91
437.395	703.63
437.77	728.48
438.145	708.37
438.52	722.83
438.895	730.52
439.271	707.47
439.646	757.18
440.021	729.84
440.395	734.59
440.77	731.42
441.145	745.21
441.52	761.7
441.895	757.18
442.27	752.44
442.645	749.27
443.019	766.45
443.394	768.26
443.769	784.53
444.143	787.69
444.518	770.97
444.892	783.85
445.267	801.02
445.641	810.97
446.016	779.33
446.39	810.06
446.764	787.24
447.139	809.84
447.513	812.78
447.887	826.79
448.262	835.15
448.636	831.76
449.01	824.07
449.384	850.29
449.758	833.11
450.132	855.26
450.506	843.06
450.88	871.3
451.254	850.51
451.628	862.04
452.002	891.42
452.376	902.72
452.75	885.99
453.123	895.26
453.497	895.26
453.871	922.83
454.244	918.08
454.618	922.6
454.992	930.96
455.365	959.89
455.739	941.59
456.112	955.37
456.486	955.6
456.859	954.69
457.232	1006.22
457.606	998.31
457.979	1009.83
458.352	1022.94
458.725	1027.91
459.099	1023.62
459.472	1069.72
459.845	1057.29
460.218	1080.11
460.591	1096.84
460.964	1100.23
461.337	1104.97
461.71	1125.31
462.083	1143.39
462.456	1153.78
462.829	1136.61
463.201	1169.83
463.574	1184.97
463.947	1171.64
464.32	1188.36
464.692	1199.43
465.065	1226.32
465.438	1255.93
465.81	1274.91
466.183	1285.53
466.555	1283.27
466.928	1308.36
467.3	1335.93
467.672	1361.24
468.045	1369.14
468.417	1382.25
468.789	1400.33
469.161	1417.05
469.534	1436.04
469.906	1472.64
470.278	1462.02
470.65	1520.55
471.022	1528.24
471.394	1564.62
471.766	1594.68
472.138	1603.49
472.51	1640.78
472.882	1697.27
473.253	1700.89
473.625	1724.62
473.997	1764.16
474.369	1844.61
474.74	1838.51
475.112	1879.87
475.484	1899.07
475.855	1994.44
476.227	1990.82
476.598	2064.49
476.97	2083.02
477.341	2149.24
477.713	2202.57
478.084	2227.43
478.455	2290.48
478.827	2325.96
479.198	2399.63
479.569	2449.79
479.94	2555.55
480.311	2608.66
480.682	2661.54
481.053	2753.52
481.424	2810.24
481.795	2878.48
482.166	2939.72
482.537	3007.07
482.908	3135.88
483.279	3168.87
483.65	3257.68
484.021	3364.12
484.391	3426.72
484.762	3515.53
485.133	3584.68
485.503	3661.74
485.874	3778.35
486.244	3816.31
486.615	3953.26
486.985	4021.73
487.356	4192.57
487.726	4243.42
488.097	4365.22
488.467	4426.92
488.837	4580.13
489.207	4613.81
489.578	4799.11
489.948	4883.18
490.318	4965.43
490.688	5058.77
491.058	5240
491.428	5278.19
491.798	5390.96
492.168	5526.78
492.538	5580.79
492.908	5680.22
493.278	5797.05
493.648	5891.06
494.017	6038.63
494.387	6165.63
494.757	6270.26
495.126	6363.14
495.496	6415.57
495.866	6507.99
496.235	6637.25
496.605	6731.94
496.974	6810.36
497.344	6976.23
497.713	7025.27
498.082	7135.55
498.452	7300.74
498.821	7312.27
499.19	7384.58
499.559	7520.4
499.928	7612.6
500.298	7699.6
500.667	7856.43
501.036	7828.18
501.405	8002.19
501.774	8063.88
502.143	8137.33
502.512	8189.53
502.88	8276.53
503.249	8399.47
503.618	8446.47
503.987	8487.6
504.356	8585
504.724	8670.65
505.093	8776.86
505.462	8826.58
505.83	8915.16
506.199	9036.06
506.567	9152.44
506.936	9196.74
507.304	9320.12
507.672	9376.17
508.041	9428.82
508.409	9542.04
508.777	9625.88
509.145	9708.36
509.514	9712.65
509.882	9805.99
510.25	9898.64
510.618	9982.93
510.986	10032.19
511.354	10095.69
511.722	10203.04
512.09	10341.56
512.458	10320.1
512.826	10456.82
513.193	10503.82
513.561	10509.92
513.929	10643.93
514.297	10730.48
514.664	10789.91
515.032	10853.19
515.4	10918.05
515.767	10955.79
516.135	11122.33
516.502	11019.06
516.869	11221.77
517.237	11215.89
517.604	11226.74
517.972	11371.82
518.339	11480.52
518.706	11574.07
519.073	11587.86
519.44	11624.24
519.808	11749.44
520.175	11803.9
520.542	11949.43
520.909	12095.42
521.276	12054.51
521.643	12097
522.009	12188.75
522.376	12260.84
522.743	12325.01
523.11	12428.74
523.477	12549.87
523.843	12614.05
524.21	12740.37
524.577	12908.05
524.943	12888.16
525.31	12946.69
525.676	13086.58
526.043	13158.21
526.409	13221.26
526.776	13366.34
527.142	13416.74
527.508	13468.71
527.874	13596.17
528.241	13639.56
528.607	13741.47
528.973	13891.53
529.339	13848.59
529.705	14024.86
530.071	14123.84
530.437	14095.36
530.803	14161.8
531.169	14324.28
531.535	14272.08
531.901	14400.89
532.267	14489.03
532.632	14474.56
532.998	14614.22
533.364	14644.95
533.73	14755.91
534.095	14833.88
534.461	14838.4
534.826	14872.52
535.192	14929.47
535.557	14997.49
535.923	15174.21
536.288	15230.48
536.653	15260.98
537.019	15244.71
537.384	15406.06
537.749	15448.77
538.114	15491.71
538.479	15523.8
538.845	15533.29
539.21	15576.45
539.575	15672.05
539.94	15735.77
540.305	15880.63
540.67	15897.12
541.034	15891.25
541.399	15969.89
541.764	16096.22
542.129	16137.12
542.494	16154.29
542.858	16155.2
543.223	16161.75
543.587	16310.22
543.952	16379.15
544.316	16412.37
544.681	16487.39
545.045	16529.88
545.41	16615.07
545.774	16789.53
546.138	16744.33
546.503	16802.19
546.867	16687.61
547.231	16939.13
547.595	17055.51
547.959	16947.49
548.324	17081.73
548.688	17101.61
549.052	17174.83
549.416	17209.86
549.779	17219.35
550.143	17362.85
550.507	17530.53
550.871	17495.5
551.235	17453.47
551.599	17627.7
551.962	17614.82
552.326	17741.82
552.689	17916.51
553.053	17752.22
553.417	17811.42
553.78	18080.8
554.143	17988.14
554.507	18038.99
554.87	18120.57
555.234	18335.03
555.597	18206.89
555.96	18368.92
556.323	18447.34
556.686	18353.56
557.05	18577.28
557.413	18600.56
557.776	18632.65
558.139	18751.29
558.502	18848.23
558.865	18855.69
559.228	18896.14
559.59	18946.99
559.953	19072.18
560.316	19286.41
560.679	19240.77
561.041	19295.45
561.404	19291.84
561.767	19542.9
562.129	19459.52
562.492	19619.74
562.854	19669.68
563.217	19626.52
563.579	19728.21
563.941	19893.63
564.304	19981.76
564.666	20064.02
565.028	20179.05
565.39	20242.32
565.753	20362.77
566.115	20422.66
566.477	20504.01
566.839	20513.73
567.201	20647.96
567.563	20711.69
567.925	20747.62
568.287	20732.93
568.648	20725.47
569.01	20956.88
569.372	21084.33
569.734	21087.27
570.095	21160.71
570.457	21284.78
570.819	21255.4
571.18	21395.51
571.542	21599.12
571.903	21567.71
572.265	21666.01
572.626	21656.07
572.987	21833.92
573.349	21954.14
573.71	21965.21
574.071	22144.19
574.432	22174.93
574.794	22438.42
575.155	22473
575.516	22469.38
575.877	22663.27
576.238	22621.92
576.599	22923.61
576.96	22898.52
577.32	22927.22
577.681	23142.81
578.042	23271.39
578.403	23302.35
578.763	23440.43
579.124	23619.18
579.485	23821.21
579.845	23968.78
580.206	23972.17
580.566	24067.76
580.927	24109.34
581.287	24393.85
581.648	24506.62
582.008	24676.33
582.368	24908.19
582.728	25015.08
583.089	25040.16
583.449	25309.98
583.809	25395.86
584.169	25601.5
584.529	25643.76
584.889	25957.2
585.249	26050.76
585.609	26126.01
585.969	26341.6
586.329	26553.57
586.688	26683.96
587.048	26789.27
587.408	26990.17
587.768	27208.47
588.127	27319.65
588.487	27518.74
588.846	27919.86
589.206	27857.04
589.565	28067.65
589.925	28480.07
590.284	28511.48
590.643	28844.13
591.003	29042.09
591.362	29149.66
591.721	29267.39
592.08	29507.16
592.44	29734.27
592.799	29793.26
593.158	29978.56
593.517	30157.54
593.876	30285.67
594.235	30522.05
594.593	30717.75
594.952	30996.16
595.311	31015.37
595.67	31337.85
596.029	31640.67
596.387	31768.12
596.746	31963.14
597.104	32030.03
597.463	32126.98
597.822	32553.18
598.18	32538.04
598.538	32787.98
598.897	33036.79
599.255	32894.19
599.613	33558.81
599.972	33503.44
600.33	33674.06
600.688	33555.19
601.046	33894.84
601.404	34148.17
601.762	34125.57
602.12	34505.22
602.478	34485.79
602.836	34672.22
603.194	34726.23
603.552	35022.95
603.91	34931.2
604.268	35266.78
604.625	35260.46
604.983	35527.12
605.341	35415.71
605.698	35805.08
606.056	35810.73
606.413	35857.5
606.771	36108.12
607.128	36262.69
607.485	36167.55
607.843	36340.2
608.2	36624.49
608.557	36899.96
608.914	36768.44
609.272	37048.66
609.629	37153.97
609.986	37510.79
610.343	37224.93
610.7	37669.43
611.057	37721.18
611.414	37791.01
611.771	37826.49
612.127	37983.32
612.484	37971.8
612.841	38250.66
613.198	38148.06
613.554	38335.4
613.911	38570.2
614.267	38563.42
614.624	38696.3
614.98	38822.17
615.337	39057.65
615.693	38963.41
616.05	38981.94
616.406	39197.98
616.762	39131.54
617.118	39118.89
617.475	39386.68
617.831	39421.25
618.187	39551.19
618.543	39662.15
618.899	39931.52
619.255	39872.77
619.611	40002.93
619.967	40184.4
620.323	40328.12
620.678	40017.39
621.034	40085.19
621.39	40147.11
621.746	40090.39
622.101	40588
622.457	40335.13
622.812	40503.71
623.168	40546.19
623.523	40585.29
623.879	40772.63
624.234	40533.09
624.589	40744.38
624.945	40866.86
625.3	40845.85
625.655	40804.04
626.01	40846.3
626.365	40918.16
626.72	40831.61
627.075	40842.23
627.43	40998.39
627.785	40887.88
628.14	41072.73
628.495	41137.59
628.85	41167.65
629.205	40902.34
629.559	41359.28
629.914	40982.79
630.269	41237.93
630.623	41007.2
630.978	40946.64
631.332	41291.48
631.687	41241.54
632.041	41002
632.396	41066.63
632.75	40976.46
633.104	41146.63
633.459	40903.02
633.813	41051.04
634.167	41001.1
634.521	40914.32
634.875	41055.33
635.229	40933.98
635.583	40909.57
635.937	40870.03
636.291	40880.87
636.645	41017.82
636.999	40805.85
637.352	40983.24
637.706	40690.14
638.06	40929.91
638.413	40836.58
638.767	40723.14
639.121	40794.32
639.474	40629.36
639.828	40664.61
640.181	40771.72
640.534	40607.21
640.888	40462.81
641.241	40516.14
641.594	40539.64
641.947	40649.02
642.301	40564.05
642.654	40516.36
643.007	40570.6
643.36	40577.38
643.713	40437.95
644.066	40595.46
644.419	40339.65
644.771	40079.54
645.124	39683.84
645.477	39745.54
645.83	39392.33
646.182	39396.39
646.535	39219
646.888	39333.8
647.24	39153.69
647.593	39264.42
647.945	39222.16
648.298	39212.67
648.65	39015.84
649.002	38909.63
649.355	39112.56
649.707	39093.35
650.059	39198.66
650.411	39683.84
650.763	39665.76
651.115	40107.79
651.467	40012.87
651.819	39951.63
652.171	40034.34
652.523	39805.65
652.875	39829.6
653.227	39702.37
653.578	40019.2
653.93	39648.36
654.282	39572.89
654.633	39661.7
654.985	39695.37
655.337	39655.37
655.688	39724.29
656.039	39820.79
656.391	39519.1
656.742	39564.07
657.094	39451.99
657.445	39503.96
657.796	39514.36
658.147	39465.32
658.498	39368.37
658.849	39586.67
659.2	39426
659.551	39403.62
659.902	39545.54
660.253	39477.3
660.604	39523.62
660.955	39306.45
661.306	39487.24
661.656	39372.67
662.007	39310.52
662.358	39455.83
662.708	39323.85
663.059	39303.74
663.409	39045.67
663.76	39508.48
664.11	39372.89
664.461	39357.07
664.811	39332.89
665.161	39304.64
665.511	39246.57
665.862	39389.61
666.212	39426.45
666.562	39396.17
666.912	39353.68
667.262	39316.62
667.612	39288.15
667.962	39310.97
668.312	39235.04
668.662	39300.35
669.011	39241.6
669.361	39258.77
669.711	39053.58
670.06	39202.05
670.41	39067.59
670.76	38997.99
671.109	39193.46
671.459	39074.59
671.808	39008.83
672.157	39042.73
672.507	38815.62
672.856	38736.75
673.205	38959.34
673.554	38930.42
673.904	38833.7
674.253	39014.71
674.602	38844.54
674.951	38370.21
675.3	38136.99
675.649	38814.26
675.998	38779.01
676.346	38696.07
676.695	38821.95
677.044	38551.22
677.393	38592.57
677.741	38704.89
678.09	38699.69
678.438	38578.11
678.787	38647.26
679.135	38608.62
679.484	38315.07
679.832	38606.81
680.181	38271.68
680.529	38485.91
680.877	38411.56
681.225	38270.32
681.573	38569.75
681.922	38224.45
682.27	38157.78
682.618	38242.98
682.966	38074.17
683.314	38150.1
683.661	38114.17
684.009	37821.97
684.357	37757.79
684.705	37743.78
685.053	37797.11
685.4	37727.06
685.748	37532.04
686.095	37513.28
686.443	37293.4
686.79	37381.53
687.138	37517.35
687.485	37218.82
687.832	37234.64
688.18	37253.4
688.527	37069.45
688.874	37019.73
689.221	37018.15
689.568	36899.96
689.915	36840.75
690.262	36678.05
690.609	36596.47
690.956	36478.28
691.303	36482.35
691.65	36487.77
691.997	36358.96
692.344	36105.63
692.69	36128
693.037	36082.36
693.383	35901.34
693.73	35983.83
694.077	35783.38
694.423	35864.96
694.769	35702.25
695.116	35553.1
695.462	35618.19
695.808	35458.19
696.155	35589.04
696.501	35229.72
696.847	35285.32
697.193	35047.36
697.539	35083.96
697.885	34766.01
698.231	34752.9
698.577	34769.4
698.923	34824.54
699.269	34524.21
699.614	34443.08
699.96	34206.47
700.306	34378.45
700.651	34125.35
700.997	34172.35
701.342	34071.56
701.688	34119.7
702.033	33964.22
702.379	33993.82
702.724	33829.53
703.069	33937.78
703.415	33479.49
703.76	33597.22
704.105	33684.45
704.45	33437.23
704.795	33232.49
705.14	33113.62
705.485	33162.66
705.83	33015.54
706.175	32984.13
706.52	32943.68
706.865	32956.11
707.209	32845.83
707.554	32669.34
707.899	32865.49
708.243	32542.56
708.588	32570.81
708.932	32226.19
709.277	32350.7
709.621	32296.92
709.966	32192.29
710.31	32312.06
710.654	31957.04
710.998	31985.74
711.342	32017.83
711.687	31916.82
712.031	31776.25
712.375	31689.25
712.719	31704.17
713.063	31510.95
713.407	31777.84
713.75	31495.58
714.094	31445.42
714.438	31400.22
714.782	31341.69
715.125	31283.39
715.469	31253.33
715.812	31179.43
716.156	30835.49
716.499	30867.35
716.843	30982.15
717.186	30741.93
717.53	30977.86
717.873	30834.81
718.216	30784.42
718.559	30751.88
718.902	30351.43
719.246	30697.19
719.589	30381.04
719.932	30290.42
720.275	30244.54
720.617	30316.63
720.96	30287.71
721.303	30214.26
721.646	30189.18
721.989	30096.3
722.331	30094.49
722.674	30083.64
723.016	30022.85
723.359	29995.74
723.701	29875.97
724.044	29712.81
724.386	29644.33
724.729	29793.71
725.071	29651.56
725.413	29628.29
725.755	29646.82
726.097	29517.56
726.439	29503.77
726.782	29325.02
727.124	29591.91
727.465	29380.16
727.807	29259.71
728.149	29205.93
728.491	29143.78
728.833	29372.93
729.175	29094.52
729.516	29083.44
729.858	29029.43
730.199	29069.43
730.541	28918.48
730.882	28819.95
731.224	28984.92
731.565	28679.61
731.906	28814.52
732.248	28822.43
732.589	28627.86
732.93	28617.92
733.271	28546.74
733.612	28591.25
733.953	28487.75
734.294	28464.93
734.635	28443.01
734.976	28536.11
735.317	28360.75
735.658	28388.55
735.999	28279.17
736.339	28083.7
736.68	28274.88
737.021	28231.94
737.361	28034.66
737.702	28296.57
738.042	28080.31
738.383	28082.79
738.723	28248.89
739.063	28104.49
739.404	27959.63
739.744	27935.9
740.084	27654.78
740.424	27833.53
740.764	27805.51
741.104	27857.94
741.444	27800.54
741.784	27575.46
742.124	27735.91
742.464	27565.97
742.804	27475.8
743.143	27482.13
743.483	27394.9
743.823	27240.1
744.162	27174.79
744.502	27386.77
744.841	27307.22
745.181	27362.59
745.52	27086.66
745.86	27201.91
746.199	27140.44
746.538	27098.86
746.877	27158.98
747.216	27034.68
747.556	26888.47
747.895	26990.62
748.234	26827.23
748.573	26821.81
748.911	26716.27
749.25	26770.51
749.589	26624.07
749.928	26700.91
750.267	26602.61
750.605	26616.62
750.944	26432.67
751.283	26366.23
751.621	26493.46
751.96	26391.76
752.298	26314.25
752.636	26330.07
752.975	26205.1
753.313	26133.69
753.651	26256.85
753.989	26032
754.327	25974.6
754.666	25894.6
755.004	25849.18
755.342	25889.4
755.679	25870.65
756.017	25709.07
756.355	25813.7
756.693	25606.02
