Data from hue_90_FLMS001491_33.txt Node
Date: Mon Feb 06 15:25:02 GMT 2017
User: dcchb
Spectrometer: FLMS00149
Trigger mode: 0
Integration Time (sec): 2.000000E-2
Scans to average: 10
Electric dark correction enabled: true
Nonlinearity correction enabled: false
Boxcar width: 0
XAxis mode: Wavelengths
Number of Pixels in Spectrum: 2048
>>>>>Begin Spectral Data<<<<<
341.393	-13.42
341.776	-13.42
342.16	-13.42
342.543	-67.2
342.927	-62.46
343.31	-61.33
343.693	-77.82
344.077	-66.75
344.46	-59.52
344.843	-40.76
345.226	-41.67
345.61	-43.7
345.993	-19.97
346.376	-6.64
346.759	13.7
347.142	2.85
347.525	36.3
347.908	62.06
348.291	77.2
348.674	103.64
349.057	122.4
349.44	131.44
349.823	150.65
350.206	149.74
350.588	202.62
350.971	207.59
351.354	246.46
351.737	240.59
352.119	226.8
352.502	269.74
352.884	289.85
353.267	280.81
353.65	294.14
354.032	284.88
354.414	306.57
354.797	302.73
355.179	322.84
355.562	308.61
355.944	327.36
356.326	343.64
356.709	343.86
357.091	318.78
357.473	347.02
357.855	354.93
358.238	352.22
358.62	335.73
359.002	326.69
359.384	341.83
359.766	343.18
360.148	337.31
360.53	361.94
360.912	326.69
361.294	323.3
361.676	327.14
362.057	350.87
362.439	347.25
362.821	329.62
363.203	351.32
363.584	321.04
363.966	328.95
364.348	343.86
364.729	323.3
365.111	315.61
365.493	335.5
365.874	327.14
366.256	321.26
366.637	312.9
367.019	326.01
367.4	301.83
367.781	306.12
368.163	303.18
368.544	323.97
368.925	288.27
369.306	320.81
369.688	324.2
370.069	316.97
370.45	330.3
370.831	321.04
371.212	322.62
371.593	324.65
371.974	324.2
372.355	333.47
372.736	323.52
373.117	327.36
373.498	346.57
373.879	315.39
374.26	309.51
374.641	297.76
375.021	323.75
375.402	314.94
375.783	323.3
376.163	327.36
376.544	351.54
376.925	327.82
377.305	319
377.686	330.08
378.066	327.59
378.447	338.44
378.827	336.86
379.208	340.02
379.588	340.7
379.968	348.83
380.349	347.25
380.729	343.18
381.109	346.57
381.489	349.06
381.87	368.49
382.25	346.35
382.63	355.16
383.01	355.84
383.39	352
383.77	353.58
384.15	332.56
384.53	363.52
384.91	341.38
385.29	356.74
385.67	376.85
386.049	388.15
386.429	361.94
386.809	377.98
387.189	383.41
387.568	379.11
387.948	379.34
388.328	387.25
388.707	368.95
389.087	376.4
389.466	368.49
389.846	372.56
390.225	369.4
390.605	355.61
390.984	379.11
391.363	363.97
391.743	400.81
392.122	403.07
392.501	399.45
392.881	377.76
393.26	369.4
393.639	400.81
394.018	397.64
394.397	404.42
394.776	401.26
395.155	404.88
395.534	407.14
395.913	381.6
396.292	402.39
396.671	402.62
397.05	403.52
397.429	400.36
397.808	399
398.186	429.06
398.565	408.49
398.944	398.55
399.323	426.12
399.701	431.77
400.08	417.31
400.458	432.67
400.837	449.17
401.215	429.96
401.594	407.14
401.972	429.96
402.351	437.64
402.729	431.54
403.107	429.96
403.486	420.92
403.864	430.41
404.242	428.38
404.62	443.29
404.999	461.15
405.377	434.71
405.755	453.69
406.133	446.23
406.511	457.76
406.889	471.54
407.267	470.64
407.645	472.22
408.023	464.54
408.401	511.09
408.779	490.75
409.156	474.48
409.534	470.19
409.912	474.93
410.29	497.53
410.667	515.83
411.045	475.61
411.422	499.11
411.8	493.24
412.178	509.73
412.555	516.51
412.933	490.75
413.31	512.22
413.687	490.52
414.065	501.82
414.442	540.24
414.819	541.6
415.197	509.73
415.574	523.52
415.951	535.72
416.328	536.4
416.705	546.79
417.082	540.24
417.46	529.39
417.837	546.79
418.214	578.21
418.591	569.62
418.967	584.08
419.344	561.26
419.721	587.02
420.098	569.17
420.475	587.02
420.852	591.09
421.228	565.32
421.605	594.25
421.982	595.15
422.358	592.89
422.735	578.66
423.111	596.28
423.488	602.84
423.864	626.11
424.241	620.69
424.617	635.6
424.994	635.38
425.37	634.25
425.746	650.75
426.123	641.93
426.499	629.73
426.875	652.78
427.251	655.72
427.627	705.89
428.003	683.74
428.379	688.94
428.756	694.81
429.132	678.99
429.507	706.34
429.883	714.7
430.259	698.43
430.635	725.09
431.011	710.41
431.387	723.51
431.763	741.36
432.138	731.42
432.514	749.95
432.89	742.49
433.265	751.53
433.641	743.62
434.016	792.66
434.392	776.39
434.767	793.79
435.143	792.66
435.518	794.47
435.894	804.87
436.269	822.04
436.644	834.24
437.02	820.68
437.395	817.52
437.77	846.9
438.145	840.35
438.52	835.37
438.895	867.24
439.271	845.09
439.646	878.08
440.021	880.12
440.395	891.19
440.77	878.08
441.145	891.19
441.52	919.21
441.895	904.52
442.27	940.23
442.645	930.29
443.019	932.09
443.394	960.12
443.769	941.13
444.143	946.78
444.518	967.8
444.892	952.43
445.267	973.67
445.641	987.69
446.016	960.57
446.39	985.65
446.764	957.63
447.139	963.28
447.513	1005.99
447.887	975.71
448.262	1014.58
448.636	1002.15
449.01	1013
449.384	1030.85
449.758	1029.72
450.132	1054.8
450.506	1056.61
450.88	1066.55
451.254	1067.68
451.628	1087.12
452.002	1089.38
452.376	1124.41
452.75	1110.17
453.123	1120.11
453.497	1149.72
453.871	1129.15
454.244	1160.79
454.618	1163.73
454.992	1203.95
455.365	1197.4
455.739	1205.99
456.112	1201.01
456.486	1221.58
456.859	1272.2
457.232	1261.35
457.606	1244.4
457.979	1294.57
458.352	1297.96
458.725	1321.69
459.099	1333.67
459.472	1378.41
459.845	1382.48
460.218	1376.6
460.591	1382.03
460.964	1399.43
461.337	1452.76
461.71	1450.05
462.083	1466.32
462.456	1462.25
462.829	1488.01
463.201	1513.1
463.574	1532.76
463.947	1554.22
464.32	1598.07
464.692	1611.62
465.065	1628.8
465.438	1627.9
465.81	1658.63
466.183	1721.9
466.555	1725.75
466.928	1772.75
467.3	1764.84
467.672	1798.06
468.045	1846.19
468.417	1858.62
468.789	1854.1
469.161	1873.31
469.534	1955.12
469.906	1998.05
470.278	1968.9
470.65	2008.22
471.022	2052.97
471.394	2117.83
471.766	2134.32
472.138	2160.76
472.51	2251.83
472.882	2265.62
473.253	2341.32
473.625	2364.37
473.997	2444.37
474.369	2486.86
474.74	2522.33
475.112	2599.17
475.484	2610.24
475.855	2729.56
476.227	2766.4
476.598	2799.39
476.97	2882.78
477.341	2963.23
477.713	3041.19
478.084	3105.37
478.455	3178.59
478.827	3279.83
479.198	3388.75
479.569	3400.96
479.94	3542.19
480.311	3678.46
480.682	3725.92
481.053	3830.32
481.424	3989.41
481.795	4012.24
482.166	4145.34
482.537	4284.77
482.908	4406.13
483.279	4469.85
483.65	4604.31
484.021	4745.1
484.391	4884.53
484.762	4951.2
485.133	5107.8
485.503	5143.28
485.874	5328.81
486.244	5487.68
486.615	5584.85
486.985	5735.58
487.356	5907.33
487.726	6028.46
488.097	6217.6
488.467	6304.61
488.837	6548.22
489.207	6657.37
489.578	6873.63
489.948	6991.82
490.318	7130.8
490.688	7232.27
491.058	7408.08
491.428	7575.99
491.798	7756.77
492.168	7951.57
492.538	8091.91
492.908	8267.27
493.278	8440.82
493.648	8457.55
494.017	8697.54
494.387	8797.42
494.757	8964.43
495.126	9147.47
495.496	9243.97
495.866	9463.62
496.235	9590.17
496.605	9748.13
496.974	9868.36
497.344	9951.52
497.713	10087.56
498.082	10189.03
498.452	10436.7
498.821	10509.47
499.19	10635.34
499.559	10804.83
499.928	10887.76
500.298	11018.83
500.667	11191.49
501.036	11176.57
501.405	11355.55
501.774	11411.37
502.143	11522.1
502.512	11668.08
502.88	11849.55
503.249	11804.8
503.618	12011.12
503.987	12056.1
504.356	12174.96
504.724	12324.11
505.093	12297.9
505.462	12412.7
505.83	12567.04
506.199	12639.58
506.567	12913.93
506.936	12870.09
507.304	12978.56
507.672	13093.81
508.041	13131.55
508.409	13225.78
508.777	13323.41
509.145	13402.73
509.514	13430.3
509.882	13525.44
510.25	13535.83
510.618	13635.71
510.986	13669.16
511.354	13872.09
511.722	13865.99
512.09	14025.54
512.458	13976.72
512.826	14152.31
513.193	14120.9
513.561	14223.95
513.929	14277.05
514.297	14413.32
514.664	14409.71
515.032	14430.72
515.4	14595.01
515.767	14568.35
516.135	14646.31
516.502	14548.46
516.869	14821.45
517.237	14756.82
517.604	14687.89
517.972	14949.8
518.339	14922.01
518.706	14976.7
519.073	14995
519.44	15058.28
519.808	15167.88
520.175	15119.52
520.542	15313.41
520.909	15274.09
521.276	15248.55
521.643	15397.7
522.009	15419.85
522.376	15465.5
522.743	15474.99
523.11	15575.32
523.477	15605.61
523.843	15727.64
524.21	15771.48
524.577	15863.23
524.943	15791.36
525.31	15856.22
525.676	15936.67
526.043	16011.92
526.409	15989.55
526.776	16091.92
527.142	16098.7
527.508	16154.97
527.874	16121.75
528.241	16181.18
528.607	16112.49
528.973	16237.91
529.339	16164.01
529.705	16277.45
530.071	16333.05
530.437	16340.05
530.803	16318.81
531.169	16377.56
531.535	16320.62
531.901	16322.88
532.267	16410.11
532.632	16407.39
532.998	16386.6
533.364	16339.82
533.73	16291.01
534.095	16331.92
534.461	16349.99
534.826	16404
535.192	16352.25
535.557	16375.76
535.923	16317
536.288	16278.36
536.653	16254.18
537.019	16162.43
537.384	16296.21
537.749	16280.84
538.114	16208.75
538.479	16095.31
538.845	16223.22
539.21	16149.1
539.575	16132.6
539.94	16064.35
540.305	16120.4
540.67	16063.9
541.034	16021.87
541.399	16051.92
541.764	15994.97
542.129	15975.31
542.494	15926.73
542.858	15947.29
543.223	15856.45
543.587	15928.31
543.952	15751.37
544.316	15772.61
544.681	15731.25
545.045	15763.34
545.41	15734.19
545.774	15630.01
546.138	15620.3
546.503	15628.88
546.867	15585.04
547.231	15686.06
547.595	15604.02
547.959	15575.55
548.324	15550.24
548.688	15540.98
549.052	15457.36
549.416	15439.51
549.779	15395.22
550.143	15429.79
550.507	15408.1
550.871	15378.95
551.235	15307.76
551.599	15349.57
551.962	15244.26
552.326	15244.26
552.689	15297.82
553.053	15217.59
553.417	15157.71
553.78	15392.28
554.143	15112.29
554.507	15213.75
554.87	15181.44
555.234	15252.85
555.597	15101.67
555.96	14998.62
556.323	15152.96
556.686	15124.49
557.05	15166.97
557.413	15160.87
557.776	15065.73
558.139	15201.55
558.502	15100.54
558.865	15035.23
559.228	15133.75
559.59	15148.44
559.953	15088.56
560.316	15178.73
560.679	15171.95
561.041	15192.06
561.404	15296.69
561.767	15398.61
562.129	15099.86
562.492	15277.48
562.854	15191.83
563.217	15215.11
563.579	15224.6
563.941	15260.08
564.304	15279.29
564.666	15354.09
565.028	15284.94
565.39	15294.88
565.753	15299.17
566.115	15396.12
566.477	15458.49
566.839	15452.62
567.201	15410.81
567.563	15465.95
567.925	15484.93
568.287	15443.13
568.648	15482.67
569.01	15477.25
569.372	15643.12
569.734	15517.25
570.095	15595.21
570.457	15587.75
570.819	15599.51
571.18	15584.36
571.542	15668.43
571.903	15670.69
572.265	15763.34
572.626	15703.01
572.987	15673.85
573.349	15808.31
573.71	15764.02
574.071	15803.57
574.432	15787.75
574.794	15886.96
575.155	15859.39
575.516	15916.33
575.877	15800.63
576.238	15791.14
576.599	15885.83
576.96	15851.48
577.32	15951.13
577.681	15919.5
578.042	15977.57
578.403	15795.21
578.763	15891.7
579.124	15903
579.485	16011.25
579.845	15952.94
580.206	16007.4
580.566	15992.72
580.927	15968.08
581.287	16020.28
581.648	15988.87
582.008	15911.14
582.368	15930.8
582.728	15971.7
583.089	15965.6
583.449	15876.11
583.809	15905.71
584.169	15865.94
584.529	15864.36
584.889	16070
585.249	15856
585.609	15857.58
585.969	15920.63
586.329	15937.35
586.688	15830.46
587.048	15761.08
587.408	15805.83
587.768	15823.68
588.127	15809.9
588.487	15741.2
588.846	15836.79
589.206	15703.46
589.565	15687.19
589.925	15846.5
590.284	15787.75
590.643	15757.47
591.003	15798.82
591.362	15797.69
591.721	15725.38
592.08	15792.04
592.44	15815.77
592.799	15839.05
593.158	15728.99
593.517	15719.05
593.876	15832.72
594.235	15701.88
594.593	15751.59
594.952	15760.63
595.311	15665.72
595.67	15749.78
596.029	15733.96
596.387	15769.67
596.746	15741.65
597.104	15590.92
597.463	15737.81
597.822	15723.8
598.18	15692.61
598.538	15673.18
598.897	15756.34
599.255	15584.36
599.613	15761.99
599.972	15652.61
600.33	15744.36
600.688	15697.13
601.046	15707.52
601.404	15749.78
601.762	15638.6
602.12	15875.88
602.478	15738.03
602.836	15699.39
603.194	15647.19
603.552	15713.63
603.91	15690.58
604.268	15730.35
604.625	15658.03
604.983	15664.14
605.341	15609.9
605.698	15693.97
606.056	15759.73
606.413	15703.23
606.771	15760.63
607.128	15717.92
607.485	15674.08
607.843	15845.37
608.2	15865.49
608.557	15957.46
608.914	15798.37
609.272	15781.42
609.629	15833.17
609.986	15817.35
610.343	15908.42
610.7	15942.55
611.057	15846.5
611.414	15804.02
611.771	15914.07
612.127	15856.45
612.484	15935.99
612.841	15934.86
613.198	15933.51
613.554	15972.83
613.911	16004.92
614.267	15951.59
614.624	15983.68
614.98	16065.48
615.337	16076.78
615.693	16105.25
616.05	15952.04
616.406	16187.29
616.762	16030
617.118	15996.56
617.475	16060.28
617.831	16072.04
618.187	16127.17
618.543	16100.06
618.899	16265.25
619.255	16195.42
619.611	16202.2
619.967	16218.02
620.323	16250.56
620.678	16126.27
621.034	16145.93
621.39	16223.67
621.746	16152.48
622.101	16274.06
622.457	16083.33
622.812	16256.44
623.168	16174.63
623.523	16241.07
623.879	16307.96
624.234	16145.03
624.589	16257.57
624.945	16261.63
625.3	16205.36
625.655	16144.35
626.01	16249.66
626.365	16229.77
626.72	16236.32
627.075	16171.47
627.43	16165.14
627.785	16210.11
628.14	16148.42
628.495	16225.7
628.85	16179.83
629.205	16083.56
629.559	16260.05
629.914	16148.64
630.269	16079.94
630.623	16043.11
630.978	16075.2
631.332	16109.55
631.687	16155.2
632.041	16115.65
632.396	16020.74
632.75	16131.02
633.104	15975.99
633.459	15887.41
633.813	15982.32
634.167	15999.72
634.521	15879.72
634.875	15989.78
635.229	15887.63
635.583	15876.33
635.937	15880.4
636.291	15911.59
636.645	15823
636.999	15812.83
637.352	15854.19
637.706	15719.95
638.06	15780.52
638.413	15779.16
638.767	15749.11
639.121	15788.43
639.474	15676.11
639.828	15714.3
640.181	15637.47
640.534	15558.83
640.888	15545.04
641.241	15580.75
641.594	15452.39
641.947	15614.42
642.301	15550.01
642.654	15531.26
643.007	15518.38
643.36	15502.78
643.713	15578.04
644.066	15638.15
644.419	15441.09
644.771	15359.51
645.124	15329
645.477	15304.15
645.83	15167.88
646.182	15055.56
646.535	14973.08
646.888	15077.48
647.24	14964.72
647.593	15116.13
647.945	15013.98
648.298	14936.92
648.65	14945.51
649.002	14881.78
649.355	14900.77
649.707	14939.64
650.059	15048.79
650.411	15133.53
650.763	15153.42
651.115	15288.1
651.467	15296.24
651.819	15277.93
652.171	15365.84
652.523	15204.49
652.875	15258.05
653.227	15246.75
653.578	15362
653.93	15345.27
654.282	15177.37
654.633	15159.97
654.985	15278.38
655.337	15162.45
655.688	15234.77
656.039	15285.39
656.391	15144.83
656.742	15211.72
657.094	15162.68
657.445	15269.34
657.796	15218.05
658.147	15235.9
658.498	15195.22
658.849	15327.87
659.2	15233.19
659.551	15118.16
659.902	15266.18
660.253	15142.34
660.604	15240.42
660.955	15226.63
661.306	15266.41
661.656	15219.63
662.007	15312.51
662.358	15265.28
662.708	15229.12
663.059	15262.11
663.409	15222.11
663.76	15285.84
664.11	15307.76
664.461	15260.3
664.811	15326.97
665.161	15279.97
665.511	15279.74
665.862	15267.54
666.212	15240.42
666.562	15466.4
666.912	15318.16
667.262	15305.73
667.612	15327.42
667.962	15343.92
668.312	15248.78
668.662	15337.82
669.011	15300.3
669.361	15248.1
669.711	15303.69
670.06	15233.86
670.41	15257.14
670.76	15235.67
671.109	15346.4
671.459	15203.13
671.808	15223.24
672.157	15268.67
672.507	15176.24
672.856	15221.21
673.205	15185.73
673.554	15251.94
673.904	15094.66
674.253	15227.31
674.602	15131.04
674.951	14969.47
675.3	14902.12
675.649	15098.05
675.998	15025.73
676.346	15061.89
676.695	15066.19
677.044	15023.25
677.393	15112.74
677.741	15062.34
678.09	15026.19
678.438	15002.46
678.787	15013.98
679.135	14953.19
679.484	14897.15
679.832	14955.23
680.181	14866.87
680.529	14842.46
680.877	14801.79
681.225	14767.44
681.573	14800.66
681.922	14746.42
682.27	14793.2
682.618	14751.39
682.966	14691.96
683.314	14682.24
683.661	14668.91
684.009	14606.54
684.357	14481.34
684.705	14534.22
685.053	14580.77
685.4	14500.32
685.748	14412.64
686.095	14408.35
686.443	14328.35
686.79	14326.32
687.138	14346.43
687.485	14344.62
687.832	14270.05
688.18	14304.4
688.527	14225.53
688.874	14179.2
689.221	14146.89
689.568	14090.84
689.915	14056.72
690.262	14098.3
690.609	14054.69
690.956	13979.66
691.303	13898.31
691.65	13814.02
691.997	13811.08
692.344	13721.36
692.69	13731.31
693.037	13644.98
693.383	13609.27
693.73	13695.37
694.077	13524.53
694.423	13579.9
694.769	13360.24
695.116	13477.3
695.462	13382.61
695.808	13340.36
696.155	13367.7
696.501	13207.03
696.847	13205.44
697.193	13126.58
697.539	13168.61
697.885	13007.03
698.231	12978.78
698.577	13033.24
698.923	12953.7
699.269	12979.46
699.614	12740.15
699.96	12790.99
700.306	12788.05
700.651	12734.04
700.997	12675.51
701.342	12711.45
701.688	12721.84
702.033	12588.74
702.379	12548.29
702.724	12540.15
703.069	12546.03
703.415	12332.92
703.76	12454.28
704.105	12357.56
704.45	12349.42
704.795	12254.96
705.14	12150.33
705.485	12197.79
705.83	11989.88
706.175	12029.88
706.52	12066.26
706.865	12002.76
707.209	11973.39
707.554	11932.03
707.899	11940.84
708.243	11870.34
708.588	11827.85
708.932	11770.91
709.277	11741.3
709.621	11735.88
709.966	11631.93
710.31	11789.21
710.654	11599.61
710.998	11705.37
711.342	11702.43
711.687	11586.28
712.031	11494.75
712.375	11511.7
712.719	11513.74
713.063	11538.14
713.407	11555.77
713.75	11417.47
714.094	11461.08
714.438	11416.56
714.782	11387.41
715.125	11350.8
715.469	11379.73
715.812	11291.14
716.156	11239.39
716.499	11308.32
716.843	11208.21
717.186	11220.41
717.53	11235.33
717.873	11247.3
718.216	11169.34
718.559	11071.26
718.902	11099.51
719.246	11123.69
719.589	11074.65
719.932	11010.47
720.275	11031.94
720.617	11118.04
720.96	11009.8
721.303	11005.5
721.646	11044.14
721.989	10949.91
722.331	10980.87
722.674	10920.98
723.016	10924.83
723.359	10925.96
723.701	11035.11
724.044	10846.41
724.386	10801.89
724.729	10873.98
725.071	10893.19
725.413	10811.83
725.755	10856.35
726.097	10812.06
726.439	10712.18
726.782	10754.21
727.124	10857.48
727.465	10724.83
727.807	10807.54
728.149	10766.41
728.491	10773.87
728.833	10790.59
729.175	10709.24
729.516	10757.15
729.858	10754.89
730.199	10760.76
730.541	10667.66
730.882	10716.92
731.224	10755.79
731.565	10704.72
731.906	10709.24
732.248	10681.22
732.589	10619.75
732.93	10665.62
733.271	10568.9
733.612	10714.66
733.953	10655.91
734.294	10741.1
734.635	10625.17
734.976	10641.22
735.317	10620.88
735.658	10706.53
735.999	10654.55
736.339	10608
736.68	10625.62
737.021	10633.53
737.361	10632.18
737.702	10754.66
738.042	10679.18
738.383	10714.44
738.723	10684.61
739.063	10626.3
739.404	10721.67
739.744	10699.52
740.084	10685.06
740.424	10781.55
740.764	10727.32
741.104	10808.44
741.444	10752.17
741.784	10713.53
742.124	10788.56
742.464	10716.92
742.804	10713.98
743.143	10787.2
743.483	10826.75
743.823	10827.65
744.162	10812.51
744.502	10882.34
744.841	10894.54
745.181	10979.06
745.52	10987.87
745.86	11040.75
746.199	10954.88
746.538	11007.76
746.877	11117.14
747.216	11161.88
747.556	11271.26
747.895	11266.06
748.234	11309
748.573	11391.48
748.911	11401.88
749.25	11489.78
749.589	11450.69
749.928	11602.55
750.267	11749.44
750.605	11769.78
750.944	11824.92
751.283	11937.68
751.621	12071.24
751.96	12143.55
752.298	12188.75
752.636	12340.83
752.975	12361.17
753.313	12507.61
753.651	12676.64
753.989	12652.92
754.327	12843.19
754.666	12927.71
755.004	13066.92
755.342	13222.17
755.679	13313.01
756.017	13407.7
756.355	13629.84
