Data from hue_38_FLMS001491_00007.txt Node
Date: Tue Feb 07 17:30:58 GMT 2017
User: dcchb
Spectrometer: FLMS00149
Trigger mode: 0
Integration Time (sec): 2.000000E-2
Scans to average: 10
Electric dark correction enabled: true
Nonlinearity correction enabled: false
Boxcar width: 0
XAxis mode: Wavelengths
Number of Pixels in Spectrum: 2048
>>>>>Begin Spectral Data<<<<<
341.393	-18.29
341.776	-18.29
342.16	-18.29
342.543	-53.32
342.927	-50.38
343.31	-63.26
343.693	-70.04
344.077	-70.04
344.46	-54
344.843	-41.79
345.226	-61.23
345.61	-40.89
345.993	-8.35
346.376	-1.34
346.759	23.29
347.142	29.84
347.525	58.09
347.908	48.37
348.291	64.42
348.674	97.19
349.057	89.73
349.44	121.37
349.823	157.98
350.206	166.79
350.588	193
350.971	199.33
351.354	216.05
351.737	241.82
352.119	251.53
352.502	269.84
352.884	274.36
353.267	274.81
353.65	287.01
354.032	304.86
354.414	319.33
354.797	334.02
355.179	318.42
355.562	330.85
355.944	335.37
356.326	311.87
356.709	344.86
357.091	341.7
357.473	360.68
357.855	362.26
358.238	348.93
358.62	338.99
359.002	338.54
359.384	342.15
359.766	334.24
360.148	348.71
360.53	343.96
360.912	342.38
361.294	344.19
361.676	334.47
362.057	341.02
362.439	324.07
362.821	343.96
363.203	330.63
363.584	334.24
363.966	343.06
364.348	331.98
364.729	318.2
365.111	322.94
365.493	325.66
365.874	339.67
366.256	327.69
366.637	325.2
367.019	311.64
367.4	317.29
367.781	310.74
368.163	319.1
368.544	336.28
368.925	333.34
369.306	328.82
369.688	331.53
370.069	337.41
370.45	340.12
370.831	321.81
371.212	333.34
371.593	324.3
371.974	325.43
372.355	334.69
372.736	308.93
373.117	310.97
373.498	320.01
373.879	319.78
374.26	303.28
374.641	333.11
375.021	322.04
375.402	306.22
375.783	317.52
376.163	323.4
376.544	326.79
376.925	331.08
377.305	332.89
377.686	337.63
378.066	332.21
378.447	342.38
378.827	336.95
379.208	341.7
379.588	339.67
379.968	329.72
380.349	336.95
380.729	335.15
381.109	361.81
381.489	334.69
381.87	328.14
382.25	341.02
382.63	332.89
383.01	343.73
383.39	342.83
383.77	360.23
384.15	352.55
384.53	355.03
384.91	352.55
385.29	340.12
385.67	348.71
386.049	338.76
386.429	367.91
386.809	377.18
387.189	366.11
387.568	372.66
387.948	365.88
388.328	358.65
388.707	354.36
389.087	376.28
389.466	376.28
389.846	359.1
390.225	361.59
390.605	360.91
390.984	364.52
391.363	386.44
391.743	391.19
392.122	364.3
392.501	378.76
392.881	379.44
393.26	393.9
393.639	376.95
394.018	402.49
394.397	374.69
394.776	394.13
395.155	380.8
395.534	381.47
395.913	393.68
396.292	404.75
396.671	381.02
397.05	395.48
397.429	392.09
397.808	398.42
398.186	412.21
398.565	392.32
398.944	388.93
399.323	401.59
399.701	408.82
400.08	393
400.458	404.07
400.837	409.72
401.215	405.65
401.594	381.47
401.972	401.13
402.351	411.08
402.729	398.65
403.107	427.35
403.486	421.47
403.864	413.79
404.242	427.8
404.62	405.2
404.999	412.43
405.377	426.44
405.755	423.28
406.133	439.78
406.511	440.45
406.889	429.38
407.267	419.21
407.645	417.63
408.023	433
408.401	444.52
408.779	439.78
409.156	425.09
409.534	449.49
409.912	476.16
410.29	463.05
410.667	460.79
411.045	470.28
411.422	476.16
411.8	452.21
412.178	467.35
412.555	478.87
412.933	503.28
413.31	500.57
413.687	505.09
414.065	477.06
414.442	495.82
414.819	490.17
415.197	493.56
415.574	511.64
415.951	503.5
416.328	517.74
416.705	519.55
417.082	510.51
417.46	512.99
417.837	531.75
418.214	518.87
418.591	501.47
418.967	511.41
419.344	511.87
419.721	531.75
420.098	538.08
420.475	512.54
420.852	529.94
421.228	533.11
421.605	543.73
421.982	545.31
422.358	557.06
422.735	564.07
423.111	565.2
423.488	568.13
423.864	563.39
424.241	558.64
424.617	582.6
424.994	591.64
425.37	572.65
425.746	601.13
426.123	600
426.499	611.07
426.875	600.68
427.251	599.55
427.627	582.6
428.003	606.78
428.379	623.5
428.756	617.4
429.132	626.66
429.507	614.01
429.883	659.66
430.259	630.73
430.635	658.3
431.011	647.91
431.387	651.07
431.763	647.23
432.138	660.34
432.514	672.54
432.89	680.9
433.265	694.69
433.641	689.04
434.016	698.07
434.392	728.13
434.767	730.16
435.143	694.46
435.518	724.74
435.894	726.55
436.269	748.92
436.644	727
437.02	762.25
437.395	750.95
437.77	764.06
438.145	755.25
438.52	762.25
438.895	779.43
439.271	752.31
439.646	775.81
440.021	776.49
440.395	781.91
440.77	805.42
441.145	792.76
441.52	797.96
441.895	831.18
442.27	826.89
442.645	836.83
443.019	838.64
443.394	837.28
443.769	827.56
444.143	855.36
444.518	842.03
444.892	815.59
445.267	856.26
445.641	851.52
446.016	840.9
446.39	859.65
446.764	874.79
447.139	845.42
447.513	865.53
447.887	885.19
448.262	886.32
448.636	889.48
449.01	889.93
449.384	891.52
449.758	901.23
450.132	903.27
450.506	929.71
450.88	933.55
451.254	924.28
451.628	934.45
452.002	952.76
452.376	952.08
452.75	947.33
453.123	954.11
453.497	977.84
453.871	984.62
454.244	979.2
454.618	994.79
454.992	1018.74
455.365	1010.84
455.739	1043.83
456.112	1035.24
456.486	1042.25
456.859	1057.84
457.232	1086.09
457.606	1069.36
457.979	1094.45
458.352	1107.78
458.725	1139.42
459.099	1132.19
459.472	1133.54
459.845	1150.72
460.218	1170.15
460.591	1159.31
460.964	1174.22
461.337	1230.94
461.71	1240.89
462.083	1246.99
462.456	1245.18
462.829	1249.25
463.201	1279.98
463.574	1286.08
463.947	1283.6
464.32	1311.17
464.692	1334.22
465.065	1315.91
465.438	1366.31
465.81	1372.86
466.183	1370.6
466.555	1404.95
466.928	1447.89
467.3	1450.37
467.672	1459.18
468.045	1479.98
468.417	1489.92
468.789	1540.09
469.161	1529.69
469.534	1547.09
469.906	1613.08
470.278	1620.08
470.65	1642.46
471.022	1664.6
471.394	1687.43
471.766	1737.82
472.138	1735.79
472.51	1809.91
472.882	1816.92
473.253	1828.21
473.625	1885.84
473.997	1897.82
474.369	1893.52
474.74	1961.09
475.112	2014.2
475.484	2072.73
475.855	2107.3
476.227	2125.83
476.598	2199.73
476.97	2208.54
477.341	2287.19
477.713	2302.33
478.084	2396.79
478.455	2433.17
478.827	2505.03
479.198	2578.7
479.569	2632.94
479.94	2670.9
480.311	2732.15
480.682	2782.54
481.053	2869.32
481.424	2950.9
481.795	3027.05
482.166	3111.12
482.537	3140.72
482.908	3252.81
483.279	3259.59
483.65	3368.97
484.021	3508.62
484.391	3560.82
484.762	3597.89
485.133	3683.31
485.503	3746.58
485.874	3837.43
486.244	3944.32
486.615	4018.21
486.985	4149.51
487.356	4243.97
487.726	4302.95
488.097	4438.54
488.467	4493.91
488.837	4621.59
489.207	4768.93
489.578	4803.28
489.948	4903.16
490.318	5038.75
490.688	5068.13
491.058	5222.48
491.428	5350.83
491.798	5379.99
492.168	5556.25
492.538	5612.07
492.908	5735.46
493.278	5852.06
493.648	5951.27
494.017	6053.41
494.387	6075.33
494.757	6227.87
495.126	6291.37
495.496	6395.55
495.866	6451.14
496.235	6605.04
496.605	6681.65
496.974	6753.51
497.344	6805.94
497.713	6991.92
498.082	7047.29
498.452	7104.23
498.821	7239.82
499.19	7273.5
499.559	7409.08
499.928	7451.8
500.298	7571.79
500.667	7646.14
501.036	7699.7
501.405	7842.52
501.774	7880.48
502.143	7966.81
502.512	8020.82
502.88	8170.42
503.249	8190.53
503.618	8270.08
503.987	8340.81
504.356	8422.17
504.724	8525.21
505.093	8542.39
505.462	8615.83
505.83	8731.99
506.199	8811.31
506.567	8868.71
506.936	8952.55
507.304	9095.82
507.672	9102.6
508.041	9190.96
508.409	9317.51
508.777	9362.03
509.145	9513.89
509.514	9523.61
509.882	9583.94
510.25	9556.6
510.618	9676.14
510.986	9724.96
511.354	9852.64
511.722	9944.61
512.09	9900.54
512.458	10063.03
512.826	10116.36
513.193	10230.03
513.561	10262.34
513.929	10301.66
514.297	10483.13
514.664	10486.97
515.032	10575.78
515.4	10609.9
515.767	10680.86
516.135	10789.33
516.502	10732.39
516.869	10879.95
517.237	10908.2
517.604	10993.4
517.972	11121.3
518.339	11079.95
518.706	11152.72
519.073	11232.94
519.44	11293.95
519.808	11401.52
520.175	11401.3
520.542	11553.16
520.909	11654.62
521.276	11561.97
521.643	11739.59
522.009	11843.09
522.376	11900.04
522.743	11997.21
523.11	12063.88
523.477	12183.2
523.843	12272.01
524.21	12377.54
524.577	12456.41
524.943	12512.68
525.31	12454.6
525.676	12658.21
526.043	12680.58
526.409	12861.82
526.776	12937.08
527.142	12952.22
527.508	13001.25
527.874	13069.5
528.241	13211.87
528.607	13232.66
528.973	13374.35
529.339	13328.48
529.705	13513.33
530.071	13532.54
530.437	13593.1
530.803	13711.97
531.169	13800.78
531.535	13823.83
531.901	13917.16
532.267	13853.44
532.632	14099.98
532.998	14184.05
533.364	14223.82
533.73	14184.95
534.095	14375.23
534.461	14396.7
534.826	14487.54
535.192	14485.73
535.557	14632.85
535.923	14588.78
536.288	14667.2
536.653	14756.91
537.019	14776.57
537.384	14845.05
537.749	14878.94
538.114	14947.64
538.479	14977.25
538.845	15073.52
539.21	15062.67
539.575	15103.35
539.94	15149.67
540.305	15258.37
540.67	15313.28
541.034	15393.96
541.399	15441.87
541.764	15446.16
542.129	15651.81
542.494	15551.24
542.858	15628.53
543.223	15671.47
543.587	15825.13
543.952	15791.46
544.316	15836.43
544.681	15869.88
545.045	15981.06
545.41	16118.46
545.774	16158.01
546.138	16139.7
546.503	16203.43
546.867	16333.6
547.231	16366.14
547.595	16520.94
547.959	16455.17
548.324	16462.63
548.688	16527.04
549.052	16646.36
549.416	16587.37
549.779	16701.72
550.143	16705.56
550.507	16855.84
550.871	16929.74
551.235	16918.44
551.599	17076.4
551.962	17051.32
552.326	17040.24
552.689	17296.96
553.053	17173.8
553.417	17252.22
553.78	17445.43
554.143	17328.6
554.507	17453.34
554.87	17552.09
555.234	17622.38
555.597	17530.85
555.96	17728.59
556.323	17761.81
556.686	17732.43
557.05	17909.83
557.413	17961.35
557.776	18014.46
558.139	18106.88
558.502	18195.92
558.865	18186.65
559.228	18223.49
559.59	18309.36
559.953	18457.16
560.316	18518.4
560.679	18616.7
561.041	18725.17
561.404	18774.89
561.767	18819.86
562.129	18776.92
562.492	19022.11
562.854	19042.45
563.217	18999.97
563.579	19063.92
563.941	19268.66
564.304	19232.5
564.666	19385.95
565.028	19404.93
565.39	19437.24
565.753	19569.9
566.115	19518.37
566.477	19718.14
566.839	19725.82
567.201	19870.45
567.563	19897.57
567.925	20091.24
568.287	19994.97
568.648	20087.4
569.01	20219.37
569.372	20343.43
569.734	20313.15
570.095	20528.74
570.457	20560.6
570.819	20580.26
571.18	20694.61
571.542	20821.16
571.903	20813.48
572.265	20872.69
572.626	20968.95
572.987	21065.67
573.349	21219.57
573.71	21267.48
574.071	21367.81
574.432	21444.87
574.794	21658.43
575.155	21699.56
575.516	21692.33
575.877	21797.86
576.238	21975.48
576.599	22071.52
576.96	22211.41
577.32	22274.91
577.681	22452.31
578.042	22538.63
578.403	22723.48
578.763	22815.91
579.124	22918.06
579.485	23123.02
579.845	23389.91
580.206	23333.86
580.566	23438.72
580.927	23538.15
581.287	23855.66
581.648	23891.36
582.008	24302.2
582.368	24288.19
582.728	24378.81
583.089	24598.92
583.449	24692.25
583.809	24807.05
584.169	25182.63
584.529	25209.52
584.889	25477.54
585.249	25508.5
585.609	25706.91
585.969	26082.72
586.329	26175.6
586.688	26470.73
587.048	26608.58
587.408	26694.68
587.768	26987.55
588.127	27185.51
588.487	27287.88
588.846	27766.29
589.206	27712.28
589.565	27985.72
589.925	28324.69
590.284	28406.27
590.643	28624.8
591.003	28899.14
591.362	29116.76
591.721	29361.05
592.08	29528.73
592.44	29716.29
592.799	30060.69
593.158	30126.91
593.517	30270.4
593.876	30761.92
594.235	30754.23
594.593	30950.84
594.952	31264.28
595.311	31422.46
595.67	31633.08
596.029	32062
596.387	32211.6
596.746	32420.18
597.104	32457.47
597.463	32643.45
597.822	33041.86
598.18	33032.37
598.538	33194.4
598.897	33588.51
599.255	33430.32
599.613	34115.05
599.972	34110.08
600.33	34192.11
600.688	34379
601.046	34616.51
601.404	34969.72
601.762	34905.76
602.12	35192.08
602.478	35426.43
602.836	35543.94
603.194	35494.67
603.552	35822.35
603.91	35969.92
604.268	36127.2
604.625	36062.34
604.983	36562.89
605.341	36430.69
605.698	36722.66
606.056	36970.12
606.413	36928.53
606.771	37281.29
607.128	37408.3
607.485	37271.12
607.843	37571.23
608.2	37806.03
608.557	38014.61
608.914	37962.41
609.272	38182.06
609.629	38411.66
609.986	38534.14
610.343	38500.24
610.7	38900.46
611.057	39074.69
611.414	38988.14
611.771	39148.36
612.127	39297.06
612.484	39391.75
612.841	39648.92
613.198	39642.81
613.554	39677.84
613.911	39959.42
614.267	40031.5
614.624	40020.88
614.98	40005.29
615.337	40424.94
615.693	40410.7
616.05	40530.25
616.406	40807.3
616.762	40613.18
617.118	40822.22
617.475	40856.34
617.831	41004.36
618.187	41087.07
618.543	41141.08
618.899	41354.63
619.255	41471.47
619.611	41394.18
619.967	41757.79
620.323	41769.54
620.678	41645.02
621.034	41647.05
621.39	41760.5
621.746	41718.92
622.101	42237.77
622.457	42059.7
622.812	42131.34
623.168	42282.74
623.523	42136.31
623.879	42486.58
624.234	42176.76
624.589	42341.73
624.945	42460.14
625.3	42610.42
625.655	42573.81
626.01	42460.14
626.365	42593.92
626.72	42555.51
627.075	42594.6
627.43	42716.86
627.785	42673.02
628.14	42779.91
628.495	42847.93
628.85	42665.78
629.205	42595.28
629.559	42876.17
629.914	42663.07
630.269	42805.89
630.623	42799.34
630.978	42708.95
631.332	42928.6
631.687	42967.25
632.041	42719.34
632.396	42827.81
632.75	42659.23
633.104	42877.98
633.459	42717.99
633.813	42700.13
634.167	42762.28
634.521	42801.6
634.875	42728.38
635.229	42933.8
635.583	42576.75
635.937	42716.86
636.291	42707.37
636.645	42566.35
636.999	42753.24
637.352	42785.33
637.706	42670.3
638.06	42649.97
638.413	42568.61
638.767	42403.87
639.121	42590.08
639.474	42351.89
639.828	42481.38
640.181	42396.87
640.534	42495.62
640.888	42314.16
641.241	42157.32
641.594	42193.71
641.947	42446.58
642.301	42298.34
642.654	42339.24
643.007	42350.09
643.36	42287.26
643.713	42263.31
644.066	42357.54
644.419	42032.13
644.771	41903.09
645.124	41607.96
645.477	41516.89
645.83	41233.73
646.182	41131.14
646.535	41038.94
646.888	41057.92
647.24	40884.81
647.593	41028.09
647.945	41014.53
648.298	41004.81
648.65	40834.87
649.002	40780.64
649.355	40955.1
649.707	40967.75
650.059	41133.17
650.411	41604.57
650.763	41527.06
651.115	42027.38
651.467	41842.76
651.819	41795.07
652.171	41763.44
652.523	41681.4
652.875	41676.21
653.227	41665.13
653.578	41815.64
653.93	41605.02
654.282	41457
654.633	41319.83
654.985	41406.16
655.337	41506.95
655.688	41476.21
656.039	41671.69
656.391	41335.88
656.742	41485.48
657.094	41347.85
657.445	41552.59
657.796	41509.66
658.147	41481.18
658.498	41445.25
658.849	41419.04
659.2	41309.89
659.551	41274.18
659.902	41426.04
660.253	41473.05
660.604	41419.72
660.955	41305.59
661.306	41318.02
661.656	41093.17
662.007	41318.25
662.358	41248.42
662.708	41201.87
663.059	41169.55
663.409	40898.6
663.76	41448.42
664.11	41293.84
664.461	41221.08
664.811	41315.54
665.161	41095.43
665.511	41162.32
665.862	41101.08
666.212	41107.63
666.562	41192.6
666.912	41097.01
667.262	40971.59
667.612	41089.1
667.962	41083.91
668.312	41063.57
668.662	41306.95
669.011	41148.54
669.361	41056.56
669.711	41156.67
670.06	41054.53
670.41	40935.89
670.76	40899.5
671.109	41190.12
671.459	41005.94
671.808	40964.59
672.157	40900.18
672.507	40741.77
672.856	40809.11
673.205	40710.13
673.554	40834.19
673.904	40853.86
674.253	41073.96
674.602	40838.94
674.951	40222.01
675.3	40087.32
675.649	40717.36
675.998	40772.28
676.346	40588.55
676.695	40803.24
677.044	40398.5
677.393	40738.83
677.741	40682.11
678.09	40617.93
678.438	40381.55
678.787	40678.94
679.135	40636.46
679.484	40334.09
679.832	40556.24
680.181	40080.77
680.529	40446.18
680.877	40200.99
681.225	40243.02
681.573	40492.28
681.922	40011.39
682.27	40075.34
682.618	40039.87
682.966	39853.2
683.314	40073.76
683.661	39942.92
684.009	39699.99
684.357	39628.12
684.705	39496.6
685.053	39681.68
685.4	39613.21
685.748	39459.32
686.095	39506.77
686.443	39262.94
686.79	39238.08
687.138	39374.12
687.485	39436.72
687.832	39324.18
688.18	39393.1
688.527	38856.17
688.874	38915.83
689.221	38869.73
689.568	38885.77
689.915	38842.16
690.262	38749.5
690.609	38618.89
690.956	38526.01
691.303	38389.97
691.65	38176.41
691.997	38247.82
692.344	38071.78
692.69	38013.93
693.037	38060.71
693.383	37818.23
693.73	37901.62
694.077	37648.06
694.423	37720.6
694.769	37391.12
695.116	37508.63
695.462	37374.4
695.808	37272.03
696.155	37434.51
696.501	37060.73
696.847	37147.29
697.193	36792.27
697.539	37001.75
697.885	36643.34
698.231	36685.6
698.577	36606.96
698.923	36515.66
699.269	36384.37
699.614	36174.43
699.96	36205.84
700.306	36195.22
700.651	36100.08
700.997	36002.91
701.342	35948.9
701.688	35854.21
702.033	35621.9
702.379	35589.13
702.724	35566.54
703.069	35724.95
703.415	35284.51
703.76	35346.2
704.105	35286.54
704.45	35244.51
704.795	34990.05
705.14	34966.78
705.485	34896.05
705.83	34724.3
706.175	34734.92
706.52	34752.55
706.865	34547.81
707.209	34592.78
707.554	34555.04
707.899	34517.07
708.243	34240.92
708.588	34227.14
708.932	34174.26
709.277	33990.31
709.621	34084.77
709.966	33832.57
710.31	33937.65
710.654	33584.89
710.998	33636.87
711.342	33579.24
711.687	33430.32
712.031	33369.98
712.375	33388.29
712.719	33418.8
713.063	33262.64
713.407	33329.99
713.75	33189.88
714.094	33096.09
714.438	32937
714.782	32969.54
715.125	32916.44
715.469	32965.25
715.812	32831.69
716.156	32620.17
716.499	32680.74
716.843	32634.64
717.186	32488.43
717.53	32600.51
717.873	32498.14
718.216	32449.56
718.559	32395.77
718.902	32079.4
719.246	32265.61
719.589	32027.19
719.932	31880.76
720.275	31988.33
720.617	31969.79
720.96	31848.44
721.303	31850.48
721.646	31834.21
721.989	31624.49
722.331	31775.45
722.674	31604.61
723.016	31569.81
723.359	31603.93
723.701	31682.34
724.044	31512.86
724.386	31279.87
724.729	31491.16
725.071	31327.55
725.413	31362.58
725.755	31342.24
726.097	31249.59
726.439	31015.7
726.782	30989.71
727.124	31201.91
727.465	30941.57
727.807	30952.42
728.149	30877.17
728.491	30805.08
728.833	30902.93
729.175	30758.75
729.516	30660.9
729.858	30639.43
730.199	30586.1
730.541	30445.09
730.882	30477.4
731.224	30628.59
731.565	30361.48
731.906	30488.48
732.248	30370.52
732.589	30209.16
732.93	30201.93
733.271	30116.74
733.612	30327.35
733.953	30189.5
734.294	30081.71
734.635	30025.44
734.976	30168.03
735.317	29925.55
735.658	29898.89
735.999	29972.79
736.339	29771.43
736.68	29878.78
737.021	29807.82
737.361	29694.37
737.702	29763.98
738.042	29712.68
738.383	29529.18
738.723	29495.06
739.063	29557.43
739.404	29566.24
739.744	29374.83
740.084	29384.78
740.424	29423.2
740.764	29262.97
741.104	29461.39
741.444	29230.88
741.784	29136.88
742.124	29225.23
742.464	29190.21
742.804	29208.74
743.143	28955.86
743.483	28970.33
743.823	28808.97
744.162	28893.27
744.502	28892.59
744.841	28891.91
745.181	28873.15
745.52	28600.84
745.86	28824.11
746.199	28663.44
746.538	28635.65
746.877	28541.41
747.216	28571.69
747.556	28516.1
747.895	28514.07
748.234	28468.87
748.573	28479.72
748.911	28329.21
749.25	28301.42
749.589	28279.5
749.928	28158.14
750.267	28318.59
750.605	28117.92
750.944	28121.76
751.283	27957.25
751.621	27939.62
751.96	27836.8
752.298	27759.74
752.636	27779.62
752.975	27734.43
753.313	27663.24
753.651	27769
753.989	27611.27
754.327	27546.86
754.666	27496.92
755.004	27403.59
755.342	27501.21
755.679	27335.79
756.017	27210.15
756.355	27237.49
756.693	27178.51
757.031	27254.66
