Data from hue_130_FLMS001491_00044.txt Node
Date: Tue Feb 07 16:57:39 GMT 2017
User: dcchb
Spectrometer: FLMS00149
Trigger mode: 0
Integration Time (sec): 2.000000E-2
Scans to average: 10
Electric dark correction enabled: true
Nonlinearity correction enabled: false
Boxcar width: 0
XAxis mode: Wavelengths
Number of Pixels in Spectrum: 2048
>>>>>Begin Spectral Data<<<<<
341.393	-16.36
341.776	-16.36
342.16	-16.36
342.543	-74.89
342.927	-66.3
343.31	-66.52
343.693	-63.36
344.077	-84.15
344.46	-60.42
344.843	-65.62
345.226	-20.2
345.61	-15.68
345.993	-23.81
346.376	-13.42
346.759	22.74
347.142	14.38
347.525	51.89
347.908	50.54
348.291	66.35
348.674	100.48
349.057	106.81
349.44	118.78
349.823	138.44
350.206	131.66
350.588	197.2
350.971	194.71
351.354	248.72
351.737	245.33
352.119	229.06
352.502	246.69
352.884	258.89
353.267	269.96
353.65	298.66
354.032	318.78
354.414	311.77
354.797	319.23
355.179	329.17
355.562	328.04
355.944	309.06
356.326	346.12
356.709	324.2
357.091	348.83
357.473	337.99
357.855	358.55
358.238	355.39
358.62	330.98
359.002	329.4
359.384	347.48
359.766	330.08
360.148	321.26
360.53	341.83
360.912	328.49
361.294	350.41
361.676	341.6
362.057	330.08
362.439	345.22
362.821	311.77
363.203	325.78
363.584	332.79
363.966	305.22
364.348	307.7
364.729	325.78
365.111	343.86
365.493	328.27
365.874	324.65
366.256	327.36
366.637	305.9
367.019	296.4
367.4	324.88
367.781	329.4
368.163	302.05
368.544	331.43
368.925	315.84
369.306	325.78
369.688	313.13
370.069	325.33
370.45	287.37
370.831	308.16
371.212	307.03
371.593	324.43
371.974	320.81
372.355	302.28
372.736	315.61
373.117	319.91
373.498	293.24
373.879	317.2
374.26	330.3
374.641	315.84
375.021	318.1
375.402	304.09
375.783	302.28
376.163	313.35
376.544	333.92
376.925	339.79
377.305	327.82
377.686	336.63
378.066	339.79
378.447	344.09
378.827	349.96
379.208	328.72
379.588	324.43
379.968	328.27
380.349	332.79
380.729	315.84
381.109	341.6
381.489	331.43
381.87	322.84
382.25	336.18
382.63	333.24
383.01	335.05
383.39	338.66
383.77	314.71
384.15	333.24
384.53	342.51
384.91	355.84
385.29	355.39
385.67	357.19
386.049	338.21
386.429	342.28
386.809	349.51
387.189	353.35
387.568	354.71
387.948	356.52
388.328	343.64
388.707	361.26
389.087	364.88
389.466	376.85
389.846	356.29
390.225	357.42
390.605	361.71
390.984	343.64
391.363	339.57
391.743	382.73
392.122	379.79
392.501	364.43
392.881	377.76
393.26	389.28
393.639	388.38
394.018	379.57
394.397	374.37
394.776	392.9
395.155	401.94
395.534	390.41
395.913	404.88
396.292	395.39
396.671	389.06
397.05	381.83
397.429	399.9
397.808	372.79
398.186	377.98
398.565	389.51
398.944	398.55
399.323	394.26
399.701	384.09
400.08	387.25
400.458	407.36
400.837	395.16
401.215	403.29
401.594	418.66
401.972	403.75
402.351	408.72
402.729	426.34
403.107	424.54
403.486	418.44
403.864	442.84
404.242	399.9
404.62	409.4
404.999	415.95
405.377	446.23
405.755	421.83
406.133	441.71
406.511	433.35
406.889	441.26
407.267	448.94
407.645	416.4
408.023	435.84
408.401	431.32
408.779	452.56
409.156	469.06
409.534	439.23
409.912	441.71
410.29	443.07
410.667	477.42
411.045	457.98
411.422	463.86
411.8	489.85
412.178	474.48
412.555	474.03
412.933	482.39
413.31	482.61
413.687	496.63
414.065	487.59
414.442	495.5
414.819	487.59
415.197	506.34
415.574	506.79
415.951	495.72
416.328	506.79
416.705	506.34
417.082	499.56
417.46	504.31
417.837	515.16
418.214	514.93
418.591	526.91
418.967	533.23
419.344	522.16
419.721	542.5
420.098	536.4
420.475	531.88
420.852	571.65
421.228	549.51
421.605	553.35
421.982	539.34
422.358	547.7
422.735	558.09
423.111	570.52
423.488	554.48
423.864	561.93
424.241	560.13
424.617	575.49
424.994	581.37
425.37	569.39
425.746	576.17
426.123	609.16
426.499	594.93
426.875	596.28
427.251	623.4
427.627	619.79
428.003	619.56
428.379	622.95
428.756	622.27
429.132	614.59
429.507	647.81
429.883	637.64
430.259	638.09
430.635	652.33
431.011	642.61
431.387	682.16
431.763	646.45
432.138	677.41
432.514	683.06
432.89	694.13
433.265	690.74
433.641	695.49
434.016	681.48
434.392	692.78
434.767	718.99
435.143	743.85
435.518	699.11
435.894	738.2
436.269	735.72
436.644	713.79
437.02	751.99
437.395	762.61
437.77	748.6
438.145	775.26
438.52	795.15
438.895	796.96
439.271	772.55
439.646	777.75
440.021	781.59
440.395	824.07
440.77	799.22
441.145	784.98
441.52	810.74
441.895	803.06
442.27	819.1
442.645	827.01
443.019	827.24
443.394	851.64
443.769	855.26
444.143	864.07
444.518	851.19
444.892	834.7
445.267	862.27
445.641	878.99
446.016	871.98
446.39	889.38
446.764	888.25
447.139	865.2
447.513	891.87
447.887	902.49
448.262	887.35
448.636	916.73
449.01	920.57
449.384	916.5
449.758	939.1
450.132	955.37
450.506	932.32
450.88	955.6
451.254	966.22
451.628	945.2
452.002	961.25
452.376	981.58
452.75	1002.6
453.123	996.95
453.497	1008.48
453.871	1008.25
454.244	1031.3
454.618	1019.32
454.992	1064.75
455.365	1066.78
455.739	1062.94
456.112	1070.62
456.486	1096.16
456.859	1106.55
457.232	1099.32
457.606	1126.21
457.979	1149.26
458.352	1127.8
458.725	1162.6
459.099	1162.37
459.472	1182.93
459.845	1197.17
460.218	1209.83
460.591	1210.5
460.964	1233.1
461.337	1250.73
461.71	1282.14
462.083	1312.42
462.456	1318.07
462.829	1304.97
463.201	1335.25
463.574	1334.57
463.947	1350.39
464.32	1409.82
464.692	1407.56
465.065	1433.1
465.438	1424.51
465.81	1459.76
466.183	1478.75
466.555	1506.09
466.928	1532.08
467.3	1513.32
467.672	1562.59
468.045	1584.51
468.417	1625.86
468.789	1604.62
469.161	1639.19
469.534	1688.91
469.906	1690.27
470.278	1739.98
470.65	1747.44
471.022	1821.79
471.394	1853.43
471.766	1900.88
472.138	1861.56
472.51	1944.5
472.882	1973.2
473.253	2005.06
473.625	2038.28
473.997	2111.95
474.369	2166.86
474.74	2162.57
475.112	2258.16
475.484	2300.42
475.855	2356.69
476.227	2424.94
476.598	2457.93
476.97	2489.57
477.341	2565.95
477.713	2624.48
478.084	2688.66
478.455	2760.75
478.827	2833.29
479.198	2924.81
479.569	2970.46
479.94	3075.54
480.311	3116.44
480.682	3232.37
481.053	3285.48
481.424	3425.36
481.795	3489.99
482.166	3610.89
482.537	3652.02
482.908	3798.46
483.279	3886.82
483.65	4012.92
484.021	4086.14
484.391	4200.26
484.762	4352.8
485.133	4378.33
485.503	4463.3
485.874	4619
486.244	4759.11
486.615	4862.39
486.985	5028.71
487.356	5108.03
487.726	5255.14
488.097	5408.36
488.467	5493.33
488.837	5650.84
489.207	5739.88
489.578	5902.58
489.948	6038.4
490.318	6213.76
490.688	6290.37
491.058	6467.09
491.428	6585.05
491.798	6692.62
492.168	6923.58
492.538	6980.52
492.908	7125.38
493.278	7305.03
493.648	7373.96
494.017	7583.67
494.387	7711.8
494.757	7810.56
495.126	7950.44
495.496	8027.5
495.866	8185.69
496.235	8327.15
496.605	8403.31
496.974	8534.83
497.344	8686.69
497.713	8795.62
498.082	8941.6
498.452	9082.16
498.821	9202.16
499.19	9270.18
499.559	9389.5
499.928	9514.47
500.298	9574.58
500.667	9725.08
501.036	9813.89
501.405	9925.76
501.774	9984.29
502.143	10119.65
502.512	10211.4
502.88	10375.01
503.249	10329.14
503.618	10487.78
503.987	10531.39
504.356	10635.12
504.724	10647.32
505.093	10819.97
505.462	10838.95
505.83	10920.98
506.199	11078.27
506.567	11252.73
506.936	11293.63
507.304	11323.69
507.672	11444.81
508.041	11520.29
508.409	11525.04
508.777	11675.09
509.145	11666.5
509.514	11740.4
509.882	11873.05
510.25	11843.22
510.618	11992.59
510.986	11967.06
511.354	12072.37
511.722	12115.75
512.09	12249.76
512.458	12216.32
512.826	12366.37
513.193	12380.61
513.561	12451.79
513.929	12560.49
514.297	12543.77
514.664	12633.26
515.032	12768.39
515.4	12748.28
515.767	12770.43
516.135	12810.43
516.502	12728.62
516.869	12930.2
517.237	13025.56
517.604	12919.8
517.972	12991.89
518.339	13070.98
518.706	13023.53
519.073	13141.04
519.44	13158.21
519.808	13242.05
520.175	13160.25
520.542	13401.14
520.909	13389.39
521.276	13327.02
521.643	13449.73
522.009	13477.98
522.376	13537.41
522.743	13535.38
523.11	13638.65
523.477	13687.24
523.843	13700.35
524.21	13793.22
524.577	13829.16
524.943	13791.19
525.31	13825.31
525.676	13929.27
526.043	13959.32
526.409	13988.25
526.776	14071.86
527.142	14011.98
527.508	14086.55
527.874	14112.09
528.241	14093.56
528.607	14061.92
528.973	14176.94
529.339	14005.2
529.705	14246.77
530.071	14223.04
530.437	14211.52
530.803	14346.66
531.169	14229.6
531.535	14243.16
531.901	14252.42
532.267	14236.6
532.632	14290.39
532.998	14203.16
533.364	14225.3
533.73	14260.33
534.095	14269.6
534.461	14318.18
534.826	14236.83
535.192	14262.14
535.557	14252.65
535.923	14208.13
536.288	14210.62
536.653	14216.04
537.019	14030.73
537.384	14254
537.749	14134.46
538.114	14072.09
538.479	14131.97
538.845	14070.28
539.21	13956.16
539.575	14051.75
539.94	14009.49
540.305	14035.7
540.67	13957.97
541.034	13927.91
541.399	13932.43
541.764	13881.13
542.129	13844.3
542.494	13811.08
542.858	13854.24
543.223	13760.01
543.587	13809.5
543.952	13752.77
544.316	13711.42
544.681	13662.15
545.045	13694.02
545.41	13655.38
545.774	13655.6
546.138	13563.85
546.503	13631.42
546.867	13581.25
547.231	13532.67
547.595	13463.97
547.959	13471.65
548.324	13470.07
548.688	13365.44
549.052	13458.54
549.416	13314.82
549.779	13328.6
550.143	13298.77
550.507	13327.93
550.871	13281.37
551.235	13175.61
551.599	13237.53
551.962	13180.59
552.326	13150.3
552.689	13205.67
553.053	13045.67
553.417	13023.53
553.78	13204.99
554.143	13086.35
554.507	13168.61
554.87	13081.15
555.234	13103.98
555.597	13034.6
555.96	13030.08
556.323	13064.43
556.686	12948.95
557.05	13091.77
557.413	13076.18
557.776	13037.76
558.139	12989.4
558.502	13044.32
558.865	13085.22
559.228	13051.32
559.59	13096.29
559.953	12930.87
560.316	13066.92
560.679	13035.96
561.041	13055.84
561.404	13115.5
561.767	13076.63
562.129	13005.45
562.492	13122.96
562.854	13081.38
563.217	13077.31
563.579	12994.83
563.941	13129.29
564.304	13086.12
564.666	13104.2
565.028	13117.76
565.39	13087.25
565.753	13194.6
566.115	13215.84
566.477	13222.17
566.839	13230.53
567.201	13300.58
567.563	13200.25
567.925	13374.03
568.287	13220.81
568.648	13245.22
569.01	13275.95
569.372	13323.41
569.734	13355.72
570.095	13330.19
570.457	13391.2
570.819	13385.33
571.18	13409.96
571.542	13343.75
571.903	13312.79
572.265	13481.59
572.626	13414.48
572.987	13451.31
573.349	13524.08
573.71	13416.29
574.071	13482.72
574.432	13538.54
574.794	13582.38
575.155	13543.97
575.516	13457.64
575.877	13578.77
576.238	13582.83
576.599	13579.22
576.96	13639.1
577.32	13581.71
577.681	13673.23
578.042	13623.74
578.403	13557.75
578.763	13651.08
579.124	13694.02
579.485	13682.95
579.845	13750.97
580.206	13642.49
580.566	13582.38
580.927	13623.51
581.287	13689.27
581.648	13581.71
582.008	13727.92
582.368	13632.78
582.728	13625.32
583.089	13662.38
583.449	13579.45
583.809	13668.93
584.169	13607.92
584.529	13628.71
584.889	13649.73
585.249	13578.77
585.609	13467.81
585.969	13633.23
586.329	13498.09
586.688	13514.81
587.048	13608.6
587.408	13478.66
587.768	13524.76
588.127	13468.26
588.487	13468.94
588.846	13534.25
589.206	13459.9
589.565	13543.06
589.925	13555.94
590.284	13502.16
590.643	13395.72
591.003	13518.43
591.362	13524.31
591.721	13424.65
592.08	13450.86
592.44	13474.14
592.799	13469.84
593.158	13431.43
593.517	13468.26
593.876	13474.36
594.235	13427.36
594.593	13480.01
594.952	13379
595.311	13417.19
595.67	13366.12
596.029	13476.17
596.387	13443.63
596.746	13380.13
597.104	13370.41
597.463	13298.32
597.822	13456.96
598.18	13331.54
598.538	13347.13
598.897	13413.57
599.255	13310.53
599.613	13520.24
599.972	13367.7
600.33	13380.58
600.688	13321.37
601.046	13325.89
601.404	13444.76
601.762	13336.29
602.12	13484.08
602.478	13450.18
602.836	13472.78
603.194	13368.15
603.552	13376.96
603.91	13303.29
604.268	13454.93
604.625	13325.44
604.983	13387.81
605.341	13298.55
605.698	13438.43
606.056	13385.1
606.413	13358.43
606.771	13446.12
607.128	13372.67
607.485	13403.18
607.843	13381.26
608.2	13419.45
608.557	13516.62
608.914	13517.3
609.272	13521.14
609.629	13563.63
609.986	13531.08
610.343	13549.16
610.7	13603.85
611.057	13558.43
611.414	13570.41
611.771	13531.99
612.127	13570.41
612.484	13624.64
612.841	13577.19
613.198	13611.08
613.554	13655.38
613.911	13698.31
614.267	13591.42
614.624	13666.22
614.98	13608.6
615.337	13678.88
615.693	13704.87
616.05	13645.66
616.406	13696.96
616.762	13693.79
617.118	13663.51
617.475	13658.54
617.831	13729.27
618.187	13789.61
618.543	13776.95
618.899	13812.43
619.255	13786.45
619.611	13797.29
619.967	13796.16
620.323	13845.2
620.678	13795.03
621.034	13739.44
621.39	13815.82
621.746	13743.96
622.101	13904.63
622.457	13751.19
622.812	13864.41
623.168	13814.24
623.523	13777.63
623.879	13838.42
624.234	13735.37
624.589	13815.15
624.945	13788.48
625.3	13853.79
625.655	13884.75
626.01	13790.06
626.365	13873.67
626.72	13843.85
627.075	13790.97
627.43	13811.76
627.785	13702.38
628.14	13783.28
628.495	13798.2
628.85	13754.58
629.205	13701.93
629.559	13783.28
629.914	13724.3
630.269	13815.37
630.623	13673.68
630.978	13680.23
631.332	13741.02
631.687	13784.86
632.041	13683.62
632.396	13778.31
632.75	13633.91
633.104	13616.51
633.459	13539.67
633.813	13551.2
634.167	13581.25
634.521	13560.24
634.875	13546.45
635.229	13593.46
635.583	13485.89
635.937	13425.78
636.291	13541.48
636.645	13504.64
636.999	13408.6
637.352	13484.08
637.706	13378.32
638.06	13495.38
638.413	13419.68
638.767	13436.4
639.121	13396.63
639.474	13362.95
639.828	13330.64
640.181	13365.89
640.534	13362.5
640.888	13296.29
641.241	13339
641.594	13297.87
641.947	13330.86
642.301	13266.01
642.654	13312.11
643.007	13357.98
643.36	13226.69
643.713	13183.07
644.066	13266.23
644.419	13120.47
644.771	13062.85
645.124	12912.34
645.477	12917.54
645.83	12939.46
646.182	12861.05
646.535	12815.85
646.888	12856.53
647.24	12767.04
647.593	12818.34
647.945	12756.87
648.298	12763.65
648.65	12711.22
649.002	12699.24
649.355	12755.51
649.707	12764.78
650.059	12782.4
650.411	12866.02
650.763	12885.23
651.115	13097.65
651.467	12994.83
651.819	13117.54
652.171	13086.35
652.523	12957.09
652.875	13016.75
653.227	12972.91
653.578	13066.01
653.93	13096.07
654.282	13042.06
654.633	12924.77
654.985	13015.39
655.337	12977.2
655.688	12976.75
656.039	13102.4
656.391	13019.01
656.742	12903.08
657.094	12986.01
657.445	13040.02
657.796	12990.99
658.147	12950.08
658.498	12972.23
658.849	13061.27
659.2	13039.35
659.551	13016.3
659.902	13037.99
660.253	13032.34
660.604	13069.63
660.955	12962.96
661.306	13135.16
661.656	13127.71
662.007	13165.9
662.358	13042.28
662.708	13109.63
663.059	13097.88
663.409	13015.84
663.76	13101.94
664.11	13101.49
664.461	13096.75
664.811	13111.43
665.161	13083.41
665.511	13059.91
665.862	13109.18
666.212	13149.63
666.562	13104.2
666.912	13090.64
667.262	13026.92
667.612	13131.32
667.962	13162.06
668.312	13060.59
668.662	13175.84
669.011	13150.76
669.361	13005.22
669.711	13099.91
670.06	13059.91
670.41	12954.83
670.76	12991.66
671.109	13064.43
671.459	13002.74
671.808	12928.16
672.157	13010.87
672.507	12936.75
672.856	12994.6
673.205	12999.35
673.554	12995.51
673.904	12846.58
674.253	12947.15
674.602	13016.3
674.951	12774.27
675.3	12703.54
675.649	12952.57
675.998	12911.21
676.346	12881.38
676.695	12988.73
677.044	12787.38
677.393	12878.45
677.741	12830.09
678.09	12809.97
678.438	12747.15
678.787	12801.61
679.135	12864.44
679.484	12724.1
679.832	12752.57
680.181	12697.66
680.529	12746.47
680.877	12671.67
681.225	12639.36
681.573	12809.97
681.922	12634.16
682.27	12579.25
682.618	12655.63
682.966	12563.43
683.314	12551.22
683.661	12565.23
684.009	12552.81
684.357	12512.81
684.705	12472.13
685.053	12489.08
685.4	12417.44
685.748	12394.84
686.095	12335.86
686.443	12275.98
686.79	12274.85
687.138	12360.95
687.485	12353.04
687.832	12252.02
688.18	12262.19
688.527	12140.39
688.874	12180.61
689.221	12102.2
689.568	12097
689.915	11965.48
690.262	12014.06
690.609	11991.01
690.956	11960.96
691.303	11943.78
691.65	11785.37
691.997	11867.4
692.344	11720.51
692.69	11771.13
693.037	11783.79
693.383	11663.11
693.73	11702.43
694.077	11572.72
694.423	11544.47
694.769	11465.83
695.116	11450.46
695.462	11491.14
695.808	11392.61
696.155	11444.59
696.501	11339.5
696.847	11300.64
697.193	11203.46
697.539	11251.37
697.885	11180.86
698.231	11165.27
698.577	11217.47
698.923	11005.73
699.269	11045.27
699.614	11008.67
699.96	10911.49
700.306	10918.95
700.651	10867.65
700.997	10837.82
701.342	10793.98
701.688	10838.27
702.033	10780.65
702.379	10764.83
702.724	10704.72
703.069	10734.32
703.415	10572.07
703.76	10593.76
704.105	10584.04
704.45	10557.38
704.795	10507.21
705.14	10450.94
705.485	10392.18
705.83	10353.09
706.175	10384.5
706.52	10360.77
706.865	10315.58
707.209	10262.92
707.554	10222.02
707.899	10202.58
708.243	10183.83
708.588	10086.2
708.932	10132.98
709.277	10140.44
709.621	10045.75
709.966	9984.74
710.31	10000.1
710.654	9920.11
710.998	10053.44
711.342	9912.42
711.687	9892.54
712.031	9806.66
712.375	9884.85
712.719	9811.18
713.063	9794.46
713.407	9836.72
713.75	9801.47
714.094	9761.01
714.438	9770.28
714.782	9788.81
715.125	9742.26
715.469	9739.09
715.812	9724.63
716.156	9641.24
716.499	9697.51
716.843	9687.57
717.186	9537.29
717.53	9614.8
717.873	9626.78
718.216	9622.04
718.559	9531.64
718.902	9547.46
719.246	9511.3
719.589	9486.9
719.932	9476.5
720.275	9516.28
720.617	9459.33
720.96	9391.76
721.303	9461.81
721.646	9438.09
721.989	9408.26
722.331	9356.28
722.674	9297.3
723.016	9394.24
723.359	9329.16
723.701	9357.86
724.044	9320.12
724.386	9251.42
724.729	9334.59
725.071	9323.29
725.413	9238.09
725.755	9374.58
726.097	9233.8
726.439	9202.84
726.782	9227.02
727.124	9274.93
727.465	9194.93
727.807	9144.76
728.149	9179.56
728.491	9161.26
728.833	9222.27
729.175	9121.71
729.516	9133.23
729.858	9162.61
730.199	9135.04
730.541	9204.87
730.882	9165.1
731.224	9215.72
731.565	9105.89
731.906	9181.82
732.248	9189.73
732.589	9095.04
732.93	9135.49
733.271	9154.48
733.612	9124.42
733.953	9112.22
734.294	9074.48
734.635	9127.13
734.976	9118.77
735.317	9205.32
735.658	9123.97
735.999	9160.8
736.339	9100.24
736.68	9195.38
737.021	9129.39
737.361	9120.81
737.702	9103.4
738.042	9145.44
738.383	9109.28
738.723	9186.11
739.063	9133.46
739.404	9199
739.744	9135.95
740.084	9144.76
740.424	9141.37
740.764	9211.2
741.104	9227.47
741.444	9144.99
741.784	9173.23
742.124	9191.31
742.464	9286
742.804	9299.11
743.143	9243.74
743.483	9294.81
743.823	9318.54
744.162	9284.87
744.502	9394.47
744.841	9380.91
745.181	9418.42
745.52	9429.72
745.86	9493.9
746.199	9541.13
746.538	9537.29
746.877	9582.94
747.216	9691.64
747.556	9698.87
747.895	9789.04
748.234	9777.74
748.573	9793.33
748.911	9861.58
749.25	9948.81
749.589	9936.15
749.928	10062.25
750.267	10065.19
750.605	10168.01
750.944	10216.6
751.283	10264.73
751.621	10337.5
751.96	10404.16
752.298	10533.65
752.636	10648.67
752.975	10686.87
753.313	10772.29
753.651	10930.25
753.989	10953.07
754.327	11121.66
754.666	11201.2
755.004	11327.08
755.342	11520.74
755.679	11609.55
756.017	11621.53
756.355	11903.33
756.693	11892.94
757.031	12060.84
757.368	12151.23
757.706	12332.7
758.044	12481.17
758.381	12684.78
