Data from hue_20_FLMS001491_30.txt Node
Date: Mon Feb 06 15:33:50 GMT 2017
User: dcchb
Spectrometer: FLMS00149
Trigger mode: 0
Integration Time (sec): 2.000000E-2
Scans to average: 10
Electric dark correction enabled: true
Nonlinearity correction enabled: false
Boxcar width: 0
XAxis mode: Wavelengths
Number of Pixels in Spectrum: 2048
>>>>>Begin Spectral Data<<<<<
341.393	-20.13
341.776	-20.13
342.16	-20.13
342.543	-54.25
342.927	-70.75
343.31	-54.93
343.693	-71.2
344.077	-76.85
344.46	-56.06
344.843	-40.01
345.226	-42.05
345.61	-18.32
345.993	-11.54
346.376	-5.89
346.759	0.89
347.142	15.8
347.525	51.51
347.908	52.41
348.291	60.1
348.674	83.37
349.057	112.75
349.44	143.94
349.823	134.9
350.206	154.78
350.588	186.42
350.971	230.94
351.354	223.71
351.737	247.89
352.119	248.11
352.502	264.39
352.884	266.19
353.267	277.72
353.65	286.76
354.032	284.27
354.414	297.61
354.797	293.09
355.179	322.69
355.562	313.65
355.944	335.57
356.326	331.5
356.709	334.67
357.091	366.53
357.473	338.96
357.855	348.45
358.238	338.28
358.62	352.29
359.002	350.03
359.384	337.15
359.766	359.3
360.148	354.55
360.53	322.92
360.912	340.09
361.294	345.74
361.676	325.85
362.057	360.2
362.439	319.3
362.821	324.27
363.203	322.01
363.584	332.41
363.966	328.56
364.348	316.14
364.729	323.59
365.111	340.77
365.493	309.58
365.874	309.58
366.256	329.92
366.637	318.17
367.019	321.33
367.4	310.94
367.781	327.66
368.163	324.05
368.544	324.72
368.925	314.1
369.306	338.06
369.688	315.46
370.069	305.51
370.45	322.69
370.831	326.76
371.212	329.02
371.593	324.5
371.974	330.6
372.355	310.49
372.736	333.76
373.117	312.29
373.498	326.53
373.879	316.36
374.26	317.49
374.641	326.98
375.021	345.51
375.402	337.38
375.783	333.76
376.163	321.11
376.544	317.94
376.925	323.14
377.305	329.69
377.686	304.84
378.066	331.28
378.447	340.99
378.827	334.67
379.208	331.05
379.588	325.63
379.968	329.69
380.349	348
380.729	338.73
381.109	346.64
381.489	336.7
381.87	324.5
382.25	340.32
382.63	351.16
383.01	348.68
383.39	356.13
383.77	352.74
384.15	357.26
384.53	331.05
384.91	353.65
385.29	346.64
385.67	349.13
386.049	337.83
386.429	325.63
386.809	363.14
387.189	364.95
387.568	352.52
387.948	360.43
388.328	347.77
388.707	345.29
389.087	345.97
389.466	350.71
389.846	348.23
390.225	356.59
390.605	370.82
390.984	381.22
391.363	337.15
391.743	370.82
392.122	380.99
392.501	379.86
392.881	372.41
393.26	354.55
393.639	369.24
394.018	368.11
394.397	383.48
394.776	386.42
395.155	371.73
395.534	371.73
395.913	394.55
396.292	378.96
396.671	388.9
397.05	397.49
397.429	367.21
397.808	385.51
398.186	388.22
398.565	404.95
398.944	398.62
399.323	376.25
399.701	372.18
400.08	395.68
400.458	392.74
400.837	388.22
401.215	370.15
401.594	406.3
401.972	431.16
402.351	396.36
402.729	416.02
403.107	369.47
403.486	404.72
403.864	429.13
404.242	404.72
404.62	416.47
404.999	411.5
405.377	422.57
405.755	396.13
406.133	431.16
406.511	429.35
406.889	420.31
407.267	420.54
407.645	419.41
408.023	420.77
408.401	413.99
408.779	426.19
409.156	434.78
409.534	422.12
409.912	455.79
410.29	453.99
410.667	444.95
411.045	464.61
411.422	474.55
411.8	451.95
412.178	474.78
412.555	460.31
412.933	453.99
413.31	460.31
413.687	472.74
414.065	489.69
414.442	470.93
414.819	474.78
415.197	453.76
415.574	481.33
415.951	484.72
416.328	466.64
416.705	484.94
417.082	495.11
417.46	482.91
417.837	497.37
418.214	498.05
418.591	484.49
418.967	482.23
419.344	519.29
419.721	497.6
420.098	487.66
420.475	482.69
420.852	498.96
421.228	510.71
421.605	508.67
421.982	523.36
422.358	531.72
422.735	524.27
423.111	519.29
423.488	520.65
423.864	541.67
424.241	529.01
424.617	552.29
424.994	524.49
425.37	533.53
425.746	545.73
426.123	538.28
426.499	557.26
426.875	565.39
427.251	564.04
427.627	559.75
428.003	576.92
428.379	560.2
428.756	579.63
429.132	580.99
429.507	585.96
429.883	590.25
430.259	589.57
430.635	613.3
431.011	570.82
431.387	595.9
431.763	586.19
432.138	618.73
432.514	597.94
432.89	631.16
433.265	619.86
433.641	634.32
434.016	638.61
434.392	625.05
434.767	677.48
435.143	644.49
435.518	640.2
435.894	659.4
436.269	680.65
436.644	644.04
437.02	667.31
437.395	654.66
437.77	670.48
438.145	666.18
438.52	705.73
438.895	690.14
439.271	706.18
439.646	708.44
440.021	699.4
440.395	705.28
440.77	716.8
441.145	731.27
441.52	733.98
441.895	717.71
442.27	710.48
442.645	695.11
443.019	728.55
443.394	750.93
443.769	736.69
444.143	734.66
444.518	742.79
444.892	718.16
445.267	747.54
445.641	763.81
446.016	717.71
446.39	747.08
446.764	775.33
447.139	774.65
447.513	790.47
447.887	765.84
448.262	769.68
448.636	783.92
449.01	795.9
449.384	774.2
449.758	791.83
450.132	805.61
450.506	796.58
450.88	794.77
451.254	820.98
451.628	826.63
452.002	824.6
452.376	832.05
452.75	821.43
453.123	852.17
453.497	839.29
453.871	843.81
454.244	859.4
454.618	850.36
454.992	869.57
455.365	894.65
455.739	906.4
456.112	872.96
456.486	908.21
456.859	909.79
457.232	913.41
457.606	917.7
457.979	956.8
458.352	943.69
458.725	956.8
459.099	961.32
459.472	978.27
459.845	979.85
460.218	1000.86
460.591	1011.94
460.964	979.4
461.337	1029.34
461.71	1041.54
462.083	1020.98
462.456	1041.99
462.829	1039.05
463.201	1064.59
463.574	1074.53
463.947	1074.99
464.32	1094.19
464.692	1136
465.065	1096
465.438	1130.8
465.81	1144.59
466.183	1156.34
466.555	1163.12
466.928	1208.54
467.3	1175.77
467.672	1200.86
468.045	1216.9
468.417	1240.63
468.789	1232.04
469.161	1253.96
469.534	1269.33
469.906	1285.83
470.278	1314.98
470.65	1338.93
471.022	1370.35
471.394	1411.02
471.766	1363.34
472.138	1409.67
472.51	1434.98
472.882	1469.1
473.253	1471.13
473.625	1489.44
473.997	1501.19
474.369	1544.8
474.74	1564.69
475.112	1570.11
475.484	1619.6
475.855	1651.47
476.227	1679.49
476.598	1712.48
476.97	1713.61
477.341	1761.07
477.713	1808.75
478.084	1799.03
478.455	1872.7
478.827	1881.29
479.198	1916.55
479.569	1933.04
479.94	2028.18
480.311	2026.83
480.682	2025.92
481.053	2109.53
481.424	2168.74
481.795	2217.78
482.166	2232.02
482.537	2251.9
482.908	2315.86
483.279	2352.47
483.65	2392.69
484.021	2438.57
484.391	2481.05
484.762	2492.58
485.133	2503.87
485.503	2603.76
485.874	2676.3
486.244	2667.71
486.615	2741.38
486.985	2747.94
487.356	2806.47
487.726	2857.31
488.097	2931.66
488.467	2928.5
488.837	3017.76
489.207	3015.27
489.578	3101.15
489.948	3144.76
490.318	3196.06
490.688	3167.13
491.058	3257.08
491.428	3348.15
491.798	3329.16
492.168	3434.92
492.538	3451.19
492.908	3496.62
493.278	3541.59
493.648	3566.45
494.017	3611.64
494.387	3636.95
494.757	3683.96
495.126	3737.29
495.496	3723.96
495.866	3751.3
496.235	3842.14
496.605	3847.79
496.974	3868.13
497.344	3946.32
497.713	3973.89
498.082	3955.81
498.452	4029.48
498.821	4076.04
499.19	4074.91
499.559	4137.28
499.928	4121.01
500.298	4183.38
500.667	4213.89
501.036	4236.71
501.405	4230.16
501.774	4261.79
502.143	4323.49
502.512	4325.97
502.88	4349.48
503.249	4360.78
503.618	4389.47
503.987	4424.05
504.356	4409.14
504.724	4467.89
505.093	4464.95
505.462	4465.86
505.83	4534.33
506.199	4607.1
506.567	4639.64
506.936	4601.67
507.304	4673.76
507.672	4668.79
508.041	4673.31
508.409	4692.97
508.777	4770.03
509.145	4760.76
509.514	4759.18
509.882	4806.41
510.25	4805.06
510.618	4833.08
510.986	4823.14
511.354	4897.03
511.722	4921.89
512.09	4941.55
512.458	4906.75
512.826	4944.04
513.193	5008.22
513.561	4979.29
513.929	5051.83
514.297	5054.77
514.664	5116.69
515.032	5058.16
515.4	5127.53
515.767	5126.63
516.135	5132.05
516.502	5084.15
516.869	5149.45
517.237	5237.36
517.604	5159.62
517.972	5210.7
518.339	5251.15
518.706	5245.5
519.073	5257.02
519.44	5306.06
519.808	5340.41
520.175	5348.32
520.542	5361.2
520.909	5359.17
521.276	5367.98
521.643	5413.18
522.009	5522.1
522.376	5452.27
522.743	5436.91
523.11	5505.15
523.477	5505.15
523.843	5586.51
524.21	5632.83
524.577	5644.81
524.943	5653.62
525.31	5659.72
525.676	5671.48
526.043	5665.83
526.409	5758.93
526.776	5822.43
527.142	5825.37
527.508	5834.86
527.874	5873.5
528.241	5908.76
528.607	5900.62
528.973	5996.66
529.339	5952.82
529.705	5982.88
530.071	6022.88
530.437	6085.25
530.803	6126.38
531.169	6158.02
531.535	6164.57
531.901	6104.01
532.267	6158.02
532.632	6266.26
532.998	6214.06
533.364	6309.88
533.73	6264.45
534.095	6327.73
534.461	6382.64
534.826	6380.61
535.192	6387.39
535.557	6431.23
535.923	6451.12
536.288	6501.51
536.653	6498.35
537.019	6463.09
537.384	6522.3
537.749	6590.77
538.114	6597.55
538.479	6640.49
538.845	6665.57
539.21	6629.19
539.575	6680.49
539.94	6695.86
540.305	6707.83
540.67	6781.05
541.034	6796.19
541.399	6819.02
541.764	6835.74
542.129	6888.39
542.494	6960.93
542.858	6954.61
543.223	6999.8
543.587	6926.36
543.952	7026.02
544.316	7004.55
544.681	7029.41
545.045	7057.88
545.41	7123.19
545.774	7203.86
546.138	7151.44
546.503	7213.81
546.867	7240.93
547.231	7247.93
547.595	7248.61
547.959	7314.82
548.324	7356.4
548.688	7361.6
549.052	7410.19
549.416	7411.54
549.779	7438.21
550.143	7429.62
550.507	7480.69
550.871	7496.06
551.235	7499
551.599	7661.25
551.962	7608.15
552.326	7615.6
552.689	7640.69
553.053	7668.03
553.417	7654.02
553.78	7752.78
554.143	7777.63
554.507	7758.88
554.87	7775.37
555.234	7851.53
555.597	7747.8
555.96	7902.6
556.323	7924.52
556.686	7925.88
557.05	7928.14
557.413	7965.2
557.776	7972.66
558.139	7982.83
558.502	8056.05
558.865	8039.32
559.228	8169.26
559.59	8148.47
559.953	8142.82
560.316	8185.31
560.679	8221.69
561.041	8284.06
561.404	8257.62
561.767	8306.89
562.129	8295.81
562.492	8316.38
562.854	8397.73
563.217	8332.42
563.579	8381.23
563.941	8451.74
564.304	8432.76
564.666	8513.89
565.028	8474.79
565.39	8546.88
565.753	8539.42
566.115	8662.58
566.477	8719.08
566.839	8671.4
567.201	8738.74
567.563	8700.77
567.925	8820.77
568.287	8804.27
568.648	8793.2
569.01	8906.42
569.372	8992.52
569.734	8816.93
570.095	9004.72
570.457	9032.29
570.819	9093.76
571.18	9052.63
571.542	9112.51
571.903	9150.48
572.265	9204.49
572.626	9293.75
572.987	9286.3
573.349	9399.06
573.71	9406.74
574.071	9486.29
574.432	9537.14
574.794	9635.66
575.155	9681.54
575.516	9635.44
575.877	9742.1
576.238	9801.08
576.599	9955.43
576.96	10074.75
577.32	10065.71
577.681	10114.07
578.042	10299.38
578.403	10343.44
578.763	10404.68
579.124	10563.1
579.485	10716.99
579.845	10838.57
580.206	10956.76
580.566	11009.64
580.927	11146.36
581.287	11358.78
581.648	11383.42
582.008	11629.06
582.368	11759.68
582.728	11910.63
583.089	12119.67
583.449	12352.66
583.809	12532.09
584.169	12725.08
584.529	12938.63
584.889	13195.8
585.249	13259.75
585.609	13479.63
585.969	13839.4
586.329	14061.54
586.688	14214.08
587.048	14541.07
587.408	14744
587.768	14998.69
588.127	15329.98
588.487	15517.32
588.846	16018.77
589.206	16107.58
589.565	16494.24
589.925	16837.74
590.284	17064.17
590.643	17387.1
591.003	17820.53
591.362	18109.11
591.721	18474.75
592.08	18861.41
592.44	19173.72
592.799	19460.72
593.158	19790.88
593.517	20270.41
593.876	20589.95
594.235	20985.87
594.593	21255.25
594.952	21672.64
595.311	21868.56
595.67	22335.44
596.029	22843.23
596.387	23179.26
596.746	23667.39
597.104	23936.98
597.463	24220.37
597.822	24650.86
598.18	24884.76
598.538	25255.82
598.897	25805.41
599.255	25899.19
599.613	26703.46
599.972	26757.02
600.33	27201.98
600.688	27492.14
601.046	27940.95
601.404	28318.34
601.762	28677.65
602.12	29095.49
602.478	29368.48
602.836	29717.62
603.194	30031.51
603.552	30435.57
603.91	30539.07
604.268	31047.53
604.625	31380.63
604.983	31693.39
605.341	31841.41
605.698	32245.24
606.056	32748.73
606.413	32902.85
606.771	33388.94
607.128	33697.63
607.485	33714.13
607.843	34076.83
608.2	34519.3
608.557	34848.11
608.914	35087.88
609.272	35540.07
609.629	35705.49
609.986	36065.03
610.343	36156.32
610.7	36618.46
611.057	36805.57
611.414	36947.04
611.771	37265.9
612.127	37671.09
612.484	37894.81
612.841	38156.04
613.198	38044.64
613.554	38488.24
613.911	38980.88
614.267	38936.82
614.624	39149.24
614.98	39406.41
615.337	39732.95
615.693	39905.15
616.05	40078.25
616.406	40425.36
616.762	40463.33
617.118	40541.29
617.475	40779.25
617.831	40918.46
618.187	41112.58
618.543	41388.5
618.899	41800.47
619.255	41883.18
619.611	41800.02
619.967	42128.37
620.323	42340.79
620.678	42347.35
621.034	42391.19
621.39	42516.61
621.746	42729.03
622.101	43046.76
622.457	42953.88
622.812	43113.43
623.168	43269.36
623.523	43361.56
623.879	43556.35
624.234	43435.91
624.589	43634.32
624.945	43946.4
625.3	44042.9
625.655	43981.43
626.01	44140.07
626.365	44258.94
626.72	44139.84
627.075	44273.85
627.43	44232.5
627.785	44254.19
628.14	44571.47
628.495	44716.32
628.85	44753.16
629.205	44669.32
629.559	44909.09
629.914	44793.38
630.269	44898.24
630.623	44712.03
630.978	44707.96
631.332	44959.48
631.687	45111.34
632.041	44930.78
632.396	45042.87
632.75	45090.55
633.104	45095.07
633.459	44908.86
633.813	44986.83
634.167	45046.26
634.521	45008.97
634.875	45171.91
635.229	45122.87
635.583	45047.61
635.937	45056.88
636.291	45097.11
636.645	45128.06
636.999	45045.58
637.352	45104.34
637.706	45027.28
638.06	45244.45
638.413	45089.2
638.767	45061.63
639.121	45075.41
639.474	44974.17
639.828	44990.22
640.181	45060.04
640.534	45165.58
640.888	44894.17
641.241	44854.85
641.594	44956.54
641.947	45081.96
642.301	44934.4
642.654	44858.02
643.007	44997.22
643.36	44944.79
643.713	44885.59
644.066	45070.21
644.419	44817.11
644.771	44492.15
645.124	44180.75
645.477	44233.17
645.83	43796.12
646.182	43768.78
646.535	43818.72
646.888	43830.47
647.24	43734.88
647.593	43821.43
647.945	43817.82
648.298	43658.5
648.65	43493.98
649.002	43410.6
649.355	43649.46
649.707	43538.28
650.059	43841.77
650.411	44211.03
650.763	44276.34
651.115	44723.1
651.467	44463.22
651.819	44449.89
652.171	44380.74
652.523	44288.54
652.875	44426.61
653.227	44133.29
653.578	44553.62
653.93	44375.32
654.282	44155.89
654.633	44099.84
654.985	44298.71
655.337	44279.73
655.688	44338.93
656.039	44491.7
656.391	44061.2
656.742	44079.5
657.094	44217.81
657.445	44323.57
657.796	44173.06
658.147	44114.08
658.498	44142.33
658.849	44216.45
659.2	44185.26
659.551	44000.86
659.902	44162.44
660.253	44044.03
660.604	44039.05
660.955	43967.64
661.306	44184.59
661.656	43952.28
662.007	43984.14
662.358	44106.17
662.708	44093.74
663.059	43989.11
663.409	43719.74
663.76	43953.41
664.11	43992.95
664.461	43940.3
664.811	44046.96
665.161	44109.11
665.511	43936.68
665.862	44066.62
666.212	44068.21
666.562	44064.59
666.912	43972.16
667.262	43883.35
667.612	43976.23
667.962	43974.42
668.312	43897.59
668.662	44082.22
669.011	43961.54
669.361	43824.6
669.711	43910.7
670.06	43838.38
670.41	43848.1
670.76	43656.01
671.109	43964.25
671.459	43944.14
671.808	43655.34
672.157	43912.73
672.507	43491.05
672.856	43613.53
673.205	43631.16
673.554	43711.83
673.904	43589.8
674.253	43881.09
674.602	43717.03
674.951	43173.77
675.3	42982.81
675.649	43590.48
675.998	43416.7
676.346	43577.6
676.695	43554.55
677.044	43320.43
677.393	43498.05
677.741	43516.58
678.09	43440.88
678.438	43268.45
678.787	43222.35
679.135	43304.16
679.484	43063.26
679.832	43346.87
680.181	43039.31
680.529	43083.6
680.877	43024.17
681.225	42971.06
681.573	43181.22
681.922	42958.18
682.27	42804.74
682.618	42747.34
682.966	42691.29
683.314	42804.96
683.661	42625.76
684.009	42452.88
684.357	42416.5
684.705	42307.8
685.053	42419.44
685.4	42343.96
685.748	42254.24
686.095	42155.04
686.443	42036.17
686.79	42097.86
687.138	42124.3
687.485	42007.02
687.832	41829.62
688.18	41986.9
688.527	41727.93
688.874	41686.8
689.221	41646.57
689.568	41616.74
689.915	41400.71
690.262	41409.29
690.609	41259.92
690.956	41041.17
691.303	41177.43
691.65	40992.81
691.997	40894.73
692.344	40679.59
692.69	40719.14
693.037	40699.03
693.383	40452.71
693.73	40649.99
694.077	40327.74
694.423	40231.92
694.769	39951.7
695.116	40040.06
695.462	39991.7
695.808	39954.87
696.155	40070.34
696.501	39696.34
696.847	39662.9
697.193	39368.22
697.539	39528.21
697.885	39165.28
698.231	39111.27
698.577	39160.09
698.923	39094.78
699.269	38813.65
699.614	38669.03
699.96	38650.72
700.306	38727.56
700.651	38516.26
700.997	38320.56
701.342	38448.47
701.688	38309.94
702.033	38300.45
702.379	38120.79
702.724	38208.7
703.069	38088.48
703.415	37629.05
703.76	37819.78
704.105	37703.4
704.45	37600.13
704.795	37405.1
705.14	37427.48
705.485	37309.97
705.83	37127.15
706.175	37165.56
706.52	37055.51
706.865	37022.29
707.209	37033.14
707.554	36827.04
707.899	36816.19
708.243	36693.03
708.588	36579.82
708.932	36394.51
709.277	36473.15
709.621	36403.1
709.966	36111.35
710.31	36288.98
710.654	36028.64
710.998	36007.85
711.342	35937.12
711.687	35829.78
712.031	35865.03
712.375	35637.01
712.719	35688.99
713.063	35575.77
713.407	35694.64
713.75	35515.89
714.094	35531.48
714.438	35296.91
714.782	35395.89
715.125	35166.97
715.469	35267.08
715.812	34985.73
716.156	34874.32
716.499	34965.62
716.843	35031.38
717.186	34605.86
717.53	34749.81
717.873	34957.26
718.216	34689.24
718.559	34590.49
718.902	34403.15
719.246	34503.26
719.589	34341.91
719.932	34268.69
720.275	34393.21
720.617	34149.37
720.96	34136.49
721.303	34117.73
721.646	34078.41
721.989	33938.75
722.331	33958.42
722.674	33913.22
723.016	33920.22
723.359	33788.02
723.701	33863.05
724.044	33606.56
724.386	33408.6
724.729	33600.68
725.071	33530.86
725.413	33596.16
725.755	33482.95
726.097	33327.92
726.439	33231.88
726.782	33176.51
727.124	33226.46
727.465	33017.42
727.807	33030.53
728.149	32983.75
728.491	32819.46
728.833	32919.8
729.175	32843.19
729.516	32821.72
729.858	32773.81
730.199	32733.59
730.541	32635.29
730.882	32618.56
731.224	32631.67
731.565	32453.14
731.906	32506.25
732.248	32492.24
732.589	32376.54
732.93	32334.28
733.271	32290.21
733.612	32319.81
733.953	32338.34
734.294	32018.8
734.635	32024
734.976	31994.17
735.317	31980.39
735.658	31989.43
735.999	31900.39
736.339	31920.28
736.68	31852.03
737.021	31939.26
737.361	31822.2
737.702	31838.7
738.042	31738.81
738.383	31744.69
738.723	31707.17
739.063	31651.36
739.404	31603.67
739.744	31486.62
740.084	31247.98
740.424	31385.83
740.764	31409.56
741.104	31403.45
741.444	31079.17
741.784	31097.02
742.124	31279.16
742.464	31141.31
742.804	31062.9
743.143	31047.76
743.483	30962.79
743.823	30896.12
744.162	30803.92
744.502	30850.47
744.841	30743.81
745.181	30821.32
745.52	30655.45
745.86	30799.63
746.199	30671.5
746.538	30685.73
746.877	30743.36
747.216	30657.48
747.556	30433.08
747.895	30528.22
748.234	30393.31
748.573	30408
748.911	30393.76
749.25	30317.83
749.589	30102.92
749.928	30354.44
750.267	30140.66
750.605	30063.6
750.944	30088.91
751.283	29980.44
751.621	30094.56
751.96	29924.62
752.298	29869.26
752.636	29914.68
752.975	29776.38
753.313	29764.63
753.651	29962.59
753.989	29711.52
754.327	29664.74
754.666	29476.05
755.004	29432.66
755.342	29604.41
755.679	29410.29
756.017	29380.91
756.355	29312.21
756.693	29257.3
757.031	29268.59
757.368	29037.19
757.706	28953.57
758.044	28882.16
758.381	28912.67
758.719	29010.75
759.056	28962.39
759.394	28886.46
759.731	28632.68
760.068	28516.52
760.405	28554.94
