Data from hue_24_FLMS001491_00057.txt Node
Date: Tue Feb 07 17:12:28 GMT 2017
User: dcchb
Spectrometer: FLMS00149
Trigger mode: 0
Integration Time (sec): 2.000000E-2
Scans to average: 10
Electric dark correction enabled: true
Nonlinearity correction enabled: false
Boxcar width: 0
XAxis mode: Wavelengths
Number of Pixels in Spectrum: 2048
>>>>>Begin Spectral Data<<<<<
341.393	-26.04
341.776	-26.04
342.16	-26.04
342.543	-66.27
342.927	-73.5
343.31	-67.63
343.693	-77.34
344.077	-71.02
344.46	-78.7
344.843	-57.46
345.226	-61.52
345.61	-28.08
345.993	-12.03
346.376	-17.91
346.759	22.99
347.142	54.18
347.525	39.94
347.908	54.63
348.291	84.24
348.674	102.54
349.057	113.16
349.44	131.01
349.823	152.26
350.206	174.18
350.588	201.52
350.971	218.02
351.354	232.71
351.737	254.4
352.119	247.62
352.502	244.91
352.884	286.04
353.267	278.58
353.65	297.11
354.032	290.33
354.414	302.76
354.797	321.74
355.179	322.87
355.562	326.71
355.944	320.61
356.326	331.91
356.709	350.22
357.091	336.66
357.473	343.44
357.855	332.14
358.238	353.61
358.62	357.67
359.002	327.84
359.384	327.17
359.766	357
360.148	312.03
360.53	331.23
360.912	331.01
361.294	326.49
361.676	322.65
362.057	313.16
362.439	326.26
362.821	337.11
363.203	326.71
363.584	319.71
363.966	306.15
364.348	327.62
364.729	326.49
365.111	323.78
365.493	297.79
365.874	322.65
366.256	333.27
366.637	328.52
367.019	311.35
367.4	305.92
367.781	299.14
368.163	308.18
368.544	302.53
368.925	297.11
369.306	329.88
369.688	316.55
370.069	307.96
370.45	302.31
370.831	300.05
371.212	301.18
371.593	279.03
371.974	333.49
372.355	313.61
372.736	322.87
373.117	317.45
373.498	319.71
373.879	315.64
374.26	305.92
374.641	314.74
375.021	302.53
375.402	330.1
375.783	319.48
376.163	322.87
376.544	322.87
376.925	313.61
377.305	324
377.686	323.78
378.066	333.27
378.447	333.72
378.827	338.24
379.208	335.75
379.588	345.02
379.968	304.57
380.349	326.94
380.729	350.22
381.109	346.38
381.489	328.52
381.87	349.76
382.25	358.58
382.63	355.64
383.01	329.2
383.39	339.6
383.77	344.34
384.15	340.73
384.53	341.4
384.91	364.45
385.29	348.63
385.67	337.56
386.049	360.84
386.429	331.23
386.809	354.74
387.189	354.96
387.568	359.26
387.948	354.06
388.328	336.21
388.707	368.3
389.087	345.7
389.466	354.28
389.846	351.57
390.225	349.54
390.605	357.22
390.984	398.8
391.363	367.84
391.743	387.5
392.122	374.4
392.501	361.52
392.881	372.59
393.26	375.98
393.639	354.74
394.018	356.54
394.397	373.49
394.776	354.28
395.155	367.62
395.534	384.79
395.913	379.82
396.292	393.61
396.671	392.25
397.05	386.15
397.429	403.55
397.808	377.11
398.186	386.15
398.565	377.33
398.944	386.83
399.323	378.69
399.701	389.54
400.08	392.48
400.458	402.42
400.837	402.87
401.215	408.29
401.594	381.4
401.972	405.58
402.351	382.31
402.729	387.28
403.107	401.06
403.486	418.92
403.864	395.64
404.242	433.38
404.62	409.88
404.999	390.44
405.377	431.8
405.755	408.75
406.133	411.23
406.511	403.77
406.889	413.72
407.267	390.89
407.645	422.98
408.023	416.88
408.401	419.82
408.779	439.25
409.156	446.94
409.534	426.82
409.912	429.76
410.29	442.64
410.667	441.06
411.045	438.12
411.422	448.52
411.8	451.23
412.178	456.88
412.555	450.55
412.933	458.01
413.31	447.84
413.687	482.64
414.065	465.47
414.442	453.49
414.819	452.59
415.197	486.94
415.574	470.67
415.951	458.69
416.328	495.07
416.705	493.72
417.082	493.72
417.46	509.76
417.837	499.82
418.214	489.2
418.591	485.81
418.967	480.83
419.344	508.86
419.721	505.01
420.098	492.59
420.475	539.59
420.852	492.13
421.228	500.04
421.605	535.75
421.982	534.84
422.358	528.29
422.735	511.57
423.111	536.43
423.488	528.29
423.864	541.62
424.241	526.48
424.617	533.49
424.994	544.34
425.37	533.71
425.746	555.41
426.123	553.6
426.499	566.03
426.875	537.1
427.251	556.99
427.627	582.08
428.003	563.09
428.379	575.52
428.756	582.75
429.132	581.17
429.507	604.22
429.883	565.8
430.259	601.96
430.635	603.77
431.011	561.74
431.387	601.96
431.763	612.13
432.138	601.06
432.514	609.87
432.89	619.59
433.265	611.68
433.641	601.28
434.016	637.21
434.392	638.12
434.767	671.56
435.143	654.84
435.518	658.46
435.894	631.34
436.269	662.07
436.644	677.21
437.02	700.04
437.395	664.56
437.77	682.86
438.145	689.19
438.52	699.81
438.895	684.9
439.271	674.05
439.646	706.14
440.021	695.97
440.395	708.85
440.77	727.16
441.145	723.09
441.52	734.39
441.895	738.68
442.27	752.24
442.645	746.14
443.019	743.88
443.394	728.29
443.769	753.14
444.143	758.12
444.518	735.07
444.892	740.26
445.267	748.62
445.641	751.11
446.016	760.6
446.39	775.74
446.764	805.12
447.139	780.04
447.513	775.97
447.887	769.87
448.262	764.67
448.636	773.93
449.01	803.54
449.384	796.08
449.758	804.89
450.132	797.66
450.506	792.24
450.88	848.06
451.254	841.96
451.628	830.43
452.002	828.4
452.376	846.93
452.75	839.02
453.123	827.04
453.497	864.33
453.871	854.16
454.244	866.14
454.618	893.71
454.992	876.76
455.365	867.49
455.739	897.1
456.112	919.92
456.486	913.59
456.859	926.92
457.232	931.9
457.606	946.36
457.979	961.73
458.352	953.82
458.725	958.56
459.099	980.26
459.472	981.84
459.845	994.27
460.218	1008.73
460.591	1030.2
460.964	994.49
461.337	1020.26
461.71	1050.31
462.083	1067.03
462.456	1063.87
462.829	1076.3
463.201	1075.4
463.574	1097.54
463.947	1094.15
464.32	1121.27
464.692	1116.07
465.065	1115.62
465.438	1152.91
465.81	1154.26
466.183	1161.72
466.555	1193.13
466.928	1185.22
467.3	1203.3
467.672	1218.67
468.045	1245.33
468.417	1239.91
468.789	1237.2
469.161	1281.72
469.534	1279.46
469.906	1309.29
470.278	1337.31
470.65	1336.41
471.022	1361.72
471.394	1366.69
471.766	1383.41
472.138	1404.65
472.51	1437.19
472.882	1465.89
473.253	1462.05
473.625	1523.29
473.997	1524.42
474.369	1513.8
474.74	1527.81
475.112	1612.1
475.484	1611.43
475.855	1620.24
476.227	1653.01
476.598	1696.4
476.97	1723.51
477.341	1773.46
477.713	1789.73
478.084	1779.78
478.455	1870.4
478.827	1866.34
479.198	1939.1
479.569	1916.05
479.94	2001.02
480.311	2027.69
480.682	2074.24
481.053	2101.13
481.424	2109.94
481.795	2194.24
482.166	2195.59
482.537	2262.03
482.908	2303.39
483.279	2325.53
483.65	2413.21
484.021	2391.29
484.391	2452.76
484.762	2484.62
485.133	2502.02
485.503	2544.96
485.874	2602.81
486.244	2674.68
486.615	2709.02
486.985	2744.73
487.356	2799.42
487.726	2840.32
488.097	2904.5
488.467	2890.94
488.837	2952.41
489.207	2990.6
489.578	3066.3
489.948	3051.61
490.318	3135.91
490.688	3189.92
491.058	3233.3
491.428	3253.64
491.798	3314.66
492.168	3396.92
492.538	3402.34
492.908	3464.94
493.278	3534.09
493.648	3549
494.017	3571.83
494.387	3621.32
494.757	3608.21
495.126	3675.1
495.496	3703.57
495.866	3770.24
496.235	3810.01
496.605	3820.86
496.974	3908.32
497.344	3924.81
497.713	3910.12
498.082	3965.94
498.452	3985.38
498.821	4022.89
499.19	4057.92
499.559	4122.32
499.928	4098.59
500.298	4104.47
500.667	4179.04
501.036	4192.83
501.405	4271.92
501.774	4254.75
502.143	4295.88
502.512	4294.29
502.88	4367.96
503.249	4395.31
503.618	4385.14
503.987	4407.51
504.356	4491.58
504.724	4462.65
505.093	4469.43
505.462	4492.71
505.83	4592.37
506.199	4590.11
506.567	4585.81
506.936	4609.09
507.304	4658.8
507.672	4668.52
508.041	4686.83
508.409	4785.13
508.777	4755.98
509.145	4790.33
509.514	4763.66
509.882	4863.09
510.25	4843.88
510.618	4869.87
510.986	4922.3
511.354	4924.79
511.722	4958.23
512.09	5001.39
512.458	4968.17
512.826	5012.69
513.193	5011.11
513.561	5057.44
513.929	5112.35
514.297	5099.7
514.664	5132.69
515.032	5190.99
515.4	5145.8
515.767	5192.35
516.135	5233.48
516.502	5159.13
516.869	5276.19
517.237	5310.31
517.604	5244.55
517.972	5319.8
518.339	5304.66
518.706	5356.86
519.073	5385.34
519.44	5383.98
519.808	5414.49
520.175	5424.21
520.542	5477.54
520.909	5488.61
521.276	5540.14
521.643	5582.17
522.009	5592.56
522.376	5599.57
522.743	5620.13
523.11	5628.95
523.477	5709.4
523.843	5757.31
524.21	5799.79
524.577	5860.58
524.943	5819
525.31	5822.84
525.676	5950.75
526.043	5925.21
526.409	5993.01
526.776	6000.24
527.142	6014.02
527.508	6080.24
527.874	6071.2
528.241	6110.29
528.607	6154.58
528.973	6164.53
529.339	6154.81
529.705	6246.56
530.071	6362.94
530.437	6300.79
530.803	6334.47
531.169	6372.21
531.535	6327.23
531.901	6414.69
532.267	6473.22
532.632	6498.3
532.998	6479.32
533.364	6558.64
533.73	6552.99
534.095	6621.46
534.461	6609.49
534.826	6652.42
535.192	6686.32
535.557	6672.99
535.923	6720.44
536.288	6750.73
536.653	6765.42
537.019	6752.76
537.384	6772.65
537.749	6854
538.114	6814.91
538.479	6861.91
538.845	6892.42
539.21	6930.38
539.575	6971.06
539.94	6950.72
540.305	7030.72
540.67	6985.52
541.034	7067.1
541.399	7123.6
541.764	7096.93
542.129	7165.4
542.494	7171.28
542.858	7231.62
543.223	7161.79
543.587	7290.15
543.952	7308.68
544.316	7287.89
544.681	7286.98
545.045	7338.96
545.41	7362.91
545.774	7435
546.138	7450.14
546.503	7509.8
546.867	7506.41
547.231	7569.91
547.595	7547.77
547.959	7601.33
548.324	7612.17
548.688	7623.02
549.052	7634.55
549.416	7670.7
549.779	7692.4
550.143	7710.02
550.507	7799.96
550.871	7871.6
551.235	7792.06
551.599	7872.5
551.962	7848.78
552.326	7862.11
552.689	7879.74
553.053	7941.2
553.417	7936.23
553.78	8030.01
554.143	8009.9
554.507	8037.92
554.87	8081.76
555.234	8205.6
555.597	8155.44
555.96	8116.57
556.323	8183.68
556.686	8166.06
557.05	8339.16
557.413	8336
557.776	8295.77
558.139	8295.09
558.502	8378.25
558.865	8383.9
559.228	8386.16
559.59	8450.79
559.953	8538.02
560.316	8558.59
560.679	8497.12
561.041	8552.49
561.404	8621.86
561.767	8651.02
562.129	8687.4
562.492	8725.82
562.854	8759.49
563.217	8680.62
563.579	8715.42
563.941	8806.72
564.304	8765.36
564.666	8888.75
565.028	8956.54
565.39	8958.13
565.753	9026.82
566.115	9032.02
566.477	9055.52
566.839	9060.27
567.201	9096.2
567.563	9078.57
567.925	9206.71
568.287	9235.86
568.648	9166.26
569.01	9286.25
569.372	9264.56
569.734	9323.54
570.095	9323.09
570.457	9316.53
570.819	9457.1
571.18	9435.4
571.542	9521.28
571.903	9541.84
572.265	9627.26
572.626	9650.31
572.987	9654.38
573.349	9785
573.71	9855.05
574.071	9899.12
574.432	9949.96
574.794	9966.46
575.155	9994.93
575.516	10081.26
575.877	10153.57
576.238	10143.18
576.599	10271.99
576.96	10276.96
577.32	10424.98
577.681	10564.86
578.042	10619.33
578.403	10601.92
578.763	10691.19
579.124	10823.61
579.485	10963.5
579.845	11059.54
580.206	11163.49
580.566	11236.71
580.927	11349.48
581.287	11469.25
581.648	11516.7
582.008	11681.44
582.368	11799.18
582.728	11938.16
583.089	12011.15
583.449	12302.44
583.809	12360.07
584.169	12639.84
584.529	12743.34
584.889	12992.82
585.249	13080.73
585.609	13223.78
585.969	13568.4
586.329	13666.93
586.688	13993.7
587.048	14045.45
587.408	14300.36
587.768	14605.89
588.127	14713
588.487	14981.24
588.846	15381.69
589.206	15450.84
589.565	15762.24
589.925	16034.78
590.284	16235.67
590.643	16446.97
591.003	16849.22
591.362	17186.84
591.721	17352.26
592.08	17670.21
592.44	17921.28
592.799	18222.06
593.158	18493.92
593.517	18745.89
593.876	19255.48
594.235	19358.76
594.593	19716.04
594.952	20110.6
595.311	20313.53
595.67	20586.52
596.029	21073.97
596.387	21326.84
596.746	21686.6
597.104	21893.15
597.463	22153.26
597.822	22551.89
598.18	22717.09
598.538	23071.65
598.897	23515.94
599.255	23611.53
599.613	24170.38
599.972	24275.01
600.33	24682.01
600.688	24845.39
601.046	25263.46
601.404	25652.15
601.762	25893.5
602.12	26357.22
602.478	26687.15
602.836	26898.9
603.194	27123.3
603.552	27370.75
603.91	27587.01
604.268	28023.84
604.625	28263.38
604.983	28656.82
605.341	28678.06
605.698	29173.41
606.056	29435.78
606.413	29653.18
606.771	29958.7
607.128	30191.47
607.485	30216.78
607.843	30668.97
608.2	30970.43
608.557	31340.14
608.914	31345.33
609.272	31746.91
609.629	31936.05
609.986	32238.87
610.343	32398.41
610.7	32692.87
611.057	32936.7
611.414	33043.14
611.771	33258.28
612.127	33542.11
612.484	33652.17
612.841	34040.4
613.198	34051.93
613.554	34258.03
613.911	34633.61
614.267	34751.57
614.624	34851
614.98	35064.11
615.337	35515.62
615.693	35541.16
616.05	35786.57
616.406	36049.17
616.762	36008.94
617.118	36137.52
617.475	36361.93
617.831	36551.98
618.187	36728.92
618.543	36861.35
618.899	37294.1
619.255	37336.36
619.611	37316.25
619.967	37529.35
620.323	37685.28
620.678	37692.06
621.034	37716.69
621.39	37891.83
621.746	37936.57
622.101	38527.52
622.457	38273.97
622.812	38436.45
623.168	38585.6
623.523	38664.92
623.879	38881.18
624.234	38726.61
624.589	39001.18
624.945	39095.86
625.3	39133.15
625.655	39290.21
626.01	39430.32
626.365	39449.08
626.72	39477.55
627.075	39490.2
627.43	39564.55
627.785	39698.33
628.14	39689.52
628.495	39850.65
628.85	39801.38
629.205	39748.73
629.559	40080.47
629.914	39973.36
630.269	39989.85
630.623	40030.76
630.978	39922.51
631.332	40102.17
631.687	40115.72
632.041	40094.48
632.396	40186.23
632.75	40094.03
633.104	40176.97
633.459	40101.49
633.813	40076.86
634.167	40252.22
634.521	40211.32
634.875	40359.56
635.229	40174.25
635.583	40156.18
635.937	40146.91
636.291	40047.48
636.645	40291.99
636.999	40150.07
637.352	40163.86
637.706	40090.64
638.06	40243.41
638.413	40101.71
638.767	40078.89
639.121	40290.86
639.474	40061.49
639.828	40083.41
640.181	40148.27
640.534	40243.18
640.888	40091.54
641.241	40087.03
641.594	40171.32
641.947	40184.2
642.301	40132.9
642.654	40152.11
643.007	40190.53
643.36	40200.24
643.713	40085.22
644.066	40287.25
644.419	40011.09
644.771	39582.86
645.124	39433.93
645.477	39394.16
645.83	39127.95
646.182	39014.06
646.535	38971.8
646.888	39021.52
647.24	38899.94
647.593	39184.22
647.945	38986.04
648.298	38863.78
648.65	38794.63
649.002	38784.01
649.355	38988.97
649.707	38864.23
650.059	38934.51
650.411	39477.32
650.763	39573.82
651.115	39896.07
651.467	39801.61
651.819	39774.49
652.171	39738.11
652.523	39750.31
652.875	39630.31
653.227	39477.55
653.578	39719.58
653.93	39638.9
654.282	39485.46
654.633	39287.5
654.985	39434.84
655.337	39565.23
655.688	39570.88
656.039	39521.84
656.391	39388.96
656.742	39404.78
657.094	39479.81
657.445	39614.95
657.796	39479.36
658.147	39425.8
658.498	39460.37
658.849	39485.91
659.2	39448.85
659.551	39448.62
659.902	39540.15
660.253	39464.67
660.604	39253.37
660.955	39286.59
661.306	39424.67
661.656	39368.17
662.007	39475.52
662.358	39433.71
662.708	39474.61
663.059	39317.33
663.409	39120.5
663.76	39364.33
664.11	39330.66
664.461	39380.15
664.811	39409.75
665.161	39281.85
665.511	39261.06
665.862	39314.62
666.212	39304.45
666.562	39399.59
666.912	39169.31
667.262	39159.82
667.612	39305.8
667.962	39247.5
668.312	39231.68
668.662	39518.23
669.011	39213.38
669.361	39243.88
669.711	39164.34
670.06	39122.76
670.41	38985.13
670.76	39212.7
671.109	39221.74
671.459	39118.69
671.808	39057
672.157	39128.86
672.507	38795.31
672.856	38987.17
673.205	39014.06
673.554	39189.42
673.904	39157.11
674.253	39138.8
674.602	39069.65
674.951	38381.53
675.3	38192.84
675.649	38959.15
675.998	38650.45
676.346	38790.11
676.695	38960.73
677.044	38765.25
677.393	38819.49
677.741	38846.83
678.09	38656.55
678.438	38572.71
678.787	38763.9
679.135	38835.98
679.484	38458.59
679.832	38689.1
680.181	38421.53
680.529	38504.24
680.877	38437.12
681.225	38276.68
681.573	38601.19
681.922	38363.91
682.27	38145.61
682.618	38376.11
682.966	38189.45
683.314	38242.1
683.661	38174.98
684.009	37989.45
684.357	37888.21
684.705	37817.93
685.053	37993.29
685.4	37746.97
685.748	37664.49
686.095	37660.65
686.443	37495.45
686.79	37455.91
687.138	37565.51
687.485	37542.46
687.832	37444.61
688.18	37544.95
688.527	37255.91
688.874	37231.05
689.221	37189.02
689.568	37036.48
689.915	36929.82
690.262	36925.75
690.609	36905.41
690.956	36703.16
691.303	36655.93
691.65	36420.68
691.997	36572.32
692.344	36185.43
692.69	36297.29
693.037	36273.34
693.383	36008.94
693.73	36326.45
694.077	35916.29
694.423	35978.66
694.769	35745.9
695.116	35700.93
695.462	35685.11
695.808	35606.24
696.155	35593.81
696.501	35405.11
696.847	35279.02
697.193	35176.42
697.539	35197.21
697.885	35039.47
698.231	35005.8
698.577	34922.87
698.923	34953.83
699.269	34738.47
699.614	34664.34
699.96	34420.51
700.306	34482.88
700.651	34381.41
700.997	34262.09
701.342	34272.94
701.688	34142.55
702.033	34132.15
702.379	34022.55
702.724	33923.57
703.069	34136.9
703.415	33603.35
703.76	33699.17
704.105	33679.06
704.45	33536.91
704.795	33404.71
705.14	33273.87
705.485	33258.5
705.83	33148
706.175	33328.11
706.52	33114.55
706.865	32956.82
707.209	32950.26
707.554	32818.74
707.899	32848.8
708.243	32706.65
708.588	32687.45
708.932	32427.57
709.277	32420.33
709.621	32559.99
709.966	32314.35
710.31	32381.46
710.654	32046.11
710.998	32105.77
711.342	32007.24
711.687	32056.28
712.031	31806.79
712.375	31786.68
712.719	31750.07
713.063	31703.74
713.407	31920.69
713.75	31649.51
714.094	31663.74
714.438	31444.77
714.782	31519.34
715.125	31448.16
715.469	31334.94
715.812	31160.03
716.156	31182.4
716.499	31105.79
716.843	31239.8
717.186	31065.12
717.53	31125.45
717.873	31064.21
718.216	30887.04
718.559	30817.66
718.902	30742.41
719.246	30799.13
719.589	30693.37
719.932	30482.08
720.275	30507.62
720.617	30483.89
720.96	30428.97
721.303	30430.33
721.646	30477.79
721.989	30163.44
722.331	30270.11
722.674	30249.32
723.016	30244.8
723.359	30069.89
723.701	30221.3
724.044	29821.31
724.386	29907.41
724.729	29952.6
725.071	29968.87
725.413	29792.61
725.755	29741.31
726.097	29720.52
726.439	29558.71
726.782	29509.68
727.124	29746.28
727.465	29594.42
727.807	29559.62
728.149	29493.86
728.491	29302.22
728.833	29336.8
729.175	29243.92
729.516	29249.8
729.858	29243.47
730.199	29171.15
730.541	29197.59
730.882	29154.21
731.224	29180.87
731.565	28949.46
731.906	28959.18
732.248	28999.86
732.589	28872.86
732.93	28750.6
733.271	28745.4
733.612	28878.73
733.953	28763.48
734.294	28603.03
734.635	28594.22
734.976	28690.49
735.317	28596.25
735.658	28543.83
735.999	28442.13
736.339	28417.95
736.68	28629.02
737.021	28399.42
737.361	28292.08
737.702	28411.17
738.042	28282.59
738.383	28262.25
738.723	28267.22
739.063	28328.01
739.404	28297.96
739.744	28162.37
740.084	28019.55
740.424	28085.53
740.764	27955.14
741.104	28088.92
741.444	27916.95
741.784	27820.91
742.124	27911.53
742.464	27870.4
742.804	27807.35
743.143	27731.64
743.483	27728.03
743.823	27604.19
744.162	27572.1
744.502	27546.79
744.841	27545.43
745.181	27603.51
745.52	27563.06
745.86	27343.18
746.199	27419.79
746.538	27342.05
746.877	27402.84
747.216	27373.01
747.556	27326.23
747.895	27368.94
748.234	27221.83
748.573	27223.63
748.911	27216.63
749.25	27225.67
749.589	27027.03
749.928	27119.46
750.267	27025.45
750.605	26984.32
750.944	26999.23
751.283	27035.62
751.621	26937.77
751.96	26888.95
752.298	26712.24
752.636	26781.61
752.975	26663.88
753.313	26549.75
753.651	26709.3
753.989	26520.15
754.327	26581.17
754.666	26398.8
755.004	26413.03
755.342	26283.32
755.679	26344.56
756.017	26216.88
756.355	26334.84
756.693	26157.9
757.031	26116.54
757.368	25970.11
757.706	26063.66
758.044	25997.45
758.381	25980.5
758.719	25831.13
759.056	25907.74
759.394	25809.21
759.731	25630
760.068	25537.35
760.405	25552.04
760.743	25406.28
