Data from hue_28_FLMS001491_00016.txt Node
Date: Tue Feb 07 17:16:55 GMT 2017
User: dcchb
Spectrometer: FLMS00149
Trigger mode: 0
Integration Time (sec): 2.000000E-2
Scans to average: 10
Electric dark correction enabled: true
Nonlinearity correction enabled: false
Boxcar width: 0
XAxis mode: Wavelengths
Number of Pixels in Spectrum: 2048
>>>>>Begin Spectral Data<<<<<
341.393	-25.75
341.776	-25.75
342.16	-25.75
342.543	-56.26
342.927	-80.89
343.31	-70.04
343.693	-55.35
344.077	-50.15
344.46	-63.94
344.843	-71.17
345.226	-30.95
345.61	-36.6
345.993	-16.26
346.376	-15.13
346.759	22.61
347.142	11.09
347.525	32.56
347.908	60.13
348.291	81.37
348.674	86.34
349.057	115.49
349.44	124.53
349.823	133.8
350.206	155.26
350.588	192.55
350.971	208.14
351.354	214.47
351.737	229.16
352.119	253.11
352.502	270.74
352.884	246.56
353.267	269.39
353.65	297.63
354.032	306.67
354.414	319.33
354.797	329.5
355.179	324.98
355.562	331.08
355.944	324.75
356.326	316.39
356.709	344.64
357.091	347.58
357.473	346.9
357.855	342.38
358.238	332.21
358.62	349.38
359.002	342.83
359.384	339.67
359.766	343.06
360.148	357.52
360.53	331.53
360.912	336.05
361.294	320.68
361.676	325.43
362.057	339.21
362.439	325.88
362.821	338.76
363.203	331.98
363.584	320.23
363.966	333.56
364.348	330.17
364.729	346.22
365.111	323.17
365.493	309.38
365.874	311.64
366.256	320.01
366.637	315.03
367.019	308.93
367.4	322.72
367.781	288.59
368.163	303.28
368.544	295.83
368.925	287.01
369.306	321.14
369.688	308.03
370.069	332.89
370.45	319.1
370.831	301.7
371.212	296.28
371.593	320.01
371.974	308.93
372.355	329.27
372.736	301.93
373.117	326.56
373.498	291.98
373.879	315.94
374.26	313.45
374.641	314.58
375.021	343.73
375.402	319.55
375.783	334.02
376.163	306.22
376.544	322.94
376.925	315.26
377.305	324.75
377.686	315.26
378.066	333.11
378.447	336.05
378.827	320.23
379.208	327.69
379.588	340.8
379.968	332.21
380.349	317.75
380.729	328.59
381.109	344.41
381.489	354.36
381.87	336.05
382.25	348.48
382.63	341.7
383.01	336.73
383.39	340.12
383.77	341.93
384.15	346.22
384.53	356.16
384.91	356.84
385.29	343.28
385.67	343.06
386.049	350.74
386.429	340.12
386.809	352.55
387.189	341.25
387.568	347.58
387.948	338.31
388.328	343.28
388.707	368.37
389.087	363.39
389.466	372.89
389.846	340.8
390.225	354.58
390.605	349.84
390.984	355.26
391.363	345.09
391.743	369.04
392.122	365.88
392.501	381.02
392.881	355.94
393.26	364.3
393.639	379.44
394.018	383.28
394.397	390.74
394.776	381.92
395.155	377.41
395.534	403.17
395.913	379.89
396.292	374.92
396.671	388.48
397.05	388.7
397.429	368.14
397.808	379.89
398.186	396.84
398.565	391.19
398.944	385.09
399.323	418.99
399.701	406.33
400.08	397.97
400.458	388.93
400.837	406.56
401.215	396.39
401.594	391.19
401.972	399.78
402.351	395.71
402.729	383.51
403.107	421.92
403.486	405.88
403.864	406.11
404.242	391.64
404.62	396.16
404.999	428.25
405.377	417.86
405.755	395.94
406.133	421.7
406.511	397.74
406.889	416.27
407.267	407.46
407.645	420.34
408.023	435.48
408.401	425.99
408.779	437.29
409.156	432.77
409.534	434.13
409.912	417.63
410.29	454.24
410.667	449.49
411.045	446.1
411.422	450.17
411.8	459.89
412.178	464.18
412.555	472.77
412.933	483.39
413.31	466.44
413.687	461.02
414.065	482.94
414.442	488.36
414.819	482.94
415.197	495.82
415.574	493.33
415.951	465.99
416.328	477.97
416.705	486.33
417.082	480.23
417.46	494.46
417.837	514.8
418.214	483.84
418.591	489.72
418.967	509.83
419.344	496.27
419.721	476.39
420.098	502.6
420.475	513.45
420.852	517.51
421.228	528.81
421.605	513.9
421.982	530.62
422.358	520.23
422.735	548.47
423.111	526.78
423.488	528.59
423.864	537.4
424.241	536.72
424.617	533.11
424.994	534.46
425.37	559.32
425.746	547.12
426.123	557.29
426.499	549.15
426.875	570.17
427.251	564.07
427.627	568.36
428.003	577.4
428.379	561.36
428.756	584.86
429.132	606.55
429.507	578.08
429.883	575.82
430.259	597.51
430.635	560.45
431.011	617.63
431.387	612.2
431.763	624.86
432.138	618.98
432.514	659.88
432.89	651.3
433.265	641.13
433.641	640.9
434.016	648.13
434.392	651.07
434.767	683.16
435.143	673.89
435.518	665.31
435.894	662.82
436.269	673.44
436.644	691.52
437.02	685.42
437.395	668.25
437.77	688.36
438.145	714.12
438.52	703.72
438.895	710.96
439.271	722.03
439.646	719.77
440.021	714.35
440.395	722.71
440.77	738.75
441.145	715.7
441.52	746.21
441.895	726.32
442.27	765.19
442.645	748.92
443.019	759.09
443.394	762.93
443.769	762.25
444.143	757.96
444.518	740.79
444.892	744.85
445.267	751.63
445.641	762.25
446.016	790.95
446.39	811.07
446.764	807.9
447.139	789.6
447.513	796.15
447.887	832.76
448.262	799.32
448.636	814.23
449.01	790.05
449.384	803.61
449.758	819.88
450.132	829.6
450.506	848.58
450.88	842.48
451.254	870.73
451.628	845.64
452.002	860.33
452.376	848.58
452.75	844.29
453.123	877.96
453.497	867.34
453.871	902.82
454.244	910.72
454.618	911.85
454.992	918.41
455.365	929.26
455.739	941.01
456.112	942.81
456.486	960.21
456.859	960.89
457.232	961.12
457.606	960.21
457.979	967.45
458.352	991.85
458.725	1010.38
459.099	1036.82
459.472	1036.82
459.845	1033.43
460.218	1051.96
460.591	1054
460.964	1080.66
461.337	1068.46
461.71	1100.78
462.083	1104.39
462.456	1104.39
462.829	1111.17
463.201	1108.91
463.574	1143.03
463.947	1129.7
464.32	1173.77
464.692	1192.53
465.065	1195.01
465.438	1221.45
465.81	1228.46
466.183	1247.21
466.555	1267.33
466.928	1240.66
467.3	1276.14
467.672	1295.57
468.045	1292.64
468.417	1314.56
468.789	1320.66
469.161	1339.41
469.534	1358.85
469.906	1381.9
470.278	1385.51
470.65	1416.7
471.022	1471.16
471.394	1447.66
471.766	1481.78
472.138	1469.35
472.51	1521.56
472.882	1559.07
473.253	1566.75
473.625	1610.59
473.997	1630.48
474.369	1620.54
474.74	1660.31
475.112	1678.61
475.484	1727.43
475.855	1773.75
476.227	1795.67
476.598	1815.56
476.97	1856.46
477.341	1889
477.713	1944.37
478.084	1934.2
478.455	1973.75
478.827	2038.83
479.198	2085.61
479.569	2080.19
479.94	2164.93
480.311	2188.43
480.682	2252.84
481.053	2249.9
481.424	2324.7
481.795	2366.96
482.166	2403.57
482.537	2454.19
482.908	2464.13
483.279	2529.44
483.65	2566.05
484.021	2647.18
484.391	2672.94
484.762	2752.03
485.133	2792.71
485.503	2794.29
485.874	2864.12
486.244	2946.38
486.615	3004
486.985	3008.3
487.356	3082.87
487.726	3130.55
488.097	3182.76
488.467	3241.74
488.837	3310.66
489.207	3351.34
489.578	3397.21
489.948	3494.39
490.318	3565.12
490.688	3572.58
491.058	3620.71
491.428	3724.44
491.798	3731.67
492.168	3809.18
492.538	3817.99
492.908	3875.84
493.278	3931.66
493.648	4007.82
494.017	4014.82
494.387	4073.58
494.757	4096.63
495.126	4154.03
495.496	4180.24
495.866	4245.78
496.235	4289.17
496.605	4284.87
496.974	4356.74
497.344	4427.02
497.713	4516.96
498.082	4551.53
498.452	4577.97
498.821	4594.7
499.19	4622.94
499.559	4655.03
499.928	4700.91
500.298	4719.89
500.667	4825.2
501.036	4795.82
501.405	4846.89
501.774	4855.93
502.143	4911.75
502.512	4958.53
502.88	4975.93
503.249	4996.04
503.618	5041.69
503.987	5057.06
504.356	5118.98
504.724	5110.16
505.093	5172.08
505.462	5138.86
505.83	5218.63
506.199	5279.88
506.567	5319.65
506.936	5288.46
507.304	5365.75
507.672	5399.87
508.041	5372.98
508.409	5417.5
508.777	5488.46
509.145	5522.58
509.514	5526.2
509.882	5546.99
510.25	5582.92
510.618	5578.17
510.986	5583.37
511.354	5669.7
511.722	5734.1
512.09	5781.78
512.458	5804.16
512.826	5778.17
513.193	5821.56
513.561	5823.14
513.929	5854.78
514.297	5954.43
514.664	5939.29
515.032	5966.64
515.4	6003.02
515.767	5972.51
516.135	6050.93
516.502	6010.03
516.869	6120.53
517.237	6121.44
517.604	6102.23
517.972	6151.94
518.339	6233.75
518.706	6170.25
519.073	6235.56
519.44	6242.11
519.808	6294.09
520.175	6279.17
520.542	6338.15
520.909	6374.31
521.276	6372.28
521.643	6423.8
522.009	6500.41
522.376	6540.41
522.743	6554.87
523.11	6615.21
523.477	6660.86
523.843	6690.23
524.21	6697.92
524.577	6769.78
524.943	6713.28
525.31	6835.99
525.676	6873.05
526.043	6798.25
526.409	6939.72
526.776	6992.15
527.142	6996.89
527.508	6996.21
527.874	7047.96
528.241	7129.54
528.607	7105.14
528.973	7175.64
529.339	7171.35
529.705	7262.87
530.071	7289.77
530.437	7302.87
530.803	7384.23
531.169	7387.84
531.535	7387.16
531.901	7424.23
532.267	7453.83
532.632	7497.22
532.998	7566.37
533.364	7630.32
533.73	7603.66
534.095	7673.48
534.461	7719.81
534.826	7713.94
535.192	7765.46
535.557	7794.61
535.923	7873.03
536.288	7854.95
536.653	7888.62
537.019	7862.63
537.384	7894.72
537.749	7998
538.114	8033.48
538.479	8032.8
538.845	8066.92
539.21	8063.53
539.575	8100.82
539.94	8112.57
540.305	8198.22
540.67	8198.89
541.034	8247.71
541.399	8280.7
541.764	8210.19
542.129	8319.8
542.494	8364.99
542.858	8468.04
543.223	8420.36
543.587	8445.22
543.952	8445.89
544.316	8513.69
544.681	8518.66
545.045	8620.8
545.41	8589.17
545.774	8599.56
546.138	8670.07
546.503	8751.65
546.867	8710.97
547.231	8850.18
547.595	8784.19
547.959	8869.84
548.324	8858.09
548.688	8856.28
549.052	8920.46
549.416	8937.86
549.779	8935.82
550.143	8927.46
550.507	9067.12
550.871	9086.55
551.235	9092.88
551.599	9207.23
551.962	9241.35
552.326	9177.4
552.689	9208.59
553.053	9248.58
553.417	9230.96
553.78	9417.62
554.143	9376.04
554.507	9337.85
554.87	9408.35
555.234	9582.36
555.597	9458.3
555.96	9473.44
556.323	9515.47
556.686	9562.47
557.05	9594.79
557.413	9633.43
557.776	9635.02
558.139	9735.13
558.502	9748.91
558.865	9731.96
559.228	9798.63
559.59	9838.4
559.953	9796.14
560.316	9960.43
560.679	9901.22
561.041	9977.15
561.404	10056.92
561.767	10096.25
562.129	10132.18
562.492	10174.89
562.854	10101.67
563.217	10211.05
563.579	10145.06
563.941	10244.72
564.304	10235.68
564.666	10400.42
565.028	10277.94
565.39	10347.31
565.753	10455.56
566.115	10440.19
566.477	10450.59
566.839	10444.26
567.201	10518.38
567.563	10547.53
567.925	10642.9
568.287	10685.38
568.648	10674.54
569.01	10707.76
569.372	10849.22
569.734	10791.82
570.095	10818.71
570.457	10916.79
570.819	10960.18
571.18	10937.81
571.542	11049.22
571.903	11069.78
572.265	11114.52
572.626	11194.75
572.987	11282.2
573.349	11292.37
573.71	11373.73
574.071	11346.16
574.432	11509.99
574.794	11588.86
575.155	11668.86
575.516	11671.8
575.877	11769.87
576.238	11776.65
576.599	11885.8
576.96	12010.77
577.32	12093.03
577.681	12118.79
578.042	12300.48
578.403	12301.84
578.763	12477.65
579.124	12581.15
579.485	12718.32
579.845	12864.99
580.206	12951.54
580.566	12999.45
580.927	13158.99
581.287	13275.82
581.648	13341.58
582.008	13581.35
582.368	13750.39
582.728	13963.49
583.089	14077.84
583.449	14224.27
583.809	14473.53
584.169	14549.46
584.529	14705.39
584.889	15014.76
585.249	15105.15
585.609	15263.12
585.969	15666.95
586.329	15688.19
586.688	15976.09
587.048	16266.25
587.408	16332.92
587.768	16715.96
588.127	16890.19
588.487	17201.37
588.846	17516.62
589.206	17732.2
589.565	17863.5
589.925	18252.42
590.284	18447.44
590.643	18813.98
591.003	19068.67
591.362	19352.95
591.721	19579.84
592.08	19913.39
592.44	20092.37
592.799	20484.22
593.158	20631.11
593.517	20909.29
593.876	21300.7
594.235	21577.75
594.593	21865.88
594.952	22265.64
595.311	22411.4
595.67	22750.15
596.029	23196.92
596.387	23486.63
596.746	23722.55
597.104	23951.47
597.463	24243.9
597.822	24639.37
598.18	24817.21
598.538	25156.41
598.897	25534.71
599.255	25646.12
599.613	26346.21
599.972	26268.7
600.33	26683.15
600.688	26861.23
601.046	27253.99
601.404	27623.02
601.762	27775.33
602.12	28277.01
602.478	28437.01
602.836	28693.04
603.194	28916.99
603.552	29049.42
603.91	29381.61
604.268	29688.73
604.625	29831.32
604.983	30236.28
605.341	30264.76
605.698	30674.24
606.056	31042.14
606.413	31247.55
606.771	31491.16
607.128	31817.03
607.485	31920.3
607.843	32119.4
608.2	32586.95
608.557	32862.2
608.914	32764.35
609.272	33164.57
609.629	33320.49
609.986	33714.16
610.343	33643.42
610.7	34066.69
611.057	34264.42
611.414	34403.63
611.771	34616.73
612.127	34970.62
612.484	35055.36
612.841	35284.51
613.198	35316.83
613.554	35569.7
613.911	35887.88
614.267	36096.47
614.624	36132.17
614.98	36274.99
615.337	36662.33
615.693	36818.03
616.05	36746.84
616.406	37091.47
616.762	37222.99
617.118	37319.26
617.475	37484.68
617.831	37585.69
618.187	37872.24
618.543	37967.38
618.899	38237.88
619.255	38169.41
619.611	38305.45
619.967	38557.42
620.323	38719.45
620.678	38746.79
621.034	38665.66
621.39	38866.79
621.746	38781.82
622.101	39382.03
622.457	39201.47
622.812	39236.27
623.168	39370.73
623.523	39471.29
623.879	39705.18
624.234	39551.29
624.589	39699.76
624.945	39932.75
625.3	40019.3
625.655	40014.1
626.01	40001.45
626.365	40328.9
626.72	40235.79
627.075	40278.5
627.43	40398.05
627.785	40357.82
628.14	40525.5
628.495	40637.36
628.85	40545.16
629.205	40368.22
629.559	40696.12
629.914	40668.32
630.269	40662.22
630.623	40614.77
630.978	40784.93
631.332	40905.61
631.687	41131.36
632.041	40765.72
632.396	40930.24
632.75	40814.99
633.104	40937.92
633.459	40793.29
633.813	40916.45
634.167	40871.26
634.521	40910.35
634.875	41080.97
635.229	40923.68
635.583	40827.42
635.937	40814.53
636.291	40884.59
636.645	41036.9
636.999	40825.16
637.352	40975.66
637.706	40712.39
638.06	41037.81
638.413	40838.71
638.767	40818.83
639.121	40861.09
639.474	40635.78
639.828	40751.26
640.181	40908.54
640.534	40770.47
640.888	40795.33
641.241	40704.93
641.594	40741.77
641.947	40819.05
642.301	40708.55
642.654	40790.81
643.007	40748.32
643.36	40784.7
643.713	40637.36
644.066	40928.43
644.419	40530.7
644.771	40449.35
645.124	40115.34
645.477	39962.81
645.83	39740.21
646.182	39546.54
646.535	39531.4
646.888	39504.96
647.24	39394.68
647.593	39775.01
647.945	39580.89
648.298	39407.79
648.65	39385.87
649.002	39360.11
649.355	39421.58
649.707	39391.29
650.059	39609.82
650.411	40010.94
650.763	40003.26
651.115	40520.76
651.467	40440.76
651.819	40316.02
652.171	40294.55
652.523	40187.88
652.875	40313.53
653.227	40087.77
653.578	40319.86
653.93	40255.45
654.282	40023.14
654.633	40016.36
654.985	40061.33
655.337	40136.81
655.688	40144.04
656.039	40135.46
656.391	39916.25
656.742	39925.07
657.094	40122.12
657.445	40238.05
657.796	40161.44
658.147	40138.62
658.498	40043.26
658.849	40116.7
659.2	40041
659.551	39905.86
659.902	40089.58
660.253	40093.65
660.604	40096.81
660.955	39728.91
661.306	40147.21
661.656	39866.31
662.007	40037.38
662.358	40056.14
662.708	40020.88
663.059	39814.79
663.409	39765.52
663.76	40049.13
664.11	39909.02
664.461	39892.98
664.811	40009.13
665.161	39857.05
665.511	39975.01
665.862	39959.42
666.212	39944.73
666.562	39939.75
666.912	39871.51
667.262	39878.74
667.612	39908.57
667.962	40001.9
668.312	39871.28
668.662	40022.01
669.011	39922.81
669.361	39926.2
669.711	39824.73
670.06	39849.59
670.41	39753.55
670.76	39732.53
671.109	39826.76
671.459	39756.03
671.808	39557.62
672.157	39723.72
672.507	39401.24
672.856	39509.94
673.205	39662.93
673.554	39753.09
673.904	39515.81
674.253	39912.19
674.602	39565.75
674.951	39049.38
675.3	39012.77
675.649	39446.43
675.998	39587.9
676.346	39513.55
676.695	39547.9
677.044	39372.76
677.393	39514.23
677.741	39502.7
678.09	39350.84
678.438	39316.49
678.787	39309.94
679.135	39366.44
679.484	39082.38
679.832	39233.33
680.181	39017.75
680.529	39171.64
680.877	39016.62
681.225	39149.49
681.573	39333.67
681.922	38986.33
682.27	38911.76
682.618	38819.78
682.966	38836.06
683.314	38977.07
683.661	38729.17
684.009	38564.42
684.357	38501.37
684.705	38464.99
685.053	38456.18
685.4	38543.18
685.748	38250.08
686.095	38258.67
686.443	38195.39
686.79	38137.09
687.138	38239.46
687.485	38129.86
687.832	37988.85
688.18	38048.51
688.527	37792.69
688.874	37745.69
689.221	37742.52
689.568	37581.4
689.915	37577.78
690.262	37652.36
690.609	37524.23
690.956	37385.92
691.303	37438.8
691.65	37166.49
691.997	37178.92
692.344	37065.03
692.69	36892.38
693.037	37045.59
693.383	36613.97
693.73	36760.63
694.077	36594.53
694.423	36694.19
694.769	36593.18
695.116	36459.17
695.462	36288.33
695.808	36212.62
696.155	36294.65
696.501	36058.28
696.847	35966.98
697.193	35967.66
697.539	35938.73
697.885	35668.45
698.231	35467.78
698.577	35649.02
698.923	35399.54
699.269	35432.98
699.614	35291.29
699.96	35096.04
700.306	35050.62
700.651	35007.46
700.997	34934.69
701.342	34836.84
701.688	34816.27
702.033	34600.91
702.379	34661.48
702.724	34496.96
703.069	34648.59
703.415	34221.04
703.76	34415.83
704.105	34320.92
704.45	34114.15
704.795	33993.92
705.14	33883.64
705.485	33926.13
705.83	33781.27
706.175	33845.45
706.52	33642.07
706.865	33607.72
707.209	33574.5
707.554	33461.96
707.899	33478
708.243	33291.34
708.588	33247.5
708.932	32995.3
709.277	33091.12
709.621	33044.79
709.966	32806.84
710.31	32991.92
710.654	32673.73
710.998	32713.5
711.342	32751.02
711.687	32718.25
712.031	32495.66
712.375	32237.13
712.719	32413.4
713.063	32304.7
713.407	32365.94
713.75	32278.26
714.094	32196.46
714.438	32062
714.782	31974.99
715.125	31885.5
715.469	31980.64
715.812	31823.13
716.156	31646.41
716.499	31726.19
716.843	31713.98
717.186	31518.96
717.53	31658.84
717.873	31769.35
718.216	31538.62
718.559	31417.72
718.902	31201.91
719.246	31371.17
719.589	31211.85
719.932	31184.28
720.275	31228.35
720.617	31103.6
720.96	30937.05
721.303	30935.25
721.646	31031.29
721.989	30799.43
722.331	30892.76
722.674	30871.97
723.016	30854.34
723.359	30727.34
723.701	30740.9
724.044	30551.53
724.386	30342.49
724.729	30427.69
725.071	30493.68
725.413	30384.53
725.755	30387.69
726.097	30283.29
726.439	30119.67
726.782	30247.13
727.124	30232.67
727.465	30108.6
727.807	30053.91
728.149	29874.71
728.491	30021.82
728.833	29935.72
729.175	29894.37
729.516	29914.48
729.858	29745.67
730.199	29765.33
730.541	29714.26
730.882	29797.2
731.224	29839.23
731.565	29645.79
731.906	29579.58
732.248	29530.09
732.589	29410.77
732.93	29489.86
733.271	29345.46
733.612	29339.58
733.953	29371.9
734.294	29245.8
734.635	29207.38
734.976	29223.43
735.317	29152.02
735.658	29158.57
735.999	29152.24
736.339	28921.06
736.68	29241.96
737.021	29027.27
737.361	28755.64
737.702	28915.19
738.042	28850.78
738.383	28861.18
738.723	28872.7
739.063	28667.06
739.404	28845.58
739.744	28782.08
740.084	28590
740.424	28699.6
740.764	28560.39
741.104	28656.21
741.444	28480.17
741.784	28552.26
742.124	28617.79
742.464	28402.21
742.804	28369.21
743.143	28221.19
743.483	28357.01
743.823	28091.03
744.162	28109.33
744.502	28180.29
744.841	27976.68
745.181	28032.27
745.52	28117.92
745.86	28063.68
746.199	27919.73
746.538	27861.2
746.877	27972.39
747.216	27908.21
747.556	27846.74
747.895	27845.16
748.234	27754.54
748.573	27730.13
748.911	27660.98
749.25	27538.27
749.589	27506.18
749.928	27516.35
750.267	27545.05
750.605	27513.64
750.944	27357.03
751.283	27309.35
751.621	27443.59
751.96	27367.88
752.298	27285.17
752.636	27251.95
752.975	27141.45
753.313	27066.2
753.651	27077.27
753.989	26944.84
754.327	26994.56
754.666	26743.04
755.004	26799.76
755.342	26847.44
755.679	26768.12
756.017	26691.74
756.355	26698.75
756.693	26566.32
757.031	26569.94
757.368	26407.91
757.706	26421.92
758.044	26326.33
758.381	26310.96
758.719	26289.72
759.056	26228.93
759.394	26153.9
