Data from hue_260_FLMS001491_00097.txt Node
Date: Tue Feb 07 15:59:54 GMT 2017
User: dcchb
Spectrometer: FLMS00149
Trigger mode: 0
Integration Time (sec): 2.000000E-2
Scans to average: 10
Electric dark correction enabled: true
Nonlinearity correction enabled: false
Boxcar width: 0
XAxis mode: Wavelengths
Number of Pixels in Spectrum: 2048
>>>>>Begin Spectral Data<<<<<
341.393	-19.28
341.776	-19.28
342.16	-19.28
342.543	-74.42
342.927	-70.8
343.31	-57.47
343.693	-59.73
344.077	-74.64
344.46	-63.8
344.843	-65.15
345.226	-42.1
345.61	-15.66
345.993	-35.78
346.376	-12.05
346.759	14.84
347.142	25.24
347.525	26.14
347.908	51
348.291	85.8
348.674	91.23
349.057	132.13
349.44	119.25
349.823	166.48
350.206	158.8
350.588	178.68
350.971	203.54
351.354	208.74
351.737	213.71
352.119	233.14
352.502	246.25
352.884	243.31
353.267	269.98
353.65	272.24
354.032	300.49
354.414	288.06
354.797	281.05
355.179	314.5
355.562	293.03
355.944	330.77
356.326	316.98
356.709	313.82
357.091	313.82
357.473	346.59
357.855	327.83
358.238	332.12
358.62	334.16
359.002	313.59
359.384	315.18
359.766	332.58
360.148	331.67
360.53	316.76
360.912	341.39
361.294	313.59
361.676	331.67
362.057	351.56
362.439	295.97
362.821	311.56
363.203	314.95
363.584	341.84
363.966	323.31
364.348	324.21
364.729	302.75
365.111	313.82
365.493	296.42
365.874	314.95
366.256	314.27
366.637	295.06
367.019	318.57
367.4	300.94
367.781	305.91
368.163	304.1
368.544	306.59
368.925	324.89
369.306	318.11
369.688	310.66
370.069	321.95
370.45	291.45
370.831	324.67
371.212	300.94
371.593	292.13
371.974	304.55
372.355	303.42
372.736	314.95
373.117	305.01
373.498	316.08
373.879	305.01
374.26	337.32
374.641	320.6
375.021	319.69
375.402	293.48
375.783	316.76
376.163	299.36
376.544	323.76
376.925	313.59
377.305	312.01
377.686	319.69
378.066	306.59
378.447	316.31
378.827	322.86
379.208	325.57
379.588	296.87
379.968	328.96
380.349	334.38
380.729	333.93
381.109	318.57
381.489	327.38
381.87	314.72
382.25	337.32
382.63	306.81
383.01	322.86
383.39	352.01
383.77	326.93
384.15	347.94
384.53	325.12
384.91	314.72
385.29	321.95
385.67	350.88
386.049	349.52
386.429	355.17
386.809	329.41
387.189	348.62
387.568	354.95
387.948	352.69
388.328	348.85
388.707	356.98
389.087	357.66
389.466	348.17
389.846	347.04
390.225	364.21
390.605	349.75
390.984	349.3
391.363	374.83
391.743	370.99
392.122	380.48
392.501	353.82
392.881	361.95
393.26	385.68
393.639	384.55
394.018	366.7
394.397	395.63
394.776	372.8
395.155	377.77
395.534	382.97
395.913	403.53
396.292	370.09
396.671	383.65
397.05	396.76
397.429	376.19
397.808	379.58
398.186	392.91
398.565	392.69
398.944	354.72
399.323	405.57
399.701	402.63
400.08	415.96
400.458	414.61
400.837	410.31
401.215	402.86
401.594	416.64
401.972	429.07
402.351	426.13
402.729	419.58
403.107	415.51
403.486	426.58
403.864	436.3
404.242	437.21
404.62	435.4
404.999	418.9
405.377	474.27
405.755	463.65
406.133	461.61
406.511	480.82
406.889	460.93
407.267	461.61
407.645	461.61
408.023	466.13
408.401	469.07
408.779	488.28
409.156	479.24
409.534	498.67
409.912	511.55
410.29	505.68
410.667	516.53
411.045	516.53
411.422	523.53
411.8	514.04
412.178	552.46
412.555	546.13
412.933	561.27
413.31	559.46
413.687	548.39
414.065	570.76
414.442	579.8
414.819	575.73
415.197	583.19
415.574	599.01
415.951	609.18
416.328	609.18
416.705	620.03
417.082	603.08
417.46	642.85
417.837	657.54
418.214	652.57
418.591	645.34
418.967	629.97
419.344	683.08
419.721	673.36
420.098	690.53
420.475	692.34
420.852	712
421.228	706.35
421.605	741.15
421.982	722.4
422.358	741.83
422.735	768.5
423.111	745.67
423.488	766.91
423.864	763.3
424.241	795.61
424.617	817.08
424.994	785.45
425.37	825.67
425.746	864.54
426.123	862.96
426.499	850.08
426.875	853.24
427.251	862.51
427.627	886.23
428.003	891.88
428.379	884.65
428.756	914.26
429.132	928.27
429.507	946.12
429.883	943.86
430.259	948.38
430.635	970.75
431.011	984.31
431.387	978.89
431.763	996.51
432.138	1019.11
432.514	1002.84
432.89	1036.06
433.265	1079
433.641	1073.8
434.016	1092.1
434.392	1104.08
434.767	1125.55
435.143	1140.01
435.518	1136.85
435.894	1144.98
436.269	1181.37
436.644	1216.39
437.02	1221.37
437.395	1242.83
437.77	1257.98
438.145	1283.51
438.52	1304.75
438.895	1319.67
439.271	1328.26
439.646	1335.94
440.021	1373.68
440.395	1359.22
440.77	1379.1
441.145	1387.92
441.52	1419.1
441.895	1403.06
442.27	1423.85
442.645	1448.48
443.019	1470.17
443.394	1472.21
443.769	1464.3
444.143	1489.38
444.518	1511.3
444.892	1476.27
445.267	1532.77
445.641	1553.11
446.016	1568.48
446.39	1538.87
446.764	1595.14
447.139	1554.69
447.513	1590.62
447.887	1598.76
448.262	1619.77
448.636	1633.33
449.01	1657.29
449.384	1663.61
449.758	1635.14
450.132	1659.32
450.506	1704.29
450.88	1732.99
451.254	1710.62
451.628	1730.73
452.002	1761.46
452.376	1758.08
452.75	1792.42
453.123	1752.2
453.497	1808.92
453.871	1820.9
454.244	1851.41
454.618	1884.63
454.992	1872.2
455.365	1891.86
455.739	1941.57
456.112	1961.69
456.486	1957.62
456.859	1981.35
457.232	2017.96
457.606	2003.27
457.979	2017.73
458.352	2063.6
458.725	2061.12
459.099	2103.38
459.472	2133.21
459.845	2149.48
460.218	2178.63
460.591	2199.42
460.964	2179.31
461.337	2218.18
461.71	2257.5
462.083	2311.96
462.456	2274.67
462.829	2310.38
463.201	2357.38
463.574	2351.96
463.947	2380.21
464.32	2471.5
464.692	2441.45
465.065	2488.23
465.438	2525.06
465.81	2515.34
466.183	2555.79
466.555	2642.8
466.928	2599.41
467.3	2605.06
467.672	2624.27
468.045	2689.12
468.417	2751.5
468.789	2747.43
469.161	2762.12
469.534	2815.22
469.906	2860.87
470.278	2914.66
470.65	2913.07
471.022	2970.47
471.394	2984.71
471.766	3016.57
472.138	2999.62
472.51	3111.71
472.882	3109.23
473.253	3171.6
473.625	3193.52
473.997	3278.49
474.369	3247.3
474.74	3332.27
475.112	3401.65
475.484	3426.51
475.855	3430.57
476.227	3460.63
476.598	3534.53
476.97	3602.55
477.341	3682.54
477.713	3685.93
478.084	3737.91
478.455	3807.29
478.827	3841.18
479.198	3928.87
479.569	3910.56
479.94	4046.6
480.311	4041.41
480.682	4088.18
481.053	4158.24
481.424	4220.38
481.795	4253.6
482.166	4330.66
482.537	4391.68
482.908	4475.97
483.279	4497.44
483.65	4569.75
484.021	4691.33
484.391	4684.55
484.762	4739.01
485.133	4722.52
485.503	4815.85
485.874	4878.22
486.244	4921.38
486.615	5011.55
486.985	5047.48
487.356	5168.61
487.726	5155.05
488.097	5301.48
488.467	5266.01
488.837	5332.9
489.207	5394.36
489.578	5471.65
489.948	5548.48
490.318	5560.91
490.688	5618.54
491.058	5689.95
491.428	5729.72
491.798	5765.88
492.168	5881.36
492.538	5903.73
492.908	5945.99
493.278	5976.95
493.648	6014.23
494.017	6025.31
494.387	6096.27
494.757	6154.57
495.126	6200.44
495.496	6210.16
495.866	6226.66
496.235	6323.6
496.605	6317.5
496.974	6374.9
497.344	6401.57
497.713	6432.98
498.082	6522.02
498.452	6549.36
498.821	6583.03
499.19	6555.46
499.559	6645.63
499.928	6649.47
500.298	6646.08
500.667	6716.81
501.036	6708.45
501.405	6747.77
501.774	6791.16
502.143	6835
502.512	6814.89
502.88	6850.82
503.249	6870.71
503.618	6859.18
503.987	6940.31
504.356	6976.02
504.724	7013.08
505.093	7030.93
505.462	7043.36
505.83	7051.95
506.199	7119.29
506.567	7182.79
506.936	7223.02
507.304	7234.77
507.672	7246.97
508.041	7248.78
508.409	7231.38
508.777	7327.65
509.145	7299.17
509.514	7327.42
509.882	7301.88
510.25	7341.88
510.618	7455.55
510.986	7356.8
511.354	7477.47
511.722	7473.41
512.09	7519.51
512.458	7434.54
512.826	7492.61
513.193	7562.22
513.561	7631.14
513.929	7617.13
514.297	7671.59
514.664	7650.8
515.032	7666.62
515.4	7713.17
515.767	7743.23
516.135	7776.22
516.502	7630.92
516.869	7790.46
517.237	7780.06
517.604	7704.59
517.972	7804.7
518.339	7874.07
518.706	7830.23
519.073	7843.79
519.44	7834.53
519.808	7920.63
520.175	7848.99
520.542	7943
520.909	7938.7
521.276	7945.03
521.643	7945.71
522.009	7972.6
522.376	8000.4
522.743	8047.18
523.11	8075.65
523.477	8122.88
523.843	8137.12
524.21	8183.22
524.577	8169.88
524.943	8258.24
525.31	8195.87
525.676	8320.39
526.043	8325.59
526.409	8331.69
526.776	8318.58
527.142	8326.04
527.508	8326.04
527.874	8342.08
528.241	8372.59
528.607	8377.79
528.973	8385.02
529.339	8383.89
529.705	8389.99
530.071	8461.85
530.437	8434.51
530.803	8472.47
531.169	8516.99
531.535	8495.3
531.901	8469.09
532.267	8480.38
532.632	8457.79
532.998	8417.11
533.364	8497.11
533.73	8468.63
534.095	8504.79
534.461	8476.99
534.826	8494.85
535.192	8444.68
535.557	8513.15
535.923	8516.54
536.288	8528.29
536.653	8525.35
537.019	8393.16
537.384	8494.4
537.749	8475.86
538.114	8459.59
538.479	8471.8
538.845	8463.89
539.21	8439.26
539.575	8491.46
539.94	8402.87
540.305	8455.53
540.67	8469.09
541.034	8464.11
541.399	8481.29
541.764	8419.37
542.129	8407.17
542.494	8437.67
542.858	8424.79
543.223	8342.08
543.587	8444.68
543.952	8375.53
544.316	8397.22
544.681	8411.69
545.045	8415.3
545.41	8371.91
545.774	8372.59
546.138	8358.81
546.503	8329.43
546.867	8397.9
547.231	8356.09
547.595	8343.66
547.959	8384.12
548.324	8376.43
548.688	8327.39
549.052	8361.29
549.416	8293.72
549.779	8330.78
550.143	8309.99
550.507	8345.02
550.871	8303.21
551.235	8293.72
551.599	8336.89
551.962	8281.97
552.326	8285.14
552.689	8296.89
553.053	8209.21
553.417	8267.96
553.78	8282.65
554.143	8235.42
554.507	8300.95
554.87	8302.76
555.234	8342.08
555.597	8262.76
555.96	8315.19
556.323	8317.22
556.686	8348.86
557.05	8379.82
557.413	8376.88
557.776	8259.15
558.139	8374.85
558.502	8266.38
558.865	8310.45
559.228	8396.77
559.59	8437
559.953	8351.57
560.316	8400.84
560.679	8359.94
561.041	8379.14
561.404	8444.23
561.767	8447.62
562.129	8379.14
562.492	8423.44
562.854	8476.54
563.217	8435.19
563.579	8478.35
563.941	8516.32
564.304	8537.33
564.666	8624.34
565.028	8508.41
565.39	8538.69
565.753	8574.17
566.115	8599.7
566.477	8561.96
566.839	8638.35
567.201	8702.07
567.563	8714.73
567.925	8718.57
568.287	8693.71
568.648	8773.94
569.01	8785.46
569.372	8779.13
569.734	8723.54
570.095	8844.22
570.457	8867.72
570.819	8856.87
571.18	8878.57
571.542	8921.28
571.903	8892.58
572.265	8886.25
572.626	8955.4
572.987	8907.72
573.349	8904.33
573.71	9019.58
574.071	9044.44
574.432	9070.88
574.794	9115.85
575.155	9076.3
575.516	9083.31
575.877	9099.8
576.238	9121.05
576.599	9169.18
576.96	9196.3
577.32	9189.07
577.681	9255.28
578.042	9302.51
578.403	9213.02
578.763	9293.92
579.124	9280.36
579.485	9353.81
579.845	9331.44
580.206	9371.21
580.566	9317.65
580.927	9391.77
581.287	9429.06
581.648	9389.29
582.008	9453.69
582.368	9443.75
582.728	9458.89
583.089	9476.74
583.449	9480.81
583.809	9554.93
584.169	9562.84
584.529	9518.1
584.889	9537.76
585.249	9480.36
585.609	9579.34
585.969	9619.34
586.329	9683.97
586.688	9622.73
587.048	9705.66
587.408	9660.24
587.768	9603.07
588.127	9556.06
588.487	9611.2
588.846	9722.61
589.206	9713.35
589.565	9727.58
589.925	9794.7
590.284	9748.37
590.643	9763.97
591.003	9844.87
591.362	9830.41
591.721	9858.65
592.08	9757.86
592.44	9822.5
592.799	9856.17
593.158	9791.31
593.517	9878.09
593.876	9817.07
594.235	9834.7
594.593	9910.4
594.952	9923.96
595.311	9852.33
595.67	9877.18
596.029	9937.52
596.387	9979.33
596.746	10084.18
597.104	9992.21
597.463	9929.16
597.822	10025.43
598.18	10032.21
598.538	10011.87
598.897	10045.54
599.255	9936.39
599.613	10136.16
599.972	10095.03
600.33	10088.7
600.688	9981.14
601.046	10087.57
601.404	10122.83
601.762	10107.23
602.12	10184.75
602.478	10109.49
602.836	10115.82
603.194	10031.08
603.552	10102.26
603.91	10041.02
604.268	10115.6
604.625	10088.48
604.983	10121.92
605.341	10107.91
605.698	10127.8
606.056	10141.58
606.413	10147.69
606.771	10085.09
607.128	10122.38
607.485	10158.08
607.843	10180
608.2	10205.99
608.557	10297.74
608.914	10293.9
609.272	10233.78
609.629	10269.26
609.986	10227.23
610.343	10274.01
610.7	10300.9
611.057	10315.36
611.414	10335.7
611.771	10316.95
612.127	10345.19
612.484	10325.08
612.841	10371.86
613.198	10378.64
613.554	10338.41
613.911	10349.49
614.267	10352.43
614.624	10450.73
614.98	10324.18
615.337	10480.33
615.693	10441.91
616.05	10406.66
616.406	10460.9
616.762	10515.59
617.118	10441.69
617.475	10392.2
617.831	10527.11
618.187	10466.77
618.543	10507
618.899	10582.02
619.255	10508.58
619.611	10469.71
619.967	10647.11
620.323	10529.37
620.678	10531.18
621.034	10474.46
621.39	10433.55
621.746	10456.15
622.101	10590.61
622.457	10540.22
622.812	10578.86
623.168	10571.63
623.523	10521.23
623.879	10561.46
624.234	10522.36
624.589	10545.87
624.945	10463.84
625.3	10573.89
625.655	10519.88
626.01	10531.18
626.365	10507.9
626.72	10502.7
627.075	10526.21
627.43	10484.17
627.785	10483.04
628.14	10517.84
628.495	10522.82
628.85	10525.08
629.205	10460.45
629.559	10568.47
629.914	10474.91
630.269	10492.08
630.623	10443.04
630.978	10419.32
631.332	10439.65
631.687	10478.75
632.041	10455.02
632.396	10443.04
632.75	10455.93
633.104	10412.08
633.459	10434.91
633.813	10334.8
634.167	10342.93
634.521	10301.81
634.875	10400.33
635.229	10324.18
635.583	10256.83
635.937	10287.57
636.291	10231.98
636.645	10249.83
636.999	10212.77
637.352	10201.47
637.706	10159.44
638.06	10236.27
638.413	10164.18
638.767	10211.41
639.121	10168.48
639.474	10068.59
639.828	10125.54
640.181	10154.69
640.534	10085.09
640.888	10086.22
641.241	10028.37
641.594	10110.62
641.947	10155.82
642.301	10056.16
642.654	10101.13
643.007	10048.93
643.36	10050.29
643.713	10051.64
644.066	10027.91
644.419	10019.1
644.771	9957.63
645.124	9851.87
645.477	9867.47
645.83	9856.62
646.182	9667.02
646.535	9728.26
646.888	9757.19
647.24	9659.79
647.593	9771.65
647.945	9736.17
648.298	9655.72
648.65	9646.91
649.002	9661.14
649.355	9693.23
649.707	9652.33
650.059	9757.41
650.411	9843.96
650.763	9858.2
651.115	9983.17
651.467	9860.46
651.819	9924.19
652.171	9891.87
652.523	9866.11
652.875	9845.55
653.227	9840.57
653.578	9894.36
653.93	9838.09
654.282	9762.16
654.633	9785.66
654.985	9834.93
655.337	9883.29
655.688	9845.55
656.039	9908.6
656.391	9746.34
656.742	9860.24
657.094	9885.55
657.445	9869.73
657.796	9876.05
658.147	9881.25
658.498	9855.49
658.849	9896.17
659.2	9813.91
659.551	9816.39
659.902	9891.42
660.253	9909.27
660.604	9962.38
660.955	9859.56
661.306	9991.53
661.656	9873.57
662.007	9887.58
662.358	9855.04
662.708	9899.56
663.059	9898.65
663.409	9844.19
663.76	9999.44
664.11	9918.99
664.461	9927.35
664.811	9901.82
665.161	9905.88
665.511	9821.82
665.862	9901.59
666.212	9832.89
666.562	9892.1
666.912	9895.94
667.262	9909.73
667.612	9893.91
667.962	9904.53
668.312	9851.2
668.662	9968.48
669.011	9828.6
669.361	9876.73
669.711	9915.83
670.06	9790.63
670.41	9862.27
670.76	9885.32
671.109	9848.48
671.459	9897.75
671.808	9870.63
672.157	9837.64
672.507	9842.16
672.856	9827.24
673.205	9823.4
673.554	9857.3
673.904	9803.06
674.253	9825.66
674.602	9848.26
674.951	9652.78
675.3	9630.64
675.649	9747.7
675.998	9760.58
676.346	9723.74
676.695	9724.65
677.044	9706.79
677.393	9762.38
677.741	9701.14
678.09	9724.65
678.438	9667.47
678.787	9650.98
679.135	9690.52
679.484	9599.23
679.832	9663.18
680.181	9608.94
680.529	9653.23
680.877	9615.04
681.225	9505.22
681.573	9726.68
681.922	9489.62
682.27	9551.09
682.618	9493.47
682.966	9475.84
683.314	9554.48
683.661	9529.17
684.009	9406.46
684.357	9415.95
684.705	9408.27
685.053	9390.42
685.4	9371.66
685.748	9346.58
686.095	9311.55
686.443	9279.46
686.79	9278.33
687.138	9300.7
687.485	9278.1
687.832	9243.98
688.18	9253.02
688.527	9221.38
688.874	9122.85
689.221	9188.84
689.568	9151.78
689.915	9073.59
690.262	9119.92
690.609	9062.29
690.956	9003.53
691.303	8986.13
691.65	8938.45
691.997	8936.19
692.344	8850.77
692.69	8888.74
693.037	8818
693.383	8798.34
693.73	8776.2
694.077	8739.81
694.423	8683.32
694.769	8671.11
695.116	8663.88
695.462	8578.46
695.808	8629.76
696.155	8672.7
696.501	8491.23
696.847	8599.25
697.193	8508.86
697.539	8498.91
697.885	8493.72
698.231	8384.12
698.577	8406.71
698.923	8352.93
699.269	8328.07
699.614	8319.48
699.96	8217.57
700.306	8267.96
700.651	8261.86
700.997	8162.65
701.342	8142.31
701.688	8135.99
702.033	8133.05
702.379	8183.67
702.724	8079.04
703.069	8120.62
703.415	8015.09
703.76	8024.13
704.105	7933.05
704.45	7941.42
704.795	7908.87
705.14	7908.65
705.485	7860.51
705.83	7837.69
706.175	7731.03
706.52	7832.04
706.865	7754.08
707.209	7767.63
707.554	7796.79
707.899	7748.65
708.243	7660.74
708.588	7692.83
708.932	7629.79
709.277	7688.77
709.621	7568.09
709.966	7573.97
710.31	7551.14
710.654	7510.69
710.998	7512.73
711.342	7572.61
711.687	7507.3
712.031	7474.31
712.375	7397.47
712.719	7458.49
713.063	7450.35
713.407	7403.12
713.75	7394.76
714.094	7383.92
714.438	7355.44
714.782	7353.18
715.125	7309.79
715.469	7312.51
715.812	7354.76
716.156	7322
716.499	7232.51
716.843	7292.62
717.186	7239.29
717.53	7208.33
717.873	7255.78
718.216	7195.9
718.559	7240.87
718.902	7228.21
719.246	7149.12
719.589	7141.21
719.932	7142.79
720.275	7100.99
720.617	7135.33
720.96	7091.72
721.303	7091.49
721.646	7114.09
721.989	7086.3
722.331	7136.69
722.674	7085.17
723.016	7098.73
723.359	7098.5
723.701	7109.12
724.044	7024.6
724.386	6988.22
724.729	7083.36
725.071	6987.32
725.413	7023.93
725.755	6974.89
726.097	6938.73
726.439	6977.6
726.782	6973.76
727.124	6999.07
727.465	6964.49
727.807	6936.24
728.149	6951.84
728.491	6935.11
728.833	6956.36
729.175	6922.91
729.516	6946.87
729.858	6876.81
730.199	6888.11
730.541	6888.79
730.882	6909.13
731.224	6967.66
731.565	6900.31
731.906	6908.45
732.248	6917.49
732.589	6827.77
732.93	6782.8
733.271	6869.58
733.612	6889.69
733.953	6922.69
734.294	6908.22
734.635	6837.72
734.976	6878.17
735.317	6882.23
735.658	6896.47
735.999	6884.95
736.339	6864.38
736.68	6922.46
737.021	6835.68
737.361	6858.73
737.702	6906.19
738.042	6860.77
738.383	6902.35
738.723	6949.13
739.063	6922.23
739.404	7023.93
739.744	6925.62
740.084	6942.57
740.424	6950.48
740.764	6944.61
741.104	6972.63
741.444	6915
741.784	6937.6
742.124	6937.37
742.464	6984.15
742.804	7019.86
743.143	7011.95
743.483	6981.21
743.823	7007.2
744.162	7054.21
744.502	7095.11
744.841	7053.3
745.181	7052.17
745.52	7114.77
745.86	7159.06
746.199	7180.98
746.538	7269.12
746.877	7246.97
747.216	7331.94
747.556	7248.33
747.895	7328.55
748.234	7334.2
748.573	7400.41
748.911	7422.11
749.25	7492.16
749.589	7501.88
749.928	7621.2
750.267	7619.84
750.605	7671.82
750.944	7708.2
751.283	7778.48
751.621	7911.13
751.96	7885.6
752.298	7915.88
752.636	8092.37
752.975	8118.59
753.313	8161.75
753.651	8255.76
753.989	8302.08
754.327	8452.59
754.666	8438.35
755.004	8574.85
755.342	8697.1
755.679	8808.51
756.017	8851.67
756.355	9020.94
756.693	9038.34
757.031	9214.6
757.368	9245.79
757.706	9427.03
758.044	9476.52
758.381	9690.52
758.719	9745.89
759.056	9896.62
759.394	9987.46
759.731	10091.64
760.068	10230.39
760.405	10297.51
760.743	10370.96
761.08	10580.44
761.417	10720.33
761.754	10812.3
762.091	10898.85
762.428	10998.06
762.765	11183.14
763.102	11360.31
763.438	11476.24
763.775	11526.41
764.112	11688.21
764.449	11795.1
764.785	11961.65
765.122	11989.44
765.458	12133.85
765.795	12245.26
766.131	12368.42
766.467	12546.04
