Data from hue_50_FLMS001491_93.txt Node
Date: Mon Feb 06 15:11:21 GMT 2017
User: dcchb
Spectrometer: FLMS00149
Trigger mode: 0
Integration Time (sec): 2.000000E-2
Scans to average: 10
Electric dark correction enabled: true
Nonlinearity correction enabled: false
Boxcar width: 0
XAxis mode: Wavelengths
Number of Pixels in Spectrum: 2048
>>>>>Begin Spectral Data<<<<<
341.393	-4.76
341.776	-4.76
342.16	-4.76
342.543	-59.67
342.927	-74.81
343.31	-60.58
343.693	-78.43
344.077	-68.71
344.46	-65.1
344.843	-48.37
345.226	-35.27
345.61	-21.03
345.993	-38.66
346.376	-3.86
346.759	20.55
347.142	17.39
347.525	51.51
347.908	58.52
348.291	76.59
348.674	87.44
349.057	108.01
349.44	122.47
349.823	124.28
350.206	169.25
350.588	203.82
350.971	202.24
351.354	255.57
351.737	231.84
352.119	265.52
352.502	262.35
352.884	273.88
353.267	289.47
353.65	299.19
354.032	294.89
354.414	312.07
354.797	342.35
355.179	295.12
355.562	334.44
355.944	337.38
356.326	344.84
356.709	345.74
357.091	356.36
357.473	343.25
357.855	338.73
358.238	353.65
358.62	369.02
359.002	367.43
359.384	354.1
359.766	342.58
360.148	345.29
360.53	368.79
360.912	358.39
361.294	322.24
361.676	355.23
362.057	330.6
362.439	329.24
362.821	316.81
363.203	327.89
363.584	292.63
363.966	340.09
364.348	342.12
364.729	330.37
365.111	333.08
365.493	324.05
365.874	328.34
366.256	318.4
366.637	305.97
367.019	331.73
367.4	302.12
367.781	336.7
368.163	312.97
368.544	312.29
368.925	316.59
369.306	335.8
369.688	311.39
370.069	314.55
370.45	326.08
370.831	301.67
371.212	345.74
371.593	319.07
371.974	303.71
372.355	313.42
372.736	313.42
373.117	337.38
373.498	316.59
373.879	324.95
374.26	324.72
374.641	326.98
375.021	318.17
375.402	328.34
375.783	348
376.163	324.5
376.544	348.68
376.925	331.95
377.305	341.9
377.686	312.97
378.066	324.95
378.447	329.24
378.827	352.29
379.208	339.64
379.588	345.29
379.968	340.54
380.349	353.2
380.729	335.12
381.109	326.53
381.489	341.45
381.87	332.18
382.25	342.35
382.63	342.12
383.01	351.62
383.39	367.43
383.77	351.16
384.15	351.84
384.53	325.85
384.91	341.67
385.29	335.57
385.67	346.42
386.049	364.72
386.429	359.98
386.809	366.53
387.189	365.63
387.568	367.21
387.948	369.02
388.328	389.13
388.707	365.17
389.087	363.14
389.466	355.68
389.846	354.33
390.225	354.55
390.605	381.9
390.984	373.54
391.363	379.64
391.743	359.98
392.122	394.55
392.501	397.04
392.881	382.8
393.26	369.24
393.639	375.57
394.018	358.17
394.397	385.96
394.776	400.88
395.155	388
395.534	412.18
395.913	384.61
396.292	403.37
396.671	403.59
397.05	400.2
397.429	394.1
397.808	406.3
398.186	393.2
398.565	395
398.944	414.44
399.323	406.98
399.701	423.25
400.08	403.82
400.458	417.38
400.837	420.54
401.215	431.39
401.594	404.95
401.972	424.16
402.351	398.39
402.729	416.25
403.107	409.92
403.486	418.05
403.864	441.56
404.242	433.42
404.62	444.27
404.999	440.2
405.377	433.65
405.755	457.6
406.133	448.79
406.511	450.37
406.889	444.72
407.267	462.8
407.645	455.34
408.023	469.35
408.401	458.96
408.779	458.73
409.156	449.69
409.534	458.28
409.912	461.22
410.29	479.97
410.667	486.3
411.045	478.17
411.422	457.15
411.8	475.23
412.178	465.51
412.555	495.79
412.933	522.01
413.31	504.38
413.687	492.4
414.065	526.75
414.442	515.68
414.819	500.31
415.197	531.72
415.574	530.14
415.951	538.73
416.328	545.28
416.705	538.5
417.082	530.82
417.46	533.08
417.837	531.27
418.214	547.99
418.591	561.78
418.967	553.19
419.344	576.02
419.721	565.17
420.098	543.02
420.475	543.25
420.852	550.71
421.228	552.51
421.605	576.24
421.982	553.42
422.358	570.59
422.735	602.91
423.111	578.73
423.488	612.4
423.864	571.27
424.241	584.83
424.617	602
424.994	600.87
425.37	623.47
425.746	615.56
426.123	594.77
426.499	618.27
426.875	628.44
427.251	669.57
427.627	655.79
428.003	640.2
428.379	635.68
428.756	648.33
429.132	651.72
429.507	661.66
429.883	668.44
430.259	671.61
430.635	680.19
431.011	665.73
431.387	682.45
431.763	687.2
432.138	695.56
432.514	720.19
432.89	710.48
433.265	706.18
433.641	733.3
434.016	737.59
434.392	716.58
434.767	728.78
435.143	741.89
435.518	766.75
435.894	775.56
436.269	754.77
436.644	780.98
437.02	793.86
437.395	787.99
437.77	813.3
438.145	784.37
438.52	806.74
438.895	813.07
439.271	819.4
439.646	820.76
440.021	812.85
440.395	828.44
440.77	832.73
441.145	830.47
441.52	851.26
441.895	842.9
442.27	858.27
442.645	861.88
443.019	847.42
443.394	865.27
443.769	913.41
444.143	874.31
444.518	888.32
444.892	900.08
445.267	878.38
445.641	903.24
446.016	895.56
446.39	913.41
446.764	909.57
447.139	926.74
447.513	961.99
447.887	918.83
448.262	909.11
448.636	939.17
449.01	940.3
449.384	989.79
449.758	971.49
450.132	967.42
450.506	982.33
450.88	994.99
451.254	1002.45
451.628	995.89
452.002	1022.78
452.376	1041.09
452.75	1029.11
453.123	1029.79
453.497	1046.74
453.871	1028.21
454.244	1061.2
454.618	1083.12
454.992	1090.13
455.365	1084.25
455.739	1103.91
456.112	1126.51
456.486	1143.46
456.859	1136.45
457.232	1168.09
457.606	1136.91
457.979	1170.8
458.352	1193.63
458.725	1216.45
459.099	1212.16
459.472	1231.82
459.845	1258.71
460.218	1271.14
460.591	1250.8
460.964	1254.42
461.337	1278.37
461.71	1328.99
462.083	1346.84
462.456	1332.61
462.829	1342.1
463.201	1350.01
463.574	1374.86
463.947	1425.03
464.32	1415.77
464.692	1424.58
465.065	1461.19
465.438	1492.38
465.81	1508.87
466.183	1515.43
466.555	1555.88
466.928	1552.49
467.3	1559.04
467.672	1592.94
468.045	1620.51
468.417	1637.23
468.789	1653.28
469.161	1661.19
469.534	1719.26
469.906	1720.62
470.278	1766.49
470.65	1799.26
471.022	1851.24
471.394	1855.76
471.766	1899.37
472.138	1913.83
472.51	1966.71
472.882	2019.82
473.253	2036.99
473.625	2061.63
473.997	2119.93
474.369	2178.91
474.74	2162.87
475.112	2241.06
475.484	2291.68
475.855	2364.67
476.227	2366.25
476.598	2488.06
476.97	2495.51
477.341	2571.22
477.713	2598.11
478.084	2663.87
478.455	2746.58
478.827	2812.12
479.198	2903.41
479.569	2923.52
479.94	3071.32
480.311	3071.77
480.682	3184.76
481.053	3287.36
481.424	3392.67
481.795	3402.38
482.166	3542.27
482.537	3570.06
482.908	3716.95
483.279	3821.35
483.65	3882.14
484.021	3993.78
484.391	4074.91
484.762	4203.04
485.133	4249.14
485.503	4365.75
485.874	4532.07
486.244	4613.42
486.615	4716.7
486.985	4850.25
487.356	4986.97
487.726	5102.45
488.097	5276.46
488.467	5326.17
488.837	5477.36
489.207	5670.35
489.578	5766.61
489.948	5866.27
490.318	5982.2
490.688	6122.54
491.058	6250.22
491.428	6382.42
491.798	6543.32
492.168	6722.75
492.538	6838.22
492.908	6916.87
493.278	7117.99
493.648	7208.16
494.017	7374.71
494.387	7543.29
494.757	7698.54
495.126	7853.34
495.496	7933.56
495.866	8057.4
496.235	8150.28
496.605	8315.93
496.974	8489.48
497.344	8651.74
497.713	8705.97
498.082	8881.33
498.452	8990.94
498.821	9168.78
499.19	9180.54
499.559	9402.9
499.928	9563.12
500.298	9653.29
500.667	9816
501.036	9802.89
501.405	9939.84
501.774	10059.61
502.143	10203.11
502.512	10327.4
502.88	10524.45
503.249	10633.38
503.618	10727.61
503.987	10788.85
504.356	10947.95
504.724	11042.41
505.093	11105.68
505.462	11288.95
505.83	11376.41
506.199	11429.74
506.567	11710.64
506.936	11720.36
507.304	11951.76
507.672	12049.61
508.041	12076.73
508.409	12232.88
508.777	12426.33
509.145	12547.23
509.514	12559.66
509.882	12735.92
510.25	12773.66
510.618	12910.15
510.986	12983.37
511.354	13262.91
511.722	13329.58
512.09	13471.72
512.458	13433.3
512.826	13585.84
513.193	13637.59
513.561	13753.97
513.929	13921.88
514.297	14089.56
514.664	14205.26
515.032	14265.83
515.4	14376.56
515.767	14459.72
516.135	14595.08
516.502	14467.4
516.869	14825.13
517.237	14903.55
517.604	14881.4
517.972	15068.52
518.339	15167.5
518.706	15294.72
519.073	15367.49
519.44	15487.71
519.808	15678.67
520.175	15718.67
520.542	15994.14
520.909	15995.05
521.276	16031.65
521.643	16271.87
522.009	16337.41
522.376	16362.49
522.743	16612.2
523.11	16798.64
523.477	16867.79
523.843	16975.81
524.21	17126.99
524.577	17269.14
524.943	17417.61
525.31	17502.12
525.676	17581.9
526.043	17741.21
526.409	17756.36
526.776	18017.82
527.142	18127.19
527.508	18154.76
527.874	18416.9
528.241	18446.51
528.607	18505.04
528.973	18780.06
529.339	18705.71
529.705	18936.21
530.071	19061.41
530.437	19099.6
530.803	19263.66
531.169	19387.27
531.535	19374.84
531.901	19384.11
532.267	19513.82
532.632	19742.74
532.998	19752.91
533.364	19898.67
533.73	20056.41
534.095	20215.5
534.461	20168.27
534.826	20296.18
535.192	20365.1
535.557	20558.77
535.923	20533.68
536.288	20691.65
536.653	20789.5
537.019	20741.36
537.384	20758.99
537.749	20936.38
538.114	20948.81
538.479	21045.53
538.845	21268.81
539.21	21158.75
539.575	21309.26
539.94	21372.31
540.305	21424.06
540.67	21556.03
541.034	21641.45
541.399	21658.4
541.764	21885.06
542.129	21904.72
542.494	21888.45
542.858	21920.99
543.223	22036.92
543.587	22128.22
543.952	22096.35
544.316	22219.74
544.681	22311.49
545.045	22346.74
545.41	22574.31
545.774	22549
546.138	22618.15
546.503	22633.52
546.867	22718.71
547.231	22978.59
547.595	22828.54
547.959	23073.28
548.324	23153.73
548.688	23059.72
549.052	23182.88
549.416	23231.69
549.779	23264.46
550.143	23455.87
550.507	23530.21
550.871	23616.77
551.235	23623.55
551.599	23832.81
551.962	23774.73
552.326	23930.88
552.689	24075.51
553.053	24107.37
553.417	24084.55
553.78	24414.49
554.143	24341.72
554.507	24510.53
554.87	24567.25
555.234	24804.53
555.597	24530.64
555.96	24761.14
556.323	24890.4
556.686	24887.24
557.05	25110.51
557.413	25176.95
557.776	25163.62
558.139	25450.62
558.502	25416.49
558.865	25391.63
559.228	25684.73
559.59	25789.36
559.953	25840.44
560.316	26077.94
560.679	26006.53
561.041	26209.01
561.404	26331.95
561.767	26442.23
562.129	26319.97
562.492	26705.95
562.854	26649.68
563.217	26764.93
563.579	26818.94
563.941	26947.98
564.304	27117.46
564.666	27305.48
565.028	27319.95
565.39	27412.15
565.753	27657.79
566.115	27605.36
566.477	27778.24
566.839	27870.67
567.201	27943.21
567.563	28080.15
567.925	28166.02
568.287	28191.79
568.648	28256.19
569.01	28485.34
569.372	28627.48
569.734	28495.06
570.095	28788.61
570.457	28934.59
570.819	28944.31
571.18	28959.45
571.542	29131.42
571.903	29270.18
572.265	29241.7
572.626	29479.66
572.987	29460.91
573.349	29512.88
573.71	29656.38
574.071	29744.51
574.432	29978.41
574.794	30174.56
575.155	30170.27
575.516	30092.3
575.877	30207.78
576.238	30382.92
576.599	30565.28
576.96	30563.02
577.32	30791.04
577.681	30911.49
578.042	30932.96
578.403	31025.84
578.763	31035.1
579.124	31264.7
579.485	31513.06
579.845	31529.1
580.206	31609.32
580.566	31551.02
580.927	31702.66
581.287	31911.01
581.648	31871.69
582.008	32185.58
582.368	32138.35
582.728	32174.73
583.089	32325.01
583.449	32420.83
583.809	32565.68
584.169	32600.94
584.529	32680.93
584.889	32950.08
585.249	32950.08
585.609	32905.34
585.969	33164.54
586.329	33126.12
586.688	33272.56
587.048	33481.14
587.408	33427.81
587.768	33635.26
588.127	33704.64
588.487	33726.56
588.846	34050.62
589.206	33895.82
589.565	33923.39
589.925	34372.64
590.284	34275.69
590.643	34440.89
591.003	34412.41
591.362	34668.45
591.721	34663.48
592.08	34767.66
592.44	34987.31
592.799	34974.66
593.158	35089.46
593.517	35200.19
593.876	35352.5
594.235	35375.1
594.593	35445.61
594.952	35598.82
595.311	35538.71
595.67	35679.73
596.029	36097.34
596.387	36025.71
596.746	36126.95
597.104	35974.18
597.463	36142.54
597.822	36365.36
598.18	36293.49
598.538	36408.52
598.897	36568.52
599.255	36459.59
599.613	37008.96
599.972	36845.12
600.33	36927.15
600.688	36805.57
601.046	37046.7
601.404	37254.15
601.762	37189.97
602.12	37465.67
602.478	37533.91
602.836	37679
603.194	37318.33
603.552	37601.71
603.91	37429.51
604.268	37739.78
604.625	37756.06
604.983	37936.84
605.341	37811.65
605.698	38156.95
606.056	38115.37
606.413	38174.12
606.771	38360.33
607.128	38347.23
607.485	38357.17
607.843	38472.65
608.2	38645.52
608.557	38871.28
608.914	38728.91
609.272	38942.92
609.629	38947.89
609.986	39101.33
610.343	39004.16
610.7	39289.35
611.057	39381.1
611.414	39345.39
611.771	39504.94
612.127	39773.63
612.484	39529.12
612.841	39897.47
613.198	39658.6
613.554	39794.19
613.911	39989.44
614.267	39992.15
614.624	39951.93
614.98	39972.27
615.337	40292.71
615.693	40272.6
616.05	40112.38
616.406	40440.73
616.762	40424.23
617.118	40487.06
617.475	40445.7
617.831	40791.23
618.187	40656.32
618.543	40707.39
618.899	41018.12
619.255	40878.01
619.611	40926.37
619.967	40981.28
620.323	41115.51
620.678	40997.55
621.034	40868.74
621.39	41058.57
621.746	40889.98
622.101	41487.26
622.457	41054.73
622.812	41271.22
623.168	41380.14
623.523	41295.85
623.879	41438.9
624.234	41279.58
624.589	41376.3
624.945	41357.99
625.3	41461.04
625.655	41395.51
626.01	41537.65
626.365	41713.24
626.72	41555.5
627.075	41520.93
627.43	41538.1
627.785	41514.15
628.14	41645.67
628.495	41715.27
628.85	41633.24
629.205	41503.08
629.559	41856.96
629.914	41732.45
630.269	41649.29
630.623	41640.7
630.978	41456.97
631.332	41603.64
631.687	41742.17
632.041	41669.17
632.396	41668.49
632.75	41551.89
633.104	41667.36
633.459	41515.5
633.813	41501.49
634.167	41547.37
634.521	41511.21
634.875	41552.34
635.229	41540.36
635.583	41359.12
635.937	41348.05
636.291	41274.83
636.645	41285
636.999	41250.65
637.352	41459.01
637.706	41227.15
638.06	41125.91
638.413	41256.98
638.767	41126.36
639.121	41286.13
639.474	41015.18
639.828	41028.74
640.181	41201.84
640.534	40952.13
640.888	41024.44
641.241	40823.55
641.594	41044.56
641.947	41022.41
642.301	40998.91
642.654	41101.96
643.007	40870.55
643.36	40865.13
643.713	40736.09
644.066	40908.51
644.419	40674.17
644.771	40356.21
645.124	40125.26
645.477	40050.01
645.83	39858.82
646.182	39612.05
646.535	39544.26
646.888	39669.68
647.24	39446.18
647.593	39589
647.945	39583.8
648.298	39307.65
648.65	39306.75
649.002	39263.59
649.355	39300.87
649.707	39348.33
650.059	39475.11
650.411	39937.92
650.763	39897.69
651.115	40258.81
651.467	40250
651.819	40251.13
652.171	40212.94
652.523	40079.16
652.875	39988.54
653.227	39966.39
653.578	40166.39
653.93	40019.05
654.282	39952.38
654.633	39901.08
654.985	39983.12
655.337	39886.39
655.688	39925.72
656.039	40061.98
656.391	39763.69
656.742	39869.45
657.094	39733.63
657.445	40041.87
657.796	39786.96
658.147	39795.32
658.498	39643.92
658.849	39858.37
659.2	39799.39
659.551	39616.57
659.902	39803.01
660.253	39942.44
660.604	39679.39
660.955	39590.58
661.306	39627.42
661.656	39554.88
662.007	39615.22
662.358	39638.72
662.708	39733.4
663.059	39589.45
663.409	39396.69
663.76	39780.41
664.11	39741.99
664.461	39626.29
664.811	39625.84
665.161	39524.14
665.511	39553.97
665.862	39616.35
666.212	39652.5
666.562	39694.76
666.912	39572.73
667.262	39444.15
667.612	39468.55
667.962	39487.99
668.312	39527.99
668.662	39657.25
669.011	39537.03
669.361	39481.66
669.711	39478.5
670.06	39384.26
670.41	39322.34
670.76	39236.02
671.109	39452.28
671.459	39293.42
671.808	39237.6
672.157	39321.89
672.507	39017.27
672.856	39141.1
673.205	39212.97
673.554	39222.01
673.904	38995.12
674.253	39383.13
674.602	39168
674.951	38576.15
675.3	38424.96
675.649	39082.12
675.998	38944.27
676.346	39011.16
676.695	39089.35
677.044	38783.82
677.393	39038.28
677.741	38932.75
678.09	38957.38
678.438	38763.03
678.787	38836.25
679.135	38897.95
679.484	38604.39
679.832	38816.82
680.181	38739.31
680.529	38713.32
680.877	38721.68
681.225	38546.32
681.573	38872.18
681.922	38438.98
682.27	38382.48
682.618	38332.09
682.966	38392.2
683.314	38296.83
683.661	38354.46
684.009	38069.49
684.357	37968.71
684.705	38082.15
685.053	38061.81
685.4	38014.58
685.748	37820.01
686.095	37642.84
686.443	37682.38
686.79	37540.02
687.138	37682.61
687.485	37592.22
687.832	37610.75
688.18	37521.26
688.527	37244.88
688.874	37277.65
689.221	37294.15
689.568	37088.05
689.915	37041.95
690.262	37113.59
690.609	36846.7
690.956	36858.9
691.303	36844.44
691.65	36668.85
691.997	36583.88
692.344	36422.76
692.69	36407.16
693.037	36547.95
693.383	36074.52
693.73	36358.35
694.077	36175.31
694.423	36162.88
694.769	35959.72
695.116	35890.79
695.462	35812.15
695.808	35678.6
696.155	35805.37
696.501	35580.52
696.847	35607.86
697.193	35281.77
697.539	35504.82
697.885	35137.82
698.231	35115.9
698.577	35025.51
698.923	34978.28
699.269	34824.61
699.614	34698.06
699.96	34638.62
700.306	34650.37
700.651	34459.87
700.997	34375.81
701.342	34429.82
701.688	34299.87
702.033	34117.28
702.379	34238.18
702.724	33983.5
703.069	34030.73
703.415	33648.37
703.76	33785.76
704.105	33628.25
704.45	33552.32
704.795	33630.51
705.14	33433.91
705.485	33405.21
705.83	33242.05
706.175	33264.42
706.52	33115.5
706.865	33072.79
707.209	33003.19
707.554	32747.83
707.899	32884.32
708.243	32760.25
708.588	32771.78
708.932	32408.63
709.277	32494.5
709.621	32583.54
709.966	32364.78
710.31	32457.44
710.654	32104.68
710.998	32087.28
711.342	32206.82
711.687	32115.07
712.031	31918.02
712.375	31814.52
712.719	31788.98
713.063	31730.9
713.407	31852.93
713.75	31622.21
714.094	31614.97
714.438	31593.51
714.782	31546.73
715.125	31521.19
715.469	31398.48
715.812	31272.16
716.156	31125.95
716.499	31166.4
716.843	31210.92
717.186	31052.05
717.53	31117.81
717.873	31059.96
718.216	31056.57
718.559	30948.78
718.902	30726.18
719.246	30786.07
719.589	30674.66
719.932	30543.36
720.275	30558.5
720.617	30538.39
720.96	30544.27
721.303	30403.71
721.646	30328.45
721.989	30188.57
722.331	30152.87
722.674	30113.32
723.016	30210.04
723.359	30161.23
723.701	30088.46
724.044	29951.51
724.386	29875.58
724.729	29851.18
725.071	29797.39
725.413	29865.87
725.755	29828.35
726.097	29652.54
726.439	29476.95
726.782	29644.18
727.124	29662.26
727.465	29485.99
727.807	29473.79
728.149	29333.23
728.491	29334.81
728.833	29293
729.175	29271.76
729.516	29240.35
729.858	29160.35
730.199	29147.24
730.541	29020.92
730.882	29036.74
731.224	29074.48
731.565	28848.94
731.906	28843.52
732.248	28960.13
732.589	28824.99
732.93	28760.13
733.271	28767.37
733.612	28845.56
733.953	28759.23
734.294	28677.88
734.635	28514.72
734.976	28687.59
735.317	28649.18
735.658	28575.51
735.999	28535.05
736.339	28407.83
736.68	28455.28
737.021	28386.58
737.361	28292.8
737.702	28460.03
738.042	28245.34
738.383	28311.33
738.723	28271.33
739.063	28009.42
739.404	28078.12
739.744	28009.64
740.084	28009.64
740.424	27924
740.764	27962.87
741.104	27996.76
741.444	27781.85
741.784	27712.25
742.124	27757.45
742.464	27589.09
742.804	27704.79
743.143	27549.77
743.483	27665.47
743.823	27507.06
744.162	27364.69
744.502	27480.17
744.841	27377.57
745.181	27481.07
745.52	27315.65
745.86	27365.14
746.199	27311.58
746.538	27315.43
746.877	27243.11
747.216	27185.71
747.556	27106.39
747.895	27211.93
748.234	27029.11
748.573	26892.16
748.911	26906.17
749.25	26943.68
749.589	26847.87
749.928	26949.56
750.267	26903.91
750.605	26704.59
750.944	26693.97
751.283	26622.79
751.621	26576.24
751.96	26388.44
752.298	26566.74
752.636	26527.88
752.975	26264.61
753.313	26262.57
753.651	26357.71
753.989	26271.16
754.327	26191.84
754.666	26103.03
755.004	26110.71
755.342	26164.72
755.679	26065.06
756.017	25897.61
756.355	25985.97
