Data from hue_290_FLMS001491_00092.txt Node
Date: Tue Feb 07 15:53:44 GMT 2017
User: dcchb
Spectrometer: FLMS00149
Trigger mode: 0
Integration Time (sec): 2.000000E-2
Scans to average: 10
Electric dark correction enabled: true
Nonlinearity correction enabled: false
Boxcar width: 0
XAxis mode: Wavelengths
Number of Pixels in Spectrum: 2048
>>>>>Begin Spectral Data<<<<<
341.393	-6.3
341.776	-6.3
342.16	-6.3
342.543	-60.08
342.927	-61.44
343.31	-63.92
343.693	-75.45
344.077	-61.67
344.46	-70.7
344.843	-60.31
345.226	-46.75
345.61	-30.71
345.993	-25.06
346.376	11.78
346.759	7.94
347.142	24.66
347.525	38.22
347.908	68.28
348.291	73.25
348.674	105.79
349.057	104.66
349.44	140.14
349.823	132.23
350.206	174.71
350.588	183.98
350.971	208.38
351.354	212
351.737	236.63
352.119	239.12
352.502	252.45
352.884	267.59
353.267	268.27
353.65	295.16
354.032	290.87
354.414	294.26
354.797	307.14
355.179	310.3
355.562	326.8
355.944	319.34
356.326	320.7
356.709	342.84
357.091	355.5
357.473	344.65
357.855	336.74
358.238	348.72
358.62	342.17
359.002	324.99
359.384	332
359.766	332.45
360.148	317.53
360.53	312.34
360.912	333.35
361.294	330.64
361.676	326.12
362.057	308.04
362.439	340.58
362.821	334.26
363.203	320.7
363.584	339
363.966	328.16
364.348	319.57
364.729	340.36
365.111	308.49
365.493	293.35
365.874	312.34
366.256	316.63
366.637	328.16
367.019	289.51
367.4	309.62
367.781	315.5
368.163	324.31
368.544	302.62
368.925	305.78
369.306	333.58
369.688	317.31
370.069	302.17
370.45	295.16
370.831	327.7
371.212	316.4
371.593	296.52
371.974	291.77
372.355	334.71
372.736	313.01
373.117	314.14
373.498	325.22
373.879	310.08
374.26	332.22
374.641	310.08
375.021	315.05
375.402	325.22
375.783	337.87
376.163	354.82
376.544	317.76
376.925	323.41
377.305	312.56
377.686	328.83
378.066	318.44
378.447	337.19
378.827	306.46
379.208	339.91
379.588	342.39
379.968	332.22
380.349	348.27
380.729	331.54
381.109	322.96
381.489	342.84
381.87	326.8
382.25	341.49
382.63	335.39
383.01	345.56
383.39	350.75
383.77	350.98
384.15	338.32
384.53	352.11
384.91	359.57
385.29	335.84
385.67	345.1
386.049	331.54
386.429	360.7
386.809	351.88
387.189	340.13
387.568	338.32
387.948	347.36
388.328	340.81
388.707	364.54
389.087	340.81
389.466	357.76
389.846	333.13
390.225	357.31
390.605	354.37
390.984	362.73
391.363	381.71
391.743	355.95
392.122	371.77
392.501	395.5
392.881	367.48
393.26	369.74
393.639	372.22
394.018	393.01
394.397	401.37
394.776	396.85
395.155	390.53
395.534	395.95
395.913	404.76
396.292	393.69
396.671	402.05
397.05	390.98
397.429	407.02
397.808	426.46
398.186	399.79
398.565	403.86
398.944	411.54
399.323	403.41
399.701	410.41
400.08	416.97
400.458	405.89
400.837	411.99
401.215	424.2
401.594	433.24
401.972	430.53
402.351	430.98
402.729	422.62
403.107	424.2
403.486	449.96
403.864	464.65
404.242	448.15
404.62	460.13
404.999	429.17
405.377	466.68
405.755	456.74
406.133	461.94
406.511	469.39
406.889	497.19
407.267	458.77
407.645	464.65
408.023	486.57
408.401	478.66
408.779	486.57
409.156	491.09
409.534	521.6
409.912	510.52
410.29	514.82
410.667	546.45
411.045	520.01
411.422	536.06
411.8	556.4
412.178	565.89
412.555	555.49
412.933	542.16
413.31	571.54
413.687	584.42
414.065	584.65
414.442	581.93
414.819	600.69
415.197	647.02
415.574	609.28
415.951	647.02
416.328	638.88
416.705	653.57
417.082	656.96
417.46	647.69
417.837	697.86
418.214	663.06
418.591	662.84
418.967	707.35
419.344	673
419.721	703.29
420.098	726.34
420.475	724.75
420.852	738.54
421.228	738.77
421.605	767.69
421.982	751.65
422.358	771.99
422.735	770.63
423.111	782.83
423.488	769.27
423.864	783.06
424.241	821.93
424.617	823.96
424.994	796.84
425.37	852.44
425.746	842.72
426.123	866.45
426.499	864.41
426.875	877.52
427.251	905.77
427.627	894.92
428.003	923.17
428.379	917.52
428.756	907.8
429.132	938.31
429.507	960.68
429.883	947.35
430.259	984.86
430.635	999.55
431.011	980.57
431.387	1027.8
431.763	1011.08
432.138	1047.46
432.514	1051.53
432.89	1060.34
433.265	1088.14
433.641	1071.86
434.016	1071.41
434.392	1082.49
434.767	1125.2
435.143	1095.14
435.518	1158.42
435.894	1166.78
436.269	1175.14
436.644	1188.25
437.02	1222.82
437.395	1204.29
437.77	1227.79
438.145	1258.07
438.52	1270.5
438.895	1268.24
439.271	1294.68
439.646	1284.51
440.021	1325.42
440.395	1331.07
440.77	1272.09
441.145	1339.2
441.52	1364.51
441.895	1346.89
442.27	1349.82
442.645	1340.33
443.019	1401.12
443.394	1376.49
443.769	1378.07
444.143	1378.52
444.518	1402.03
444.892	1417.39
445.267	1408.35
445.641	1421.23
446.016	1452.87
446.39	1440.89
446.764	1465.07
447.139	1451.06
447.513	1456.71
447.887	1461.23
448.262	1449.26
448.636	1477.73
449.01	1485.86
449.384	1501.23
449.758	1516.37
450.132	1521.57
450.506	1510.72
450.88	1518.41
451.254	1543.49
451.628	1542.13
452.002	1581.23
452.376	1543.94
452.75	1536.49
453.123	1585.07
453.497	1631.17
453.871	1606.54
454.244	1652.19
454.618	1646.09
454.992	1651.96
455.365	1667.33
455.739	1694
456.112	1695.12
456.486	1694.45
456.859	1728.57
457.232	1739.87
457.606	1757.72
457.979	1746.65
458.352	1756.37
458.725	1793.43
459.099	1793.2
459.472	1827.55
459.845	1837.49
460.218	1844.95
460.591	1862.13
460.964	1856.93
461.337	1873.65
461.71	1913.2
462.083	1942.58
462.456	1955.91
462.829	1952.97
463.201	1980.77
463.574	1974.44
463.947	1984.16
464.32	2050.82
464.692	2026.19
465.065	2067.54
465.438	2091.72
465.81	2092.63
466.183	2103.48
466.555	2152.06
466.928	2143.25
467.3	2158.62
467.672	2204.94
468.045	2198.16
468.417	2180.08
468.789	2210.37
469.161	2251.27
469.534	2327.42
469.906	2321.78
470.278	2335.56
470.65	2348.44
471.022	2381.43
471.394	2434.54
471.766	2444.26
472.138	2448.78
472.51	2496.69
472.882	2537.14
473.253	2562.9
473.625	2571.49
473.997	2628.66
474.369	2599.06
474.74	2633.86
475.112	2711.37
475.484	2690.58
475.855	2719.05
476.227	2746.85
476.598	2807.86
476.97	2837.02
477.341	2854.87
477.713	2882.21
478.084	2904.13
478.455	2988.65
478.827	2953.85
479.198	3057.12
479.569	3048.99
479.94	3090.57
480.311	3108.2
480.682	3179.83
481.053	3223.67
481.424	3279.72
481.795	3295.99
482.166	3299.6
482.537	3391.58
482.908	3425.02
483.279	3445.36
483.65	3497.11
484.021	3506.6
484.391	3551.8
484.762	3532.36
485.133	3596.77
485.503	3687.16
485.874	3717.22
486.244	3677.45
486.615	3736.43
486.985	3793.6
487.356	3837.44
487.726	3870.89
488.097	3929.19
488.467	3965.12
488.837	4011.45
489.207	4043.09
489.578	4097.32
489.948	4116.53
490.318	4182.52
490.688	4152.01
491.058	4214.38
491.428	4258.67
491.798	4272.23
492.168	4335.51
492.538	4381.16
492.908	4391.78
493.278	4417.31
493.648	4395.62
494.017	4464.54
494.387	4492.34
494.757	4561.26
495.126	4610.98
495.496	4596.97
495.866	4617.08
496.235	4681.94
496.605	4698.44
496.974	4698.21
497.344	4752.9
497.713	4753.58
498.082	4801.48
498.452	4816.4
498.821	4873.12
499.19	4825.89
499.559	4882.39
499.928	4871.31
500.298	4916.96
500.667	4999.67
501.036	4941.59
501.405	5017.75
501.774	5000.57
502.143	5018.2
502.512	5004.64
502.88	5106.56
503.249	5075.6
503.618	5124.19
503.987	5107.46
504.356	5150.63
504.724	5136.84
505.093	5136.39
505.462	5205.32
505.83	5193.56
506.199	5233.56
506.567	5300
506.936	5295.93
507.304	5326.44
507.672	5309.72
508.041	5309.72
508.409	5345.65
508.777	5386.33
509.145	5406.21
509.514	5434.46
509.882	5420
510.25	5438.3
510.618	5429.94
510.986	5523.27
511.354	5545.19
511.722	5564.4
512.09	5551.97
512.458	5614.8
512.826	5641.46
513.193	5649.15
513.561	5655.02
513.929	5690.95
514.297	5703.38
514.664	5726.21
515.032	5739.76
515.4	5761.91
515.767	5780.89
516.135	5780.89
516.502	5740.67
516.869	5844.62
517.237	5864.51
517.604	5791.29
517.972	5883.49
518.339	5843.49
518.706	5854.34
519.073	5915.58
519.44	5884.39
519.808	5944.96
520.175	5965.75
520.542	6041.45
520.909	6039.87
521.276	6019.31
521.643	6087.1
522.009	6088.23
522.376	6118.29
522.743	6189.47
523.11	6213.2
523.477	6212.52
523.843	6253.88
524.21	6300.88
524.577	6280.09
524.943	6323.03
525.31	6300.43
525.676	6403.48
526.043	6384.95
526.409	6452.06
526.776	6440.76
527.142	6473.98
527.508	6535.22
527.874	6537.94
528.241	6547.2
528.607	6554.21
528.973	6664.71
529.339	6676.24
529.705	6711.72
530.071	6802.56
530.437	6790.36
530.803	6760.75
531.169	6810.02
531.535	6783.35
531.901	6814.09
532.267	6872.16
532.632	6916.23
532.998	6891.6
533.364	6977.02
533.73	6946.74
534.095	6990.13
534.461	7018.37
534.826	7023.8
535.192	7065.15
535.557	7071.48
535.923	7132.5
536.288	7106.28
536.653	7105.38
537.019	7064.02
537.384	7142.21
537.749	7184.25
538.114	7209.33
538.479	7246.62
538.845	7242.1
539.21	7248.43
539.575	7258.37
539.94	7252.72
540.305	7321.19
540.67	7394.64
541.034	7270.57
541.399	7356.67
541.764	7390.79
542.129	7400.06
542.494	7381.76
542.858	7442.77
543.223	7456.56
543.587	7562.54
543.952	7553.5
544.316	7537.01
544.681	7557.8
545.045	7596.89
545.41	7603.22
545.774	7736.55
546.138	7656.1
546.503	7667.17
546.867	7698.81
547.231	7752.82
547.595	7697.45
547.959	7772.71
548.324	7762.08
548.688	7783.1
549.052	7816.55
549.416	7858.13
549.779	7816.55
550.143	7927.73
550.507	7905.13
550.871	7920.27
551.235	7856.54
551.599	7977.67
551.962	7997.11
552.326	7987.61
552.689	8009.54
553.053	8029.2
553.417	8004.11
553.78	8043.88
554.143	8031.46
554.507	8096.76
554.87	8152.81
555.234	8099.25
555.597	8150.77
555.96	8152.36
556.323	8167.72
556.686	8243.65
557.05	8266.03
557.413	8241.39
557.776	8222.18
558.139	8303.09
558.502	8322.97
558.865	8287.95
559.228	8329.07
559.59	8382.41
559.953	8357.32
560.316	8436.87
560.679	8429.41
561.041	8531.78
561.404	8533.82
561.767	8530.43
562.129	8486.13
562.492	8624.89
562.854	8598.67
563.217	8628.05
563.579	8652.68
563.941	8683.19
564.304	8711.44
564.666	8748.95
565.028	8689.74
565.39	8734.71
565.753	8795.5
566.115	8839.57
566.477	8911.21
566.839	8816.29
567.201	8925.67
567.563	8917.53
567.925	9051.32
568.287	8991.2
568.648	9057.87
569.01	9086.34
569.372	9105.1
569.734	9131.77
570.095	9178.54
570.457	9145.78
570.819	9261.25
571.18	9253.12
571.542	9286.34
571.903	9282.5
572.265	9301.7
572.626	9371.08
572.987	9416.5
573.349	9397.97
573.71	9518.42
574.071	9539.89
574.432	9545.77
574.794	9652.66
575.155	9707.12
575.516	9688.36
575.877	9779.66
576.238	9808.13
576.599	9941.69
576.96	9887
577.32	9925.19
577.681	10054.68
578.042	10057.16
578.403	10142.59
578.763	10164.51
579.124	10302.13
579.485	10310.72
579.845	10373.09
580.206	10445.63
580.566	10459.64
580.927	10562.69
581.287	10684.49
581.648	10686.3
582.008	10915
582.368	10926.29
582.728	11038.83
583.089	11069.57
583.449	11166.51
583.809	11244.03
584.169	11389.33
584.529	11460.74
584.889	11691.7
585.249	11659.83
585.609	11710.45
585.969	11908.19
586.329	12025.02
586.688	12123.55
587.048	12239.71
587.408	12277.22
587.768	12378.23
588.127	12514.28
588.487	12624.1
588.846	12861.38
589.206	12890.31
589.565	13056.63
589.925	13260.92
590.284	13356.97
590.643	13455.95
591.003	13642.61
591.362	13784.75
591.721	13903.84
592.08	14047.79
592.44	14275.81
592.799	14342.93
593.158	14465.86
593.517	14544.5
593.876	14786.53
594.235	14819.98
594.593	15012.06
594.952	15156.01
595.311	15207.31
595.67	15400.98
596.029	15654.53
596.387	15819.95
596.746	15883.9
597.104	15895.66
597.463	16068.31
597.822	16240.51
598.18	16388.07
598.538	16471.23
598.897	16573.83
599.255	16736.09
599.613	16962.75
599.972	16947.61
600.33	17164.55
600.688	17155.96
601.046	17291.33
601.404	17580.36
601.762	17598.89
602.12	17771.99
602.478	17895.83
602.836	18023.28
603.194	18059.67
603.552	18151.64
603.91	18116.61
604.268	18393.44
604.625	18393.89
604.983	18580.1
605.341	18561.12
605.698	18737.61
606.056	18801.12
606.413	18910.94
606.771	18967.89
607.128	19026.87
607.485	19118.85
607.843	19188.22
608.2	19284.49
608.557	19440.2
608.914	19483.58
609.272	19641.09
609.629	19672.28
609.986	19961.76
610.343	19829.11
610.7	20023.91
611.057	19940.97
611.414	20021.65
611.771	20114.08
612.127	20260.06
612.484	20319.04
612.841	20347.29
613.198	20405.82
613.554	20457.12
613.911	20644.01
614.267	20643.55
614.624	20722.42
614.98	20864.34
615.337	20926.94
615.693	21015.75
616.05	21011.91
616.406	21111.34
616.762	21145.46
617.118	21115.86
617.475	21164.44
617.831	21178.23
618.187	21358.11
618.543	21294.38
618.899	21382.97
619.255	21528.95
619.611	21474.49
619.967	21665.9
620.323	21660.93
620.678	21614.83
621.034	21709.97
621.39	21669.74
621.746	21574.83
622.101	21951.09
622.457	21760.81
622.812	21853.24
623.168	21865.67
623.523	21934.82
623.879	22065.21
624.234	21909.06
624.589	21993.12
624.945	22025.66
625.3	22034.03
625.655	22072.89
626.01	22072.67
626.365	22072.89
626.72	22060.01
627.075	22148.6
627.43	22147.47
627.785	22179.78
628.14	22202.83
628.495	22258.2
628.85	22229.73
629.205	22130.29
629.559	22264.98
629.914	22060.69
630.269	22244.64
630.623	22120.12
630.978	22129.16
631.332	22253.45
631.687	22251.19
632.041	22132.78
632.396	22201.48
632.75	22098.66
633.104	22235.6
633.459	22057.98
633.813	22067.7
634.167	22090.75
634.521	22126.68
634.875	22050.97
635.229	22083.97
635.583	21974.59
635.937	22046.45
636.291	21963.74
636.645	21956.29
636.999	21939.11
637.352	22191.54
637.706	21881.03
638.06	22047.81
638.413	21976.17
638.767	21897.53
639.121	22010.07
639.474	21741.83
639.828	21820.92
640.181	21903.63
640.534	21868.15
640.888	21874.03
641.241	21721.27
641.594	21793.13
641.947	21888.49
642.301	21834.03
642.654	21783.41
643.007	21872.45
643.36	21725.33
643.713	21772.56
644.066	21837.65
644.419	21773.69
644.771	21514.26
645.124	21420.03
645.477	21437.43
645.83	21304.1
646.182	21177.55
646.535	21136.87
646.888	21194.27
647.24	21010.32
647.593	21245.8
647.945	21111.56
648.298	21066.82
648.65	20981.85
649.002	21066.37
649.355	21194.5
649.707	21157.44
650.059	21314.5
650.411	21404.89
650.763	21342.07
651.115	21735.73
651.467	21728.27
651.819	21721.94
652.171	21782.96
652.523	21613.7
652.875	21528.05
653.227	21501.84
653.578	21697.54
653.93	21715.84
654.282	21494.15
654.633	21559.69
654.985	21611.66
655.337	21613.02
655.688	21578.67
656.039	21692.11
656.391	21578.67
656.742	21601.27
657.094	21551.78
657.445	21642.62
657.796	21594.49
658.147	21606.47
658.498	21637.2
658.849	21675.39
659.2	21624.09
659.551	21631.32
659.902	21642.17
660.253	21584.32
660.604	21674.49
660.955	21552
661.306	21604.21
661.656	21621.38
662.007	21694.37
662.358	21655.05
662.708	21705.45
663.059	21703.41
663.409	21510.42
663.76	21756.74
664.11	21732.34
664.461	21708.84
664.811	21697.76
665.161	21721.27
665.511	21625.67
665.862	21646.46
666.212	21751.32
666.562	21767.14
666.912	21697.54
667.262	21744.99
667.612	21713.13
667.962	21707.93
668.312	21659.35
668.662	21737.08
669.011	21735.05
669.361	21714.49
669.711	21749.96
670.06	21647.59
670.41	21652.34
670.76	21594.49
671.109	21679.46
671.459	21599.23
671.808	21544.77
672.157	21580.48
672.507	21457.77
672.856	21474.94
673.205	21439.92
673.554	21600.59
673.904	21425.23
674.253	21654.6
674.602	21464.32
674.951	21230.2
675.3	21116.08
675.649	21517.2
675.998	21407.6
676.346	21365.34
676.695	21430.43
677.044	21355.4
677.393	21406.25
677.741	21496.19
678.09	21311.33
678.438	21237.89
678.787	21221.84
679.135	21307.72
679.484	21205.35
679.832	21279.92
680.181	21096.42
680.529	21120.6
680.877	21100.49
681.225	21039.93
681.573	21131.22
681.922	20968.52
682.27	20947.95
682.618	20889.2
682.966	20985.92
683.314	20956.77
683.661	20855.3
684.009	20773.04
684.357	20709.09
684.705	20661.86
685.053	20778.01
685.4	20627.96
685.748	20571.01
686.095	20569.2
686.443	20531.47
686.79	20439.26
687.138	20484.01
687.485	20439.04
687.832	20325.6
688.18	20378.02
688.527	20255.77
688.874	20199.27
689.221	20097.8
689.568	20105.26
689.915	20073.85
690.262	19996.56
690.609	19953.18
690.956	19902.1
691.303	19911.37
691.65	19824.14
691.997	19706.18
692.344	19681.32
692.69	19644.71
693.037	19586.18
693.383	19477.93
693.73	19612.17
694.077	19364.72
694.423	19390.48
694.769	19298.28
695.116	19206.08
695.462	19263.48
695.808	19326.75
696.155	19237.71
696.501	19065.52
696.847	19023.71
697.193	18872.75
697.539	18843.6
697.885	18853.32
698.231	18798.4
698.577	18621.91
698.923	18683.15
699.269	18488.81
699.614	18443.16
699.96	18412.65
700.306	18435.7
700.651	18276.38
700.997	18232.32
701.342	18271.19
701.688	18202.94
702.033	18156.61
702.379	18028.71
702.724	17955.71
703.069	17991.87
703.415	17751.43
703.76	17872.1
704.105	17760.01
704.45	17758.43
704.795	17648.15
705.14	17523.64
705.485	17548.04
705.83	17463.75
706.175	17514.37
706.52	17391.44
706.865	17412.45
707.209	17281.61
707.554	17160.93
707.899	17289.29
708.243	17134.49
708.588	17106.92
708.932	16974.5
709.277	16977.89
709.621	17064.21
709.966	16845.46
710.31	16953.71
710.654	16802.98
710.998	16785.35
711.342	16748.97
711.687	16674.84
712.031	16620.83
712.375	16627.61
712.719	16604.34
713.063	16628.97
713.407	16630.1
713.75	16494.28
714.094	16542.19
714.438	16326.6
714.782	16494.96
715.125	16274.85
715.469	16399.37
715.812	16292.71
716.156	16258.81
716.499	16175.65
716.843	16175.65
717.186	16198.7
717.53	16153.5
717.873	16259.26
718.216	16093.62
718.559	16080.51
718.902	15910.12
719.246	16018.36
719.589	15920.97
719.932	15883.68
720.275	15970.23
720.617	15925.49
720.96	15904.02
721.303	15960.96
721.646	15952.6
721.989	15763.46
722.331	15830.8
722.674	15811.82
723.016	15820.18
723.359	15699.73
723.701	15702.89
724.044	15648.88
724.386	15612.73
724.729	15769.56
725.071	15558.04
725.413	15615.89
725.755	15621.54
726.097	15545.61
726.439	15512.61
726.782	15504.93
727.124	15602.78
727.465	15533.41
727.807	15408.66
728.149	15437.81
728.491	15470.81
728.833	15504.03
729.175	15485.72
729.516	15384.48
729.858	15354.65
730.199	15392.39
730.541	15383.35
730.882	15365.5
731.224	15507.87
731.565	15335.22
731.906	15360.75
732.248	15311.04
732.589	15335.22
732.93	15291.38
733.271	15312.39
733.612	15323.24
733.953	15323.69
734.294	15296.35
734.635	15174.54
734.976	15275.56
735.317	15205.5
735.658	15232.62
735.999	15233.3
736.339	15220.42
736.68	15336.12
737.021	15301.77
737.361	15316.91
737.702	15371.15
738.042	15282.56
738.383	15264.71
738.723	15300.19
739.063	15271.27
739.404	15331.83
739.744	15324.6
740.084	15267.42
740.424	15341.77
740.764	15281.89
741.104	15365.73
741.444	15326.86
741.784	15297.93
742.124	15379.06
742.464	15379.74
742.804	15341.09
743.143	15367.08
743.483	15427.19
743.823	15308.1
744.162	15422.45
744.502	15474.2
744.841	15368.89
745.181	15511.26
745.52	15478.27
745.86	15552.84
746.199	15635.78
746.538	15681.42
746.877	15683.01
747.216	15718.94
747.556	15747.18
747.895	15797.13
748.234	15926.62
748.573	15859.27
748.911	15902.43
749.25	15995.31
749.589	16085.26
749.928	16133.39
750.267	16274.18
750.605	16283.67
750.944	16315.08
751.283	16327.28
751.621	16423.78
751.96	16539.25
752.298	16531.34
752.636	16667.84
752.975	16728.18
753.313	16733.15
753.651	17005
753.989	16908.28
754.327	17049.52
754.666	17147.15
755.004	17357.09
755.342	17358.89
755.679	17432.11
756.017	17536.29
756.355	17617.64
756.693	17662.39
757.031	17947.13
757.368	17982.83
757.706	18048.37
758.044	18085.88
758.381	18230.96
758.719	18350.05
759.056	18524.74
759.394	18494.46
