Data from hue_28_FLMS001491_00041.txt Node
Date: Tue Feb 07 17:17:19 GMT 2017
User: dcchb
Spectrometer: FLMS00149
Trigger mode: 0
Integration Time (sec): 2.000000E-2
Scans to average: 10
Electric dark correction enabled: true
Nonlinearity correction enabled: false
Boxcar width: 0
XAxis mode: Wavelengths
Number of Pixels in Spectrum: 2048
>>>>>Begin Spectral Data<<<<<
341.393	-28.12
341.776	-28.12
342.16	-28.12
342.543	-46.2
342.927	-61.34
343.31	-59.53
343.693	-85.97
344.077	-62.47
344.46	-56.59
344.843	-55.69
345.226	-44.39
345.61	-23.38
345.993	-21.34
346.376	4.42
346.759	28.37
347.142	17.75
347.525	39.9
347.908	53.01
348.291	69.05
348.674	76.51
349.057	120.35
349.44	126.9
349.823	140.24
350.206	163.96
350.588	195.83
350.971	218.88
351.354	229.73
351.737	242.83
352.119	245.09
352.502	279.22
352.884	272.89
353.267	281.25
353.65	283.96
354.032	301.36
354.414	290.74
354.797	325.54
355.179	328.03
355.562	312.66
355.944	310.4
356.326	331.64
356.709	343.39
357.091	335.94
357.473	352.21
357.855	352.21
358.238	349.95
358.62	359.21
359.002	351.98
359.384	367.58
359.766	356.5
360.148	322.38
360.53	350.85
360.912	349.72
361.294	324.41
361.676	349.5
362.057	347.01
362.439	314.24
362.821	322.83
363.203	327.8
363.584	341.81
363.966	342.49
364.348	320.8
364.729	315.15
365.111	313.79
365.493	335.71
365.874	326.22
366.256	308.59
366.637	322.38
367.019	320.8
367.4	301.36
367.781	340.46
368.163	318.76
368.544	332.55
368.925	326.45
369.306	321.93
369.688	296.84
370.069	319.67
370.45	288.48
370.831	333.45
371.212	311.53
371.593	298.65
371.974	316.05
372.355	296.39
372.736	315.37
373.117	340.91
373.498	333.45
373.879	326.9
374.26	311.76
374.641	329.84
375.021	299.55
375.402	315.15
375.783	319.67
376.163	353.11
376.544	314.02
376.925	328.71
377.305	327.35
377.686	322.83
378.066	341.81
378.447	318.76
378.827	349.04
379.208	335.03
379.588	325.99
379.968	332.1
380.349	330.74
380.729	345.2
381.109	343.62
381.489	344.98
381.87	361.7
382.25	314.02
382.63	334.81
383.01	364.86
383.39	343.85
383.77	342.49
384.15	315.83
384.53	359.21
384.91	332.55
385.29	360.34
385.67	329.61
386.049	333.45
386.429	348.59
386.809	349.04
387.189	359.89
387.568	355.82
387.948	376.16
388.328	358.76
388.707	368.7
389.087	365.09
389.466	373.68
389.846	358.31
390.225	356.95
390.605	356.95
390.984	375.48
391.363	383.39
391.743	383.85
392.122	358.99
392.501	372.32
392.881	368.48
393.26	367.58
393.639	388.14
394.018	396.73
394.397	383.39
394.776	366.67
395.155	383.85
395.534	374.58
395.913	383.39
396.292	401.47
396.671	394.02
397.05	396.27
397.429	406.22
397.808	381.13
398.186	377.97
398.565	410.51
398.944	410.06
399.323	404.64
399.701	400.79
400.08	384.52
400.458	387.69
400.837	386.78
401.215	411.87
401.594	426.78
401.972	411.42
402.351	405.77
402.729	404.18
403.107	418.42
403.486	404.41
403.864	418.87
404.242	431.3
404.62	428.59
404.999	414.58
405.377	428.82
405.755	412.09
406.133	420.23
406.511	434.69
406.889	413
407.267	425.43
407.645	415.94
408.023	426.56
408.401	435.6
408.779	447.8
409.156	446.67
409.534	455.03
409.912	447.35
410.29	464.07
410.667	441.02
411.045	454.8
411.422	447.8
411.8	462.94
412.178	465.43
412.555	462.26
412.933	475.37
413.31	507.91
413.687	480.79
414.065	511.98
414.442	506.55
414.819	502.26
415.197	489.15
415.574	500.23
415.951	482.6
416.328	504.97
416.705	493.9
417.082	484.41
417.46	505.65
417.837	495.03
418.214	505.88
418.591	524.63
418.967	503.16
419.344	521.47
419.721	528.47
420.098	510.62
420.475	501.58
420.852	516.72
421.228	522.37
421.605	514.01
421.982	537.06
422.358	547.46
422.735	540.23
423.111	515.14
423.488	533.22
423.864	551.07
424.241	558.08
424.617	547.91
424.994	558.3
425.37	576.38
425.746	567.12
426.123	556.27
426.499	558.08
426.875	575.48
427.251	593.56
427.627	591.52
428.003	617.29
428.379	609.15
428.756	601.69
429.132	627.91
429.507	605.31
429.883	599.21
430.259	611.64
430.635	628.13
431.011	636.95
431.387	625.87
431.763	651.18
432.138	625.2
432.514	660
432.89	634.01
433.265	660
433.641	621.35
434.016	676.49
434.392	657.51
434.767	671.97
435.143	685.08
435.518	697.28
435.894	665.42
436.269	678.3
436.644	700
437.02	694.12
437.395	696.38
437.77	714.01
438.145	715.81
438.52	708.81
438.895	729.83
439.271	737.51
439.646	745.19
440.021	752.2
440.395	745.87
440.77	750.62
441.145	739.54
441.52	731.86
441.895	755.14
442.27	756.27
442.645	783.61
443.019	776.15
443.394	774.34
443.769	773.89
444.143	787.68
444.518	769.82
444.892	785.19
445.267	770.5
445.641	817.28
446.016	811.41
446.39	794.23
446.764	800.78
447.139	797.39
447.513	804.63
447.887	816.6
448.262	821.57
448.636	828.35
449.01	852.99
449.384	848.01
449.758	843.95
450.132	851.63
450.506	843.49
450.88	852.31
451.254	850.95
451.628	871.52
452.002	879.43
452.376	886.66
452.75	883.72
453.123	897.73
453.497	903.61
453.871	897.73
454.244	938.41
454.618	921.91
454.992	934.57
455.365	924.85
455.739	967.33
456.112	963.27
456.486	1000.55
456.859	988.35
457.232	968.92
457.606	980.67
457.979	1027.22
458.352	1002.59
458.725	1036.94
459.099	1026.31
459.472	1059.76
459.845	1080.32
460.218	1083.49
460.591	1081.23
460.964	1088.46
461.337	1093.66
461.71	1111.74
462.083	1131.4
462.456	1144.96
462.829	1140.66
463.201	1170.94
463.574	1154.45
463.947	1166.42
464.32	1189.47
464.692	1191.28
465.065	1194.45
465.438	1208.46
465.81	1275.12
466.183	1222.69
466.555	1271.73
466.928	1249.59
467.3	1271.96
467.672	1308.34
468.045	1326.19
468.417	1334.1
468.789	1364.84
469.161	1361.9
469.534	1397.83
469.906	1416.81
470.278	1410.71
470.65	1454.78
471.022	1451.84
471.394	1486.42
471.766	1473.53
472.138	1528.22
472.51	1554.89
472.882	1576.36
473.253	1635.79
473.625	1626.3
473.997	1625.17
474.369	1665.39
474.74	1706.3
475.112	1705.62
475.484	1746.07
475.855	1754.21
476.227	1803.24
476.598	1857.03
476.97	1878.95
477.341	1885.28
477.713	1933.18
478.084	1990.13
478.455	2026.29
478.827	2029
479.198	2091.6
479.569	2099.28
479.94	2166.17
480.311	2196.23
480.682	2232.16
481.053	2298.15
481.424	2359.39
481.795	2382.44
482.166	2434.87
482.537	2485.26
482.908	2504.47
483.279	2587.63
483.65	2593.73
484.021	2681.19
484.391	2714.63
484.762	2742.43
485.133	2799.15
485.503	2841.41
485.874	2915.98
486.244	2974.51
486.615	3032.82
486.985	3053.61
487.356	3140.16
487.726	3188.52
488.097	3251.34
488.467	3267.16
488.837	3343.32
489.207	3382.64
489.578	3516.42
489.948	3489.98
490.318	3582.18
490.688	3571.33
491.058	3675.06
491.428	3735.62
491.798	3754.6
492.168	3807.03
492.538	3907.37
492.908	3940.81
493.278	4019.46
493.648	4042.73
494.017	4115.73
494.387	4149.17
494.757	4219
495.126	4232.56
495.496	4268.72
495.866	4324.76
496.235	4382.16
496.605	4405.44
496.974	4447.24
497.344	4510.52
497.713	4554.36
498.082	4590.97
498.452	4607.24
498.821	4645.2
499.19	4688.59
499.559	4792.54
499.928	4761.36
500.298	4829.83
500.667	4879.09
501.036	4892.65
501.405	4864.63
501.774	4921.81
502.143	4977.17
502.512	4991.63
502.88	5056.27
503.249	5039.77
503.618	5085.42
503.987	5129.48
504.356	5202.25
504.724	5145.98
505.093	5216.71
505.462	5258.29
505.83	5283.38
506.199	5388.01
506.567	5373.09
506.936	5432.3
507.304	5466.2
507.672	5447.67
508.041	5470.72
508.409	5556.82
508.777	5589.81
509.145	5607.44
509.514	5624.39
509.882	5681.56
510.25	5646.08
510.618	5697.15
510.986	5728.56
511.354	5816.7
511.722	5829.8
512.09	5883.81
512.458	5841.1
512.826	5918.16
513.193	5916.36
513.561	5945.28
513.929	5976.02
514.297	6041.55
514.664	6021.66
515.032	6108.22
515.4	6127.42
515.767	6110.7
516.135	6164.48
516.502	6112.73
516.869	6249.68
517.237	6259.17
517.604	6256.01
517.972	6273.41
518.339	6362.22
518.706	6329.45
519.073	6322.67
519.44	6441.31
519.808	6425.49
520.175	6434.99
520.542	6483.57
520.909	6534.42
521.276	6567.64
521.643	6616.22
522.009	6630.91
522.376	6675.21
522.743	6654.42
523.11	6754.53
523.477	6717.24
523.843	6797.24
524.21	6908.65
524.577	6883.79
524.943	6969.66
525.31	7019.38
525.676	7086.95
526.043	6995.42
526.409	7084.23
526.776	7167.17
527.142	7168.75
527.508	7220.73
527.874	7235.87
528.241	7319.93
528.607	7325.81
528.973	7387.5
529.339	7420.72
529.705	7448.29
530.071	7527.39
530.437	7526.26
530.803	7540.95
531.169	7592.92
531.535	7692.13
531.901	7623.88
532.267	7650.1
532.632	7722.64
532.998	7792.24
533.364	7814.16
533.73	7898.9
534.095	7888.73
534.461	7855.06
534.826	8034.04
535.192	7981.61
535.557	7998.56
535.923	8022.06
536.288	8127.15
536.653	8116.75
537.019	8086.47
537.384	8215.5
537.749	8171.21
538.114	8248.27
538.479	8273.58
538.845	8288.27
539.21	8328.04
539.575	8375.5
539.94	8401.04
540.305	8448.04
540.67	8413.24
541.034	8529.39
541.399	8524.65
541.764	8498.43
542.129	8561.94
542.494	8617.08
542.858	8626.79
543.223	8725.1
543.587	8749.95
543.952	8743.17
544.316	8794.92
544.681	8673.57
545.045	8795.15
545.41	8874.24
545.774	8898.65
546.138	8877.18
546.503	8970.06
546.867	8973
547.231	9049.15
547.595	9072.2
547.959	9058.19
548.324	9152.65
548.688	9182.03
549.052	9218.42
549.416	9257.06
549.779	9253.9
550.143	9252.31
550.507	9391.74
550.871	9366.21
551.235	9361.24
551.599	9391.97
551.962	9469.93
552.326	9466.32
552.689	9518.97
553.053	9518.52
553.417	9506.09
553.78	9704.28
554.143	9704.96
554.507	9705.63
554.87	9699.99
555.234	9817.5
555.597	9707.89
555.96	9841.45
556.323	9842.58
556.686	9843.48
557.05	9868.57
557.413	9961
557.776	9898.62
558.139	9970.49
558.502	10027.43
558.865	10000.54
559.228	10109.24
559.59	10147.88
559.953	10255.9
560.316	10229.69
560.679	10243.93
561.041	10267.65
561.404	10379.52
561.767	10444.6
562.129	10351.27
562.492	10439.4
562.854	10443.47
563.217	10536.35
563.579	10537.7
563.941	10593.29
564.304	10588.55
564.666	10766.85
565.028	10711.26
565.39	10755.1
565.753	10799.39
566.115	10853.85
566.477	10816.11
566.839	10869.22
567.201	10984.7
567.563	10971.82
567.925	11034.41
568.287	11123.68
568.648	11108.31
569.01	11132.94
569.372	11198.25
569.734	11164.58
570.095	11287.51
570.457	11327.51
570.819	11264.69
571.18	11361.86
571.542	11501.07
571.903	11453.16
572.265	11510.56
572.626	11616.54
572.987	11662.65
573.349	11761.4
573.71	11791.46
574.071	11819.7
574.432	11939.25
574.794	12010.43
575.155	12044.33
575.516	12073.26
575.877	12221.95
576.238	12268.96
576.599	12389.86
576.96	12390.31
577.32	12448.16
577.681	12576.75
578.042	12681.83
578.403	12743.29
578.763	12806.34
579.124	12942.84
579.485	13026.68
579.845	13183.51
580.206	13310.06
580.566	13391.19
580.927	13526.78
581.287	13709.6
581.648	13831.63
582.008	13915.47
582.368	14040.21
582.728	14231.39
583.089	14359.52
583.449	14521.1
583.809	14659.18
584.169	14913.18
584.529	14982.56
584.889	15335.54
585.249	15417.35
585.609	15679.94
585.969	15908.86
586.329	16031.34
586.688	16237.89
587.048	16487.6
587.408	16715.17
587.768	16967.14
588.127	17239.67
588.487	17323.29
588.846	17745.42
589.206	17910.62
589.565	18091.63
589.925	18417.72
590.284	18784.04
590.643	18946.75
591.003	19231.03
591.362	19642.1
591.721	19851.13
592.08	20069.66
592.44	20414.51
592.799	20658.79
593.158	20965.23
593.517	21253.35
593.876	21492.22
594.235	21765.66
594.593	22240.67
594.952	22468.91
595.311	22571.74
595.67	22991.39
596.029	23490.58
596.387	23695.55
596.746	24012.6
597.104	24241.07
597.463	24556.77
597.822	24957.44
598.18	25114.27
598.538	25490.08
598.897	25846.45
599.255	25974.81
599.613	26508.81
599.972	26639.2
600.33	26967.55
600.688	27281.67
601.046	27431.5
601.404	27867.42
601.762	28050.91
602.12	28476.21
602.478	28767.51
602.836	29092.24
603.194	29096.09
603.552	29440.71
603.91	29628.5
604.268	30078.21
604.625	30230.52
604.983	30733.1
605.341	30699.21
605.698	31134.9
606.056	31387.32
606.413	31712.74
606.771	31876.8
607.128	32171.94
607.485	32246.96
607.843	32432.27
608.2	32763.33
608.557	33195.19
608.914	33267.95
609.272	33589.75
609.629	33856.86
609.986	34083.52
610.343	34105.67
610.7	34516.28
611.057	34659.33
611.414	34737.97
611.771	34913.33
612.127	35497.95
612.484	35389.25
612.841	35694.1
613.198	35848.22
613.554	35988.79
613.911	36229.91
614.267	36455.44
614.624	36488.89
614.98	36810.91
615.337	37102.88
615.693	37284.57
616.05	37254.97
616.406	37715.29
616.762	37698.57
617.118	37760.26
617.475	37859.92
617.831	38223.53
618.187	38283.64
618.543	38458.32
618.899	38784.19
619.255	38734.93
619.611	38864.42
619.967	39130.62
620.323	39241.13
620.678	39211.07
621.034	39165.65
621.39	39277.96
621.746	39419.88
622.101	39828.91
622.457	39630.5
622.812	39711.4
623.168	39802.24
623.523	39956.36
623.879	40129.02
624.234	40162.23
624.589	40195.68
624.945	40286.53
625.3	40530.59
625.655	40582.79
626.01	40624.14
626.365	40625.5
626.72	40562
627.075	40682.22
627.43	40902.33
627.785	40830.47
628.14	41134.86
628.495	41066.62
628.85	40972.38
629.205	41001.31
629.559	41296.22
629.914	41257.57
630.269	41158.82
630.623	41223.9
630.978	41076.56
631.332	41410.56
631.687	41500.96
632.041	41388.19
632.396	41423.9
632.75	41281.98
633.104	41465.25
633.459	41237.69
633.813	41315.2
634.167	41316.55
634.521	41365.37
634.875	41448.3
635.229	41410.34
635.583	41175.54
635.937	41337.57
636.291	41337.12
636.645	41467.96
636.999	41306.84
637.352	41543.89
637.706	41246.5
638.06	41452.82
638.413	41307.06
638.767	41302.77
639.121	41421.86
639.474	41210.34
639.828	41239.49
640.181	41324.92
640.534	41258.93
640.888	41245.37
641.241	41146.62
641.594	41234.98
641.947	41266.84
642.301	41188.42
642.654	41291.47
643.007	41187.07
643.36	41291.24
643.713	41191.36
644.066	41352.71
644.419	41079.27
644.771	40846.51
645.124	40661.88
645.477	40477.25
645.83	40343.47
646.182	40115.23
646.535	39950.94
646.888	40109.13
647.24	39970.15
647.593	40135.57
647.945	40120.43
648.298	39865.52
648.65	39844.05
649.002	39774.67
649.355	39974.22
649.707	39872.3
650.059	40058.96
650.411	40478.61
650.763	40431.38
651.115	40959.28
651.467	40847.19
651.819	40717.02
652.171	40716.34
652.523	40699.62
652.875	40573.75
653.227	40484.94
653.578	40849.22
653.93	40643.35
654.282	40468.44
654.633	40359.52
654.985	40527.42
655.337	40539.85
655.688	40511.15
656.039	40780.75
656.391	40306.41
656.742	40522.45
657.094	40539.85
657.445	40673.63
657.796	40521.55
658.147	40419.86
658.498	40462.79
658.849	40513.41
659.2	40392.51
659.551	40340.76
659.902	40541.66
660.253	40551.6
660.604	40512.96
660.955	40373.3
661.306	40413.53
661.656	40357.48
662.007	40371.72
662.358	40398.39
662.708	40387.54
663.059	40229.58
663.409	40203.59
663.76	40491.49
664.11	40415.11
664.461	40427.54
664.811	40465.96
665.161	40450.36
665.511	40359.74
665.862	40377.14
666.212	40605.39
666.562	40468.22
666.912	40400.65
667.262	40421.21
667.612	40306.64
667.962	40336.24
668.312	40391.38
668.662	40504.15
669.011	40178.73
669.361	40275.23
669.711	40263.7
670.06	40265.51
670.41	40142.57
670.76	40179.18
671.109	40198.39
671.459	40143.7
671.808	40005.63
672.157	40127.21
672.507	39856.03
672.856	39958.4
673.205	40010.83
673.554	40073.88
673.904	39903.26
674.253	40127.89
674.602	40042.92
674.951	39445.19
675.3	39265.76
675.649	39927.44
675.998	39822.81
676.346	39919.08
676.695	39954.56
677.044	39671.4
677.393	39858.51
677.741	39908.23
678.09	39704.17
678.438	39709.37
678.787	39807.67
679.135	39762.02
679.484	39608.58
679.832	39692.87
680.181	39442.03
680.529	39644.51
680.877	39432.99
681.225	39421.01
681.573	39719.76
681.922	39369.49
682.27	39314.57
682.618	39285.2
682.966	39235.48
683.314	39264.41
683.661	39117.52
684.009	39037.97
684.357	38793.68
684.705	38884.98
685.053	39025.54
685.4	38757.3
685.748	38790.29
686.095	38639.56
686.443	38587.81
686.79	38484.99
687.138	38644.08
687.485	38568.6
687.832	38421.72
688.18	38537.19
688.527	38325.9
688.874	38233.02
689.221	38173.36
689.568	38082.97
689.915	37897.21
690.262	37892.24
690.609	37893.59
690.956	37791.68
691.303	37779.92
691.65	37529.08
691.997	37616.54
692.344	37314.63
692.69	37336.32
693.037	37297.9
693.383	36947.63
693.73	37204.12
694.077	37032.37
694.423	36908.31
694.769	36889.1
695.116	36744.25
695.462	36758.03
695.808	36520.52
696.155	36829.44
696.501	36409.34
696.847	36491.82
697.193	36125.96
697.539	36309.23
697.885	36065.62
698.231	35942.68
698.577	35906.75
698.923	35989.92
699.269	35682.58
699.614	35492.75
699.96	35540.66
700.306	35399.65
700.651	35212.31
700.997	35177.96
701.342	35094.12
701.688	35086.89
702.033	34957.85
702.379	34919.89
702.724	34849.61
703.069	35103.16
703.415	34573.91
703.76	34613.23
704.105	34676.05
704.45	34518.77
704.795	34300.02
705.14	34268.38
705.485	34249.17
705.83	34010.76
706.175	34104.32
706.52	34029.29
706.865	33941.61
707.209	33778.67
707.554	33686.92
707.899	33737.55
708.243	33607.15
708.588	33649.19
708.932	33375.07
709.277	33385.24
709.621	33383.66
709.966	33166.49
710.31	33182.98
710.654	32813.05
710.998	32933.72
711.342	32994.97
711.687	32877.91
712.031	32617.12
712.375	32627.07
712.719	32716.1
713.063	32686.05
713.407	32667.74
713.75	32626.61
714.094	32449.67
714.438	32385.72
714.782	32461.87
715.125	32230.47
715.469	32277.47
715.812	32164.48
716.156	32015.33
716.499	32072.05
716.843	32096.01
717.186	31909.57
717.53	32040.64
717.873	31916.35
718.216	31872.06
718.559	31625.96
718.902	31479.53
719.246	31564.72
719.589	31463.48
719.932	31412.63
720.275	31413.09
720.617	31309.81
720.96	31202.02
721.303	31341.22
721.646	31277.5
721.989	31054.23
722.331	31191.85
722.674	31024.85
723.016	31125.41
723.359	30943.49
723.701	31048.8
724.044	30847.9
724.386	30667.57
724.729	30917.28
725.071	30677.51
725.413	30705.99
725.755	30634.35
726.097	30608.36
726.439	30505.77
726.782	30298.99
727.124	30490.85
727.465	30384.86
727.807	30354.81
728.149	30200.01
728.491	30247.47
728.833	30217.19
729.175	30239.56
729.516	30118.21
729.858	30022.61
730.199	30020.13
730.541	29918.66
730.882	29908.27
731.224	30108.26
731.565	29685.22
731.906	29925.89
732.248	29865.1
732.589	29830.3
732.93	29669.86
733.271	29621.5
733.612	29689.29
733.953	29715.05
734.294	29547.37
734.635	29482.29
734.976	29430.99
735.317	29416.53
735.658	29271.45
735.999	29350.77
736.339	29237.55
736.68	29375.85
737.021	29186.25
737.361	28978.57
737.702	29185.12
738.042	29021.06
738.383	29072.36
738.723	29136.08
739.063	29000.27
739.404	29030.32
739.744	28967.5
740.084	28801.63
740.424	28836.21
740.764	28743.33
741.104	28809.31
741.444	28646.15
741.784	28579.71
742.124	28799.82
742.464	28644.12
742.804	28489.1
743.143	28434.86
743.483	28544.24
743.823	28346.95
744.162	28351.02
744.502	28451.36
744.841	28238.93
745.181	28357.8
745.52	28274.86
745.86	28240.06
746.199	28153.29
746.538	28197.35
746.877	28309.89
747.216	28176.11
747.556	28037.58
747.895	27969.79
748.234	28061.76
748.573	27942.44
748.911	27905.16
749.25	27813.18
749.589	27802.79
749.928	27786.74
750.267	27673.3
750.605	27701.77
750.944	27680.76
751.283	27554.43
751.621	27665.16
751.96	27359.63
752.298	27462.91
752.636	27314.66
752.975	27280.09
753.313	27119.19
753.651	27346.53
753.989	27258.39
754.327	27150.37
754.666	26910.83
755.004	27036.93
755.342	26940.21
755.679	27067.44
756.017	26745.86
756.355	26968.91
756.693	26876.26
757.031	26819.76
757.368	26615.02
757.706	26608.47
758.044	26565.53
758.381	26541.58
758.719	26374.57
759.056	26565.76
759.394	26281.24
