Data from hue_120_FLMS001491_00070.txt Node
Date: Tue Feb 07 16:59:50 GMT 2017
User: dcchb
Spectrometer: FLMS00149
Trigger mode: 0
Integration Time (sec): 2.000000E-2
Scans to average: 10
Electric dark correction enabled: true
Nonlinearity correction enabled: false
Boxcar width: 0
XAxis mode: Wavelengths
Number of Pixels in Spectrum: 2048
>>>>>Begin Spectral Data<<<<<
341.393	1.34
341.776	1.34
342.16	1.34
342.543	-65.32
342.927	-72.1
343.31	-61.71
343.693	-63.29
344.077	-76.17
344.46	-74.59
344.843	-51.76
345.226	-40.24
345.61	-23.29
345.993	-33.23
346.376	-3.86
346.759	22.36
347.142	43.15
347.525	27.1
347.908	48.8
348.291	72.98
348.674	99.87
349.057	113.88
349.44	143.03
349.823	158.85
350.206	172.18
350.588	208.57
350.971	219.64
351.354	237.27
351.737	232.52
352.119	240.88
352.502	286.76
352.884	268.45
353.267	307.32
353.65	296.93
354.032	290.6
354.414	300.77
354.797	308.68
355.179	315.23
355.562	320.66
355.944	338.06
356.326	328.56
356.709	331.95
357.091	348.68
357.473	350.49
357.855	375.34
358.238	363.82
358.62	337.83
359.002	353.2
359.384	344.38
359.766	352.29
360.148	333.31
360.53	352.29
360.912	329.92
361.294	349.81
361.676	346.42
362.057	345.29
362.439	339.19
362.821	329.02
363.203	314.33
363.584	333.99
363.966	325.18
364.348	298.51
364.729	333.08
365.111	322.01
365.493	342.58
365.874	320.88
366.256	328.79
366.637	299.19
367.019	315.68
367.4	308.45
367.781	322.46
368.163	330.6
368.544	315.68
368.925	323.59
369.306	326.3
369.688	344.84
370.069	335.57
370.45	329.24
370.831	310.03
371.212	322.69
371.593	340.77
371.974	333.08
372.355	319.98
372.736	335.12
373.117	320.2
373.498	301.22
373.879	320.88
374.26	322.01
374.641	322.46
375.021	316.14
375.402	331.28
375.783	339.64
376.163	333.99
376.544	333.31
376.925	335.12
377.305	332.63
377.686	336.7
378.066	341.22
378.447	354.78
378.827	350.26
379.208	341.9
379.588	345.74
379.968	333.08
380.349	331.95
380.729	339.19
381.109	336.25
381.489	353.87
381.87	352.07
382.25	337.6
382.63	335.12
383.01	355.46
383.39	368.79
383.77	348.45
384.15	335.12
384.53	359.75
384.91	376.93
385.29	365.85
385.67	368.11
386.049	372.86
386.429	363.82
386.809	369.47
387.189	354.1
387.568	363.37
387.948	365.85
388.328	379.41
388.707	362.24
389.087	355.23
389.466	361.33
389.846	363.82
390.225	381.44
390.605	384.83
390.984	391.84
391.363	372.86
391.743	395.68
392.122	380.54
392.501	369.92
392.881	399.3
393.26	394.78
393.639	388.45
394.018	387.77
394.397	401.11
394.776	388.22
395.155	410.6
395.534	413.99
395.913	414.21
396.292	396.59
396.671	396.13
397.05	420.31
397.429	423.03
397.808	391.61
398.186	421.67
398.565	398.39
398.944	406.98
399.323	429.13
399.701	430.48
400.08	427.77
400.458	422.8
400.837	423.03
401.215	398.85
401.594	434.78
401.972	429.13
402.351	433.42
402.729	441.78
403.107	422.12
403.486	432.97
403.864	452.4
404.242	425.29
404.62	443.14
404.999	450.14
405.377	449.69
405.755	445.17
406.133	448.11
406.511	472.97
406.889	461.44
407.267	459.41
407.645	469.13
408.023	458.05
408.401	463.93
408.779	478.84
409.156	500.31
409.534	487.43
409.912	485.85
410.29	486.3
410.667	496.7
411.045	515.23
411.422	496.24
411.8	529.01
412.178	505.74
412.555	511.84
412.933	522.91
413.31	528.56
413.687	502.8
414.065	524.72
414.442	523.81
414.819	532.4
415.197	538.5
415.574	537.6
415.951	545.96
416.328	549.12
416.705	552.06
417.082	546.86
417.46	557.26
417.837	556.13
418.214	564.04
418.591	565.62
418.967	570.37
419.344	567.43
419.721	580.08
420.098	575.34
420.475	576.92
420.852	596.13
421.228	595.68
421.605	581.67
421.982	592.74
422.358	615.34
422.735	621.44
423.111	612.85
423.488	613.3
423.864	607.88
424.241	627.99
424.617	629.57
424.994	646.52
425.37	628.9
425.746	634.77
426.123	638.39
426.499	655.11
426.875	668.89
427.251	659.86
427.627	657.14
428.003	674.54
428.379	678.16
428.756	688.1
429.132	695.56
429.507	704.83
429.883	705.96
430.259	695.56
430.635	714.54
431.011	707.54
431.387	737.14
431.763	745.73
432.138	755.9
432.514	749.8
432.89	747.31
433.265	760.64
433.641	770.81
434.016	773.3
434.392	822.79
434.767	791.15
435.143	777.82
435.518	780.08
435.894	799.96
436.269	824.82
436.644	804.03
437.02	852.39
437.395	822.56
437.77	843.58
438.145	862.79
438.52	868.89
438.895	887.65
439.271	894.88
439.646	883.8
440.021	904.14
440.395	897.36
440.77	873.41
441.145	904.37
441.52	930.58
441.895	915.67
442.27	928.78
442.645	917.93
443.019	942.56
443.394	944.82
443.769	951.83
444.143	911.15
444.518	969.23
444.892	952.5
445.267	985.04
445.641	988.21
446.016	973.07
446.39	1014.87
446.764	992.95
447.139	992.95
447.513	994.54
447.887	1016.23
448.262	1026.85
448.636	998.38
449.01	1054.65
449.384	1057.59
449.758	1062.1
450.132	1057.59
450.506	1056.46
450.88	1058.72
451.254	1056.68
451.628	1061.2
452.002	1103.91
452.376	1099.62
452.75	1116.57
453.123	1140.75
453.497	1104.14
453.871	1168.99
454.244	1183.68
454.618	1175.32
454.992	1185.49
455.365	1208.77
455.739	1224.13
456.112	1242.44
456.486	1236.34
456.859	1232.04
457.232	1264.81
457.606	1278.82
457.979	1284.7
458.352	1331.02
458.725	1325.6
459.099	1324.24
459.472	1371.02
459.845	1409.67
460.218	1455.99
460.591	1386.84
460.964	1420.06
461.337	1466.61
461.71	1449.21
462.083	1494.86
462.456	1487.63
462.829	1498.7
463.201	1528.08
463.574	1557.01
463.947	1592.94
464.32	1619.6
464.692	1613.28
465.065	1608.08
465.438	1649.66
465.81	1694.63
466.183	1719.71
466.555	1769.88
466.928	1765.82
467.3	1790.67
467.672	1812.37
468.045	1869.99
468.417	1885.59
468.789	1877.68
469.161	1929.2
469.534	1960.16
469.906	1973.49
470.278	2032.47
470.65	2055.53
471.022	2089.87
471.394	2152.25
471.766	2164.9
472.138	2234.5
472.51	2273.37
472.882	2306.82
473.253	2368.74
473.625	2387.27
473.997	2472.46
474.369	2486.93
474.74	2542.07
475.112	2594.72
475.484	2651.44
475.855	2711.55
476.227	2800.36
476.598	2861.61
476.97	2874.49
477.341	2979.12
477.713	3102.96
478.084	3146.8
478.455	3212.56
478.827	3304.98
479.198	3413.68
479.569	3419.78
479.94	3572.55
480.311	3637.18
480.682	3761.47
481.053	3888.92
481.424	3971.18
481.795	4083.72
482.166	4181.12
482.537	4267.9
482.908	4361.45
483.279	4468.12
483.65	4589.92
484.021	4749.92
484.391	4837.15
484.762	4964.6
485.133	5082.34
485.503	5195.33
485.874	5341.99
486.244	5445.72
486.615	5634.19
486.985	5723
487.356	5894.07
487.726	6025.59
488.097	6220.16
488.467	6302.19
488.837	6485.47
489.207	6569.08
489.578	6778.79
489.948	6874.16
490.318	7108.95
490.688	7199.8
491.058	7329.96
491.428	7529.96
491.798	7606.57
492.168	7855.6
492.538	8014.69
492.908	8100.79
493.278	8304.4
493.648	8371.74
494.017	8588.91
494.387	8752.07
494.757	8878.17
495.126	9034.1
495.496	9137.15
495.866	9275.45
496.235	9422.34
496.605	9628.43
496.974	9721.31
497.344	9906.39
497.713	10003.34
498.082	10127.86
498.452	10260.96
498.821	10300.73
499.19	10463.89
499.559	10589.99
499.928	10805.35
500.298	10777.78
500.667	10967.83
501.036	10991.79
501.405	11170.99
501.774	11267.71
502.143	11394.26
502.512	11424.32
502.88	11636.74
503.249	11634.71
503.618	11783.4
503.987	11921.71
504.356	12023.4
504.724	12068.6
505.093	12179.1
505.462	12276.05
505.83	12367.57
506.199	12524.85
506.567	12697.51
506.936	12665.19
507.304	12866.99
507.672	12855.02
508.041	13003.49
508.409	13006.65
508.777	13106.76
509.145	13251.61
509.514	13228.79
509.882	13412.97
510.25	13379.07
510.618	13507.88
510.986	13550.82
511.354	13733.64
511.722	13741.55
512.09	13899.28
512.458	13811.37
512.826	13942.44
513.193	13927.3
513.561	14089.33
513.929	14179.95
514.297	14282.32
514.664	14310.57
515.032	14362.09
515.4	14426.95
515.767	14494.97
516.135	14556.89
516.502	14393.96
516.869	14637.12
517.237	14674.63
517.604	14594.86
517.972	14802.76
518.339	14900.61
518.706	14796.88
519.073	14898.8
519.44	14948.29
519.808	15146.93
520.175	15092.24
520.542	15179.93
520.909	15213.6
521.276	15193.48
521.643	15372.01
522.009	15334.72
522.376	15368.17
522.743	15438.22
523.11	15519.8
523.477	15564.1
523.843	15676.18
524.21	15688.84
524.577	15773.81
524.943	15713.92
525.31	15831.43
525.676	16097.19
526.043	15943.97
526.409	15978.55
526.776	16107.81
527.142	16074.14
527.508	16132.9
527.874	16166.34
528.241	16222.16
528.607	16202.05
528.973	16233.68
529.339	16286.79
529.705	16287.69
530.071	16360.91
530.437	16415.37
530.803	16386.45
531.169	16484.52
531.535	16407.24
531.901	16344.87
532.267	16364.98
532.632	16345.54
532.998	16372.44
533.364	16462.83
533.73	16428.48
534.095	16485.2
534.461	16443.4
534.826	16461.47
535.192	16419.67
535.557	16565.88
535.923	16395.49
536.288	16432.1
536.653	16474.81
537.019	16381.7
537.384	16323.4
537.749	16340.35
538.114	16387.8
538.479	16235.94
538.845	16444.3
539.21	16246.34
539.575	16239.78
539.94	16190.97
540.305	16237.75
540.67	16127.02
541.034	16204.53
541.399	16113.91
541.764	16112.1
542.129	16160.01
542.494	16151.65
542.858	16068.94
543.223	15940.58
543.587	16039.11
543.952	15987.59
544.316	15980.58
544.681	15934.03
545.045	15877.99
545.41	15932.22
545.774	15823.3
546.138	15879.34
546.503	15849.96
546.867	15749.85
547.231	15795.95
547.595	15738.33
547.959	15646.58
548.324	15679.35
548.688	15641.61
549.052	15667.14
549.416	15575.4
549.779	15594.83
550.143	15600.03
550.507	15572.46
550.871	15574.27
551.235	15454.49
551.599	15460.6
551.962	15567.26
552.326	15405.68
552.689	15516.87
553.053	15342.41
553.417	15348.96
553.78	15522.97
554.143	15313.26
554.507	15358
554.87	15369.07
555.234	15480.71
555.597	15313.71
555.96	15301.28
556.323	15222.41
556.686	15297.89
557.05	15417.89
557.413	15263.09
557.776	15236.2
558.139	15346.02
558.502	15293.6
558.865	15309.41
559.228	15373.37
559.59	15365.91
559.953	15294.05
560.316	15336.76
560.679	15341.5
561.041	15423.76
561.404	15362.75
561.767	15404.33
562.129	15333.37
562.492	15456.08
562.854	15404.33
563.217	15321.16
563.579	15358.9
563.941	15480.03
564.304	15412.01
564.666	15595.28
565.028	15471.9
565.39	15523.87
565.753	15542.63
566.115	15616.07
566.477	15567.49
566.839	15602.51
567.201	15701.72
567.563	15600.71
567.925	15695.17
568.287	15650.87
568.648	15674.83
569.01	15822.17
569.372	15801.15
569.734	15690.65
570.095	15742.17
570.457	15767.25
570.819	15767.03
571.18	15833.02
571.542	15851.55
571.903	15845.9
572.265	15833.47
572.626	15793.69
572.987	15817.2
573.349	15892
573.71	15902.84
574.071	15879.12
574.432	15948.04
574.794	16080.92
575.155	16012.67
575.516	16059.22
575.877	16094.25
576.238	16023.97
576.599	16038.66
576.96	16078.43
577.32	15967.93
577.681	16183.29
578.042	16154.82
578.403	16046.8
578.763	16157.53
579.124	16130.86
579.485	16112.56
579.845	16179.45
580.206	16109.62
580.566	16157.98
580.927	16114.36
581.287	16207.47
581.648	16044.76
582.008	16143.52
582.368	16017.87
582.728	16089.28
583.089	16034.82
583.449	16096.96
583.809	16084.08
584.169	16076.17
584.529	16099
584.889	16137.19
585.249	16111.43
585.609	15957.76
585.969	16111.88
586.329	16049.73
586.688	16074.82
587.048	16014.71
587.408	15942.62
587.768	16023.52
588.127	15944.2
588.487	15886.12
588.846	15977.19
589.206	15770.42
589.565	15984.2
589.925	16011.77
590.284	15995.05
590.643	15941.26
591.003	16008.6
591.362	15960.47
591.721	15964.76
592.08	15885.22
592.44	16019
592.799	15903.3
593.158	15919.34
593.517	15882.51
593.876	15867.37
594.235	15856.74
594.593	15841.6
594.952	15832.11
595.311	15791.89
595.67	15831.43
596.029	15928.83
596.387	15888.61
596.746	15875.73
597.104	15778.1
597.463	15803.64
597.822	15891.09
598.18	15854.26
598.538	15767.93
598.897	15901.71
599.255	15755.5
599.613	16022.39
599.972	15828.95
600.33	15860.81
600.688	15780.59
601.046	15914.6
601.404	15913.47
601.762	15911.43
602.12	15904.2
602.478	15859.46
602.836	15873.24
603.194	15754.15
603.552	15840.47
603.91	15852
604.268	15864.65
604.625	15762.06
604.983	15957.98
605.341	15815.39
605.698	15855.16
606.056	15810.64
606.413	15826.24
606.771	15877.53
607.128	15893.35
607.485	15831.66
607.843	15852.45
608.2	15957.76
608.557	16011.54
608.914	15939
609.272	16025.33
609.629	16096.29
609.986	16127.25
610.343	16024.42
610.7	16081.37
611.057	16076.63
611.414	16051.32
611.771	16028.72
612.127	16113.46
612.484	16125.21
612.841	16209.73
613.198	16044.99
613.554	16053.58
613.911	16165.21
614.267	16078.43
614.624	16151.88
614.98	16125.89
615.337	16240.24
615.693	16168.15
616.05	16127.47
616.406	16162.95
616.762	16113.91
617.118	16138.77
617.475	16148.71
617.831	16271.65
618.187	16312.1
618.543	16320.23
618.899	16384.41
619.255	16286.56
619.611	16305.55
619.967	16423.51
620.323	16375.6
620.678	16354.36
621.034	16327.24
621.39	16282.95
621.746	16308.71
622.101	16483.39
622.457	16301.03
622.812	16400.23
623.168	16351.42
623.523	16311.65
623.879	16422.15
624.234	16250.18
624.589	16425.54
624.945	16376.28
625.3	16384.64
625.655	16418.76
626.01	16308.71
626.365	16329.05
626.72	16392.32
627.075	16341.7
627.43	16332.21
627.785	16291.99
628.14	16283.17
628.495	16418.31
628.85	16351.42
629.205	16249.28
629.559	16406.56
629.914	16280.24
630.269	16296.73
630.623	16192.55
630.978	16251.54
631.332	16305.09
631.687	16289.73
632.041	16213.57
632.396	16268.71
632.75	16181.26
633.104	16094.03
633.459	16118.21
633.813	16056.06
634.167	16142.61
634.521	16036.63
634.875	15991.2
635.229	16045.44
635.583	16011.09
635.937	15995.95
636.291	15957.53
636.645	16023.97
636.999	16015.61
637.352	15899.91
637.706	15924.09
638.06	15919.79
638.413	15821.49
638.767	15839.57
639.121	15817.88
639.474	15791.89
639.828	15748.95
640.181	15813.36
640.534	15874.14
640.888	15711.21
641.241	15706.01
641.594	15700.59
641.947	15734.71
642.301	15762.74
642.654	15715.73
643.007	15705.56
643.36	15741.04
643.713	15666.92
644.066	15716.63
644.419	15580.59
644.771	15520.48
645.124	15370.43
645.477	15392.8
645.83	15331.79
646.182	15212.69
646.535	15122.98
646.888	15153.49
647.24	15096.09
647.593	15253.37
647.945	15145.58
648.298	15094.96
648.65	15016.09
649.002	14957.78
649.355	15088.63
649.707	15087.27
650.059	15150.77
650.411	15413.37
650.763	15342.41
651.115	15422.18
651.467	15390.54
651.819	15429.18
652.171	15406.81
652.523	15315.06
652.875	15349.41
653.227	15437.32
653.578	15498.79
653.93	15456.08
654.282	15390.09
654.633	15371.79
654.985	15409.98
655.337	15418.34
655.688	15410.65
656.039	15518.67
656.391	15364.33
656.742	15447.72
657.094	15344.89
657.445	15506.47
657.796	15459.69
658.147	15456.3
658.498	15391.22
658.849	15495.17
659.2	15464.89
659.551	15436.19
659.902	15477.77
660.253	15460.6
660.604	15464.44
660.955	15361.39
661.306	15426.02
661.656	15405.91
662.007	15395.29
662.358	15436.19
662.708	15494.95
663.059	15431.9
663.409	15358.9
663.76	15479.35
664.11	15398.9
664.461	15515.74
664.811	15505.11
665.161	15427.83
665.511	15423.31
665.862	15462.18
666.212	15445.23
666.562	15498.79
666.912	15468.73
667.262	15461.27
667.612	15464.89
667.962	15489.75
668.312	15442.29
668.662	15471.22
669.011	15483.87
669.361	15432.8
669.711	15368.4
670.06	15472.12
670.41	15362.97
670.76	15402.29
671.109	15484.1
671.459	15275.06
671.808	15384.67
672.157	15426.25
672.507	15263.09
672.856	15312.35
673.205	15399.81
673.554	15331.33
673.904	15237.55
674.253	15436.64
674.602	15216.76
674.951	15122.3
675.3	14979.25
675.649	15272.8
675.998	15252.24
676.346	15226.03
676.695	15341.73
677.044	15144.22
677.393	15164.33
677.741	15101.28
678.09	15192.35
678.438	15078.69
678.787	15178.8
679.135	15064.45
679.484	14962.98
679.832	15015.86
680.181	14988.97
680.529	14993.72
680.877	14986.26
681.225	14869.43
681.573	14937.9
681.922	14865.13
682.27	14889.09
682.618	14924.11
682.966	14800.27
683.314	14781.74
683.661	14808.64
684.009	14684.57
684.357	14716.89
684.705	14729.77
685.053	14707.85
685.4	14627.62
685.748	14581.3
686.095	14535.65
686.443	14526.16
686.79	14548.53
687.138	14469.89
687.485	14402.77
687.832	14381.75
688.18	14268.76
688.527	14348.54
688.874	14278.03
689.221	14212.04
689.568	14219.5
689.915	14165.04
690.262	14185.83
690.609	14093.17
690.956	14052.05
691.303	14014.98
691.65	14003.91
691.997	13926.85
692.344	13859.96
692.69	13853.18
693.037	13860.86
693.383	13709
693.73	13736.35
694.077	13702.68
694.423	13710.36
694.769	13655.67
695.116	13676.24
695.462	13557.82
695.808	13621.55
696.155	13585.84
696.501	13369.58
696.847	13460.87
697.193	13327.09
697.539	13401.89
697.885	13259.07
698.231	13218.62
698.577	13148.34
698.923	13193.54
699.269	13061.79
699.614	12974.33
699.96	12964.84
700.306	12955.13
700.651	12914.67
700.997	12886.2
701.342	12722.82
701.688	12698.64
702.033	12686.88
702.379	12670.39
702.724	12674
703.069	12658.18
703.415	12561.01
703.76	12468.13
704.105	12525.76
704.45	12448.47
704.795	12302.49
705.14	12274.01
705.485	12236.05
705.83	12249.83
706.175	12188.37
706.52	12196.05
706.865	12142.27
707.209	12067.69
707.554	12017.07
707.899	12091.65
708.243	11913.57
708.588	11923.06
708.932	11925.32
709.277	11916.28
709.621	11862.05
709.966	11754.03
710.31	11850.97
710.654	11743.86
710.998	11670.87
711.342	11695.5
711.687	11715.16
712.031	11628.38
712.375	11691.43
712.719	11610.3
713.063	11584.54
713.407	11678.77
713.75	11560.81
714.094	11586.57
714.438	11476.52
714.782	11522.62
715.125	11436.3
715.469	11485.11
715.812	11404.66
716.156	11289.86
716.499	11350.87
716.843	11327.37
717.186	11269.52
717.53	11365.34
717.873	11313.59
718.216	11299.12
718.559	11157.88
718.902	11126.7
719.246	11228.17
719.589	11187.71
719.932	11080.6
720.275	11136.64
720.617	11119.47
720.96	11110.43
721.303	11140.94
721.646	11108.39
721.989	11022.97
722.331	11030.66
722.674	11024.78
723.016	11022.29
723.359	11099.13
723.701	11074.27
724.044	11014.16
724.386	10911.56
724.729	11071.11
725.071	10965.35
725.413	11007.15
725.755	10949.3
726.097	10905.24
726.439	10850.32
726.782	10885.8
727.124	10892.13
727.465	10800.83
727.807	10819.14
728.149	10876.76
728.491	10900.26
728.833	10875.18
729.175	10824.56
729.516	10764
729.858	10849.19
730.199	10826.14
730.541	10824.11
730.882	10778.01
731.224	10837.22
731.565	10742.98
731.906	10789.98
732.248	10805.35
732.589	10729.87
732.93	10738.23
733.271	10724.68
733.612	10739.82
733.953	10775.97
734.294	10729.65
734.635	10695.52
734.976	10698.46
735.317	10690.33
735.658	10650.33
735.999	10717.22
736.339	10693.72
736.68	10691.23
737.021	10689.87
737.361	10702.08
737.702	10801.51
738.042	10726.71
738.383	10721.51
738.723	10745.47
739.063	10827.72
739.404	10872.92
739.744	10759.03
740.084	10753.83
740.424	10804.22
740.764	10709.76
741.104	10785.01
741.444	10805.13
741.784	10810.32
742.124	10869.53
742.464	10853.03
742.804	10887.61
743.143	10880.83
743.483	10932.58
743.823	10839.47
744.162	10895.52
744.502	10913.15
744.841	11020.26
745.181	11015.52
745.52	11057.32
745.86	11057.55
746.199	11097.77
746.538	11181.61
746.877	11290.76
747.216	11257.32
747.556	11363.75
747.895	11352.68
748.234	11317.88
748.573	11497.76
748.911	11469.74
749.25	11526.91
749.589	11573.69
749.928	11686.23
750.267	11801.94
750.605	11829.96
750.944	11914.93
751.283	11981.14
751.621	12151.53
751.96	12106.56
752.298	12223.62
752.636	12352.2
752.975	12471.75
753.313	12448.02
753.651	12658.86
753.989	12722.59
754.327	12834.68
754.666	12969.36
755.004	13048.46
755.342	13227.89
755.679	13396.47
756.017	13440.54
