Data from hue_180_FLMS001491_00078.txt Node
Date: Tue Feb 07 16:47:28 GMT 2017
User: dcchb
Spectrometer: FLMS00149
Trigger mode: 0
Integration Time (sec): 2.000000E-2
Scans to average: 10
Electric dark correction enabled: true
Nonlinearity correction enabled: false
Boxcar width: 0
XAxis mode: Wavelengths
Number of Pixels in Spectrum: 2048
>>>>>Begin Spectral Data<<<<<
341.393	-9.27
341.776	-9.27
342.16	-9.27
342.543	-64.41
342.927	-58.98
343.31	-56.72
343.693	-68.25
344.077	-65.08
344.46	-79.77
344.843	-40
345.226	-40
345.61	-58.53
345.993	-27.8
346.376	-3.84
346.759	2.03
347.142	40.22
347.525	51.3
347.908	54.91
348.291	72.09
348.674	100.11
349.057	119.32
349.44	136.95
349.823	146.66
350.206	166.32
350.588	183.5
350.971	190.96
351.354	236.83
351.737	242.03
352.119	250.84
352.502	264.85
352.884	270.5
353.267	262.59
353.65	300.56
354.032	286.32
354.414	316.6
354.797	327.45
355.179	317.51
355.562	332.65
355.944	331.97
356.326	300.78
356.709	324.96
357.091	328.35
357.473	352.99
357.855	329.48
358.238	322.48
358.62	345.98
359.002	355.02
359.384	342.36
359.766	336.94
360.148	341.69
360.53	349.82
360.912	322.93
361.294	332.87
361.676	343.27
362.057	344.17
362.439	326.09
362.821	342.14
363.203	321.35
363.584	320.67
363.966	330.84
364.348	313.44
364.729	317.51
365.111	314.34
365.493	327.9
365.874	326.32
366.256	307.56
366.637	309.82
367.019	306.88
367.4	296.04
367.781	321.57
368.163	295.36
368.544	305.08
368.925	308.69
369.306	328.8
369.688	315.92
370.069	308.69
370.45	322.93
370.831	308.92
371.212	305.98
371.593	291.97
371.974	320.22
372.355	321.12
372.736	310.05
373.117	325.19
373.498	307.34
373.879	302.14
374.26	319.99
374.641	316.6
375.021	324.29
375.402	338.75
375.783	304.62
376.163	312.99
376.544	330.39
376.925	322.03
377.305	341.23
377.686	318.41
378.066	332.42
378.447	320.22
378.827	336.04
379.208	340.33
379.588	315.7
379.968	344.4
380.349	328.35
380.729	343.04
381.109	317.96
381.489	333.78
381.87	344.4
382.25	348.01
382.63	345.3
383.01	342.59
383.39	320.67
383.77	322.7
384.15	340.33
384.53	355.47
384.91	359.31
385.29	334.91
385.67	352.08
386.049	350.73
386.429	367.67
386.809	325.42
387.189	342.82
387.568	340.78
387.948	347.34
388.328	348.01
388.707	334.45
389.087	359.31
389.466	350.27
389.846	373.1
390.225	366.77
390.605	363.38
390.984	356.15
391.363	353.21
391.743	382.36
392.122	375.81
392.501	346.43
392.881	370.84
393.26	378.97
393.639	387.56
394.018	389.59
394.397	377.62
394.776	366.09
395.155	379.88
395.534	367.45
395.913	378.3
396.292	384.17
396.671	370.61
397.05	379.43
397.429	388.69
397.808	378.97
398.186	392.76
398.565	395.02
398.944	410.61
399.323	409.03
399.701	402.93
400.08	392.08
400.458	432.98
400.837	411.06
401.215	426.2
401.594	425.07
401.972	401.12
402.351	413.1
402.729	425.53
403.107	417.16
403.486	419.42
403.864	424.85
404.242	440.44
404.62	432.08
404.999	445.41
405.377	439.31
405.755	445.86
406.133	446.09
406.511	431.18
406.889	467.11
407.267	462.13
407.645	439.99
408.023	462.81
408.401	473.43
408.779	475.24
409.156	460.78
409.534	493.55
409.912	488.57
410.29	474.34
410.667	499.65
411.045	516.82
411.422	509.37
411.8	507.33
412.178	538.29
412.555	556.82
412.933	552.53
413.31	537.39
413.687	558.18
414.065	571.28
414.442	581.68
414.819	569.25
415.197	580.1
415.574	603.83
415.951	584.39
416.328	575.8
416.705	599.08
417.082	625.75
417.46	617.38
417.837	647.21
418.214	652.64
418.591	661.9
418.967	653.54
419.344	648.12
419.721	686.08
420.098	680.89
420.475	649.02
420.852	680.89
421.228	687.21
421.605	705.29
421.982	732.86
422.358	728.57
422.735	723.82
423.111	732.64
423.488	763.37
423.864	753.65
424.241	774.22
424.617	795.01
424.994	792.75
425.37	801.33
425.746	818.74
426.123	833.88
426.499	834.33
426.875	842.92
427.251	864.38
427.627	870.26
428.003	862.8
428.379	889.47
428.756	896.02
429.132	911.61
429.507	923.59
429.883	922.46
430.259	954.78
430.635	927.43
431.011	949.81
431.387	949.13
431.763	973.76
432.138	1001.33
432.514	1005.4
432.89	1006.75
433.265	1011.05
433.641	1042.91
434.016	1070.71
434.392	1112.06
434.767	1123.36
435.143	1112.74
435.518	1115
435.894	1147.54
436.269	1159.52
436.644	1161.1
437.02	1215.11
437.395	1181.66
437.77	1251.94
438.145	1255.11
438.52	1230.7
438.895	1266.86
439.271	1272.73
439.646	1319.74
440.021	1339.17
440.395	1311.83
440.77	1321.55
441.145	1327.2
441.52	1373.07
441.895	1397.7
442.27	1429.57
442.645	1399.74
443.019	1431.15
443.394	1439.74
443.769	1468.89
444.143	1462.11
444.518	1494.2
444.892	1482.67
445.267	1495.1
445.641	1507.08
446.016	1543.24
446.39	1541.65
446.764	1558.83
447.139	1582.56
447.513	1568.55
447.887	1561.77
448.262	1582.56
448.636	1628.43
449.01	1621.43
449.384	1625.72
449.758	1672.72
450.132	1636.57
450.506	1694.42
450.88	1687.41
451.254	1709.11
451.628	1718.37
452.002	1771.48
452.376	1787.98
452.75	1787.52
453.123	1820.52
453.497	1852.38
453.871	1825.04
454.244	1874.98
454.618	1892.15
454.992	1898.71
455.365	1896.67
455.739	1972.38
456.112	1947.07
456.486	1998.37
456.859	2013.96
457.232	2072.94
457.606	2079.04
457.979	2118.14
458.352	2123.79
458.725	2142.99
459.099	2162.2
459.472	2221.86
459.845	2233.39
460.218	2251.47
460.591	2303.67
460.964	2286.27
461.337	2363.33
461.71	2384.12
462.083	2388.86
462.456	2413.95
462.829	2453.04
463.201	2470.67
463.574	2511.8
463.947	2540.95
464.32	2541.63
464.692	2624.79
465.065	2622.53
465.438	2673.83
465.81	2729.87
466.183	2727.61
466.555	2804.9
466.928	2825.24
467.3	2867.72
467.672	2852.13
468.045	2949.3
468.417	3001.95
468.789	3065
469.161	3050.99
469.534	3120.82
469.906	3176.19
470.278	3195.62
470.65	3258.45
471.022	3305.22
471.394	3356.07
471.766	3396.07
472.138	3433.58
472.51	3577.99
472.882	3602.84
473.253	3632.45
473.625	3690.75
473.997	3816.4
474.369	3806.91
474.74	3922.38
475.112	3967.58
475.484	4026.33
475.855	4107.46
476.227	4143.17
476.598	4289.83
476.97	4325.99
477.341	4401.92
477.713	4489.15
478.084	4527.11
478.455	4669.48
478.827	4756.49
479.198	4878.52
479.569	4923.03
479.94	5058.85
480.311	5108.34
480.682	5190.15
481.053	5328.67
481.424	5417.03
481.795	5507.2
482.166	5601.21
482.537	5705.84
482.908	5852.5
483.279	5960.97
483.65	6033.74
484.021	6158.48
484.391	6226.73
484.762	6348.08
485.133	6417.46
485.503	6472.6
485.874	6651.8
486.244	6741.29
486.615	6883.66
486.985	6976.09
487.356	7103.54
487.726	7114.62
488.097	7352.35
488.467	7343.08
488.837	7549.86
489.207	7619.91
489.578	7776.29
489.948	7805.9
490.318	7971.09
490.688	8011.31
491.058	8174.93
491.428	8336.28
491.798	8339.22
492.168	8524.75
492.538	8630.06
492.908	8669.6
493.278	8799.99
493.648	8783.27
494.017	8992.53
494.387	9037.05
494.757	9147.33
495.126	9188.01
495.496	9297.38
495.866	9297.61
496.235	9401.33
496.605	9529.47
496.974	9510.48
497.344	9586.87
497.713	9636.81
498.082	9756.13
498.452	9822.79
498.821	9933.98
499.19	9944.6
499.559	9990.02
499.928	10076.12
500.298	10157.25
500.667	10277.02
501.036	10183.46
501.405	10366.96
501.774	10388.2
502.143	10378.03
502.512	10422.78
502.88	10476.11
503.249	10452.15
503.618	10587.97
503.987	10573.28
504.356	10607.4
504.724	10670.91
505.093	10700.96
505.462	10754.52
505.83	10815.08
506.199	10890.11
506.567	10989.32
506.936	10875.19
507.304	11059.82
507.672	11106.83
508.041	11079.93
508.409	11145.02
508.777	11216.65
509.145	11208.74
509.514	11300.27
509.882	11362.19
510.25	11217.33
510.618	11340.72
510.986	11397.67
511.354	11481.96
511.722	11375.07
512.09	11587.27
512.458	11538.23
512.826	11577.1
513.193	11576.19
513.561	11635.85
513.929	11724.21
514.297	11722.63
514.664	11681.95
515.032	11753.59
515.4	11777.32
515.767	11754.04
516.135	11806.47
516.502	11733.48
516.869	11816.86
517.237	11956.52
517.604	11862.29
517.972	11841.72
518.339	11928.05
518.706	11968.05
519.073	11846.92
519.44	11957.2
519.808	12050.98
520.175	12062.96
520.542	12119.46
520.909	12060.93
521.276	12072.9
521.643	12194.26
522.009	12191.77
522.376	12189.74
522.743	12181.6
523.11	12280.58
523.477	12321.26
523.843	12348.15
524.21	12392.67
524.577	12397.19
524.943	12384.99
525.31	12315.38
525.676	12421.59
526.043	12351.09
526.409	12432.89
526.776	12522.83
527.142	12433.12
527.508	12466.11
527.874	12527.58
528.241	12491.2
528.607	12483.06
528.973	12480.8
529.339	12454.14
529.705	12459.79
530.071	12440.35
530.437	12410.97
530.803	12442.84
531.169	12478.32
531.535	12414.81
531.901	12438.99
532.267	12415.27
532.632	12396.74
532.998	12382.95
533.364	12372.78
533.73	12395.83
534.095	12418.88
534.461	12312.22
534.826	12301.37
535.192	12348.6
535.557	12293.46
535.923	12230.64
536.288	12185.44
536.653	12167.36
537.019	12161.49
537.384	12099.34
537.749	12074.26
538.114	11987.48
538.479	12032.68
538.845	11967.14
539.21	11913.13
539.575	11932.79
539.94	11819.35
540.305	11923.75
540.67	11743.19
541.034	11682.18
541.399	11740.93
541.764	11691.67
542.129	11639.92
542.494	11681.73
542.858	11613.48
543.223	11580.26
543.587	11525.12
543.952	11488.51
544.316	11476.53
544.681	11327.39
545.045	11303.43
545.41	11360.61
545.774	11293.49
546.138	11220.72
546.503	11152.7
546.867	11132.14
547.231	11164
547.595	11106.37
547.959	11018.69
548.324	10991.8
548.688	10962.88
549.052	10931.69
549.416	10996.77
549.779	10874.06
550.143	10844.01
550.507	10727.18
550.871	10810.79
551.235	10756.55
551.599	10750.9
551.962	10669.55
552.326	10633.39
552.689	10651.47
553.053	10559.72
553.417	10480.63
553.78	10486.73
554.143	10458.71
554.507	10444.7
554.87	10421.65
555.234	10416
555.597	10376.22
555.96	10311.37
556.323	10317.24
556.686	10254.19
557.05	10318.37
557.413	10263.91
557.776	10262.78
558.139	10239.5
558.502	10134.87
558.865	10147.3
559.228	10205.38
559.59	10119.06
559.953	10185.04
560.316	10227.53
560.679	10133.29
561.041	10219.62
561.404	10159.96
561.767	10170.58
562.129	10058.04
562.492	10117.25
562.854	10071.37
563.217	9999.29
563.579	10057.59
563.941	10089.9
564.304	10144.82
564.666	10112.5
565.028	10006.52
565.39	10041.54
565.753	10125.16
566.115	10175.1
566.477	10155.21
566.839	10076.57
567.201	10132.61
567.563	10113.41
567.925	10154.31
568.287	10116.12
568.648	10124.93
569.01	10124.93
569.372	10161.99
569.734	10041.32
570.095	10111.37
570.457	10135.78
570.819	10162.9
571.18	10084.48
571.542	10132.39
571.903	10154.08
572.265	10194.31
572.626	10155.21
572.987	10204.93
573.349	10103.24
573.71	10220.07
574.071	10155.44
574.432	10179.62
574.794	10207.64
575.155	10154.99
575.516	10124.93
575.877	10157.25
576.238	10218.04
576.599	10194.99
576.96	10167.19
577.32	10165.61
577.681	10110.69
578.042	10191.6
578.403	10188.43
578.763	10170.81
579.124	10168.77
579.485	10236.12
579.845	10177.36
580.206	10138.26
580.566	10172.39
580.927	10159.73
581.287	10138.94
581.648	10092.84
582.008	10159.28
582.368	10046.06
582.728	10124.93
583.089	10079.96
583.449	10072.28
583.809	10078.38
584.169	10117.7
584.529	10021.21
584.889	10074.54
585.249	10015.33
585.609	9964.03
585.969	10014.88
586.329	10009.68
586.688	10025.27
587.048	9990.7
587.408	9970.81
587.768	9987.99
588.127	9968.1
588.487	9956.57
588.846	9984.14
589.206	9930.59
589.565	9976.91
589.925	9953.41
590.284	9920.19
590.643	9909.12
591.003	9917.93
591.362	9922.68
591.721	9929.91
592.08	9939.17
592.44	9899.63
592.799	9839.74
593.158	9843.81
593.517	9898.5
593.876	9893.75
594.235	9804.49
594.593	9824.37
594.952	9826.18
595.311	9780.76
595.67	9784.6
596.029	9812.85
596.387	9827.09
596.746	9784.6
597.104	9699.41
597.463	9712.96
597.822	9706.64
598.18	9689.46
598.538	9764.04
598.897	9775.56
599.255	9700.08
599.613	9775.34
599.972	9804.71
600.33	9793.87
600.688	9731.27
601.046	9808.33
601.404	9795.45
601.762	9746.18
602.12	9825.5
602.478	9791.15
602.836	9750.25
603.194	9721.33
603.552	9761.78
603.91	9697.37
604.268	9772.85
604.625	9702.57
604.983	9693.98
605.341	9666.19
605.698	9682.91
606.056	9682.68
606.413	9703.02
606.771	9750.7
607.128	9749.35
607.485	9712.96
607.843	9739.86
608.2	9703.25
608.557	9798.16
608.914	9678.16
609.272	9771.04
609.629	9748.22
609.986	9761.33
610.343	9778.27
610.7	9808.78
611.057	9781.89
611.414	9665.96
611.771	9807.43
612.127	9786.64
612.484	9781.66
612.841	9840.65
613.198	9727.43
613.554	9819.4
613.911	9849.01
614.267	9916.58
614.624	9814.21
614.98	9757.94
615.337	9865.73
615.693	9837.71
616.05	9951.6
616.406	9892.17
616.762	9885.39
617.118	9897.37
617.475	9847.88
617.831	9877.48
618.187	9901.43
618.543	9880.64
618.899	9942.34
619.255	9849.23
619.611	9924.94
619.967	9940.53
620.323	9966.52
620.678	9907.08
621.034	9914.99
621.39	9905.73
621.746	9849.23
622.101	9990.7
622.457	9942.79
622.812	9908.44
623.168	9947.76
623.523	9924.48
623.879	9884.03
624.234	9920.19
624.589	9949.12
624.945	9881.1
625.3	9942.56
625.655	9855.11
626.01	9860.76
626.365	9922.45
626.72	9955.9
627.075	9908.89
627.43	9867.99
627.785	9920.87
628.14	9926.97
628.495	9906.18
628.85	9867.76
629.205	9827.09
629.559	9907.76
629.914	9848.78
630.269	9846.29
630.623	9811.95
630.978	9792.06
631.332	9841.55
631.687	9826.86
632.041	9825.05
632.396	9809.01
632.75	9799.97
633.104	9782.34
633.459	9717.94
633.813	9788.9
634.167	9714.55
634.521	9699.86
634.875	9744.83
635.229	9683.36
635.583	9730.37
635.937	9672.29
636.291	9620.54
636.645	9621.44
636.999	9668.22
637.352	9645.4
637.706	9572.86
638.06	9601.56
638.413	9628.9
638.767	9610.14
639.121	9526.53
639.474	9524.95
639.828	9576.47
640.181	9539.41
640.534	9489.02
640.888	9454.21
641.241	9475.46
641.594	9466.42
641.947	9534.44
642.301	9511.84
642.654	9504.83
643.007	9482.91
643.36	9495.8
643.713	9414.44
644.066	9505.51
644.419	9416.93
644.771	9379.87
645.124	9274.56
645.477	9305.97
645.83	9208.35
646.182	9159.08
646.535	9096.26
646.888	9227.1
647.24	9080.67
647.593	9172.64
647.945	9102.13
648.298	9095.35
648.65	9045.64
649.002	9076.37
649.355	9140.78
649.707	9107.56
650.059	9190.72
650.411	9263.26
650.763	9297.16
651.115	9286.08
651.467	9348.23
651.819	9336.93
652.171	9313.2
652.523	9342.58
652.875	9405.18
653.227	9263.49
653.578	9376.48
653.93	9362.01
654.282	9312.52
654.633	9239.08
654.985	9317.72
655.337	9298.51
655.688	9259.42
656.039	9346.65
656.391	9284.95
656.742	9341
657.094	9333.54
657.445	9388.45
657.796	9320.66
658.147	9358.17
658.498	9311.39
658.849	9407.89
659.2	9419.64
659.551	9322.47
659.902	9345.97
660.253	9282.02
660.604	9362.24
660.955	9376.7
661.306	9338.74
661.656	9377.38
662.007	9371.51
662.358	9332.86
662.708	9362.69
663.059	9378.06
663.409	9308.46
663.76	9463.48
664.11	9411.96
664.461	9433.42
664.811	9362.24
665.161	9420.09
665.511	9371.73
665.862	9382.35
666.212	9400.88
666.562	9448.11
666.912	9435.91
667.262	9394.56
667.612	9409.7
667.962	9411.73
668.312	9401.11
668.662	9475.23
669.011	9425.74
669.361	9391.39
669.711	9423.93
670.06	9386.19
670.41	9402.69
670.76	9353.88
671.109	9391.17
671.459	9341.9
671.808	9358.62
672.157	9388.23
672.507	9308
672.856	9346.42
673.205	9319.98
673.554	9341.22
673.904	9308.68
674.253	9309.36
674.602	9252.64
674.951	9198.18
675.3	9095.58
675.649	9283.37
675.998	9319.98
676.346	9250.6
676.695	9246.99
677.044	9228.23
677.393	9219.19
677.741	9181.68
678.09	9198.63
678.438	9134.9
678.787	9259.64
679.135	9149.14
679.484	9177.16
679.832	9118.4
680.181	9140.78
680.529	9098.74
680.877	9048.12
681.225	9110.27
681.573	9126.09
681.922	9041.12
682.27	9024.62
682.618	8979.2
682.966	9030.5
683.314	9024.62
683.661	8918.64
684.009	8888.58
684.357	8865.3
684.705	8934.23
685.053	8829.6
685.4	8896.49
685.748	8821.46
686.095	8799.77
686.443	8775.81
686.79	8784.4
687.138	8768.13
687.485	8735.59
687.832	8761.8
688.18	8644.74
688.527	8736.49
688.874	8646.1
689.221	8570.17
689.568	8559.32
689.915	8631.64
690.262	8602.03
690.609	8579.21
690.956	8475.94
691.303	8480.45
691.65	8451.08
691.997	8478.87
692.344	8397.52
692.69	8350.97
693.037	8363.85
693.383	8294.92
693.73	8295.6
694.077	8183.97
694.423	8214.7
694.769	8143.74
695.116	8118.43
695.462	8169.05
695.808	8068.26
696.155	8169.05
696.501	8043.4
696.847	8037.53
697.193	7967.93
697.539	8037.98
697.885	7915.72
698.231	7931.77
698.577	7910.3
698.923	7851.77
699.269	7742.17
699.614	7747.59
699.96	7717.76
700.306	7732.23
700.651	7724.99
700.997	7644.77
701.342	7612.91
701.688	7559.35
702.033	7585.79
702.379	7554.38
702.724	7573.81
703.069	7597.31
703.415	7469.86
703.76	7473.48
704.105	7442.74
704.45	7445.91
704.795	7377.21
705.14	7378.11
705.485	7399.58
705.83	7310.32
706.175	7355.74
706.52	7325.46
706.865	7250.43
707.209	7232.13
707.554	7237.78
707.899	7261.96
708.243	7213.14
708.588	7114.39
708.932	7143.99
709.277	7064.67
709.621	7085.01
709.966	7084.56
710.31	7050.44
710.654	7014.05
710.998	7023.77
711.342	6935.64
711.687	7054.5
712.031	6932.47
712.375	6899.48
712.719	6892.25
713.063	6902.42
713.407	6866.03
713.75	6891.57
714.094	6896.32
714.438	6863.1
714.782	6857.67
715.125	6820.84
715.469	6811.57
715.812	6825.81
716.156	6729.99
716.499	6672.14
716.843	6759.6
717.186	6775.19
717.53	6784
717.873	6769.54
718.216	6753.49
718.559	6640.73
718.902	6651.8
719.246	6694.06
719.589	6668.98
719.932	6621.97
720.275	6687.96
720.617	6675.53
720.96	6677.11
721.303	6601.41
721.646	6647.51
721.989	6606.38
722.331	6606.15
722.674	6595.31
723.016	6610.22
723.359	6598.24
723.701	6558.7
724.044	6603.67
724.386	6510.56
724.729	6535.2
725.071	6582.88
725.413	6532.03
725.755	6557.79
726.097	6510.34
726.439	6511.47
726.782	6460.85
727.124	6473.5
727.465	6488.64
727.807	6473.5
728.149	6431.47
728.491	6535.65
728.833	6537.23
729.175	6503.11
729.516	6506.5
729.858	6515.99
730.199	6516.89
730.541	6511.92
730.882	6487.51
731.224	6491.81
731.565	6495.65
731.906	6501.3
732.248	6458.36
732.589	6453.84
732.93	6471.69
733.271	6501.75
733.612	6478.93
733.953	6522.31
734.294	6441.86
734.635	6412.49
734.976	6515.08
735.317	6464.24
735.658	6468.3
735.999	6443.9
736.339	6432.6
736.68	6518.7
737.021	6499.26
737.361	6513.05
737.702	6540.39
738.042	6511.69
738.383	6490.9
738.723	6547.17
739.063	6568.19
739.404	6539.94
739.744	6547.85
740.084	6500.17
740.424	6581.07
740.764	6608.41
741.104	6595.53
741.444	6568.19
741.784	6664.23
742.124	6682.54
742.464	6627.85
742.804	6674.17
743.143	6728.41
743.483	6690.9
743.823	6719.6
744.162	6734.74
744.502	6774.51
744.841	6792.82
745.181	6860.16
745.52	6809.31
745.86	6858.35
746.199	6972.7
746.538	6946.03
746.877	7005.01
747.216	7130.66
747.556	7047.5
747.895	7154.39
748.234	7163.88
748.573	7239.36
748.911	7279.81
749.25	7332.24
749.589	7367.94
749.928	7524.1
750.267	7512.34
750.605	7576.75
750.944	7663.53
751.283	7696.97
751.621	7836.86
751.96	7917.31
752.298	8027.59
752.636	8121.37
752.975	8168.15
753.313	8210.63
753.651	8309.16
753.989	8418.31
754.327	8586.89
754.666	8605.88
755.004	8759.09
755.342	8915.47
755.679	8989.59
756.017	9126.54
756.355	9211.06
756.693	9370.15
757.031	9515.23
757.368	9600.2
757.706	9833.87
758.044	9961.55
758.381	10028.21
758.719	10209.9
759.056	10446.73
759.394	10522.21
759.731	10655.09
760.068	10788.87
760.405	10980.73
760.743	10988.86
761.08	11277.9
761.417	11410.77
761.754	11555.4
762.091	11660.26
762.428	11867.94
762.765	11968.72
763.102	12324.87
763.438	12348.38
763.775	12464.98
764.112	12744.3
764.449	12822.04
764.785	12997.4
