Data from hue_220_FLMS001491_00090.txt Node
Date: Tue Feb 07 16:40:04 GMT 2017
User: dcchb
Spectrometer: FLMS00149
Trigger mode: 0
Integration Time (sec): 2.000000E-2
Scans to average: 10
Electric dark correction enabled: true
Nonlinearity correction enabled: false
Boxcar width: 0
XAxis mode: Wavelengths
Number of Pixels in Spectrum: 2048
>>>>>Begin Spectral Data<<<<<
341.393	2.58
341.776	2.58
342.16	2.58
342.543	-51.88
342.927	-62.95
343.31	-79.22
343.693	-76.51
344.077	-51.88
344.46	-54.81
344.843	-41.93
345.226	-31.31
345.61	-47.13
345.993	-18.88
346.376	-8.49
346.759	14.56
347.142	32.19
347.525	20.66
347.908	42.81
348.291	83.26
348.674	103.15
349.057	113.54
349.44	139.98
349.823	151.06
350.206	162.13
350.588	172.75
350.971	212.3
351.354	212.75
351.737	235.12
352.119	237.61
352.502	254.78
352.884	269.92
353.267	297.27
353.65	278.28
354.032	319.64
354.414	276.7
354.797	289.13
355.179	308.57
355.562	325.51
355.944	327.1
356.326	328.45
356.709	337.27
357.091	351.5
357.473	346.08
357.855	336.14
358.238	348.56
358.62	347.89
359.002	349.69
359.384	332.97
359.766	339.98
360.148	334.55
360.53	326.87
360.912	338.62
361.294	348.56
361.676	344.5
362.057	335.01
362.439	341.78
362.821	336.14
363.203	319.64
363.584	317.15
363.966	336.36
364.348	314.21
364.729	317.83
365.111	314.67
365.493	325.51
365.874	333.65
366.256	318.96
366.637	318.06
367.019	311.96
367.4	298.4
367.781	324.84
368.163	314.44
368.544	309.47
368.925	295.46
369.306	339.52
369.688	315.57
370.069	321.45
370.45	335.46
370.831	340.88
371.212	341.56
371.593	313.31
371.974	328.9
372.355	307.66
372.736	311.05
373.117	328
373.498	321.45
373.879	307.89
374.26	310.6
374.641	321.22
375.021	292.75
375.402	316.02
375.783	297.72
376.163	314.67
376.544	308.11
376.925	334.78
377.305	309.24
377.686	324.84
378.066	334.78
378.447	328
378.827	340.43
379.208	310.6
379.588	333.88
379.968	325.06
380.349	319.86
380.729	322.35
381.109	339.07
381.489	333.65
381.87	342.91
382.25	342.24
382.63	333.42
383.01	349.69
383.39	328.9
383.77	330.49
384.15	349.02
384.53	337.04
384.91	333.88
385.29	334.1
385.67	330.49
386.049	357.6
386.429	353.99
386.809	343.37
387.189	344.72
387.568	375.46
387.948	355.8
388.328	356.7
388.707	355.12
389.087	340.65
389.466	360.32
389.846	374.1
390.225	369.58
390.605	358.96
390.984	370.48
391.363	364.84
391.743	375.46
392.122	365.96
392.501	364.61
392.881	389.24
393.26	389.47
393.639	380.65
394.018	364.61
394.397	399.41
394.776	378.85
395.155	393.99
395.534	373.65
395.913	386.76
396.292	385.85
396.671	402.57
397.05	408.68
397.429	415.23
397.808	374.78
398.186	400.09
398.565	385.17
398.944	407.32
399.323	405.51
399.701	394.89
400.08	409.35
400.458	414.55
400.837	400.77
401.215	414.78
401.594	411.84
401.972	408
402.351	409.81
402.729	399.64
403.107	420.88
403.486	443.48
403.864	434.44
404.242	430.6
404.62	426.3
404.999	459.75
405.377	455.91
405.755	463.82
406.133	448.67
406.511	465.17
406.889	473.53
407.267	464.27
407.645	473.31
408.023	492.97
408.401	476.24
408.779	463.82
409.156	495
409.534	487.32
409.912	508.56
410.29	519.86
410.667	509.92
411.045	537.94
411.422	530.03
411.8	555.34
412.178	535.23
412.555	556.24
412.933	541.1
413.31	579.07
413.687	598.5
414.065	579.97
414.442	583.36
414.819	577.03
415.197	612.29
415.574	597.82
415.951	624.72
416.328	623.36
416.705	645.28
417.082	631.04
417.46	627.65
417.837	658.39
418.214	649.57
418.591	663.13
418.967	689.8
419.344	701.1
419.721	700.42
420.098	713.98
420.475	706.52
420.852	742.68
421.228	747.88
421.605	727.76
421.982	757.82
422.358	802.34
422.735	791.26
423.111	790.81
423.488	803.47
423.864	822.22
424.241	840.08
424.617	885.73
424.994	861.55
425.37	905.84
425.746	855.44
426.123	902.22
426.499	885.05
426.875	925.05
427.251	933.18
427.627	945.61
428.003	963.01
428.379	973.86
428.756	966.4
429.132	999.17
429.507	1006.17
429.883	1032.84
430.259	1052.95
430.635	1038.94
431.011	1057.02
431.387	1049.11
431.763	1093.18
432.138	1108.09
432.514	1126.85
432.89	1136.34
433.265	1174.31
433.641	1177.24
434.016	1178.82
434.392	1214.08
434.767	1232.61
435.143	1239.39
435.518	1279.84
435.894	1266.05
436.269	1301.31
436.644	1328.88
437.02	1348.31
437.395	1361.87
437.77	1374.75
438.145	1415.2
438.52	1442.77
438.895	1447.52
439.271	1453.39
439.646	1521.64
440.021	1534.97
440.395	1534.07
440.77	1546.27
441.145	1556.44
441.52	1600.28
441.895	1592.6
442.27	1608.64
442.645	1634.41
443.019	1656.78
443.394	1638.93
443.769	1686.61
444.143	1695.42
444.518	1709.43
444.892	1694.74
445.267	1737
445.641	1722.99
446.016	1762.54
446.39	1790.79
446.764	1801.63
447.139	1786.27
447.513	1802.31
447.887	1791.46
448.262	1814.97
448.636	1846.6
449.01	1880.05
449.384	1866.49
449.758	1892.25
450.132	1935.19
450.506	1906.72
450.88	1955.08
451.254	1949.43
451.628	1970.67
452.002	1984.91
452.376	2005.7
452.75	2042.08
453.123	2066.03
453.497	2028.07
453.871	2061.06
454.244	2108.52
454.618	2164.11
454.992	2139.25
455.365	2177.89
455.739	2179.25
456.112	2226.26
456.486	2238.46
456.859	2239.14
457.232	2290.21
457.606	2295.63
457.979	2311.45
458.352	2374.73
458.725	2414.05
459.099	2409.08
459.472	2452.69
459.845	2454.95
460.218	2475.51
460.591	2516.87
460.964	2530.65
461.337	2529.98
461.71	2600.48
462.083	2616.98
462.456	2623.31
462.829	2630.09
463.201	2706.02
463.574	2721.16
463.947	2738.78
464.32	2776.75
464.692	2812.68
465.065	2818.33
465.438	2866.24
465.81	2924.99
466.183	2886.8
466.555	2975.84
466.928	2979.91
467.3	3018.78
467.672	3023.07
468.045	3079.57
468.417	3114.59
468.789	3116.85
469.161	3193.46
469.534	3220.13
469.906	3266.91
470.278	3283.63
470.65	3299.67
471.022	3395.94
471.394	3425.09
471.766	3428.94
472.138	3497.63
472.51	3530.63
472.882	3594.35
473.253	3604.98
473.625	3691.75
473.997	3744.41
474.369	3768.81
474.74	3828.92
475.112	3872.77
475.484	3847.68
475.855	3985.3
476.227	3974.46
476.598	4031.63
476.97	4115.02
477.341	4183.04
477.713	4277.73
478.084	4281.12
478.455	4345.97
478.827	4445.63
479.198	4490.15
479.569	4514.33
479.94	4600.2
480.311	4666.64
480.682	4736.47
481.053	4787.77
481.424	4858.05
481.795	4877.03
482.166	4973.53
482.537	5017.59
482.908	5103.02
483.279	5137.59
483.65	5206.97
484.021	5344.14
484.391	5393.86
484.762	5346.4
485.133	5431.82
485.503	5525.6
485.874	5625.49
486.244	5639.95
486.615	5717.69
486.985	5778.7
487.356	5893.96
487.726	5896.67
488.097	6024.8
488.467	6051.69
488.837	6155.19
489.207	6235.42
489.578	6269.54
489.948	6297.79
490.318	6364.68
490.688	6393.15
491.058	6520.15
491.428	6490.78
491.798	6589.3
492.168	6688.51
492.538	6745.23
492.908	6796.98
493.278	6807.6
493.648	6852.12
494.017	6909.97
494.387	6959.24
494.757	6992.01
495.126	7087.82
495.496	7032.68
495.866	7172.79
496.235	7173.02
496.605	7190.87
496.974	7259.57
497.344	7278.55
497.713	7274.94
498.082	7378.21
498.452	7343.63
498.821	7388.61
499.19	7486
499.559	7522.61
499.928	7561.03
500.298	7621.37
500.667	7617.07
501.036	7608.26
501.405	7634.02
501.774	7651.65
502.143	7672.67
502.512	7649.39
502.88	7815.26
503.249	7712.66
503.618	7784.53
503.987	7821.36
504.356	7880.34
504.724	7890.96
505.093	7905.43
505.462	7931.42
505.83	7947.46
506.199	8013.22
506.567	8043.73
506.936	7979.78
507.304	8104.97
507.672	8093.9
508.041	8111.75
508.409	8203.5
508.777	8188.81
509.145	8191.75
509.514	8170.73
509.882	8180.45
510.25	8195.36
510.618	8247.11
510.986	8228.13
511.354	8273.55
511.722	8354.23
512.09	8348.13
512.458	8315.36
512.826	8383.83
513.193	8375.47
513.561	8438.3
513.929	8381.35
514.297	8415.02
514.664	8476.94
515.032	8379.77
515.4	8507.45
515.767	8464.96
516.135	8502.93
516.502	8427
516.869	8617.27
517.237	8524.62
517.604	8528.01
517.972	8502.7
518.339	8567.56
518.706	8582.47
519.073	8523.04
519.44	8591.96
519.808	8597.84
520.175	8519.42
520.542	8633.77
520.909	8660.89
521.276	8545.18
521.643	8650.72
522.009	8703.82
522.376	8698.85
522.743	8691.62
523.11	8719.64
523.477	8810.94
523.843	8736.82
524.21	8780.66
524.577	8860.88
524.943	8751.06
525.31	8829.7
525.676	8846.65
526.043	8822.69
526.409	8862.69
526.776	8907.21
527.142	8836.48
527.508	8892.07
527.874	8931.84
528.241	8912.86
528.607	8828.12
528.973	8939.3
529.339	8858.62
529.705	8893.65
530.071	8927.32
530.437	8897.94
530.803	8874.67
531.169	8934.1
531.535	8884.84
531.901	8840.09
532.267	8853.65
532.632	8926.64
532.998	8850.26
533.364	8840.32
533.73	8869.7
534.095	8849.81
534.461	8878.51
534.826	8877.61
535.192	8836.7
535.557	8896.14
535.923	8774.78
536.288	8795.35
536.653	8812.75
537.019	8762.13
537.384	8725.75
537.749	8650.27
538.114	8691.62
538.479	8686.88
538.845	8736.14
539.21	8618.63
539.575	8649.36
539.94	8672.64
540.305	8638.06
540.67	8629.7
541.034	8542.47
541.399	8557.39
541.764	8558.97
542.129	8570.27
542.494	8531.17
542.858	8501.8
543.223	8468.58
543.587	8535.92
543.952	8414.57
544.316	8445.75
544.681	8401.01
545.045	8425.19
545.41	8405.75
545.774	8356.72
546.138	8325.76
546.503	8330.28
546.867	8233.1
547.231	8316.94
547.595	8214.12
547.959	8307.45
548.324	8242.14
548.688	8228.36
549.052	8212.76
549.416	8166.44
549.779	8125.31
550.143	8138.42
550.507	8165.31
550.871	8116.27
551.235	8088.47
551.599	8082.82
551.962	8050.96
552.326	7993.34
552.689	8029.49
553.053	7984.75
553.417	7944.07
553.78	8036.05
554.143	7961.02
554.507	7914.92
554.87	7882.6
555.234	7988.82
555.597	7853.9
555.96	7916.05
556.323	7863.17
556.686	7930.06
557.05	7934.58
557.413	7876.28
557.776	7779.33
558.139	7840.57
558.502	7868.14
558.865	7876.05
559.228	7818.42
559.59	7847.35
559.953	7860.46
560.316	7827.46
560.679	7792.89
561.041	7850.97
561.404	7877.86
561.767	7921.47
562.129	7815.26
562.492	7901.59
562.854	7808.48
563.217	7826.56
563.579	7840.8
563.941	7875.15
564.304	7936.61
564.666	7869.95
565.028	7907.69
565.39	7892.77
565.753	7940
566.115	7914.02
566.477	7960.12
566.839	7896.39
567.201	7972.32
567.563	7991.3
567.925	8034.46
568.287	7996.72
568.648	7938.2
569.01	8048.25
569.372	8030.85
569.734	8004.18
570.095	8024.29
570.457	8093.67
570.819	8075.82
571.18	8090.28
571.542	8119.89
571.903	8072.88
572.265	8138.87
572.626	8131.64
572.987	8112.43
573.349	8160.79
573.71	8169.83
574.071	8177.96
574.432	8184.74
574.794	8229.71
575.155	8147.68
575.516	8173.9
575.877	8245.08
576.238	8207.34
576.599	8245.53
576.96	8233.33
577.32	8331.41
577.681	8313.1
578.042	8354.68
578.403	8349.26
578.763	8400.1
579.124	8406.66
579.485	8421.12
579.845	8420.44
580.206	8424.51
580.566	8475.81
580.927	8457.5
581.287	8483.27
581.648	8468.8
582.008	8492.98
582.368	8464.06
582.728	8585.86
583.089	8550.38
583.449	8582.92
583.809	8594.22
584.169	8590.16
584.529	8594.45
584.889	8624.05
585.249	8608.91
585.609	8582.25
585.969	8657.72
586.329	8647.33
586.688	8614.34
587.048	8639.42
587.408	8623.15
587.768	8663.37
588.127	8698.85
588.487	8658.4
588.846	8733.43
589.206	8693.66
589.565	8698.4
589.925	8775.69
590.284	8753.99
590.643	8879.87
591.003	8823.37
591.362	8821.11
591.721	8836.7
592.08	8808
592.44	8820.43
592.799	8876.7
593.158	8842.13
593.517	8854.56
593.876	8884.61
594.235	8907.44
594.593	8831.05
594.952	8922.58
595.311	8901.33
595.67	8896.81
596.029	8993.53
596.387	8955.34
596.746	8938.17
597.104	8905.85
597.463	8987.21
597.822	8997.6
598.18	8974.1
598.538	8938.39
598.897	9008.45
599.255	8984.5
599.613	9131.84
599.972	8982.46
600.33	9043.25
600.688	8992.18
601.046	9004.83
601.404	9028.79
601.762	8971.39
602.12	9090.71
602.478	9079.63
602.836	9108.56
603.194	9016.13
603.552	9092.06
603.91	8982.01
604.268	9048.22
604.625	9093.42
604.983	9146.07
605.341	9039.18
605.698	9098.84
606.056	9105.85
606.413	9063.36
606.771	9123.93
607.128	9154.66
607.485	9118.05
607.843	9142.23
608.2	9188.56
608.557	9164.6
608.914	9191.04
609.272	9118.96
609.629	9195.34
609.986	9245.05
610.343	9198.28
610.7	9207.77
611.057	9264.04
611.414	9206.41
611.771	9198.05
612.127	9237.82
612.484	9231.49
612.841	9289.35
613.198	9285.73
613.554	9264.49
613.911	9283.02
614.267	9295.9
614.624	9259.29
614.98	9306.97
615.337	9318.72
615.693	9361.89
616.05	9309.68
616.406	9298.39
616.762	9307.88
617.118	9324.6
617.475	9337.71
617.831	9341.55
618.187	9392.62
618.543	9403.47
618.899	9417.7
619.255	9425.84
619.611	9392.62
619.967	9417.7
620.323	9397.59
620.678	9423.58
621.034	9317.82
621.39	9388.78
621.746	9334.54
622.101	9505.16
622.457	9389.46
622.812	9407.76
623.168	9417.03
623.523	9425.84
623.879	9434.88
624.234	9399.63
624.589	9436.01
624.945	9407.31
625.3	9438.95
625.655	9367.76
626.01	9389.46
626.365	9445.05
626.72	9357.82
627.075	9356.91
627.43	9400.08
627.785	9377.03
628.14	9370.47
628.495	9413.41
628.85	9426.29
629.205	9308.55
629.559	9408.67
629.914	9381.32
630.269	9337.03
630.623	9322.34
630.978	9267.65
631.332	9343.81
631.687	9368.44
632.041	9323.47
632.396	9245.28
632.75	9248.67
633.104	9328.22
633.459	9260.87
633.813	9231.72
634.167	9211.38
634.521	9265.39
634.875	9232.4
635.229	9183.81
635.583	9189.24
635.937	9184.94
636.291	9175.68
636.645	9205.73
636.999	9166.41
637.352	9162.12
637.706	9081.22
638.06	9126.64
638.413	9107.2
638.767	9203.7
639.121	9103.14
639.474	9049.8
639.828	9107.88
640.181	9088.22
640.534	9091.39
640.888	9106.53
641.241	9055
641.594	8968.22
641.947	8997.15
642.301	9071.95
642.654	9074.44
643.007	8991.95
643.36	9026.98
643.713	8987.89
644.066	8940.88
644.419	8922.12
644.771	8892.07
645.124	8892.52
645.477	8880.09
645.83	8765.07
646.182	8777.95
646.535	8724.39
646.888	8708.12
647.24	8702.69
647.593	8739.76
647.945	8676.03
648.298	8653.43
648.65	8680.1
649.002	8594
649.355	8682.13
649.707	8688.23
650.059	8692.07
650.411	8857.27
650.763	8806.42
651.115	8946.98
651.467	8930.26
651.819	8875.35
652.171	8965.74
652.523	8877.15
652.875	8892.97
653.227	8823.82
653.578	8903.82
653.93	8881.9
654.282	8876.93
654.633	8821.56
654.985	8869.7
655.337	8798.96
655.688	8873.54
656.039	8939.52
656.391	8764.61
656.742	8925.29
657.094	8834.44
657.445	8907.44
657.796	8821.11
658.147	8863.37
658.498	8959.19
658.849	8931.84
659.2	8948.79
659.551	8880.54
659.902	8924.38
660.253	8842.58
660.604	8964.38
660.955	8936.81
661.306	8950.37
661.656	8932.52
662.007	8899.98
662.358	8913.31
662.708	8948.11
663.059	8929.81
663.409	8890.71
663.76	8983.59
664.11	8966.64
664.461	9008.9
664.811	8987.66
665.161	8960.77
665.511	8898.17
665.862	8949.47
666.212	8943.37
666.562	8989.69
666.912	9005.51
667.262	8964.83
667.612	8966.87
667.962	8922.8
668.312	8939.75
668.662	8928.9
669.011	8924.84
669.361	8877.83
669.711	8943.82
670.06	8900.66
670.41	8887.32
670.76	8927.77
671.109	8973.42
671.459	8907.66
671.808	8978.62
672.157	8952.41
672.507	8809.36
672.856	8836.93
673.205	8845.97
673.554	8834.89
673.904	8824.05
674.253	8861.56
674.602	8882.13
674.951	8735.91
675.3	8705.63
675.649	8810.71
675.998	8795.57
676.346	8819.3
676.695	8793.31
677.044	8762.35
677.393	8797.61
677.741	8758.06
678.09	8798.96
678.438	8782.92
678.787	8721.23
679.135	8796.25
679.484	8688.91
679.832	8742.24
680.181	8697.5
680.529	8674.45
680.877	8636.48
681.225	8643.71
681.573	8730.49
681.922	8652.75
682.27	8567.78
682.618	8594.22
682.966	8607.78
683.314	8530.95
683.661	8514.23
684.009	8467.9
684.357	8493.21
684.705	8479.65
685.053	8469.03
685.4	8474.45
685.748	8409.37
686.095	8373.89
686.443	8413.21
686.79	8350.16
687.138	8337.96
687.485	8329.6
687.832	8377.51
688.18	8400.33
688.527	8244.4
688.874	8245.31
689.221	8220.45
689.568	8179.77
689.915	8239.88
690.262	8269.03
690.609	8085.54
690.956	8114.91
691.303	8145.87
691.65	8098.19
691.997	8102.71
692.344	8003.28
692.69	8000.57
693.037	8021.81
693.383	7921.02
693.73	7940
694.077	7892.55
694.423	7817.29
694.769	7885.77
695.116	7793.79
695.462	7796.73
695.808	7795.15
696.155	7700.01
696.501	7701.82
696.847	7670.86
697.193	7662.72
697.539	7681.7
697.885	7598.77
698.231	7588.37
698.577	7593.35
698.923	7521.48
699.269	7471.09
699.614	7374.82
699.96	7453.69
700.306	7422.28
700.651	7435.84
700.997	7396.97
701.342	7366.68
701.688	7315.61
702.033	7311.77
702.379	7270.42
702.724	7211.89
703.069	7215.05
703.415	7143.19
703.76	7164.43
704.105	7148.84
704.45	7174.15
704.795	7078.56
705.14	7049.63
705.485	7013.93
705.83	7004.43
706.175	7013.93
706.52	6974.38
706.865	6950.65
707.209	6990.88
707.554	6956.75
707.899	6905.23
708.243	6885.34
708.588	6834.95
708.932	6837.89
709.277	6800.37
709.621	6837.21
709.966	6775.06
710.31	6774.84
710.654	6726.7
710.998	6694.84
711.342	6722.18
711.687	6728.28
712.031	6695.29
712.375	6623.65
712.719	6611.68
713.063	6574.16
713.407	6649.42
713.75	6572.13
714.094	6611.68
714.438	6525.58
714.782	6599.25
715.125	6568.97
715.469	6523.09
715.812	6495.52
716.156	6518.12
716.499	6503.43
716.843	6511.11
717.186	6474.96
717.53	6438.8
717.873	6463.43
718.216	6505.01
718.559	6429.99
718.902	6460.27
719.246	6427.73
719.589	6414.39
719.932	6375.52
720.275	6445.13
720.617	6397.67
720.96	6378.69
721.303	6445.81
721.646	6385.02
721.989	6347.5
722.331	6352.47
722.674	6284.45
723.016	6361.29
723.359	6304.79
723.701	6342.3
724.044	6246.04
724.386	6287.17
724.729	6361.29
725.071	6300.5
725.413	6289.88
725.755	6310.67
726.097	6245.13
726.439	6216.88
726.782	6221.4
727.124	6265.47
727.465	6266.37
727.807	6229.77
728.149	6227.28
728.491	6258.92
728.833	6198.13
729.175	6195.19
729.516	6237.22
729.858	6220.73
730.199	6226.15
730.541	6241.06
730.882	6216.21
731.224	6229.54
731.565	6149.09
731.906	6247.17
732.248	6184.8
732.589	6160.61
732.93	6192.93
733.271	6213.27
733.612	6157
733.953	6169.2
734.294	6182.76
734.635	6165.81
734.976	6177.34
735.317	6204
735.658	6215.3
735.999	6213.95
736.339	6192.48
736.68	6241.29
737.021	6259.82
737.361	6214.62
737.702	6248.3
738.042	6258.69
738.383	6244.45
738.723	6332.36
739.063	6272.25
739.404	6277.22
739.744	6283.78
740.084	6316.54
740.424	6295.98
740.764	6344.79
741.104	6329.42
741.444	6362.19
741.784	6364
742.124	6384.34
742.464	6390.44
742.804	6386.37
743.143	6407.84
743.483	6435.64
743.823	6428.63
744.162	6407.84
744.502	6513.15
744.841	6543.2
745.181	6599.93
745.52	6587.27
745.86	6688.74
746.199	6613.71
746.538	6691.9
746.877	6699.36
747.216	6769.41
747.556	6816.19
747.895	6891.9
748.234	6827.94
748.573	6867.04
748.911	6963.76
749.25	7063.19
749.589	7037.43
749.928	7176.63
750.267	7221.38
750.605	7206.69
750.944	7320.13
751.283	7338.44
751.621	7483.29
751.96	7513.35
752.298	7676.51
752.636	7680.8
752.975	7798.76
753.313	7895.03
753.651	8008.25
753.989	8081.47
754.327	8201.24
754.666	8258.64
755.004	8430.61
755.342	8500.67
755.679	8594.45
756.017	8807.32
756.355	8896.14
756.693	9022.46
757.031	9133.87
757.368	9273.53
757.706	9366.63
758.044	9542.67
758.381	9715.32
758.719	9785.15
759.056	10049.1
759.394	10147.4
759.731	10281.41
760.068	10388.07
760.405	10556.43
760.743	10712.36
761.08	10917.55
761.417	11052.69
761.754	11166.58
762.091	11394.6
762.428	11476.18
762.765	11647.48
763.102	11809.96
763.438	11998.65
763.775	12245.2
764.112	12410.62
764.449	12582.59
764.785	12708.92
765.122	12875.01
765.458	13003.82
765.795	13156.59
766.131	13293.76
766.467	13470.25
766.804	13609.23
767.14	13694.65
767.476	13898.49
767.812	14058.49
768.148	14231.36
768.485	14339.83
768.821	14421.41
769.157	14646.95
