Data from hue_100_FLMS001491_00021.txt Node
Date: Tue Feb 07 17:02:55 GMT 2017
User: dcchb
Spectrometer: FLMS00149
Trigger mode: 0
Integration Time (sec): 2.000000E-2
Scans to average: 10
Electric dark correction enabled: true
Nonlinearity correction enabled: false
Boxcar width: 0
XAxis mode: Wavelengths
Number of Pixels in Spectrum: 2048
>>>>>Begin Spectral Data<<<<<
341.393	-8.49
341.776	-8.49
342.16	-8.49
342.543	-59.79
342.927	-57.3
343.31	-65.44
343.693	-62.5
344.077	-83.06
344.46	-42.61
344.843	-49.84
345.226	-45.55
345.61	-35.38
345.993	-6.45
346.376	5.97
346.759	7.33
347.142	20.21
347.525	55.69
347.908	41
348.291	64.5
348.674	81.68
349.057	114.45
349.44	113.54
349.823	141.79
350.206	155.35
350.588	206.42
350.971	201.9
351.354	224.27
351.737	244.16
352.119	235.12
352.502	278.51
352.884	272.41
353.267	289.36
353.65	292.97
354.032	314.21
354.414	306.53
354.797	311.5
355.179	301.33
355.562	333.2
355.944	340.43
356.326	318.51
356.709	343.14
357.091	347.43
357.473	340.2
357.855	336.59
358.238	351.28
358.62	380.43
359.002	359.19
359.384	349.47
359.766	341.56
360.148	342.01
360.53	359.19
360.912	340.43
361.294	318.96
361.676	338.17
362.057	339.52
362.439	331.16
362.821	329.58
363.203	338.17
363.584	355.57
363.966	336.81
364.348	329.58
364.729	353.99
365.111	325.06
365.493	337.04
365.874	308.79
366.256	319.41
366.637	314.44
367.019	316.93
367.4	341.33
367.781	334.55
368.163	334.55
368.544	315.57
368.925	301.33
369.306	323.93
369.688	337.72
370.069	329.81
370.45	322.35
370.831	311.96
371.212	335.01
371.593	316.93
371.974	317.38
372.355	315.57
372.736	322.8
373.117	332.52
373.498	345.85
373.879	318.51
374.26	320.54
374.641	299.98
375.021	327.77
375.402	329.58
375.783	323.93
376.163	348.79
376.544	330.03
376.925	349.02
377.305	312.18
377.686	321.67
378.066	347.21
378.447	327.32
378.827	328
379.208	351.28
379.588	356.93
379.968	362.12
380.349	345.4
380.729	348.11
381.109	351.73
381.489	363.71
381.87	344.04
382.25	346.98
382.63	371.84
383.01	360.09
383.39	346.98
383.77	354.89
384.15	353.08
384.53	374.1
384.91	359.86
385.29	369.13
385.67	355.34
386.049	359.64
386.429	358.96
386.809	379.52
387.189	376.59
387.568	349.02
387.948	360.99
388.328	380.43
388.707	357.6
389.087	369.58
389.466	359.86
389.846	367.77
390.225	371.16
390.605	375.91
390.984	387.43
391.363	368.22
391.743	385.17
392.122	417.94
392.501	375
392.881	391.5
393.26	394.66
393.639	408.45
394.018	412.97
394.397	387.21
394.776	398.51
395.155	392.63
395.534	401.22
395.913	405.06
396.292	417.72
396.671	423.36
397.05	400.54
397.429	422.69
397.808	418.84
398.186	406.19
398.565	406.64
398.944	438.73
399.323	441.44
399.701	422.91
400.08	429.69
400.458	432.4
400.837	430.37
401.215	433.53
401.594	405.74
401.972	427.21
402.351	431.5
402.729	420.2
403.107	448.45
403.486	435.34
403.864	439.41
404.242	450.93
404.62	444.61
404.999	459.75
405.377	450.71
405.755	456.13
406.133	448
406.511	442.35
406.889	460.88
407.267	471.05
407.645	491.84
408.023	479.63
408.401	454.78
408.779	486.87
409.156	487.09
409.534	473.53
409.912	484.15
410.29	496.36
410.667	485.28
411.045	495.91
411.422	496.36
411.8	507.43
412.178	522.8
412.555	502.46
412.933	527.32
413.31	513.53
413.687	530.03
414.065	539.97
414.442	532.51
414.819	538.62
415.197	528.22
415.574	557.82
415.951	544.94
416.328	558.5
416.705	544.27
417.082	561.44
417.46	560.76
417.837	552.63
418.214	572.74
418.591	586.52
418.967	588.56
419.344	593.98
419.721	577.26
420.098	586.3
420.475	594.21
420.852	598.28
421.228	605.73
421.605	595.56
421.982	612.06
422.358	600.31
422.735	603.47
423.111	617.03
423.488	635.11
423.864	642.34
424.241	639.63
424.617	645.96
424.994	634.21
425.37	638.05
425.746	650.03
426.123	651.16
426.499	658.16
426.875	655.45
427.251	678.27
427.627	689.8
428.003	681.44
428.379	703.36
428.756	689.12
429.132	697.26
429.507	708.78
429.883	704.26
430.259	727.09
430.635	715.56
431.011	726.63
431.387	734.09
431.763	745.84
432.138	749.01
432.514	742.23
432.89	766.18
433.265	777.93
433.641	771.83
434.016	765.28
434.392	797.14
434.767	791.26
435.143	802.79
435.518	820.42
435.894	823.13
436.269	807.54
436.644	833.75
437.02	843.69
437.395	844.82
437.77	843.47
438.145	863.13
438.52	902.67
438.895	865.16
439.271	866.29
439.646	882.11
440.021	898.15
440.395	907.42
440.77	919.85
441.145	917.14
441.52	923.46
441.895	925.05
442.27	927.08
442.645	928.21
443.019	972.28
443.394	946.51
443.769	963.46
444.143	971.15
444.518	981.54
444.892	974.76
445.267	987.42
445.641	964.37
446.016	974.31
446.39	1019.28
446.764	1007.53
447.139	995.33
447.513	1018.83
447.887	1021.31
448.262	1031.94
448.636	1032.84
449.01	1013.63
449.384	1067.64
449.758	1052.05
450.132	1066.96
450.506	1060.86
450.88	1106.28
451.254	1109
451.628	1118.26
452.002	1109.67
452.376	1131.59
452.75	1144.7
453.123	1143.57
453.497	1141.31
453.871	1163.46
454.244	1177.47
454.618	1171.37
454.992	1198.49
455.365	1194.87
455.739	1234.87
456.112	1245.04
456.486	1241.2
456.859	1267.86
457.232	1276.9
457.606	1306.73
457.979	1312.83
458.352	1319.84
458.725	1333.85
459.099	1356
459.472	1393.06
459.845	1373.62
460.218	1409.1
460.591	1443.22
460.964	1436.67
461.337	1484.35
461.71	1460.63
462.083	1502.66
462.456	1515.54
462.829	1539.27
463.201	1570
463.574	1581.3
463.947	1597.12
464.32	1611.81
464.692	1595.76
465.065	1645.25
465.438	1678.47
465.81	1718.47
466.183	1710.56
466.555	1756.89
466.928	1778.13
467.3	1788.3
467.672	1797.57
468.045	1859.49
468.417	1874.17
468.789	1912.82
469.161	1953.72
469.534	1966.83
469.906	2028.75
470.278	2054.28
470.65	2067.84
471.022	2118.01
471.394	2155.07
471.766	2167.95
472.138	2223.32
472.51	2253.37
472.882	2333.6
473.253	2364.1
473.625	2436.87
473.997	2494.27
474.369	2517.77
474.74	2592.8
475.112	2618.34
475.484	2640.48
475.855	2803.19
476.227	2817.65
476.598	2903.98
476.97	2963.64
477.341	3026.69
477.713	3131.77
478.084	3133.35
478.455	3288.37
478.827	3299.22
479.198	3461.93
479.569	3516.39
479.94	3633.68
480.311	3677.29
480.682	3811.75
481.053	3907.11
481.424	3998.41
481.795	4149.59
482.166	4200.89
482.537	4274.34
482.908	4422.13
483.279	4534.44
483.65	4670.48
484.021	4825.96
484.391	4877.26
484.762	4977.14
485.133	5106.86
485.503	5250.36
485.874	5407.87
486.244	5537.35
486.615	5696.22
486.985	5830.23
487.356	5986.38
487.726	6115.42
488.097	6277.45
488.467	6404.22
488.837	6611.68
489.207	6732.13
489.578	6936.64
489.948	7053.25
490.318	7257.76
490.688	7334.37
491.058	7535.27
491.428	7637.41
491.798	7866.33
492.168	8009.61
492.538	8173.67
492.908	8258.64
493.278	8500.44
493.648	8615.24
494.017	8744.28
494.387	8975
494.757	9060.43
495.126	9205.05
495.496	9318.05
495.866	9494.31
496.235	9591.49
496.605	9828.32
496.974	9942.44
497.344	10002.55
497.713	10197.34
498.082	10314.4
498.452	10510.11
498.821	10624
499.19	10670.78
499.559	10902.86
499.928	10981.96
500.298	11167.94
500.667	11195.51
501.036	11295.62
501.405	11464.2
501.774	11528.84
502.143	11725.21
502.512	11714.14
502.88	11899
503.249	11975.6
503.618	12064.41
503.987	12149.38
504.356	12263.28
504.724	12330.17
505.093	12459.66
505.462	12561.8
505.83	12733.1
506.199	12849.48
506.567	12909.59
506.936	13032.52
507.304	13088.79
507.672	13237.72
508.041	13272.07
508.409	13368.33
508.777	13474.32
509.145	13625.05
509.514	13630.25
509.882	13723.35
510.25	13722.9
510.618	13840.64
510.986	13886.29
511.354	14040.41
511.722	14142.1
512.09	14254.19
512.458	14276.56
512.826	14349.1
513.193	14379.16
513.561	14343.45
513.929	14564.46
514.297	14614.18
514.664	14684.68
515.032	14742.54
515.4	14837.9
515.767	14906.83
516.135	14930.33
516.502	14818.47
516.869	15035.86
517.237	15116.54
517.604	15057.56
517.972	15197.44
518.339	15274.05
518.706	15214.39
519.073	15296.65
519.44	15385.68
519.808	15516.53
520.175	15517.88
520.542	15617.54
520.909	15646.69
521.276	15587.71
521.643	15717.65
522.009	15804.2
522.376	15890.75
522.743	15921.94
523.11	15952.22
523.477	16064.76
523.843	16095.27
524.21	16232.21
524.577	16253.23
524.943	16283.29
525.31	16394.24
525.676	16470.63
526.043	16470.4
526.409	16452.77
526.776	16594.92
527.142	16576.61
527.508	16608.93
527.874	16663.84
528.241	16579.32
528.607	16752.65
528.973	16769.83
529.339	16747.91
529.705	16910.61
530.071	16877.17
530.437	16861.8
530.803	16932.99
531.169	16957.62
531.535	16848.02
531.901	16771.41
532.267	16878.53
532.632	16979.54
532.998	16901.35
533.364	17027.67
533.73	16982.7
534.095	17074.9
534.461	17029.93
534.826	17090.27
535.192	16967.79
535.557	17099.99
535.923	16889.82
536.288	16966.43
536.653	16975.02
537.019	16926.43
537.384	16989.03
537.749	17042.59
538.114	16974.34
538.479	16829.94
538.845	17019.09
539.21	16764.4
539.575	16818.87
539.94	16871.75
540.305	16836.72
540.67	16768.02
541.034	16747.91
541.399	16815.48
541.764	16739.09
542.129	16687.57
542.494	16766.21
542.858	16724.18
543.223	16710.62
543.587	16664.97
543.952	16605.99
544.316	16579.55
544.681	16591.53
545.045	16543.39
545.41	16570.96
545.774	16531.87
546.138	16411.87
546.503	16453.9
546.867	16420.91
547.231	16483.96
547.595	16420.23
547.959	16449.84
548.324	16318.31
548.688	16289.16
549.052	16257.75
549.416	16206.23
549.779	16267.24
550.143	16164.42
550.507	16288.94
550.871	16222.5
551.235	16186.34
551.599	16199.45
551.962	16167.58
552.326	16148.83
552.689	16173.91
553.053	15993.12
553.417	15984.31
553.78	16222.05
554.143	15966.68
554.507	16071.54
554.87	16002.16
555.234	16205.55
555.597	15903.64
555.96	15906.57
556.323	15968.72
556.686	15997.87
557.05	16080.58
557.413	15947.25
557.776	15970.53
558.139	15999
558.502	16002.39
558.865	15997.42
559.228	15956.97
559.59	15975.72
559.953	16004.42
560.316	16134.36
560.679	16097.53
561.041	16090.52
561.404	16164.65
561.767	16139.56
562.129	16075.83
562.492	16146.57
562.854	16095.72
563.217	16092.56
563.579	16101.14
563.941	16088.04
564.304	16112.67
564.666	16181.14
565.028	16144.31
565.39	16161.71
565.753	16290.97
566.115	16334.36
566.477	16213.01
566.839	16335.26
567.201	16394.7
567.563	16365.32
567.925	16436.95
568.287	16391.76
568.648	16468.59
569.01	16480.34
569.372	16527.12
569.734	16496.84
570.095	16563.96
570.457	16608.48
570.819	16455.71
571.18	16513.56
571.542	16570.74
571.903	16622.03
572.265	16652.09
572.626	16544.75
572.987	16654.35
573.349	16638.08
573.71	16721.47
574.071	16607.8
574.432	16704.52
574.794	16873.78
575.155	16695.93
575.516	16603.96
575.877	16722.82
576.238	16856.38
576.599	16789.49
576.96	16820.9
577.32	16809.37
577.681	16841.92
578.042	16925.76
578.403	16784.29
578.763	16927.56
579.124	16847.79
579.485	16952.2
579.845	16920.78
580.206	16864.97
580.566	16882.14
580.927	16885.76
581.287	16971.86
581.648	16819.54
582.008	16906.32
582.368	16769.38
582.728	16872.42
583.089	16784.29
583.449	16753.33
583.809	16787
584.169	16921.24
584.529	16776.38
584.889	16834.01
585.249	16703.39
585.609	16736.38
585.969	16725.08
586.329	16720.34
586.688	16780
587.048	16686.44
587.408	16768.25
587.768	16724.63
588.127	16650.51
588.487	16741.81
588.846	16724.4
589.206	16629.04
589.565	16585.65
589.925	16719.89
590.284	16617.97
590.643	16703.39
591.003	16677.63
591.362	16688.25
591.721	16688.93
592.08	16578.65
592.44	16692.54
592.799	16602.6
593.158	16596.72
593.517	16553.11
593.876	16568.25
594.235	16514.69
594.593	16531.87
594.952	16528.25
595.311	16533.9
595.67	16610.51
596.029	16691.86
596.387	16624.97
596.746	16666.55
597.104	16582.04
597.463	16467.24
597.822	16521.7
598.18	16490.74
598.538	16500.68
598.897	16613.67
599.255	16351.08
599.613	16589.95
599.972	16508.14
600.33	16469.04
600.688	16483.28
601.046	16506.78
601.404	16614.58
601.762	16567.8
602.12	16571.19
602.478	16504.07
602.836	16589.27
603.194	16444.64
603.552	16500
603.91	16462.49
604.268	16667.46
604.625	16554.24
604.983	16547.01
605.341	16448.93
605.698	16515.14
606.056	16603.05
606.413	16624.75
606.771	16591.98
607.128	16525.77
607.485	16633.11
607.843	16537.74
608.2	16595.82
608.557	16650.96
608.914	16558.76
609.272	16614.35
609.629	16758.98
609.986	16824.29
610.343	16617.74
610.7	16786.32
611.057	16737.29
611.414	16736.38
611.771	16737.96
612.127	16809.15
612.484	16743.61
612.841	16847.11
613.198	16772.77
613.554	16805.76
613.911	16895.02
614.267	16876.94
614.624	16876.49
614.98	16895.93
615.337	16909.71
615.693	16953.78
616.05	16887.79
616.406	16944.51
616.762	16893.44
617.118	16939.31
617.475	16913.1
617.831	17029.03
618.187	16963.49
618.543	17007.34
618.899	17010.5
619.255	17059.76
619.611	17016.6
619.967	17129.59
620.323	17155.81
620.678	17090.95
621.034	17046.66
621.39	17030.84
621.746	17041.01
622.101	17128.01
622.457	17173.66
622.812	17038.75
623.168	17014.57
623.523	17168.01
623.879	17132.76
624.234	17085.3
624.589	17078.75
624.945	17010.27
625.3	17117.16
625.655	17081.68
626.01	17041.23
626.365	16972.53
626.72	16973.21
627.075	17134.11
627.43	17012.31
627.785	17065.64
628.14	17099.08
628.495	17050.27
628.85	17091.4
629.205	17022.25
629.559	17060.22
629.914	17050.95
630.269	17065.41
630.623	16923.04
630.978	16896.38
631.332	17006.88
631.687	16995.81
632.041	16861.35
632.396	16976.6
632.75	16791.52
633.104	16798.98
633.459	16850.96
633.813	16789.04
634.167	16807.34
634.521	16740.45
634.875	16793.1
635.229	16684.41
635.583	16663.39
635.937	16684.18
636.291	16708.81
636.645	16579.1
636.999	16580.45
637.352	16700.68
637.706	16542.71
638.06	16670.62
638.413	16602.37
638.767	16573.67
639.121	16426.56
639.474	16480.57
639.828	16405.32
640.181	16443.96
640.534	16458.42
640.888	16446.67
641.241	16378.43
641.594	16341.14
641.947	16346.56
642.301	16360.57
642.654	16415.03
643.007	16385.66
643.36	16378.2
643.713	16299.33
644.066	16365.32
644.419	16267.47
644.771	16135.49
645.124	16037.64
645.477	16003.52
645.83	15879.68
646.182	15910.41
646.535	15805.56
646.888	15846.01
647.24	15778.89
647.593	15810.08
647.945	15715.17
648.298	15648.05
648.65	15580.93
649.002	15727.14
649.355	15718.33
649.707	15765.33
650.059	15778.44
650.411	15983.63
650.763	16042.84
651.115	16191.76
651.467	16058.89
651.819	16216.17
652.171	16079.22
652.523	16116.06
652.875	16076.06
653.227	15946.35
653.578	16124.87
653.93	16070.86
654.282	16120.35
654.633	16046.91
654.985	15965.78
655.337	16043.97
655.688	16143.63
656.039	16099.34
656.391	16010.53
656.742	16106.12
657.094	16081.26
657.445	16184.98
657.796	16107.92
658.147	16066.57
658.498	16040.81
658.849	16134.14
659.2	16128.71
659.551	16057.3
659.902	16138.43
660.253	16147.24
660.604	16104.99
660.955	16119.9
661.306	16022.05
661.656	16109.73
662.007	16115.38
662.358	16099.34
662.708	16163.06
663.059	16168.26
663.409	15968.94
663.76	16154.93
664.11	16129.39
664.461	16132.56
664.811	16179.11
665.161	16163.29
665.511	16108.15
665.862	16141.82
666.212	16222.05
666.562	16165.1
666.912	16168.49
667.262	16099.34
667.612	16220.01
667.962	16195.38
668.312	16168.04
668.662	16230.18
669.011	16082.84
669.361	16043.74
669.711	16159.67
670.06	16139.79
670.41	16106.34
670.76	16033.58
671.109	16113.8
671.459	16045.78
671.808	16047.13
672.157	16027.7
672.507	16009.4
672.856	15968.49
673.205	15966.68
673.554	16002.16
673.904	15938.21
674.253	16084.2
674.602	15965.78
674.951	15739.12
675.3	15711.55
675.649	15882.85
675.998	15840.13
676.346	15927.59
676.695	15914.71
677.044	15762.85
677.393	15849.63
677.741	15885.33
678.09	15824.54
678.438	15789.97
678.787	15844.88
679.135	15837.87
679.484	15619.58
679.832	15697.54
680.181	15660.03
680.529	15704.09
680.877	15539.13
681.225	15545.9
681.573	15675.17
681.922	15572.57
682.27	15476.98
682.618	15527.15
682.966	15468.39
683.314	15499.58
683.661	15429.98
684.009	15267.95
684.357	15256.42
684.705	15260.71
685.053	15281.73
685.4	15221.85
685.748	15075.63
686.095	15148.18
686.443	15137.1
686.79	15137.1
687.138	15078.12
687.485	15141.4
687.832	14991.57
688.18	15107.95
688.527	14913.83
688.874	14904.34
689.221	14868.41
689.568	14782.54
689.915	14765.59
690.262	14754.74
690.609	14732.59
690.956	14706.15
691.303	14702.54
691.65	14597
691.997	14546.16
692.344	14419.83
692.69	14461.87
693.037	14417.57
693.383	14246.28
693.73	14387.29
694.077	14213.28
694.423	14221.19
694.769	14258.26
695.116	14125.15
695.462	14152.5
695.808	14083.34
696.155	14020.75
696.501	13909.79
696.847	13930.58
697.193	13883.8
697.539	13883.58
697.885	13647.88
698.231	13710.25
698.577	13703.92
698.923	13646.97
699.269	13574.43
699.614	13578.95
699.96	13460.31
700.306	13430.71
700.651	13369.46
700.997	13323.14
701.342	13261.22
701.688	13344.83
702.033	13237.04
702.379	13197.72
702.724	13116.59
703.069	13183.03
703.415	13014.45
703.76	13051.96
704.105	12951.17
704.45	12982.81
704.795	12879.76
705.14	12818.74
705.485	12702.36
705.83	12764.96
706.175	12708.69
706.52	12734.68
706.865	12681.57
707.209	12627.79
707.554	12550.73
707.899	12562.03
708.243	12498.98
708.588	12469.6
708.932	12366.78
709.277	12344.41
709.621	12327.23
709.966	12200.68
710.31	12327.01
710.654	12145.99
710.998	12188.93
711.342	12183.28
711.687	12189.16
712.031	12145.77
712.375	11989.39
712.719	12033.68
713.063	12036.17
713.407	12061.7
713.75	11963.4
714.094	11988.26
714.438	11833.23
714.782	11878.66
715.125	11800.47
715.469	11865.78
715.812	11794.14
716.156	11778.55
716.499	11783.29
716.843	11748.04
717.186	11629.17
717.53	11770.86
717.873	11766.34
718.216	11646.8
718.559	11668.49
718.902	11645.44
719.246	11745.55
719.589	11580.59
719.932	11579.46
720.275	11589.4
720.617	11581.49
720.96	11540.59
721.303	11530.42
721.646	11504.88
721.989	11441.83
722.331	11503.75
722.674	11473.47
723.016	11461.04
723.359	11386.01
723.701	11472.11
724.044	11351.44
724.386	11300.59
724.729	11414.71
725.071	11357.77
725.413	11344.66
725.755	11320.03
726.097	11230.31
726.439	11234.83
726.782	11299.01
727.124	11284.55
727.465	11249.07
727.807	11217.66
728.149	11243.65
728.491	11173.59
728.833	11271.89
729.175	11166.13
729.516	11167.04
729.858	11278.9
730.199	11230.76
730.541	11207.26
730.882	11207.71
731.224	11183.99
731.565	11156.64
731.906	11205.68
732.248	11235.96
732.589	11156.87
732.93	11144.44
733.271	11177.43
733.612	11178.11
733.953	11219.24
734.294	11131.33
734.635	11188.51
734.976	11138.11
735.317	11136.98
735.658	11141.73
735.999	11107.6
736.339	11027.15
736.68	11117.77
737.021	11186.47
737.361	11054.05
737.702	11143.76
738.042	11093.14
738.383	11082.52
738.723	11172.91
739.063	11137.43
739.404	11200.93
739.744	11181.73
740.084	11225.79
740.424	11236.19
740.764	11187.83
741.104	11210.65
741.444	11294.49
741.784	11247.71
742.124	11329.07
742.464	11328.84
742.804	11294.49
743.143	11304.43
743.483	11407.93
743.823	11337.2
744.162	11359.35
744.502	11384.88
744.841	11430.98
745.181	11530.87
745.52	11492.45
745.86	11576.29
746.199	11534.48
746.538	11506.24
746.877	11659.91
747.216	11754.59
747.556	11763.18
747.895	11815.38
748.234	11779
748.573	11822.39
748.911	11957.75
749.25	12019.44
749.589	12067.13
749.928	12266.89
750.267	12231.87
750.605	12381.92
750.944	12324.75
751.283	12447.46
751.621	12600.67
751.96	12675.47
752.298	12812.19
752.636	12838.86
752.975	12910.04
753.313	13046.31
753.651	13153.65
753.989	13224.38
754.327	13327.21
754.666	13461.44
755.004	13515
755.342	13755.22
755.679	13887.19
756.017	13870.47
