Data from hue_32_FLMS001491_00025.txt Node
Date: Tue Feb 07 17:23:06 GMT 2017
User: dcchb
Spectrometer: FLMS00149
Trigger mode: 0
Integration Time (sec): 2.000000E-2
Scans to average: 10
Electric dark correction enabled: true
Nonlinearity correction enabled: false
Boxcar width: 0
XAxis mode: Wavelengths
Number of Pixels in Spectrum: 2048
>>>>>Begin Spectral Data<<<<<
341.393	-15.89
341.776	-15.89
342.16	-15.89
342.543	-64.7
342.927	-75.55
343.31	-78.26
343.693	-56.79
344.077	-73.97
344.46	-71.71
344.843	-60.63
345.226	-41.88
345.61	-40.3
345.993	-1.65
346.376	-14.53
346.759	10.1
347.142	55.07
347.525	48.97
347.908	51.45
348.291	72.92
348.674	98.68
349.057	102.53
349.44	127.61
349.823	149.3
350.206	159.02
350.588	185.01
350.971	219.36
351.354	243.09
351.737	248.06
352.119	274.27
352.502	283.31
352.884	271.11
353.267	299.58
353.65	279.02
354.032	305.46
354.414	320.82
354.797	314.05
355.179	323.54
355.562	322.18
355.944	327.15
356.326	343.88
356.709	325.34
357.091	338.68
357.473	341.39
357.855	355.4
358.238	355.85
358.62	338.68
359.002	337.77
359.384	341.84
359.766	356.3
360.148	349.3
360.53	334.38
360.912	329.64
361.294	329.19
361.676	350.88
362.057	328.06
362.439	347.72
362.821	342.75
363.203	341.16
363.584	332.35
363.966	330.99
364.348	323.31
364.729	322.86
365.111	315.18
365.493	319.02
365.874	332.58
366.256	322.18
366.637	295.74
367.019	321.95
367.4	315.18
367.781	335.06
368.163	340.03
368.544	326.25
368.925	333.93
369.306	339.58
369.688	312.69
370.069	318.11
370.45	319.92
370.831	321.95
371.212	325.12
371.593	317.89
371.974	307.04
372.355	323.76
372.736	325.34
373.117	308.4
373.498	325.57
373.879	322.18
374.26	309.53
374.641	327.6
375.021	328.51
375.402	328.96
375.783	337.1
376.163	335.51
376.544	331.9
376.925	320.82
377.305	336.19
377.686	351.33
378.066	352.24
378.447	349.98
378.827	331.22
379.208	361.5
379.588	357.43
379.968	329.41
380.349	345.01
380.729	361.28
381.109	346.59
381.489	340.03
381.87	347.26
382.25	324.67
382.63	350.65
383.01	344.78
383.39	361.73
383.77	356.76
384.15	343.65
384.53	372.35
384.91	356.53
385.29	324.21
385.67	324.89
386.049	354.04
386.429	348.85
386.809	380.94
387.189	355.63
387.568	363.31
387.948	373.25
388.328	345.46
388.707	367.38
389.087	370.54
389.466	363.08
389.846	374.38
390.225	370.32
390.605	387.26
390.984	360.15
391.363	366.93
391.743	381.16
392.122	379.13
392.501	386.81
392.881	374.61
393.26	402.63
393.639	397.43
394.018	400.6
394.397	391.33
394.776	385.91
395.155	398.34
395.534	385.46
395.913	373.03
396.292	375.29
396.671	390.43
397.05	396.08
397.429	403.76
397.808	389.3
398.186	393.59
398.565	392.69
398.944	401.27
399.323	398.56
399.701	390.43
400.08	392.24
400.458	414.16
400.837	376.19
401.215	410.77
401.594	388.85
401.972	446.47
402.351	419.81
402.729	415.96
403.107	432.91
403.486	436.3
403.864	431.33
404.242	425.23
404.62	431.33
404.999	444.44
405.377	435.85
405.755	444.89
406.133	438.34
406.511	422.07
406.889	446.02
407.267	438.34
407.645	449.41
408.023	464.78
408.401	459.35
408.779	449.64
409.156	453.7
409.534	468.39
409.912	458.9
410.29	492.57
410.667	469.75
411.045	460.26
411.422	493.25
411.8	472.69
412.178	495.06
412.555	478.79
412.933	481.95
413.31	481.5
413.687	466.81
414.065	515.4
414.442	486.24
414.819	510.65
415.197	486.7
415.574	500.03
415.951	515.62
416.328	499.35
416.705	499.35
417.082	516.53
417.46	501.61
417.837	510.42
418.214	527.83
418.591	536.19
418.967	533.47
419.344	540.71
419.721	549.07
420.098	532.8
420.475	536.19
420.852	528.5
421.228	536.86
421.605	538.45
421.982	558.56
422.358	565.11
422.735	556.3
423.111	566.02
423.488	566.24
423.864	556.75
424.241	575.06
424.617	567.82
424.994	575.28
425.37	585
425.746	598.56
426.123	618.22
426.499	580.93
426.875	580.71
427.251	589.97
427.627	592.91
428.003	614.15
428.379	629.97
428.756	636.07
429.132	615.05
429.507	643.75
429.883	627.48
430.259	636.75
430.635	641.72
431.011	653.02
431.387	653.02
431.763	668.84
432.138	679.46
432.514	698.44
432.89	667.93
433.265	696.18
433.641	692.57
434.016	690.31
434.392	684.43
434.767	708.84
435.143	706.8
435.518	725.33
435.894	723.98
436.269	728.72
436.644	738.44
437.02	722.62
437.395	707.48
437.77	756.97
438.145	761.27
438.52	746.8
438.895	741.6
439.271	778.67
439.646	792
440.021	782.96
440.395	786.8
440.77	789.06
441.145	794.26
441.52	791.55
441.895	780.7
442.27	819.34
442.645	824.54
443.019	830.87
443.394	801.72
443.769	827.03
444.143	820.7
444.518	860.47
444.892	840.36
445.267	835.39
445.641	845.33
446.016	853.47
446.39	845.1
446.764	839
447.139	846.69
447.513	878.1
447.887	853.47
448.262	880.36
448.636	883.3
449.01	896.63
449.384	911.77
449.758	907.93
450.132	907.48
450.506	903.86
450.88	937.08
451.254	935.27
451.628	914.03
452.002	945.89
452.376	937.31
452.75	952.9
453.123	932.33
453.497	967.14
453.871	993.8
454.244	1009.85
454.618	1004.2
454.992	1005.33
455.365	1015.72
455.739	1043.74
456.112	1008.04
456.486	1046.68
456.859	1051.2
457.232	1062.05
457.606	1073.8
457.979	1094.59
458.352	1079.9
458.725	1120.8
459.099	1110.41
459.472	1144.31
459.845	1148.37
460.218	1137.53
460.591	1194.93
460.964	1183.85
461.337	1201.48
461.71	1193.34
462.083	1229.73
462.456	1239.22
462.829	1248.03
463.201	1273.12
463.574	1281.48
463.947	1268.6
464.32	1299.56
464.692	1329.16
465.065	1316.05
465.438	1352.66
465.81	1384.98
466.183	1372.32
466.555	1374.36
466.928	1401.25
467.3	1416.62
467.672	1427.24
468.045	1465.88
468.417	1474.47
468.789	1504.75
469.161	1517.63
469.534	1519.44
469.906	1534.35
470.278	1580
470.65	1622.94
471.022	1649.38
471.394	1683.73
471.766	1676.72
472.138	1703.39
472.51	1761.69
472.882	1781.13
473.253	1822.48
473.625	1851.18
473.997	1882.82
474.369	1868.81
474.74	1951.74
475.112	1996.04
475.484	2005.07
475.855	2043.94
476.227	2057.95
476.598	2116.26
476.97	2157.61
477.341	2222.24
477.713	2229.48
478.084	2282.36
478.455	2343.6
478.827	2387.44
479.198	2456.36
479.569	2483.03
479.94	2585.4
480.311	2600.09
480.682	2712.17
481.053	2773.87
481.424	2807.09
481.795	2855.67
482.166	2911.72
482.537	3007.76
482.908	3060.64
483.279	3132.5
483.65	3189.9
484.021	3289.11
484.391	3343.8
484.762	3374.53
485.133	3455.66
485.503	3533.4
485.874	3595.77
486.244	3739.72
486.615	3780.17
486.985	3871.01
487.356	3944.46
487.726	4014.74
488.097	4171.35
488.467	4173.15
488.837	4300.61
489.207	4317.33
489.578	4456.54
489.948	4526.36
490.318	4594.84
490.688	4675.74
491.058	4776.3
491.428	4880.25
491.798	4961.83
492.168	5052.45
492.538	5107.59
492.908	5240.47
493.278	5290.19
493.648	5369.73
494.017	5452.44
494.387	5520.24
494.757	5551.2
495.126	5656.05
495.496	5742.38
495.866	5815.6
496.235	5928.36
496.605	5961.13
496.974	6025.99
497.344	6157.73
497.713	6162.71
498.082	6278.63
498.452	6318.63
498.821	6375.13
499.19	6435.24
499.559	6498.29
499.928	6577.61
500.298	6636.82
500.667	6782.35
501.036	6769.02
501.405	6837.49
501.774	6949.58
502.143	6953.64
502.512	7071.16
502.88	7067.77
503.249	7099.86
503.618	7171.27
503.987	7245.16
504.356	7300.08
504.724	7331.94
505.093	7420.75
505.462	7463.24
505.83	7512.27
506.199	7576.45
506.567	7674.53
506.936	7731.48
507.304	7879.04
507.672	7872.72
508.041	7861.64
508.409	7947.52
508.777	8017.35
509.145	8077.46
509.514	8082.65
509.882	8200.17
510.25	8230.67
510.618	8277.45
510.986	8314.29
511.354	8359.03
511.722	8430.44
512.09	8524.45
512.458	8606.48
512.826	8613.04
513.193	8611.68
513.561	8658.01
513.929	8723.09
514.297	8842.18
514.664	8807.83
515.032	8836.53
515.4	8994.04
515.767	9001.73
516.135	9100.48
516.502	8973.25
516.869	9178.67
517.237	9214.6
517.604	9151.1
517.972	9275.62
518.339	9377.08
518.706	9346.35
519.073	9357.88
519.44	9410.08
519.808	9562.16
520.175	9487.82
520.542	9696.85
520.909	9665.44
521.276	9699.79
521.643	9751.31
522.009	9795.83
522.376	9874.7
522.743	9892.55
523.11	9990.85
523.477	10074.92
523.843	10089.83
524.21	10248.02
524.577	10332.09
524.943	10364.85
525.31	10395.59
525.676	10450.28
526.043	10530.73
526.409	10588.13
526.776	10709.03
527.142	10663.83
527.508	10764.62
527.874	10830.83
528.241	10876.03
528.607	10871.06
528.973	11057.27
529.339	11033.54
529.705	11087.1
530.071	11197.38
530.437	11243.7
530.803	11280.99
531.169	11286.86
531.535	11399.63
531.901	11407.99
532.267	11373.42
532.632	11477.37
532.998	11577.48
533.364	11628.55
533.73	11719.4
534.095	11710.13
534.461	11870.13
534.826	11793.07
535.192	11915.1
535.557	11987.86
535.923	12034.42
536.288	12072.38
536.653	12134.75
537.019	12085.71
537.384	12195.77
537.749	12261.53
538.114	12345.59
538.479	12296.78
538.845	12387.17
539.21	12329.77
539.575	12440.96
539.94	12468.53
540.305	12620.16
540.67	12568.41
541.034	12685.02
541.399	12706.04
541.764	12716.88
542.129	12761.18
542.494	12849.31
542.858	12890.21
543.223	12876.43
543.587	13025.12
543.952	13002.75
544.316	13054.28
544.681	13137.89
545.045	13124.56
545.41	13141.5
545.774	13300.82
546.138	13324.1
546.503	13370.88
546.867	13396.41
547.231	13494.94
547.595	13554.15
547.959	13606.58
548.324	13611.77
548.688	13553.25
549.052	13642.73
549.416	13803.18
549.779	13747.82
550.143	13810.19
550.507	13882.28
550.871	13959.34
551.235	13945.55
551.599	14035.94
551.962	14007.47
552.326	14174.02
552.689	14120.24
553.053	14155.94
553.417	14233.91
553.78	14403.62
554.143	14306.45
554.507	14399.1
554.87	14474.13
555.234	14594.12
555.597	14536.95
555.96	14569.72
556.323	14647.23
556.686	14612.65
557.05	14736.49
557.413	14682.03
557.776	14767.9
558.139	14898.97
558.502	14938.52
558.865	14989.59
559.228	15044.51
559.59	15106.65
559.953	15100.55
560.316	15313.88
560.679	15236.14
561.041	15387.55
561.404	15429.13
561.767	15451.5
562.129	15406.76
562.492	15627.54
562.854	15587.54
563.217	15645.62
563.579	15619.18
563.941	15727.88
564.304	15867.99
564.666	15921.77
565.028	15969
565.39	15982.56
565.753	16034.76
566.115	16099.85
566.477	16192.5
566.839	16155.44
567.201	16274.08
567.563	16321.53
567.925	16533.28
568.287	16439.05
568.648	16562.66
569.01	16599.94
569.372	16724.69
569.734	16674.75
570.095	16754.74
570.457	16909.09
570.819	16925.81
571.18	16987.05
571.542	17115.41
571.903	17082.87
572.265	17191.12
572.626	17297.55
572.987	17283.09
573.349	17448.51
573.71	17493.03
574.071	17502.75
574.432	17714.72
574.794	17818.9
575.155	17768.95
575.516	17874.26
575.877	18045.78
576.238	18131.2
576.599	18255.72
576.96	18347.02
577.32	18384.3
577.681	18577.75
578.042	18769.15
578.403	18752.2
578.763	18932.31
579.124	19037.85
579.485	19266.77
579.845	19508.12
580.206	19539.75
580.566	19649.81
580.927	19799.41
581.287	19975.45
581.648	20041.89
582.008	20318.72
582.368	20481.88
582.728	20644.13
583.089	20902.66
583.449	21055.42
583.809	21248.86
584.169	21379.25
584.529	21464.9
584.889	22040.48
585.249	21996.41
585.609	22219.46
585.969	22564.99
586.329	22693.34
586.688	22991.87
587.048	23166.78
587.408	23360.22
587.768	23545.3
588.127	23819.87
588.487	23948.23
588.846	24439.51
589.206	24350.25
589.565	24761.31
589.925	25114.52
590.284	25325.82
590.643	25559.03
591.003	25856.2
591.362	26144.55
591.721	26365.56
592.08	26545.67
592.44	26946.79
592.799	27157.63
593.158	27439.66
593.517	27627.68
593.876	27950.83
594.235	28160.77
594.593	28481.67
594.952	28755.78
595.311	28984.48
595.67	29265.6
596.029	29808.19
596.387	29871.91
596.746	30239.13
597.104	30188.97
597.463	30468.05
597.822	30721.38
598.18	31108.26
598.538	31128.38
598.897	31636.84
599.255	31603.17
599.613	32286.09
599.972	32319.08
600.33	32561.11
600.688	32776.02
601.046	32999.06
601.404	33359.05
601.762	33425.72
602.12	33977.34
602.478	33988.19
602.836	34213.04
603.194	34350.21
603.552	34480.83
603.91	34625.91
604.268	35098.67
604.625	35130.08
604.983	35431.31
605.341	35428.38
605.698	35743.85
606.056	35997.85
606.413	36279.88
606.771	36345.64
607.128	36649.14
607.485	36582.92
607.843	36849.58
608.2	37249.57
608.557	37426.06
608.914	37433.07
609.272	37868.76
609.629	37891.81
609.986	38328.41
610.343	38362.99
610.7	38606.6
611.057	38554.62
611.414	38632.81
611.771	39032.12
612.127	39237.99
612.484	39201.16
612.841	39467.59
613.198	39306.92
613.554	39546.23
613.911	39889.5
614.267	39969.73
614.624	40005.21
614.98	40093.11
615.337	40468.92
615.693	40461.01
616.05	40555.25
616.406	40810.16
616.762	40854.67
617.118	40843.83
617.475	41054.67
617.831	41118.17
618.187	41258.51
618.543	41371.95
618.899	41695.1
619.255	41667.31
619.611	41711.83
619.967	41877.47
620.323	42177.8
620.678	42120.86
621.034	42142.55
621.39	42259.61
621.746	42112.72
622.101	42702.08
622.457	42430.45
622.812	42629.32
623.168	42651.46
623.523	42757.68
623.879	42891.01
624.234	42646.72
624.589	42895.3
624.945	43124.67
625.3	43132.58
625.655	43167.38
626.01	43171.22
626.365	43239.24
626.72	43209.64
627.075	43116.99
627.43	43249.19
627.785	43135.52
628.14	43493.93
628.495	43564.66
628.85	43497.09
629.205	43387.49
629.559	43449.41
629.914	43502.74
630.269	43616.64
630.623	43481.95
630.978	43490.09
631.332	43580.03
631.687	43697.54
632.041	43487.6
632.396	43630.87
632.75	43494.6
633.104	43617.09
633.459	43600.36
633.813	43620.7
634.167	43514.49
634.521	43629.06
634.875	43688.5
635.229	43610.76
635.583	43422.74
635.937	43513.59
636.291	43405.57
636.645	43548.39
636.999	43554.04
637.352	43523.98
637.706	43387.26
638.06	43577.31
638.413	43591.33
638.767	43393.82
639.121	43542.06
639.474	43362.63
639.828	43280.15
640.181	43450.09
640.534	43426.36
640.888	43215.52
641.241	43262.52
641.594	43273.59
641.947	43376.19
642.301	43192.47
642.654	43170.09
643.007	43241.5
643.36	43172.58
643.713	43172.81
644.066	43426.36
644.419	43044.45
644.771	42912.25
645.124	42504.8
645.477	42461.19
645.83	42107.75
646.182	42164.02
646.535	42053.51
646.888	42155.43
647.24	41931.26
647.593	42182.32
647.945	41945.95
648.298	41787.98
648.65	41926.28
649.002	41715.22
649.355	41955.21
649.707	41861.88
650.059	41978.71
650.411	42555.87
650.763	42477.23
651.115	42860.95
651.467	42750.67
651.819	42767.39
652.171	42617.11
652.523	42641.07
652.875	42689.2
653.227	42263.68
653.578	42552.26
653.93	42630.9
654.282	42401.3
654.633	42404.24
654.985	42455.54
655.337	42587.96
655.688	42571.01
656.039	42662.08
656.391	42235.66
656.742	42472.03
657.094	42463.22
657.445	42626.61
657.796	42493.95
658.147	42347.52
658.498	42410.11
658.849	42492.15
659.2	42505.25
659.551	42206.5
659.902	42585.93
660.253	42412.83
660.604	42443.33
660.955	42306.84
661.306	42283.11
661.656	42244.47
662.007	42353.17
662.358	42285.82
662.708	42254.86
663.059	42277.01
663.409	42070.46
663.76	42196.56
664.11	42205.37
664.461	42213.28
664.811	42252.15
665.161	42296.9
665.511	42232.49
665.862	42221.42
666.212	42331.25
666.562	42322.21
666.912	42098.94
667.262	42132.61
667.612	42162.44
667.962	42199.5
668.312	42214.64
668.662	42289.89
669.011	42149.1
669.361	42074.98
669.711	42022.78
670.06	42103.91
670.41	42168.09
670.76	42170.12
671.109	42242.43
671.459	42072.72
671.808	42042.21
672.157	42279.72
672.507	41807.42
672.856	41835.21
673.205	41959.96
673.554	41929
673.904	41876.57
674.253	42144.81
674.602	41897.81
674.951	41505.28
675.3	41255.79
675.649	41939.17
675.998	41818.94
676.346	41910.01
676.695	41802.22
677.044	41633.86
677.393	41623.02
677.741	41847.19
678.09	41742.33
678.438	41648.33
678.787	41830.24
679.135	41679.06
679.484	41406.52
679.832	41640.42
680.181	41324.27
680.529	41482
680.877	41306.41
681.225	41229.35
681.573	41577.14
681.922	41205.4
682.27	41030.04
682.618	41032.97
682.966	40974.45
683.314	41086.31
683.661	40913.88
684.009	40848.57
684.357	40831.17
684.705	40769.48
685.053	40797.73
685.4	40661.46
685.748	40515.25
686.095	40536.04
686.443	40467.11
686.79	40307.8
687.138	40498.98
687.485	40343.5
687.832	40227.8
688.18	40228.7
688.527	40082.27
688.874	40055.6
689.221	39968.14
689.568	39845.21
689.915	39648.38
690.262	39893.34
690.609	39689.51
690.956	39388.72
691.303	39433.47
691.65	39305.56
691.997	39278.44
692.344	39155.51
692.69	38998.23
693.037	39066.92
693.383	38812.92
693.73	38969.98
694.077	38683.43
694.423	38720.04
694.769	38569.99
695.116	38392.14
695.462	38413.61
695.808	38428.07
696.155	38456.55
696.501	38050.68
696.847	38118.7
697.193	37838.48
697.539	38101.3
697.885	37788.77
698.231	37631.93
698.577	37620.64
698.923	37720.52
699.269	37421.32
699.614	37352.85
699.96	37199.63
700.306	37258.38
700.651	37165.73
700.997	36871.5
701.342	36822.01
701.688	36951.73
702.033	36629.02
702.379	36674.45
702.724	36638.97
703.069	36689.81
703.415	36355.36
703.76	36259.77
704.105	36393.32
704.45	36224.51
704.795	36017.51
705.14	35893.45
705.485	35858.65
705.83	35634.02
706.175	35745.43
706.52	35771.42
706.865	35532.78
707.209	35582.27
707.554	35331.43
707.899	35396.06
708.243	35231.77
708.588	35168.04
708.932	35044.88
709.277	35096.41
709.621	35190.42
709.966	34848.73
710.31	35148.61
710.654	34605.57
710.998	34613.03
711.342	34622.97
711.687	34481.96
712.031	34438.35
712.375	34316.09
712.719	34419.14
713.063	34252.59
713.407	34355.64
713.75	34145.92
714.094	34072.93
714.438	34032.71
714.782	34058.92
715.125	33803.33
715.469	33985.48
715.812	33759.04
716.156	33566.96
716.499	33564.02
716.843	33640.63
717.186	33487.86
717.53	33713.62
717.873	33586.84
718.216	33527.41
718.559	33394.76
718.902	33149.11
719.246	33094.65
719.589	32974.88
719.932	32841.33
720.275	32957.93
720.617	32837.26
720.96	32884.49
721.303	32822.12
721.646	32908.89
721.989	32694.66
722.331	32830.25
722.674	32652.63
723.016	32730.37
723.359	32549.58
723.701	32632.97
724.044	32262.58
724.386	32257.84
724.729	32227.1
725.071	32347.33
725.413	32281.79
725.755	32191.63
726.097	32075.47
726.439	31913.67
726.782	31964.74
727.124	32009.26
727.465	31863.27
727.807	32032.99
728.149	31830.5
728.491	31767.23
728.833	31823.73
729.175	31604.52
729.516	31711.41
729.858	31467.8
730.199	31569.95
730.541	31368.82
730.882	31473.68
731.224	31458.54
731.565	31373.34
731.906	31389.84
732.248	31292.89
732.589	31118.21
732.93	31085.44
733.271	31181.48
733.612	31148.49
733.953	31138.09
734.294	31001.37
734.635	30807.71
734.976	30960.47
735.317	30866.69
735.658	30870.08
735.999	30828.5
736.339	30773.58
736.68	30825.11
737.021	30661.72
737.361	30574.94
737.702	30691.1
738.042	30577.43
738.383	30607.26
738.723	30672.12
739.063	30530.43
739.404	30515.29
739.744	30358
740.084	30318.23
740.424	30462.86
740.764	30357.1
741.104	30286.82
741.444	30118.01
741.784	30091.34
742.124	29969.08
742.464	30164.79
742.804	30029.2
743.143	29925.7
743.483	29947.84
743.823	29820.84
744.162	29795.3
744.502	29898.13
744.841	29788.52
745.181	29820.61
745.52	29655.65
745.86	29717.11
746.199	29677.57
746.538	29683.44
746.877	29548.53
747.216	29692.93
747.556	29505.59
747.895	29448.42
748.234	29393.28
748.573	29317.12
748.911	29306.96
749.25	29283
749.589	29160.52
749.928	29210.46
750.267	29285.94
750.605	29062.44
750.944	28996.91
751.283	28974.31
751.621	28932.05
751.96	28856.35
752.298	28792.39
752.636	28807.53
752.975	28676.24
753.313	28594.21
753.651	28744.03
753.989	28476.92
754.327	28417.94
754.666	28364.16
755.004	28496.81
755.342	28413.19
755.679	28372.29
756.017	28265.63
756.355	28327.09
756.693	28116.93
757.031	28165.97
757.368	28011.85
