Data from hue_60_FLMS001491_86.txt Node
Date: Mon Feb 06 15:18:03 GMT 2017
User: dcchb
Spectrometer: FLMS00149
Trigger mode: 0
Integration Time (sec): 2.000000E-2
Scans to average: 10
Electric dark correction enabled: true
Nonlinearity correction enabled: false
Boxcar width: 0
XAxis mode: Wavelengths
Number of Pixels in Spectrum: 2048
>>>>>Begin Spectral Data<<<<<
341.393	-11.61
341.776	-11.61
342.16	-11.61
342.543	-67.65
342.927	-61.33
343.31	-90.03
343.693	-57.71
344.077	-57.94
344.46	-51.38
344.843	-39.86
345.226	-53.42
345.61	-27.43
345.993	-17.94
346.376	7.82
346.759	6.02
347.142	22.06
347.525	43.53
347.908	68.16
348.291	73.59
348.674	72.23
349.057	102.29
349.44	128.95
349.823	136.18
350.206	187.71
350.588	192
350.971	232.68
351.354	217.76
351.737	229.51
352.119	247.14
352.502	274.03
352.884	270.42
353.267	292.11
353.65	313.58
354.032	306.8
354.414	328.72
354.797	320.13
355.179	334.82
355.562	322.39
355.944	332.56
356.326	326.91
356.709	350.64
357.091	337.76
357.473	347.7
357.855	341.38
358.238	328.72
358.62	348.38
359.002	345.44
359.384	324.65
359.766	329.17
360.148	329.85
360.53	357.42
360.912	357.19
361.294	340.92
361.676	332.34
362.057	334.6
362.439	337.31
362.821	349.74
363.203	339.57
363.584	328.04
363.966	333.47
364.348	322.84
364.729	315.61
365.111	321.94
365.493	326.01
365.874	336.63
366.256	340.47
366.637	328.49
367.019	331.43
367.4	356.06
367.781	327.14
368.163	332.34
368.544	329.62
368.925	320.13
369.306	326.69
369.688	327.82
370.069	306.57
370.45	309.96
370.831	329.4
371.212	348.15
371.593	316.74
371.974	316.07
372.355	308.16
372.736	345.22
373.117	330.98
373.498	310.19
373.879	326.23
374.26	320.58
374.641	339.79
375.021	311.55
375.402	321.94
375.783	321.49
376.163	320.81
376.544	343.41
376.925	330.08
377.305	324.65
377.686	332.79
378.066	347.02
378.447	330.75
378.827	352
379.208	325.1
379.588	348.83
379.968	313.13
380.349	320.58
380.729	335.95
381.109	323.52
381.489	337.53
381.87	338.66
382.25	326.69
382.63	333.47
383.01	338.66
383.39	330.98
383.77	352
384.15	325.56
384.53	337.76
384.91	342.73
385.29	338.89
385.67	350.41
386.049	348.61
386.429	360.81
386.809	365.78
387.189	349.06
387.568	347.7
387.948	343.41
388.328	345.22
388.707	359.68
389.087	362.62
389.466	386.8
389.846	377.98
390.225	369.62
390.605	367.82
390.984	375.95
391.363	363.75
391.743	380.7
392.122	362.84
392.501	364.2
392.881	375.05
393.26	374.37
393.639	370.3
394.018	388.15
394.397	373.24
394.776	397.87
395.155	375.95
395.534	382.73
395.913	362.84
396.292	396.51
396.671	382.96
397.05	376.63
397.429	371.2
397.808	386.35
398.186	375.27
398.565	378.89
398.944	358.32
399.323	385.67
399.701	413.01
400.08	399.23
400.458	402.16
400.837	386.8
401.215	373.01
401.594	390.64
401.972	382.96
402.351	393.13
402.729	380.7
403.107	415.27
403.486	373.69
403.864	392.22
404.242	403.75
404.62	413.69
404.999	415.5
405.377	406.91
405.755	413.46
406.133	416.4
406.511	414.82
406.889	422.05
407.267	428.38
407.645	441.03
408.023	446.68
408.401	414.59
408.779	433.12
409.156	435.61
409.534	449.62
409.912	424.54
410.29	423.18
410.667	439.45
411.045	437.87
411.422	437.64
411.8	453.24
412.178	452.56
412.555	452.11
412.933	439.9
413.31	444.88
413.687	488.49
414.065	472.9
414.442	472.67
414.819	472.45
415.197	482.61
415.574	476.51
415.951	471.32
416.328	480.58
416.705	471.54
417.082	499.11
417.46	480.58
417.837	471.99
418.214	474.48
418.591	500.02
418.967	499.11
419.344	504.99
419.721	496.63
420.098	504.53
420.475	500.47
420.852	521.94
421.228	519
421.605	492.56
421.982	517.19
422.358	514.25
422.735	515.38
423.111	515.83
423.488	533.46
423.864	519
424.241	538.43
424.617	535.27
424.994	538.66
425.37	534.82
425.746	535.49
426.123	543.18
426.499	535.27
426.875	558.54
427.251	563.52
427.627	559.67
428.003	565.55
428.379	559.9
428.756	548.15
429.132	548.15
429.507	589.73
429.883	593.12
430.259	588.15
430.635	594.48
431.011	608.94
431.387	594.25
431.763	597.64
432.138	597.87
432.514	603.74
432.89	596.51
433.265	632.44
433.641	619.56
434.016	643.29
434.392	620.92
434.767	632.67
435.143	638.09
435.518	648.94
435.894	636.73
436.269	627.02
436.644	641.71
437.02	663.63
437.395	637.86
437.77	671.99
438.145	660.91
438.52	678.54
438.895	681.25
439.271	678.77
439.646	690.74
440.021	686.45
440.395	693.91
440.77	662.5
441.145	697.07
441.52	718.31
441.895	725.32
442.27	724.64
442.645	721.48
443.019	718.99
443.394	711.99
443.769	741.14
444.143	715.83
444.518	742.27
444.892	738.88
445.267	765.32
445.641	764.19
446.016	756.96
446.39	748.37
446.764	748.82
447.139	752.66
447.513	789.72
447.887	771.42
448.262	768.48
448.636	781.59
449.01	796.05
449.384	792.89
449.758	772.78
450.132	788.14
450.506	808.48
450.88	800.35
451.254	789.05
451.628	822.04
452.002	831.76
452.376	845.54
452.75	830.63
453.123	850.06
453.497	838.09
453.871	860.23
454.244	862.72
454.618	896.39
454.992	887.12
455.365	876.95
455.739	914.92
456.112	906.56
456.486	919.67
456.859	910.63
457.232	928.93
457.606	954.47
457.979	967.35
458.352	961.92
458.725	959.21
459.099	958.08
459.472	994.69
459.845	1040.34
460.218	1004.41
460.591	1051.64
460.964	1036.27
461.337	1062.26
461.71	1045.54
462.083	1078.53
462.456	1072.88
462.829	1090.96
463.201	1107.91
463.574	1103.84
463.947	1128.93
464.32	1156.5
464.692	1137.74
465.065	1208.25
465.438	1176.16
465.81	1210.73
466.183	1241.24
466.555	1258.64
466.928	1258.87
467.3	1267
467.672	1288.24
468.045	1288.24
468.417	1319.88
468.789	1343.61
469.161	1361.24
469.534	1415.92
469.906	1401.23
470.278	1424.28
470.65	1452.31
471.022	1502.02
471.394	1536.15
471.766	1547.22
472.138	1584.96
472.51	1589.7
472.882	1640.1
473.253	1675.58
473.625	1727.55
473.997	1735.69
474.369	1768.91
474.74	1803.03
475.112	1869.02
475.484	1895.01
475.855	1963.03
476.227	1987.21
476.598	2049.13
476.97	2051.16
477.341	2157.37
477.713	2200.76
478.084	2260.87
478.455	2389.68
478.827	2392.85
479.198	2433.75
479.569	2482.79
479.94	2610.47
480.311	2698.38
480.682	2733.63
481.053	2847.07
481.424	2909.44
481.795	2972.04
482.166	3054.52
482.537	3159.83
482.908	3227.4
483.279	3343.56
483.65	3471.01
484.021	3546.94
484.391	3649.31
484.762	3713.72
485.133	3833.03
485.503	3957.1
485.874	4127.49
486.244	4170.2
486.615	4325.23
486.985	4475.73
487.356	4591.21
487.726	4680.92
488.097	4835.72
488.467	4941.03
488.837	5111.65
489.207	5260.57
489.578	5365.65
489.948	5493.33
490.318	5639.99
490.688	5785.98
491.058	5914.34
491.428	6092.18
491.798	6247.21
492.168	6358.17
492.538	6541.89
492.908	6704.82
493.278	6833.63
493.648	6921.32
494.017	7155.21
494.387	7283.79
494.757	7425.03
495.126	7613.95
495.496	7756.32
495.866	7867.28
496.235	8053.26
496.605	8232.92
496.974	8329.19
497.344	8513.14
497.713	8635.39
498.082	8804.43
498.452	9075.16
498.821	9089.39
499.19	9164.19
499.559	9408.71
499.928	9610.28
500.298	9685.99
500.667	9911.07
501.036	9940.67
501.405	10183.15
501.774	10245.3
502.143	10432.86
502.512	10532.97
502.88	10772.29
503.249	10793.3
503.618	10966.18
503.987	11132.5
504.356	11254.31
504.724	11387.86
505.093	11555.32
505.462	11610.68
505.83	11847.51
506.199	11851.13
506.567	12200.5
506.936	12238.46
507.304	12385.13
507.672	12538.34
508.041	12730.65
508.409	12817.43
508.777	13022.62
509.145	13185.56
509.514	13149.85
509.882	13348.49
510.25	13481.59
510.618	13708.03
510.986	13760.01
511.354	13933.33
511.722	14037.74
512.09	14270.27
512.458	14317.73
512.826	14543.26
513.193	14576.93
513.561	14652.41
513.929	14860.54
514.297	14938.51
514.664	15159.74
515.032	15257.82
515.4	15460.53
515.767	15515.21
516.135	15740.97
516.502	15613.29
516.869	15938.25
517.237	15991.59
517.604	16086.5
517.972	16216.44
518.339	16413.95
518.706	16496.2
519.073	16577.78
519.44	16716.99
519.808	17007.6
520.175	16959.92
520.542	17298.67
520.909	17316.3
521.276	17359.23
521.643	17674.25
522.009	17743.63
522.376	17882.38
522.743	17984.75
523.11	18319.43
523.477	18398.08
523.843	18591.74
524.21	18754.22
524.577	18923.71
524.943	19036.7
525.31	19130.03
525.676	19219.75
526.043	19476.24
526.409	19624.94
526.776	19817.02
527.142	19796.68
527.508	20000.97
527.874	20211.14
528.241	20272.6
528.607	20487.96
528.973	20670.11
529.339	20636.43
529.705	20843.66
530.071	20913.04
530.437	21013.37
530.803	21181.28
531.169	21329.98
531.535	21290.2
531.901	21402.29
532.267	21541.04
532.632	21660.81
532.998	21726.12
533.364	21929.06
533.73	21964.99
534.095	22089.96
534.461	22278.65
534.826	22364.75
535.192	22384.41
535.557	22570.17
535.923	22520
536.288	22588.7
536.653	22768.81
537.019	22816.26
537.384	22851.74
537.749	23035.69
538.114	23129.02
538.479	23125.18
538.845	23296.93
539.21	23338.28
539.575	23437.27
539.94	23494.44
540.305	23678.84
540.67	23620.09
541.034	23794.32
541.399	23834.99
541.764	23955.9
542.129	24042.67
542.494	23962.45
542.858	24156.34
543.223	24175.78
543.587	24265.49
543.952	24285.6
544.316	24369.9
544.681	24368.31
545.045	24550.91
545.41	24687.18
545.774	24684.69
546.138	24766.27
546.503	24872.93
546.867	24986.83
547.231	25170.78
547.595	25109.09
547.959	25243.09
548.324	25325.58
548.688	25359.47
549.052	25499.13
549.416	25520.83
549.779	25608.28
550.143	25656.42
550.507	25846.47
550.871	25795.62
551.235	25881.49
551.599	26038.78
551.962	26138.44
552.326	26262.05
552.689	26445.1
553.053	26278.09
553.417	26530.74
553.78	26725.09
554.143	26641.25
554.507	26770.28
554.87	26781.36
555.234	27149.03
555.597	26958.98
555.96	27025.19
556.323	27237.39
556.686	27340.67
557.05	27483.71
557.413	27523.26
557.776	27634.22
558.139	27809.35
558.502	27881.89
558.865	27881.44
559.228	28113.98
559.59	28163.92
559.953	28335.67
560.316	28573.18
560.679	28617.47
561.041	28726.84
561.404	28922.32
561.767	29018.14
562.129	28984.24
562.492	29347.84
562.854	29325.02
563.217	29341.74
563.579	29504.9
563.941	29577.22
564.304	29874.61
564.666	29967.26
565.028	30080.25
565.39	30178.78
565.753	30331.1
566.115	30428.27
566.477	30499.68
566.839	30620.13
567.201	30891.76
567.563	30784.64
567.925	31109.15
568.287	31084.75
568.648	31079.1
569.01	31260.34
569.372	31553.66
569.734	31519.76
570.095	31807.21
570.457	31855.12
570.819	31859.87
571.18	31822.81
571.542	32056.25
571.903	32123.36
572.265	32285.62
572.626	32345.73
572.987	32370.59
573.349	32608.78
573.71	32591.15
574.071	32716.8
574.432	32750.69
574.794	33051.93
575.155	33113.39
575.516	33117.01
575.877	32989.33
576.238	33213.96
576.599	33238.14
576.96	33305.03
577.32	33400.39
577.681	33521.29
578.042	33519.49
578.403	33612.59
578.763	33742.08
579.124	33800.83
579.485	33919.48
579.845	33955.18
580.206	33962.86
580.566	33913.37
580.927	33944.33
581.287	34122.86
581.648	34003.54
582.008	34127.83
582.368	34072.24
582.728	34136.64
583.089	34199.02
583.449	34206.25
583.809	34332.35
584.169	34313.36
584.529	34183.88
584.889	34530.76
585.249	34363.53
585.609	34279.01
585.969	34374.38
586.329	34523.98
586.688	34438.11
587.048	34392.01
587.408	34287.38
587.768	34224.33
588.127	34458.44
588.487	34406.47
588.846	34563.07
589.206	34395.4
589.565	34315.62
589.925	34592.45
590.284	34441.95
590.643	34456.18
591.003	34773.01
591.362	34850.75
591.721	34796.29
592.08	34614.6
592.44	34768.94
592.799	34888.04
593.158	34712.67
593.517	34742.73
593.876	34872.22
594.235	34768.27
594.593	34685.56
594.952	34840.58
595.311	34788.83
595.67	34971.2
596.029	35046.23
596.387	35140.46
596.746	35298.2
597.104	35094.81
597.463	35060.24
597.822	35238.76
598.18	35143.4
598.538	35019.56
598.897	35264.3
599.255	34947.92
599.613	35555.82
599.972	35223.17
600.33	35328.7
600.688	35210.74
601.046	35467.91
601.404	35565.99
601.762	35481.02
602.12	35689.82
602.478	35667.45
602.836	35723.72
603.194	35436.05
603.552	35640.11
603.91	35626.55
604.268	35841.23
604.625	35651.18
604.983	35970.72
605.341	35827
605.698	35928.69
606.056	36002.81
606.413	35969.59
606.771	36230.15
607.128	36245.97
607.485	36061.57
607.843	36328.9
608.2	36328.68
608.557	36303.82
608.914	36287.1
609.272	36416.58
609.629	36630.82
609.986	36720.76
610.343	36458.39
610.7	36816.12
611.057	36872.84
611.414	36830.36
611.771	36862.67
612.127	37029.68
612.484	37054.08
612.841	37110.58
613.198	37076.23
613.554	37125.72
613.911	37285.26
614.267	37312.61
614.624	37312.38
614.98	37352.61
615.337	37547.18
615.693	37542.2
616.05	37583.56
616.406	37744.91
616.762	37689.55
617.118	37647.96
617.475	37640.28
617.831	37841.86
618.187	37848.64
618.543	37875.53
618.899	38066.03
619.255	38115.98
619.611	38048.18
619.967	38149.87
620.323	38228.51
620.678	38154.62
621.034	38102.42
621.39	38095.41
621.746	38199.81
622.101	38563.42
622.457	38237.55
622.812	38299.02
623.168	38444.55
623.523	38398.68
623.879	38468.96
624.234	38338.12
624.589	38403.43
624.945	38499.47
625.3	38605.23
625.655	38592.35
626.01	38592.35
626.365	38657.66
626.72	38636.64
627.075	38678.9
627.43	38664.66
627.785	38563.65
628.14	38751.44
628.495	38761.61
628.85	38692.68
629.205	38527.94
629.559	38824.66
629.914	38675.06
630.269	38695.17
630.623	38566.81
630.978	38603.19
631.332	38848.39
631.687	38701.27
632.041	38616.98
632.396	38751.21
632.75	38484.55
633.104	38611.78
633.459	38413.82
633.813	38464.67
634.167	38444.1
634.521	38414.72
634.875	38516.64
635.229	38324.11
635.583	38324.11
635.937	38334.05
636.291	38370.66
636.645	38327.72
636.999	38316.87
637.352	38370.66
637.706	38159.82
638.06	38361.39
638.413	38251.34
638.767	38095.64
639.121	38272.81
639.474	37920.95
639.828	38057.45
640.181	38007.96
640.534	38094.51
640.888	38198.01
641.241	37911.91
641.594	37985.81
641.947	38049.99
642.301	38052.7
642.654	37984.45
643.007	37896.55
643.36	37999.59
643.713	37910.33
644.066	38000.27
644.419	37652.26
644.771	37413.62
645.124	37065.61
645.477	37071.26
645.83	36938.83
646.182	36803.02
646.535	36776.35
646.888	36780.42
647.24	36626.75
647.593	36734.54
647.945	36725.73
648.298	36521.44
648.65	36512.4
649.002	36405.96
649.355	36564.15
649.707	36437.15
650.059	36604.38
650.411	37030.35
650.763	37130.46
651.115	37452.72
651.467	37361.19
651.819	37152.61
652.171	37247.52
652.523	37165.94
652.875	37275.32
653.227	37066.74
653.578	37286.39
653.93	37183.57
654.282	36905.84
654.633	37027.87
654.985	37030.35
655.337	37080.75
655.688	36981.09
656.039	37129.79
656.391	36684.37
656.742	36966.85
657.094	36925.27
657.445	36958.27
657.796	36971.15
658.147	36891.37
658.498	36893.86
658.849	36921.43
659.2	36891.15
659.551	36744.71
659.902	36918.27
660.253	36866.74
660.604	36960.98
660.955	36669.69
661.306	36776.12
661.656	36687.76
662.007	36763.24
662.358	36798.5
662.708	36720.76
663.059	36685.5
663.409	36597.15
663.76	36836.91
664.11	36722.57
664.461	36797.82
664.811	36728.22
665.161	36720.76
665.511	36628.78
665.862	36722.57
666.212	36786.52
666.562	36800.76
666.912	36553.76
667.262	36597.37
667.612	36687.31
667.962	36747.42
668.312	36586.3
668.662	36695.9
669.011	36561.89
669.361	36488.67
669.711	36610.93
670.06	36634.66
670.41	36393.99
670.76	36387.21
671.109	36644.6
671.459	36433.76
671.808	36400.77
672.157	36467.2
672.507	36249.13
672.856	36309.02
673.205	36363.25
673.554	36516.7
673.904	36202.58
674.253	36536.58
674.602	36387.43
674.951	35901.57
675.3	35655.02
675.649	36273.99
675.998	36314.67
676.346	36222.69
676.695	36300.66
677.044	35885.98
677.393	35961.91
677.741	36126.42
678.09	35920.55
678.438	35929.82
678.787	36022.47
679.135	35941.57
679.484	35885.53
679.832	35950.83
680.181	35652.09
680.529	35740.9
680.877	35874.23
681.225	35716.49
681.573	35984.73
681.922	35665.19
682.27	35446.67
682.618	35493.22
682.966	35522.37
683.314	35612.99
683.661	35414.58
684.009	35375.26
684.357	35154.7
684.705	35300.46
685.053	35263.62
685.4	35192.44
685.748	35030.63
686.095	35020.01
686.443	34874.03
686.79	34799.23
687.138	34998.77
687.485	34886.46
687.832	34844.87
688.18	34764.2
688.527	34675.39
688.874	34526.24
689.221	34557.42
689.568	34476.07
689.915	34318.11
690.262	34325.11
690.609	34259.81
690.956	33981.39
691.303	34058.23
691.65	34028.17
691.997	33921.74
692.344	33565.36
692.69	33725.13
693.037	33742.98
693.383	33607.17
693.73	33629.77
694.077	33422.99
694.423	33432.71
694.769	33415.99
695.116	33174.86
695.462	33248.76
695.808	33102.32
696.155	33047.63
696.501	32878.15
696.847	32903.68
697.193	32625.95
697.539	32753.18
697.885	32566.29
698.231	32487.87
698.577	32556.35
698.923	32362.23
699.269	32313.87
699.614	32119.3
699.96	32108.68
700.306	32187.32
700.651	31962.24
700.997	31945.06
701.342	31774
701.688	31761.34
702.033	31587.33
702.379	31522.25
702.724	31532.19
703.069	31555.7
703.415	31151.64
703.76	31225.08
704.105	31125.42
704.45	31178.98
704.795	30938.76
705.14	30849.05
705.485	30907.35
705.83	30778.09
706.175	30830.07
706.52	30722.95
706.865	30622.39
707.209	30502.62
707.554	30443.86
707.899	30513.92
708.243	30292.68
708.588	30371.55
708.932	30178.78
709.277	30140.82
709.621	30054.49
709.966	29973.36
710.31	29979.69
710.654	29722.98
710.998	29767.72
711.342	29847.04
711.687	29609.08
712.031	29534.73
712.375	29478.24
712.719	29414.06
713.063	29599.14
713.407	29544.68
713.75	29275.98
714.094	29242.54
714.438	29112.14
714.782	29204.35
715.125	29058.36
715.469	29149.88
715.812	28939.49
716.156	28784.24
716.499	28949.89
716.843	28814.98
717.186	28687.75
717.53	28737.92
717.873	28808.42
718.216	28780.85
718.559	28579.5
718.902	28363.24
719.246	28600.29
719.589	28496.57
719.932	28340.86
720.275	28375.44
720.617	28221.32
720.96	28330.92
721.303	28269.23
721.646	28097.26
721.989	28023.59
722.331	28039.18
722.674	28050.93
723.016	28045.51
723.359	27985.17
723.701	27894.1
724.044	27756.25
724.386	27673.09
724.729	27796.47
725.071	27749.69
725.413	27575.01
725.755	27623.14
726.097	27565.07
726.439	27316.71
726.782	27559.64
727.124	27532.98
727.465	27371.62
727.807	27272.64
728.149	27258.86
728.491	27232.19
728.833	27232.19
729.175	27206.21
729.516	27099.77
729.858	27152.2
730.199	27023.16
730.541	27042.59
730.882	26920.11
731.224	26961.47
731.565	26954.69
731.906	26881.69
732.248	26916.27
732.589	26682.83
732.93	26655.94
733.271	26663.39
733.612	26713.56
733.953	26656.16
734.294	26514.25
734.635	26451.2
734.976	26496.62
735.317	26344.08
735.658	26375.49
735.999	26339.79
736.339	26276.51
736.68	26347.92
737.021	26259.11
737.361	26211.2
737.702	26213.01
738.042	26112
738.383	26057.31
738.723	26201.49
739.063	26062.73
739.404	26001.49
739.744	25955.84
740.084	25942.06
740.424	25975.96
740.764	25889.18
741.104	25968.95
741.444	25759.01
741.784	25699.58
742.124	25702.97
742.464	25770.99
742.804	25631.11
743.143	25613.48
743.483	25518.34
743.823	25521.28
744.162	25495.29
744.502	25532.58
744.841	25453.94
745.181	25437.66
745.52	25281.74
745.86	25316.54
746.199	25301.17
746.538	25234.51
746.877	25313.37
747.216	25214.85
747.556	25198.8
747.895	25141.18
748.234	25036.77
748.573	25012.82
748.911	25001.74
749.25	24942.76
749.589	24827.06
749.928	24856.44
750.267	24845.14
750.605	24808.75
750.944	24664.58
751.283	24643.34
751.621	24705.48
751.96	24615.54
752.298	24502.32
752.636	24451.02
752.975	24333.74
753.313	24392.49
753.651	24515.88
753.989	24310.46
754.327	24206.28
754.666	24098.72
755.004	24149.34
755.342	24107.3
755.679	24067.98
756.017	23940.75
756.355	23977.36
