Data from hue_350_FLMS001491_19.txt Node
Date: Mon Feb 06 15:37:40 GMT 2017
User: dcchb
Spectrometer: FLMS00149
Trigger mode: 0
Integration Time (sec): 2.000000E-2
Scans to average: 10
Electric dark correction enabled: true
Nonlinearity correction enabled: false
Boxcar width: 0
XAxis mode: Wavelengths
Number of Pixels in Spectrum: 2048
>>>>>Begin Spectral Data<<<<<
341.393	-19.9
341.776	-19.9
342.16	-19.9
342.543	-75.04
342.927	-69.84
343.31	-67.81
343.693	-51.09
344.077	-70.07
344.46	-68.49
344.843	-71.42
345.226	-49.28
345.61	-33.69
345.993	-26
346.376	-7.92
346.759	21.45
347.142	30.95
347.525	34.11
347.908	55.35
348.291	73.2
348.674	104.39
349.057	126.31
349.44	119.53
349.823	135.12
350.206	164.5
350.588	211.05
350.971	212.18
351.354	224.39
351.737	228
352.119	250.15
352.502	250.83
352.884	261.67
353.267	276.81
353.65	308
354.032	304.84
354.414	319.07
354.797	309.13
355.179	329.24
355.562	320.2
355.944	318.85
356.326	316.59
356.709	343.48
357.091	312.75
357.473	325.63
357.855	350.26
358.238	345.51
358.62	351.62
359.002	342.12
359.384	346.64
359.766	326.3
360.148	360.65
360.53	335.57
360.912	336.25
361.294	322.69
361.676	310.26
362.057	326.3
362.439	350.71
362.821	346.19
363.203	329.47
363.584	309.81
363.966	330.82
364.348	322.24
364.729	329.69
365.111	321.79
365.493	322.24
365.874	350.03
366.256	333.31
366.637	323.59
367.019	332.18
367.4	330.15
367.781	323.14
368.163	318.4
368.544	302.12
368.925	323.14
369.306	319.3
369.688	317.94
370.069	317.04
370.45	319.3
370.831	332.41
371.212	334.89
371.593	321.11
371.974	326.3
372.355	308
372.736	300.77
373.117	315.68
373.498	328.79
373.879	336.02
374.26	313.88
374.641	296.48
375.021	309.81
375.402	327.21
375.783	295.8
376.163	303.93
376.544	323.14
376.925	348.23
377.305	305.29
377.686	318.4
378.066	323.82
378.447	333.54
378.827	322.92
379.208	338.28
379.588	321.79
379.968	345.51
380.349	327.66
380.729	326.76
381.109	324.27
381.489	334.89
381.87	327.89
382.25	340.09
382.63	356.36
383.01	353.87
383.39	339.64
383.77	348
384.15	338.06
384.53	339.19
384.91	364.04
385.29	358.62
385.67	352.29
386.049	343.03
386.429	348.68
386.809	359.3
387.189	364.95
387.568	363.59
387.948	384.83
388.328	375.34
388.707	364.72
389.087	351.84
389.466	353.65
389.846	346.87
390.225	352.52
390.605	357.26
390.984	369.24
391.363	370.6
391.743	368.56
392.122	373.76
392.501	364.5
392.881	374.44
393.26	385.06
393.639	366.53
394.018	380.31
394.397	366.08
394.776	378.96
395.155	367.43
395.534	386.87
395.913	388.45
396.292	399.52
396.671	388
397.05	359.75
397.429	384.83
397.808	371.28
398.186	387.32
398.565	376.47
398.944	398.39
399.323	385.06
399.701	379.41
400.08	373.99
400.458	388
400.837	399.98
401.215	409.69
401.594	390.71
401.972	377.38
402.351	398.85
402.729	411.05
403.107	403.59
403.486	428
403.864	399.3
404.242	414.21
404.62	398.39
404.999	421.22
405.377	417.15
405.755	408.56
406.133	428.22
406.511	428.22
406.889	421.67
407.267	432.74
407.645	430.03
408.023	426.19
408.401	427.32
408.779	433.42
409.156	436.58
409.534	437.71
409.912	428.22
410.29	417.38
410.667	458.96
411.045	453.53
411.422	471.61
411.8	480.43
412.178	475.68
412.555	450.14
412.933	458.73
413.31	491.27
413.687	484.04
414.065	487.66
414.442	497.15
414.819	487.66
415.197	479.3
415.574	499.63
415.951	489.69
416.328	484.72
416.705	484.72
417.082	512.06
417.46	521.78
417.837	507.32
418.214	509.35
418.591	514.77
418.967	505.06
419.344	518.62
419.721	531.72
420.098	526.98
420.475	545.28
420.852	515.68
421.228	558.39
421.605	553.19
421.982	549.35
422.358	563.81
422.735	553.87
423.111	561.1
423.488	545.51
423.864	555.9
424.241	567.65
424.617	576.92
424.994	553.87
425.37	606.07
425.746	580.08
426.123	576.92
426.499	586.86
426.875	597.48
427.251	571.5
427.627	597.94
428.003	599.74
428.379	618.27
428.756	594.09
429.132	605.17
429.507	626.41
429.883	636.81
430.259	626.41
430.635	668.67
431.011	622.79
431.387	644.26
431.763	669.8
432.138	673.41
432.514	675.22
432.89	660.31
433.265	687.43
433.641	697.14
434.016	721.55
434.392	685.39
434.767	713.64
435.143	728.1
435.518	713.87
435.894	762.45
436.269	713.41
436.644	756.12
437.02	719.97
437.395	737.37
437.77	751.83
438.145	763.81
438.52	770.36
438.895	749.8
439.271	753.19
439.646	777.82
440.021	777.37
440.395	781.66
440.77	785.05
441.145	786.63
441.52	784.37
441.895	797.71
442.27	798.61
442.645	794.54
443.019	843.35
443.394	819.85
443.769	813.75
444.143	837.25
444.518	847.42
444.892	827.53
445.267	836.8
445.641	842.68
446.016	852.84
446.39	843.13
446.764	842.68
447.139	840.64
447.513	865.95
447.887	857.36
448.262	863.47
448.636	867.99
449.01	913.18
449.384	877.7
449.758	877.02
450.132	910.47
450.506	914.76
450.88	902.56
451.254	888.32
451.628	924.48
452.002	922
452.376	943.69
452.75	928.1
453.123	926.52
453.497	954.76
453.871	944.59
454.244	967.42
454.618	974.2
454.992	966.97
455.365	979.17
455.739	985.27
456.112	1014.2
456.486	1022.33
456.859	1024.14
457.232	1042.22
457.606	1027.76
457.979	1051.48
458.352	1060.52
458.725	1041.54
459.099	1092.84
459.472	1087.64
459.845	1112.27
460.218	1093.52
460.591	1101.88
460.964	1093.52
461.337	1152.27
461.71	1151.59
462.083	1175.1
462.456	1177.36
462.829	1175.32
463.201	1177.81
463.574	1201.08
463.947	1204.93
464.32	1226.62
464.692	1226.17
465.065	1234.53
465.438	1272.95
465.81	1278.82
466.183	1276.34
466.555	1321.53
466.928	1325.15
467.3	1312.49
467.672	1357.01
468.045	1360.4
468.417	1365.83
468.789	1383
469.161	1374.86
469.534	1425.71
469.906	1466.39
470.278	1429.55
470.65	1449.44
471.022	1507.29
471.394	1514.3
471.766	1534.41
472.138	1547.52
472.51	1578.02
472.882	1566.5
473.253	1584.58
473.625	1601.75
473.997	1685.82
474.369	1692.6
474.74	1674.52
475.112	1711.58
475.484	1729.88
475.855	1790.22
476.227	1800.39
476.598	1839.71
476.97	1891.01
477.341	1879.03
477.713	1910.9
478.084	1941.63
478.455	1986.15
478.827	2008.97
479.198	2072.7
479.569	2070.44
479.94	2119.48
480.311	2155.64
480.682	2151.57
481.053	2225.24
481.424	2288.97
481.795	2286.93
482.166	2332.81
482.537	2398.34
482.908	2442.63
483.279	2428.62
483.65	2481.28
484.021	2548.85
484.391	2548.62
484.762	2578.68
485.133	2597.21
485.503	2671.33
485.874	2695.06
486.244	2766.69
486.615	2803.75
486.985	2829.52
487.356	2904.54
487.726	2889.85
488.097	2989.29
488.467	3010.53
488.837	3072
489.207	3057.76
489.578	3121.94
489.948	3137.98
490.318	3175.27
490.688	3195.16
491.058	3242.84
491.428	3311.31
491.798	3322.38
492.168	3402.61
492.538	3424.08
492.908	3462.49
493.278	3528.25
493.648	3500.91
494.017	3564.64
494.387	3611.42
494.757	3636.73
495.126	3654.13
495.496	3719.89
495.866	3732.32
496.235	3777.06
496.605	3781.58
496.974	3838.75
497.344	3846.21
497.713	3837.63
498.082	3943.16
498.452	3920.56
498.821	3954.01
499.19	3970.28
499.559	3987
499.928	4061.35
500.298	4014.34
500.667	4072.65
501.036	4103.61
501.405	4120.78
501.774	4125.75
502.143	4159.65
502.512	4179.09
502.88	4262.47
503.249	4209.37
503.618	4248.24
503.987	4264.28
504.356	4244.62
504.724	4316.26
505.093	4331.62
505.462	4336.82
505.83	4345.86
506.199	4421.79
506.567	4429.25
506.936	4440.55
507.304	4455.24
507.672	4483.71
508.041	4556.25
508.409	4548.11
508.777	4598.28
509.145	4614.55
509.514	4618.62
509.882	4666.53
510.25	4664.5
510.618	4669.02
510.986	4662.46
511.354	4714.21
511.722	4716.02
512.09	4772.52
512.458	4733.65
512.826	4781.33
513.193	4820.88
513.561	4829.92
513.929	4865.85
514.297	4870.82
514.664	4931.83
515.032	4864.04
515.4	4946.07
515.767	4954.88
516.135	4950.14
516.502	4945.39
516.869	5028.55
517.237	5041.89
517.604	5031.04
517.972	5033.75
518.339	5078.27
518.706	5107.65
519.073	5146.74
519.44	5144.48
519.808	5157.59
520.175	5148.78
520.542	5217.25
520.909	5258.6
521.276	5208.66
521.643	5261.99
522.009	5318.04
522.376	5349
522.743	5361.65
523.11	5345.16
523.477	5393.74
523.843	5408.43
524.21	5465.15
524.577	5497.69
524.943	5487.98
525.31	5454.53
525.676	5607.52
526.043	5564.13
526.409	5636
526.776	5648.2
527.142	5713.51
527.508	5699.72
527.874	5754.86
528.241	5755.31
528.607	5848.19
528.973	5859.27
529.339	5857.91
529.705	5870.34
530.071	5884.58
530.437	5928.42
530.803	5968.64
531.169	6015.42
531.535	6046.61
531.901	6048.64
532.267	6064.46
532.632	6137
532.998	6141.52
533.364	6214.51
533.73	6174.96
534.095	6218.58
534.461	6178.35
534.826	6231.01
535.192	6322.53
535.557	6318.69
535.923	6326.83
536.288	6406.6
536.653	6386.71
537.019	6357.11
537.384	6403.66
537.749	6424
538.114	6476.43
538.479	6489.98
538.845	6520.04
539.21	6522.75
539.575	6575.18
539.94	6599.36
540.305	6603.2
540.67	6635.97
541.034	6679.13
541.399	6770.2
541.764	6722.29
542.129	6747.38
542.494	6805.91
542.858	6783.76
543.223	6844.33
543.587	6842.29
543.952	6851.11
544.316	6912.12
544.681	6883.42
545.045	6957.77
545.41	6979.24
545.774	7005
546.138	7028.73
546.503	7080.7
546.867	7042.51
547.231	7097.2
547.595	7121.61
547.959	7206.12
548.324	7197.31
548.688	7222.85
549.052	7276.18
549.416	7260.81
549.779	7317.08
550.143	7288.16
550.507	7348.72
550.871	7364.09
551.235	7351.21
551.599	7481.82
551.962	7419.23
552.326	7484.76
552.689	7548.04
553.053	7460.81
553.417	7521.6
553.78	7646.56
554.143	7565.21
554.507	7599.33
554.87	7637.53
555.234	7730.4
555.597	7639.56
555.96	7695.83
556.323	7701.93
556.686	7739.67
557.05	7855.82
557.413	7759.33
557.776	7790.97
558.139	7815.83
558.502	7894.92
558.865	7880.68
559.228	7960.91
559.59	7964.52
559.953	7960.68
560.316	8099.21
560.679	8100.56
561.041	8098.98
561.404	8090.17
561.767	8206.1
562.129	8158.64
562.492	8244.51
562.854	8229.6
563.217	8206.32
563.579	8282.93
563.941	8286.55
564.304	8286.55
564.666	8374.45
565.028	8376.49
565.39	8463.72
565.753	8464.4
566.115	8486.99
566.477	8506.65
566.839	8488.8
567.201	8612.87
567.563	8616.03
567.925	8655.35
568.287	8661.23
568.648	8667.55
569.01	8688.34
569.372	8799.08
569.734	8769.47
570.095	8828.91
570.457	8844.05
570.819	8908.45
571.18	8894.67
571.542	8964.95
571.903	8994.78
572.265	9141.44
572.626	9078.62
572.987	9143.02
573.349	9197.26
573.71	9279.97
574.071	9308.67
574.432	9355.9
574.794	9449
575.155	9466.4
575.516	9496.91
575.877	9566.74
576.238	9623.91
576.599	9641.99
576.96	9784.36
577.32	9767.19
577.681	9876.79
578.042	9951.59
578.403	10024.13
578.763	10106.84
579.124	10242.88
579.485	10396.55
579.845	10448.3
580.206	10531.91
580.566	10655.98
580.927	10790.44
581.287	10984.1
581.648	11018.91
582.008	11102.07
582.368	11281.27
582.728	11426.8
583.089	11459.35
583.449	11611.21
583.809	11831.09
584.169	12000.12
584.529	12160.34
584.889	12390.62
585.249	12416.16
585.609	12671.74
585.969	12941.79
586.329	13097.04
586.688	13275.79
587.048	13398.96
587.408	13638.27
587.768	13955.78
588.127	14051.59
588.487	14341.08
588.846	14602.31
589.206	14730.45
589.565	15106.26
589.925	15355.51
590.284	15498.79
590.643	15710.76
591.003	16144.65
591.362	16365.88
591.721	16658.53
592.08	16879.09
592.44	17235.01
592.799	17498.96
593.158	17701.67
593.517	17995.44
593.876	18308.21
594.235	18507.07
594.593	18805.37
594.952	19091.01
595.311	19311.57
595.67	19682.18
596.029	20073.81
596.387	20282.62
596.746	20671.53
597.104	20870.62
597.463	21066.32
597.822	21589.47
598.18	21585.18
598.538	21973.65
598.897	22290.7
599.255	22421.54
599.613	23045.03
599.972	23222.65
600.33	23548.97
600.688	23729.98
601.046	24076.41
601.404	24373.58
601.762	24606.8
602.12	25066.67
602.478	25240.68
602.836	25540.78
603.194	25538.52
603.552	25883.83
603.91	26053.54
604.268	26469.8
604.625	26710.47
604.983	27076.11
605.341	27149.33
605.698	27514.52
606.056	27781.63
606.413	28024.11
606.771	28387.04
607.128	28534.38
607.485	28732.79
607.843	28904.76
608.2	29398.99
608.557	29539.55
608.914	29651.41
609.272	30001
609.629	30183.37
609.986	30492.07
610.343	30740.42
610.7	31056.34
611.057	31175.44
611.414	31358.03
611.771	31537.24
612.127	31827.85
612.484	32004.34
612.841	32288.4
613.198	32334.5
613.554	32447.27
613.911	32680.93
614.267	32894.49
614.624	33069.85
614.98	33305.32
615.337	33561.36
615.693	33629.84
616.05	33767.46
616.406	34069.82
616.762	34110.05
617.118	34240.22
617.475	34378.74
617.831	34665.52
618.187	34672.75
618.543	34941.89
618.899	35212.85
619.255	35187.76
619.611	35327.64
619.967	35512.27
620.323	35708.2
620.678	35754.3
621.034	35712.27
621.39	35800.4
621.746	35861.19
622.101	36340.05
622.457	36231.8
622.812	36255.76
623.168	36512.02
623.523	36666.82
623.879	36806.7
624.234	36658.23
624.589	36960.82
624.945	37045.57
625.3	37047.15
625.655	37200.59
626.01	37156.75
626.365	37273.36
626.72	37424.76
627.075	37455.72
627.43	37400.58
627.785	37485.55
628.14	37555.61
628.495	37674.25
628.85	37694.81
629.205	37677.87
629.559	37896.84
629.914	37762.83
630.269	37862.49
630.623	37895.26
630.978	37752.21
631.332	37993.11
631.687	38055.26
632.041	38038.31
632.396	38058.19
632.75	38055.03
633.104	38118.76
633.459	37976.84
633.813	38013.22
634.167	38058.65
634.521	38031.75
634.875	38187
635.229	38133.22
635.583	37997.63
635.937	38143.39
636.291	38038.76
636.645	37994.24
636.999	37979.55
637.352	38177.06
637.706	37886
638.06	38129.15
638.413	37992.21
638.767	38007.12
639.121	37954.47
639.474	37935.49
639.828	37863.17
640.181	38035.82
640.534	37974.13
640.888	37859.1
641.241	37933.68
641.594	37950.63
641.947	38046.22
642.301	37962.38
642.654	37965.99
643.007	37907.01
643.36	37833.12
643.713	37884.64
644.066	38029.95
644.419	37825.43
644.771	37462.96
645.124	37185.22
645.477	37346.35
645.83	37018.45
646.182	36993.59
646.535	36763.09
646.888	36916.98
647.24	36809.87
647.593	36932.35
647.945	36812.35
648.298	36665.69
648.65	36597.67
649.002	36726.03
649.355	36655.97
649.707	36795.18
650.059	36783.2
650.411	37299.57
650.763	37273.36
651.115	37713.57
651.467	37580.24
651.819	37578.88
652.171	37587.02
652.523	37502.95
652.875	37454.59
653.227	37142.74
653.578	37457.98
653.93	37499.79
654.282	37334.6
654.633	37302.96
654.985	37450.3
655.337	37383.86
655.688	37343.64
656.039	37413.01
656.391	37110.42
656.742	37137.31
657.094	37350.87
657.445	37422.5
657.796	37281.72
658.147	37278.78
658.498	37226.35
658.849	37340.92
659.2	37336.63
659.551	37295.5
659.902	37246.24
660.253	37215.5
660.604	37325.78
660.955	37065.45
661.306	37171.89
661.656	37105.22
662.007	37178.67
662.358	37130.08
662.708	37191.32
663.059	37188.84
663.409	36930.31
663.76	37102.29
664.11	37115.17
664.461	37207.6
664.811	37150.2
665.161	37148.84
665.511	37018.22
665.862	37124.43
666.212	37105.22
666.562	37116.07
666.912	37051.89
667.262	37013.48
667.612	37068.84
667.962	37112
668.312	37028.84
668.662	37188.84
669.011	37149.29
669.361	37005.34
669.711	36970.31
670.06	36957.66
670.41	36892.58
670.76	36882.18
671.109	36989.97
671.459	37023.87
671.808	36898.22
672.157	36879.02
672.507	36794.27
672.856	36735.29
673.205	36771.67
673.554	36891.9
673.904	36732.13
674.253	36912.01
674.602	36832.46
674.951	36345.02
675.3	36112.03
675.649	36730.55
675.998	36673.15
676.346	36642.64
676.695	36757.89
677.044	36535.75
677.393	36705.46
677.741	36700.26
678.09	36533.26
678.438	36577.78
678.787	36709.98
679.135	36653.94
679.484	36207.4
679.832	36502.08
680.181	36204.01
680.529	36364.23
680.877	36275.64
681.225	36212.59
681.573	36424.11
681.922	36239.03
682.27	36028.42
682.618	36019.38
682.966	35986.61
683.314	36037.91
683.661	35766.05
684.009	35701.87
684.357	35691.7
684.705	35685.6
685.053	35629.56
685.4	35550.24
685.748	35476.12
686.095	35507.3
686.443	35505.94
686.79	35316.35
687.138	35304.82
687.485	35455.1
687.832	35199.51
688.18	35229.57
688.527	35103.02
688.874	35150.47
689.221	35012.85
689.568	34911.38
689.915	34851.5
690.262	34770.15
690.609	34684.27
690.956	34667.77
691.303	34527.89
691.65	34518.17
691.997	34488.8
692.344	34261.01
692.69	34256.94
693.037	34375.35
693.383	33924.97
693.73	34186.66
694.077	33894.01
694.423	33967.45
694.769	33744.41
695.116	33677.29
695.462	33727.91
695.808	33588.26
696.155	33737.63
696.501	33415.15
696.847	33291.31
697.193	33080.02
697.539	33280.47
697.885	33006.35
698.231	32964.99
698.577	32889.52
698.923	32820.14
699.269	32759.8
699.614	32645.68
699.96	32570.43
700.306	32449.08
700.651	32410.66
700.997	32346.25
701.342	32303.77
701.688	32136.32
702.033	32094.28
702.379	32145.58
702.724	31951.69
703.069	32007.51
703.415	31578.82
703.76	31727.97
704.105	31673.05
704.45	31606.61
704.795	31464.24
705.14	31352.61
705.485	31354.64
705.83	31360.97
706.175	31278.94
706.52	31244.59
706.865	30982
707.209	31025.16
707.554	30936.57
707.899	30913.07
708.243	30906.97
708.588	30829.23
708.932	30631.04
709.277	30574.32
709.621	30573.65
709.966	30338.4
710.31	30387.89
710.654	30276.48
710.998	30216.82
711.342	30222.69
711.687	30126.43
712.031	29988.8
712.375	30035.81
712.719	30011.17
713.063	29949.48
713.407	30024.06
713.75	29661.35
714.094	29778.19
714.438	29745.19
714.782	29719.88
715.125	29498.42
715.469	29577.06
715.812	29442.83
716.156	29296.39
716.499	29373.9
716.843	29386.56
717.186	29149.95
717.53	29318.54
717.873	29224.08
718.216	29256.62
718.559	29156.51
718.902	28913.58
719.246	28963.07
719.589	28984.53
719.932	28754.03
720.275	28868.61
720.617	28721.72
720.96	28714.03
721.303	28679.23
721.646	28632.23
721.989	28499.8
722.331	28543.87
722.674	28358.79
723.016	28529.18
723.359	28441.5
723.701	28391.78
724.044	28189.53
724.386	28132.13
724.729	28220.49
725.071	28143.88
725.413	28038.12
725.755	28118.34
726.097	28005.58
726.439	27741.86
726.782	27863.66
727.124	28007.84
727.465	27763.1
727.807	27687.62
728.149	27771.91
728.491	27609.66
728.833	27712.93
729.175	27523.56
729.516	27516.78
729.858	27477.68
730.199	27595.42
730.541	27526.27
730.882	27363.33
731.224	27571.92
731.565	27344.8
731.906	27281.08
732.248	27450.79
732.589	27225.71
732.93	27098.71
733.271	27135.32
733.612	27066.17
733.953	27117.01
734.294	27020.29
734.635	26947.75
734.976	27053.51
735.317	26851.26
735.658	26937.36
735.999	26802.44
736.339	26699.62
736.68	26874.76
737.021	26767.19
737.361	26560.19
737.702	26646.74
738.042	26593.86
738.383	26616.46
738.723	26487.2
739.063	26454.43
739.404	26518.84
739.744	26569.46
740.084	26318.84
740.424	26365.39
740.764	26336.69
741.104	26327.66
741.444	26228.9
741.784	26207.66
742.124	26075.01
742.464	26177.83
742.804	26069.13
743.143	26009.47
743.483	25889.47
743.823	25775.58
744.162	25908.01
744.502	25977.83
744.841	25753.43
745.181	25930.15
745.52	25661.68
745.86	25832.98
746.199	25637.96
746.538	25654.45
746.877	25684.06
747.216	25619.43
747.556	25764.51
747.895	25611.97
748.234	25445.87
748.573	25415.36
748.911	25365.87
749.25	25307.34
749.589	25324.29
749.928	25379.88
750.267	25324.97
750.605	25150.29
750.944	25223.05
751.283	25069.61
751.621	25150.06
751.96	24989.16
752.298	24974.92
752.636	25065.77
752.975	24858.09
753.313	24810.41
753.651	24971.08
753.989	24773.35
754.327	24688.15
754.666	24647.25
755.004	24695.38
755.342	24834.14
755.679	24556.85
756.017	24474.82
756.355	24450.42
756.693	24368.61
757.031	24416.52
757.368	24210.65
757.706	24117.09
758.044	24067.83
758.381	24102.63
758.719	23973.82
759.056	24107.83
759.394	23950.54
759.731	23860.15
760.068	23828.51
760.405	23723.43
760.743	23676.43
761.08	23603.89
