Data from hue_40_FLMS001491_53.txt Node
Date: Mon Feb 06 15:08:06 GMT 2017
User: dcchb
Spectrometer: FLMS00149
Trigger mode: 0
Integration Time (sec): 2.000000E-2
Scans to average: 10
Electric dark correction enabled: true
Nonlinearity correction enabled: false
Boxcar width: 0
XAxis mode: Wavelengths
Number of Pixels in Spectrum: 2048
>>>>>Begin Spectral Data<<<<<
341.393	-13.4
341.776	-13.4
342.16	-13.4
342.543	-67.41
342.927	-57.92
343.31	-58.6
343.693	-85.49
344.077	-55.66
344.46	-48.2
344.843	-58.83
345.226	-43.01
345.61	-38.71
345.993	-6.4
346.376	-12.27
346.759	19.82
347.142	33.37
347.525	41.06
347.908	44.45
348.291	52.13
348.674	105.01
349.057	111.34
349.44	121.73
349.823	135.52
350.206	173.94
350.588	190.66
350.971	222.52
351.354	221.39
351.737	245.57
352.119	249.87
352.502	267.49
352.884	274.72
353.267	290.54
353.65	281.5
354.032	289.19
354.414	328.51
354.797	306.36
355.179	311.56
355.562	330.77
355.944	334.84
356.326	328.73
356.709	339.58
357.091	347.26
357.473	334.38
357.855	335.74
358.238	345.01
358.62	328.73
359.002	335.51
359.384	341.84
359.766	350.65
360.148	335.06
360.53	348.62
360.912	345.23
361.294	337.77
361.676	316.31
362.057	344.33
362.439	332.12
362.821	328.51
363.203	326.25
363.584	329.19
363.966	313.14
364.348	337.1
364.729	326.25
365.111	338.68
365.493	329.64
365.874	302.97
366.256	310.66
366.637	307.72
367.019	327.38
367.4	326.02
367.781	312.24
368.163	318.79
368.544	316.31
368.925	315.85
369.306	323.99
369.688	322.18
370.069	316.53
370.45	316.31
370.831	338.68
371.212	310.88
371.593	305.46
371.974	320.6
372.355	323.99
372.736	299.58
373.117	318.79
373.498	329.19
373.879	321.05
374.26	316.98
374.641	330.32
375.021	316.53
375.402	325.8
375.783	328.96
376.163	328.96
376.544	337.1
376.925	319.69
377.305	325.8
377.686	330.09
378.066	319.47
378.447	318.79
378.827	346.59
379.208	320.15
379.588	337.32
379.968	314.5
380.349	323.08
380.729	337.1
381.109	332.12
381.489	321.28
381.87	334.61
382.25	340.49
382.63	357.89
383.01	349.98
383.39	331.67
383.77	354.04
384.15	350.2
384.53	361.73
384.91	349.75
385.29	355.85
385.67	334.38
386.049	341.39
386.429	340.03
386.809	353.59
387.189	373.48
387.568	350.43
387.948	353.82
388.328	366.93
388.707	350.88
389.087	363.99
389.466	367.83
389.846	370.99
390.225	389.75
390.605	382.52
390.984	367.38
391.363	380.48
391.743	382.07
392.122	365.34
392.501	364.89
392.881	382.97
393.26	381.16
393.639	379.81
394.018	358.56
394.397	376.19
394.776	381.39
395.155	392.01
395.534	395.85
395.913	385
396.292	384.33
396.671	403.76
397.05	394.95
397.429	388.85
397.808	382.74
398.186	386.59
398.565	409.41
398.944	392.46
399.323	391.78
399.701	406.92
400.08	394.95
400.458	401.5
400.837	429.07
401.215	376.87
401.594	404.89
401.972	418.45
402.351	407.15
402.729	418.9
403.107	404.21
403.486	416.64
403.864	408.73
404.242	413.03
404.62	412.57
404.999	420.48
405.377	426.13
405.755	419.35
406.133	418.68
406.511	425.45
406.889	439.01
407.267	444.44
407.645	443.53
408.023	453.02
408.401	449.86
408.779	454.83
409.156	453.7
409.534	469.97
409.912	448.05
410.29	447.15
410.667	458.67
411.045	463.19
411.422	466.58
411.8	471.33
412.178	470.2
412.555	447.6
412.933	488.5
413.31	498.45
413.687	488.96
414.065	472.69
414.442	498.9
414.819	492.8
415.197	486.47
415.574	488.5
415.951	486.7
416.328	493.02
416.705	503.42
417.082	497.09
417.46	493.7
417.837	523.08
418.214	525.11
418.591	532.12
418.967	530.08
419.344	515.4
419.721	518.79
420.098	526.47
420.475	522.63
420.852	537.77
421.228	554.04
421.605	542.97
421.982	549.29
422.358	552.68
422.735	544.55
423.111	550.65
423.488	528.96
423.864	558.11
424.241	577.32
424.617	570.54
424.994	550.42
425.37	557.65
425.746	570.08
426.123	580.03
426.499	580.71
426.875	587.03
427.251	607.15
427.627	611.21
428.003	598.56
428.379	596.07
428.756	605.56
429.132	596.98
429.507	644.43
429.883	632.68
430.259	637.43
430.635	625.45
431.011	638.78
431.387	635.39
431.763	649.18
432.138	644.43
432.514	632.23
432.89	667.93
433.265	693.24
433.641	662.28
434.016	662.06
434.392	695.28
434.767	692.34
435.143	704.32
435.518	704.54
435.894	704.32
436.269	712.45
436.644	720.59
437.02	726.01
437.395	722.85
437.77	719.01
438.145	746.58
438.52	743.19
438.895	743.41
439.271	768.04
439.646	767.59
440.021	766.24
440.395	768.5
440.77	756.52
441.145	773.47
441.52	802.17
441.895	778.89
442.27	792.22
442.645	792.9
443.019	802.39
443.394	804.2
443.769	795.16
444.143	817.76
444.518	847.82
444.892	807.82
445.267	819.79
445.641	832.45
446.016	806.91
446.39	855.27
446.764	847.82
447.139	836.52
447.513	873.35
447.887	844.2
448.262	869.74
448.636	854.6
449.01	898.66
449.384	891.21
449.758	870.19
450.132	891.43
450.506	898.66
450.88	904.54
451.254	884.88
451.628	916.74
452.002	912
452.376	913.35
452.75	923.97
453.123	932.33
453.497	931.2
453.871	939.11
454.244	960.81
454.618	987.7
454.992	985.67
455.365	983.18
455.739	1000.58
456.112	1008.26
456.486	1036.06
456.859	1043.74
457.232	1059.11
457.606	1060.47
457.979	1066.34
458.352	1082.39
458.725	1088.94
459.099	1090.52
459.472	1121.93
459.845	1119.9
460.218	1144.08
460.591	1127.58
460.964	1138.43
461.337	1150.63
461.71	1186.11
462.083	1200.12
462.456	1169.62
462.829	1198.54
463.201	1234.7
463.574	1247.13
463.947	1253.91
464.32	1262.72
464.692	1288.48
465.065	1284.64
465.438	1316.73
465.81	1344.53
466.183	1355.83
466.555	1391.31
466.928	1394.69
467.3	1391.31
467.672	1406.67
468.045	1440.12
468.417	1448.25
468.789	1494.81
469.161	1489.16
469.534	1494.81
469.906	1550.85
470.278	1573.45
470.65	1621.13
471.022	1599.66
471.394	1667
471.766	1675.59
472.138	1716.27
472.51	1749.04
472.882	1774.57
473.253	1824.06
473.625	1834.68
473.997	1883.27
474.369	1888.92
474.74	1942.93
475.112	1994.45
475.484	2062.93
475.855	2103.83
476.227	2128.46
476.598	2190.15
476.97	2224.5
477.341	2301.56
477.713	2353.31
478.084	2373.65
478.455	2473.76
478.827	2480.99
479.198	2554.89
479.569	2617.71
479.94	2731.83
480.311	2768.67
480.682	2874.2
481.053	2897.93
481.424	2978.16
481.795	3040.98
482.166	3113.29
482.537	3195.1
482.908	3318.49
483.279	3361.2
483.65	3463.34
484.021	3565.49
484.391	3650.68
484.762	3708.98
485.133	3776.55
485.503	3912.59
485.874	4014.74
486.244	4104.23
486.615	4194.62
486.985	4317.33
487.356	4414.73
487.726	4499.47
488.097	4650.2
488.467	4708.96
488.837	4864.21
489.207	4932.46
489.578	5044.09
489.948	5214.26
490.318	5308.94
490.688	5341.71
491.058	5525.21
491.428	5613.12
491.798	5707.58
492.168	5841.81
492.538	5986.89
492.908	6130.62
493.278	6147.11
493.648	6241.8
494.017	6426.65
494.387	6493.32
494.757	6605.86
495.126	6785.97
495.496	6797.04
495.866	6930.14
496.235	7068.44
496.605	7170.36
496.974	7267.99
497.344	7394.31
497.713	7472.05
498.082	7515.89
498.452	7752.49
498.821	7744.13
499.19	7822.1
499.559	7990.68
499.928	8084.91
500.298	8182.99
500.667	8226.15
501.036	8326.04
501.405	8437
501.774	8502.3
502.143	8620.72
502.512	8729.19
502.88	8738
503.249	8892.8
503.618	8921.73
503.987	9037.66
504.356	9081.72
504.724	9157.65
505.093	9262.28
505.462	9334.83
505.83	9416.86
506.199	9475.16
506.567	9683.97
506.936	9695.49
507.304	9874.25
507.672	9902.04
508.041	9934.13
508.409	10078.99
508.777	10101.36
509.145	10229.49
509.514	10306.1
509.882	10354.46
510.25	10452.99
510.618	10562.59
510.986	10511.97
511.354	10706.99
511.722	10773.88
512.09	10952.86
512.458	10853.43
512.826	10911.73
513.193	11076.7
513.561	11147.21
513.929	11201.67
514.297	11366.41
514.664	11458.39
515.032	11476.46
515.4	11565.28
515.767	11641.88
516.135	11622.22
516.502	11675.55
516.869	11797.13
517.237	11943.34
517.604	11887.3
517.972	12077.8
518.339	12107.86
518.706	12090.23
519.073	12257.01
519.44	12343.56
519.808	12431.01
520.175	12332.03
520.542	12585.81
520.909	12691.57
521.276	12669.43
521.643	12818.12
522.009	12854.51
522.376	12976.76
522.743	13052.92
523.11	13214.05
523.477	13301.27
523.843	13337.43
524.21	13531.1
524.577	13501.5
524.943	13651.77
525.31	13654.94
525.676	13801.37
526.043	13931.77
526.409	13888.83
526.776	14089.5
527.142	14088.37
527.508	14291.31
527.874	14330.85
528.241	14405.88
528.607	14398.65
528.973	14592.77
529.339	14600.9
529.705	14696.04
530.071	14898.75
530.437	14977.61
530.803	15009.03
531.169	15090.38
531.535	15082.92
531.901	15178.51
532.267	15244.05
532.632	15361.33
532.998	15406.76
533.364	15510.93
533.73	15533.76
534.095	15709.12
534.461	15718.16
534.826	15750.25
535.192	15808.55
535.557	15933.3
535.923	15897.82
536.288	16001.54
536.653	16050.81
537.019	16110.47
537.384	16140.75
537.749	16272.04
538.114	16352.49
538.479	16284.02
538.845	16436.33
539.21	16412.15
539.575	16550.91
539.94	16566.73
540.305	16682.43
540.67	16730.34
541.034	16736.21
541.399	16866.15
541.764	16866.6
542.129	17023.66
542.494	16987.73
542.858	17172.36
543.223	17203.54
543.587	17185.92
543.952	17353.37
544.316	17405.12
544.681	17356.31
545.045	17438.79
545.41	17572.8
545.774	17593.82
546.138	17624.55
546.503	17713.36
546.867	17749.29
547.231	17894.6
547.595	17940.02
547.959	18024.09
548.324	18065.9
548.688	18139.11
549.052	18248.04
549.416	18172.78
549.779	18213.01
550.143	18360.58
550.507	18423.85
550.871	18466.11
551.235	18514.7
551.599	18558.31
551.962	18691.64
552.326	18670.62
552.689	18876.72
553.053	18720.79
553.417	18757.85
553.78	19007.57
554.143	18869.94
554.507	19036.27
554.87	19200.33
555.234	19361.45
555.597	19227.22
555.96	19318.74
556.323	19278.52
556.686	19354.67
557.05	19543.6
557.413	19481.23
557.776	19634.44
558.139	19702.91
558.502	19810.26
558.865	19826.3
559.228	19960.99
559.59	19993.75
559.953	20105.16
560.316	20247.08
560.679	20284.82
561.041	20349
561.404	20454.53
561.767	20508.99
562.129	20554.42
562.492	20725.71
562.854	20636.45
563.217	20678.48
563.579	20885.93
563.941	20925.03
564.304	21063.56
564.666	21108.07
565.028	21141.29
565.39	21337.45
565.753	21391.91
566.115	21415.64
566.477	21469.65
566.839	21626.71
567.201	21775.63
567.563	21715.52
567.925	21991.67
568.287	21879.58
568.648	21964.55
569.01	21950.31
569.372	22180.14
569.734	22060.37
570.095	22364.31
570.457	22478.43
570.819	22476.63
571.18	22480.47
571.542	22808.14
571.903	22790.97
572.265	22882.94
572.626	22903.96
572.987	23028.7
573.349	23160
573.71	23226.89
574.071	23381.01
574.432	23363.16
574.794	23635.69
575.155	23488.8
575.516	23550.5
575.877	23765.86
576.238	23861
576.599	23897.61
576.96	24100.31
577.32	24116.36
577.681	24338.27
578.042	24552.5
578.403	24491.04
578.763	24603.12
579.124	24801.09
579.485	25021.42
579.845	25189.55
580.206	25193.17
580.566	25303.67
580.927	25488.07
581.287	25705.02
581.648	25750.44
582.008	26014.84
582.368	26050.54
582.728	26197.88
583.089	26345.68
583.449	26470.42
583.809	26678.1
584.169	26909.73
584.529	27042.83
584.889	27295.03
585.249	27445.99
585.609	27495.7
585.969	27836.26
586.329	27776.37
586.688	28110.38
587.048	28181.34
587.408	28331.61
587.768	28530.48
588.127	28827.87
588.487	28851.37
588.846	29386.5
589.206	29264.02
589.565	29434.86
589.925	29834.4
590.284	29920.27
590.643	30043.89
591.003	30324.1
591.362	30677.09
591.721	30645.23
592.08	30969.96
592.44	31122.05
592.799	31402.95
593.158	31476.84
593.517	31558.87
593.876	31840.67
594.235	32012.2
594.593	32161.34
594.952	32350.49
595.311	32379.87
595.67	32715.23
596.029	33052.85
596.387	33186.4
596.746	33463.46
597.104	33360.41
597.463	33594.53
597.822	33858.93
598.18	33961.07
598.538	34020.96
598.897	34476.09
599.255	34325.58
599.613	35046.92
599.972	34820.71
600.33	35127.37
600.688	35130.08
601.046	35473.57
601.404	35664.75
601.762	35622.27
602.12	35948.59
602.478	36127.34
602.836	36266.09
603.194	36291.18
603.552	36466.54
603.91	36368.69
604.268	36769.81
604.625	36730.04
604.983	37092.06
605.341	36930.94
605.698	37185.84
606.056	37381.55
606.413	37448.21
606.771	37583.35
607.128	37770.91
607.485	37719.16
607.843	37883.91
608.2	38119.15
608.557	38421.97
608.914	38270.34
609.272	38398.02
609.629	38705.35
609.986	38854.5
610.343	38790.1
610.7	39118.22
611.057	39113.93
611.414	39203.64
611.771	39309.63
612.127	39564.09
612.484	39651.77
612.841	39795.27
613.198	39629.4
613.554	39836.4
613.911	40131.98
614.267	40177.18
614.624	40223.28
614.98	40263.05
615.337	40690.61
615.693	40505.98
616.05	40636.38
616.406	40803.83
616.762	40676.37
617.118	40873.43
617.475	40925.41
617.831	40994.78
618.187	41093.31
618.543	41343.25
618.899	41594.77
619.255	41422.57
619.611	41513.64
619.967	41601.1
620.323	41720.64
620.678	41614.43
621.034	41692.62
621.39	41689
621.746	41614.65
622.101	42244.69
622.457	41690.13
622.812	41988.88
623.168	42091.93
623.523	42158.14
623.879	42303.45
624.234	42024.36
624.589	42287.18
624.945	42234.53
625.3	42360.4
625.655	42477.23
626.01	42410.34
626.365	42488.53
626.72	42569.88
627.075	42451.02
627.43	42514.52
627.785	42486.95
628.14	42498.02
628.495	42611.69
628.85	42753.38
629.205	42451.24
629.559	42720.84
629.914	42708.18
630.269	42720.39
630.623	42628.41
630.978	42526.72
631.332	42747.96
631.687	42825.92
632.041	42701.41
632.396	42749.77
632.75	42552.26
633.104	42615.98
633.459	42563.1
633.813	42462.09
634.167	42507.51
634.521	42459.38
634.875	42607.62
635.229	42494.41
635.583	42385.48
635.937	42546.61
636.291	42396.1
636.645	42488.08
636.999	42396.33
637.352	42400.85
637.706	42314.75
638.06	42379.61
638.413	42403.56
638.767	42309.1
639.121	42367.18
639.474	42093.74
639.828	42230.01
640.181	42255.54
640.534	42172.61
640.888	42161.98
641.241	41982.1
641.594	42258.93
641.947	42194.98
642.301	41986.85
642.654	42140.74
643.007	42051.71
643.36	42040.63
643.713	41996.57
644.066	42164.02
644.419	41943.69
644.771	41699.4
645.124	41331.5
645.477	41281.33
645.83	40945.29
646.182	40799.76
646.535	40748.46
646.888	40858.74
647.24	40613.78
647.593	40713.44
647.945	40706.66
648.298	40530.16
648.65	40540.56
649.002	40460.33
649.355	40586.43
649.707	40512.76
650.059	40744.85
650.411	41269.13
650.763	41305.06
651.115	41614.2
651.467	41525.17
651.819	41495.11
652.171	41318.84
652.523	41309.8
652.875	41318.17
653.227	41143.03
653.578	41509.57
653.93	41295.79
654.282	41223.25
654.633	41080.21
654.985	41265.51
655.337	41270.93
655.688	41251.05
656.039	41215.12
656.391	40942.81
656.742	40905.52
657.094	41087.89
657.445	41219.41
657.796	41043.6
658.147	40982.13
658.498	41103.48
658.849	41062.58
659.2	41015.12
659.551	40947.33
659.902	41060.77
660.253	41056.7
660.604	40964.5
660.955	40904.62
661.306	41025.74
661.656	40890.38
662.007	41001.56
662.358	40884.73
662.708	41013.09
663.059	40817.16
663.409	40577.39
663.76	40945.07
664.11	40912.75
664.461	40923.37
664.811	40821.68
665.161	40854.9
665.511	40639.99
665.862	40714.34
666.212	40827.1
666.562	40863.04
666.912	40806.54
667.262	40644.06
667.612	40635.25
667.962	40736.03
668.312	40700.33
668.662	40760.67
669.011	40810.38
669.361	40726.09
669.711	40757.95
670.06	40691.29
670.41	40436.15
670.76	40507.79
671.109	40672.76
671.459	40691.97
671.808	40509.37
672.157	40645.41
672.507	40385.76
672.856	40453.1
673.205	40454.01
673.554	40483.16
673.904	40410.84
674.253	40564.51
674.602	40637.5
674.951	39898.54
675.3	39716.4
675.649	40392.99
675.998	40246.33
676.346	40267.12
676.695	40388.7
677.044	40175.6
677.393	40392.99
677.741	40274.8
678.09	40327.23
678.438	40268.48
678.787	40133.56
679.135	40220.79
679.484	40089.5
679.832	40246.78
680.181	39954.81
680.529	40033
680.877	39899.22
681.225	39878.43
681.573	40165.43
681.922	39718.43
682.27	39752.33
682.618	39643.86
682.966	39603.63
683.314	39553.69
683.661	39423.75
684.009	39370.42
684.357	39322.96
684.705	39214.04
685.053	39461.26
685.4	39106.7
685.748	39103.76
686.095	38980.37
686.443	38885.91
686.79	39050.88
687.138	38878.46
687.485	38875.52
687.832	38816.76
688.18	38767.72
688.527	38650.66
688.874	38535.41
689.221	38465.81
689.568	38394.4
689.915	38253.84
690.262	38358.69
690.609	38237.57
690.956	38123.9
691.303	38021.98
691.65	37976.33
691.997	37947.18
692.344	37676.23
692.69	37623.8
693.037	37596.91
693.383	37170.93
693.73	37420.41
694.077	37324.82
694.423	37288.89
694.769	37124.6
695.116	37051.61
695.462	36884.84
695.808	36847.32
696.155	37066.3
696.501	36701.11
696.847	36729.36
697.193	36489.37
697.539	36643.03
697.885	36404.85
698.231	36165.31
698.577	36208.92
698.923	36231.75
699.269	36046.44
699.614	35903.62
699.96	35681.25
700.306	35731.87
700.651	35696.17
700.997	35570.97
701.342	35493.23
701.688	35492.78
702.033	35335.95
702.379	35444.2
702.724	35153.13
703.069	35228.83
703.415	34896.86
703.76	34983.19
704.105	34878.79
704.45	34763.31
704.795	34620.26
705.14	34598.12
705.485	34544.11
705.83	34300.5
706.175	34340.5
706.52	34246.26
706.865	34231.35
707.209	34141.63
707.554	33974.18
707.899	34229.99
708.243	33912.71
708.588	33890.56
708.932	33718.36
709.277	33645.15
709.621	33595.43
709.966	33465.04
710.31	33534.19
710.654	33317.47
710.998	33291.71
711.342	33299.39
711.687	33206.97
712.031	33053.75
712.375	32769.69
712.719	33012.85
713.063	32863.7
713.407	33003.58
713.75	32793.64
714.094	32775.11
714.438	32670.26
714.782	32670.26
715.125	32470.94
715.469	32556.36
715.812	32420.09
716.156	32226.88
716.499	32160.44
716.843	32269.36
717.186	31954.8
717.53	32160.21
717.873	32213.09
718.216	32036.6
718.559	31961.8
718.902	31803.16
719.246	31872.76
719.589	31750.28
719.932	31675.93
720.275	31643.62
720.617	31625.54
720.96	31508.03
721.303	31444.98
721.646	31520
721.989	31255.38
722.331	31341.03
722.674	31305.32
723.016	31325.66
723.359	31148.71
723.701	31187.36
724.044	30870.08
724.386	30928.61
724.729	31083.86
725.071	30868.5
725.413	30957.53
725.755	30900.81
726.097	30732.68
726.439	30664.89
726.782	30677.31
727.124	30852.45
727.465	30693.59
727.807	30453.82
728.149	30489.52
728.491	30388.96
728.833	30409.3
729.175	30390.77
729.516	30282.97
729.858	30200.72
730.199	30223.77
730.541	30174.73
730.882	30067.61
731.224	30145.13
731.565	29954.85
731.906	29899.26
732.248	29973.83
732.589	29820.39
732.93	29725.7
733.271	29714.4
733.612	29810.44
733.953	29733.61
734.294	29620.62
734.635	29489.32
734.976	29569.1
735.317	29414.98
735.658	29430.57
735.999	29497.46
736.339	29349.89
736.68	29474.63
737.021	29360.74
737.361	29252.27
737.702	29471.02
738.042	29219.27
738.383	29197.58
738.723	29255.66
739.063	29071.48
739.404	29160.07
739.744	28995.78
740.084	28894.76
740.424	28934.76
740.764	28877.36
741.104	28973.18
741.444	28718.04
741.784	28761.88
742.124	28677.82
742.464	28756.69
742.804	28654.54
743.143	28627.43
743.483	28671.04
743.823	28487.77
744.162	28383.59
744.502	28527.77
744.841	28358.51
745.181	28371.16
745.52	28244.61
745.86	28316.47
746.199	28205.06
746.538	28184.05
746.877	28216.14
747.216	28203.48
747.556	28164.16
747.895	28065.41
748.234	28005.07
748.573	27952.41
748.911	27929.36
749.25	27863.38
749.589	27775.24
749.928	27899.99
750.267	27895.02
750.605	27693.89
750.944	27787.9
751.283	27547.68
751.621	27722.36
751.96	27521.92
752.298	27544.06
752.636	27484.18
752.975	27348.59
753.313	27329.83
753.651	27213
753.989	27122.83
754.327	27203.73
754.666	26982.5
755.004	27067.24
755.342	27037.64
755.679	26998.54
756.017	26742.05
756.355	26979.11
756.693	26741.15
757.031	26715.61
757.368	26626.12
