Data from hue_70_FLMS001491_14.txt Node
Date: Mon Feb 06 15:20:11 GMT 2017
User: dcchb
Spectrometer: FLMS00149
Trigger mode: 0
Integration Time (sec): 2.000000E-2
Scans to average: 10
Electric dark correction enabled: true
Nonlinearity correction enabled: false
Boxcar width: 0
XAxis mode: Wavelengths
Number of Pixels in Spectrum: 2048
>>>>>Begin Spectral Data<<<<<
341.393	4.94
341.776	4.94
342.16	4.94
342.543	-55.62
342.927	-56.98
343.31	-72.79
343.693	-64.43
344.077	-57.43
344.46	-77.31
344.843	-42.96
345.226	-30.31
345.61	-33.93
345.993	-14.27
346.376	-9.75
346.759	4.27
347.142	19.41
347.525	32.51
347.908	56.24
348.291	77.71
348.674	98.95
349.057	114.09
349.44	115.9
349.823	149.35
350.206	176.46
350.588	208.78
350.971	207.65
351.354	204.26
351.737	215.56
352.119	245.39
352.502	271.38
352.884	264.15
353.267	279.29
353.65	305.73
354.032	314.31
354.414	306.4
354.797	312.73
355.179	318.61
355.562	323.58
355.944	296.01
356.326	331.04
356.709	342.34
357.091	346.86
357.473	328.32
357.855	345.73
358.238	351.6
358.62	352.73
359.002	340.3
359.384	353.63
359.766	328.55
360.148	330.13
360.53	345.73
360.912	347.99
361.294	342.56
361.676	348.21
362.057	341.88
362.439	333.75
362.821	312.51
363.203	327.65
363.584	340.75
363.966	343.69
364.348	328.32
364.729	333.07
365.111	303.69
365.493	318.61
365.874	320.64
366.256	316.8
366.637	299.17
367.019	313.41
367.4	341.43
367.781	300.08
368.163	314.09
368.544	324.48
368.925	290.13
369.306	312.96
369.688	331.71
370.069	303.69
370.45	314.09
370.831	318.61
371.212	312.96
371.593	310.92
371.974	317.25
372.355	306.18
372.736	330.81
373.117	315.22
373.498	313.18
373.879	321.77
374.26	314.99
374.641	311.15
375.021	310.7
375.402	317.48
375.783	317.7
376.163	326.06
376.544	321.32
376.925	321.77
377.305	325.16
377.686	329.91
378.066	328.32
378.447	330.13
378.827	326.29
379.208	319.29
379.588	339.85
379.968	357.25
380.349	323.35
380.729	335.1
381.109	331.94
381.489	319.51
381.87	353.86
382.25	336.01
382.63	348.89
383.01	341.66
383.39	324.93
383.77	317.7
384.15	333.07
384.53	328.78
384.91	328.55
385.29	352.73
385.67	317.48
386.049	329.68
386.429	350.25
386.809	367.19
387.189	337.82
387.568	348.66
387.948	348.89
388.328	328.55
388.707	352.73
389.087	339.4
389.466	353.63
389.846	351.6
390.225	353.86
390.605	368.1
390.984	363.13
391.363	367.65
391.743	352.96
392.122	355.89
392.501	366.29
392.881	359.28
393.26	354.99
393.639	345.27
394.018	378.49
394.397	368.32
394.776	343.47
395.155	354.54
395.534	368.55
395.913	371.94
396.292	371.49
396.671	358.38
397.05	354.09
397.429	370.36
397.808	371.49
398.186	363.8
398.565	386.18
398.944	366.29
399.323	382.33
399.701	393.18
400.08	385.05
400.458	378.49
400.837	373.07
401.215	376.69
401.594	383.46
401.972	374.65
402.351	403.58
402.729	368.32
403.107	378.94
403.486	390.24
403.864	394.54
404.242	419.62
404.62	389.57
404.999	393.18
405.377	395.44
405.755	402.67
406.133	379.4
406.511	429.34
406.889	411.03
407.267	403.12
407.645	394.76
408.023	418.49
408.401	411.26
408.779	414.42
409.156	414.42
409.534	414.88
409.912	416.01
410.29	420.75
410.667	423.46
411.045	435.21
411.422	408.55
411.8	432.5
412.178	418.27
412.555	463.01
412.933	453.29
413.31	448.1
413.687	430.69
414.065	441.77
414.442	458.72
414.819	440.41
415.197	456
415.574	451.94
415.951	441.99
416.328	466.85
416.705	463.46
417.082	481.32
417.46	468.89
417.837	477.02
418.214	470.92
418.591	480.19
418.967	466.17
419.344	476.8
419.721	482.44
420.098	493.29
420.475	475.89
420.852	474.54
421.228	487.87
421.605	500.98
421.982	470.47
422.358	501.2
422.735	485.38
423.111	512.95
423.488	479.51
423.864	514.99
424.241	507.98
424.617	511.37
424.994	506.17
425.37	519.96
425.746	508.88
426.123	517.25
426.499	510.01
426.875	535.32
427.251	541.65
427.627	547.08
428.003	540.3
428.379	558.83
428.756	536.68
429.132	556.79
429.507	556.12
429.883	564.93
430.259	563.8
430.635	577.13
431.011	561.31
431.387	567.41
431.763	558.38
432.138	596.11
432.514	571.93
432.89	569.9
433.265	597.02
433.641	570.35
434.016	589.79
434.392	582.56
434.767	613.06
435.143	594.76
435.518	610.35
435.894	622.55
436.269	632.95
436.644	627.07
437.02	616.23
437.395	620.07
437.77	643.34
438.145	638.6
438.52	639.5
438.895	627.3
439.271	649.22
439.646	648.32
440.021	642.67
440.395	670.01
440.77	663.68
441.145	687.86
441.52	666.39
441.895	696
442.27	688.54
442.645	682.67
443.019	691.03
443.394	685.38
443.769	688.77
444.143	706.62
444.518	699.16
444.892	719.73
445.267	697.13
445.641	723.12
446.016	704.36
446.39	711.82
446.764	736
447.139	718.14
447.513	713.17
447.887	728.54
448.262	720.63
448.636	734.19
449.01	736
449.384	747.3
449.758	760.86
450.132	750.69
450.506	757.47
450.88	773.96
451.254	764.47
451.628	789.33
452.002	818.48
452.376	784.58
452.75	793.17
453.123	810.35
453.497	801.53
453.871	810.12
454.244	820.06
454.618	828.88
454.992	830.68
455.365	849.67
455.739	839.5
456.112	859.16
456.486	868.65
456.859	868.2
457.232	873.62
457.606	889.67
457.979	901.42
458.352	906.61
458.725	932.83
459.099	920.85
459.472	942.77
459.845	931.47
460.218	949.1
460.591	970.34
460.964	954.97
461.337	947.97
461.71	977.12
462.083	996.1
462.456	1039.49
462.829	1054.41
463.201	1046.27
463.574	1043.11
463.947	1059.83
464.32	1068.19
464.692	1097.12
465.065	1079.72
465.438	1115.65
465.81	1139.83
466.183	1163.33
466.555	1149.09
466.928	1178.25
467.3	1199.26
467.672	1200.62
468.045	1219.15
468.417	1232.93
468.789	1244.01
469.161	1268.86
469.534	1284.91
469.906	1328.52
470.278	1332.59
470.65	1365.36
471.022	1392.25
471.394	1439.71
471.766	1447.84
472.138	1471.35
472.51	1493.72
472.882	1533.49
473.253	1571.68
473.625	1605.13
473.997	1660.49
474.369	1637.22
474.74	1693.26
475.112	1695.07
475.484	1770.77
475.855	1823.88
476.227	1855.74
476.598	1923.99
476.97	1912.46
477.341	2028.62
477.713	2046.7
478.084	2081.95
478.455	2154.27
478.827	2195.39
479.198	2307.48
479.569	2298.89
479.94	2407.14
480.311	2441.26
480.682	2508.38
481.053	2636.29
481.424	2686.23
481.795	2743.4
482.166	2812.78
482.537	2923.96
482.908	3013
483.279	3071.53
483.65	3169.61
484.021	3264.29
484.391	3382.93
484.762	3463.16
485.133	3547.68
485.503	3615.7
485.874	3723.72
486.244	3828.8
486.615	3939.98
486.985	4084.61
487.356	4193.08
487.726	4303.81
488.097	4427.43
488.467	4460.19
488.837	4666.06
489.207	4750.36
489.578	4899.5
489.948	5040.52
490.318	5175.88
490.688	5195.99
491.058	5345.82
491.428	5540.62
491.798	5655.87
492.168	5831
492.538	5911
492.908	6062.19
493.278	6223.31
493.648	6242.75
494.017	6476.64
494.387	6612
494.757	6788.04
495.126	6932.67
495.496	6957.3
495.866	7101.93
496.235	7207.47
496.605	7375.37
496.974	7510.73
497.344	7670.28
497.713	7776.26
498.082	7920.67
498.452	8035.01
498.821	8201.11
499.19	8202.24
499.559	8397.72
499.928	8561.1
500.298	8646.07
500.667	8806.52
501.036	8823.02
501.405	9036.34
501.774	9091.03
502.143	9283.12
502.512	9336
502.88	9590.23
503.249	9565.6
503.618	9751.35
503.987	9759.26
504.356	9935.3
504.724	10044.23
505.093	10082.87
505.462	10264.79
505.83	10333.94
506.199	10515.63
506.567	10620.03
506.936	10705
507.304	10888.95
507.672	10984.09
508.041	10974.15
508.409	11157.42
508.777	11383.18
509.145	11420.69
509.514	11361.48
509.882	11572.1
510.25	11595.37
510.618	11688.93
510.986	11808.47
511.354	11958.75
511.722	12095.25
512.09	12284.17
512.458	12182.02
512.826	12388.57
513.193	12525.52
513.561	12474.45
513.929	12642.13
514.297	12777.49
514.664	12876.7
515.032	12871.72
515.4	13076.46
515.767	13022.45
516.135	13205.5
516.502	13106.29
516.869	13403.24
517.237	13515.32
517.604	13448.66
517.972	13557.81
518.339	13657.01
518.706	13641.65
519.073	13786.5
519.44	13839.38
519.808	14008.42
520.175	14053.84
520.542	14241.18
520.909	14253.38
521.276	14285.02
521.643	14407.95
522.009	14551.23
522.376	14644.56
522.743	14708.06
523.11	14837.77
523.477	15014.72
523.843	14915.29
524.21	15176.52
524.577	15232.34
524.943	15237.09
525.31	15289.06
525.676	15561.6
526.043	15570.86
526.409	15692.67
526.776	15775.15
527.142	15887.24
527.508	15875.71
527.874	16076.39
528.241	16066.89
528.607	16092.88
528.973	16281.35
529.339	16108.02
529.705	16359.99
530.071	16401.57
530.437	16440.22
530.803	16554.79
531.169	16627.11
531.535	16612.64
531.901	16623.72
532.267	16719.53
532.632	16770.6
532.998	16756.82
533.364	16915.91
533.73	16879.53
534.095	17019.19
534.461	17101.22
534.826	17082.01
535.192	17192.06
535.557	17237.71
535.923	17152.06
536.288	17265.96
536.653	17328.33
537.019	17210.37
537.384	17346.18
537.749	17369.68
538.114	17338.05
538.479	17315.9
538.845	17412.17
539.21	17380.53
539.575	17459.4
539.94	17567.87
540.305	17646.06
540.67	17524.03
541.034	17640.64
541.399	17645.61
541.764	17650.81
542.129	17604.48
542.494	17655.33
542.858	17709.11
543.223	17733.74
543.587	17842.89
543.952	17681.54
544.316	17770.35
544.681	17664.14
545.045	17861.87
545.41	17848.99
545.774	17896
546.138	17861.65
546.503	17938.71
546.867	17885.83
547.231	18049.44
547.595	18057.35
547.959	17933.51
548.324	17971.48
548.688	18010.57
549.052	18146.61
549.416	18025.03
549.779	18075.43
550.143	18086.5
550.507	18192.49
550.871	18165.6
551.235	18131.25
551.599	18279.94
551.962	18259.6
552.326	18217.12
552.689	18444.68
553.053	18271.36
553.417	18307.51
553.78	18473.38
554.143	18347.51
554.507	18450.11
554.87	18472.25
555.234	18554.06
555.597	18498.92
555.96	18498.02
556.323	18444.23
556.686	18604.68
557.05	18674.73
557.413	18649.88
557.776	18667.05
558.139	18796.09
558.502	18772.36
558.865	18851.91
559.228	18878.35
559.59	18959.02
559.953	18919.47
560.316	19126.02
560.679	19092.35
561.041	19162.63
561.404	19213.7
561.767	19288.05
562.129	19360.37
562.492	19509.97
562.854	19369.41
563.217	19334.38
563.579	19438.78
563.941	19514.26
564.304	19505.67
564.666	19676.52
565.028	19675.61
565.39	19766.01
565.753	19753.35
566.115	19852.56
566.477	19937.75
566.839	19841.48
567.201	20066.11
567.563	20111.31
567.925	20163.51
568.287	20155.6
568.648	20176.39
569.01	20308.82
569.372	20382.94
569.734	20304.3
570.095	20402.15
570.457	20513.33
570.819	20494.57
571.18	20503.39
571.542	20591.07
571.903	20693.66
572.265	20715.59
572.626	20765.75
572.987	20811.85
573.349	20849.37
573.71	20989.48
574.071	20983.37
574.432	20928.01
574.794	21208.68
575.155	21037.16
575.516	21025.63
575.877	21085.97
576.238	21098.85
576.599	21303.59
576.96	21302.46
577.32	21290.03
577.681	21185.18
578.042	21304.72
578.403	21322.8
578.763	21437.37
579.124	21327.55
579.485	21434.21
579.845	21426.3
580.206	21425.85
580.566	21438.5
580.927	21376.58
581.287	21433.31
581.648	21446.87
582.008	21536.58
582.368	21539.52
582.728	21555.34
583.089	21560.76
583.449	21541.78
583.809	21565.51
584.169	21590.36
584.529	21545.39
584.889	21695.45
585.249	21553.53
585.609	21525.06
585.969	21669.23
586.329	21558.73
586.688	21647.09
587.048	21532.06
587.408	21575.45
587.768	21575
588.127	21551.95
588.487	21534.32
588.846	21640.76
589.206	21508.56
589.565	21485.96
589.925	21723.92
590.284	21568.44
590.643	21569.35
591.003	21622.45
591.362	21669.68
591.721	21618.84
592.08	21642.34
592.44	21636.69
592.799	21749.46
593.158	21636.92
593.517	21633.08
593.876	21699.06
594.235	21609.35
594.593	21534.09
594.952	21707.42
595.311	21570.25
595.67	21620.19
596.029	21865.84
596.387	21680.53
596.746	21812.73
597.104	21565.28
597.463	21592.4
597.822	21747.87
598.18	21655
598.538	21678.95
598.897	21791.94
599.255	21599.63
599.613	21929.79
599.972	21812.05
600.33	21768.21
600.688	21798.49
601.046	21836.01
601.404	21900.19
601.762	21838.95
602.12	21919.17
602.478	21859.06
602.836	21952.39
603.194	21898.15
603.552	21916.68
603.91	21861.54
604.268	21918.72
604.625	21833.3
604.983	21957.59
605.341	21821.09
605.698	21957.36
606.056	21985.83
606.413	22055.44
606.771	22035.1
607.128	22093.85
607.485	22012.73
607.843	22038.26
608.2	22192.16
608.557	22208.2
608.914	22088.66
609.272	22181.76
609.629	22262.89
609.986	22263.57
610.343	22270.35
610.7	22374.3
611.057	22348.31
611.414	22407.07
611.771	22424.01
612.127	22444.13
612.484	22455.43
612.841	22506.95
613.198	22466.05
613.554	22419.72
613.911	22684.57
614.267	22633.95
614.624	22624.24
614.98	22702.88
615.337	22859.48
615.693	22785.14
616.05	22633.5
616.406	22849.54
616.762	22752.82
617.118	22817.22
617.475	22772.93
617.831	22854.29
618.187	23049.54
618.543	22952.14
618.899	22958.92
619.255	22970.22
619.611	22984
619.967	23174.73
620.323	23094.28
620.678	23091.79
621.034	22986.94
621.39	23066.26
621.746	23007.05
622.101	23160.04
622.457	22999.14
622.812	23145.13
623.168	23143.54
623.523	23200.94
623.879	23305.12
624.234	23142.64
624.589	23168.18
624.945	23216.99
625.3	23288.85
625.655	23344.89
626.01	23256.99
626.365	23346.25
626.72	23169.98
627.075	23306.03
627.43	23157.78
627.785	23136.09
628.14	23205.24
628.495	23216.08
628.85	23198.91
629.205	23078.46
629.559	23306.93
629.914	23125.47
630.269	23201.62
630.623	23106.71
630.978	23094.96
631.332	23220.15
631.687	23178.8
632.041	23068.07
632.396	23172.24
632.75	23131.79
633.104	23089.99
633.459	22971.8
633.813	23055.64
634.167	23062.64
634.521	23004.79
634.875	22996.88
635.229	22971.8
635.583	22809.99
635.937	22880.5
636.291	22970.89
636.645	22804.57
636.999	22829.65
637.352	22944.68
637.706	22841.41
638.06	22901.06
638.413	22846.15
638.767	22750.11
639.121	22870.1
639.474	22594.63
639.828	22694.52
640.181	22766.15
640.534	22913.04
640.888	22718.47
641.241	22595.54
641.594	22640.28
641.947	22691.8
642.301	22687.96
642.654	22607.96
643.007	22723.22
643.36	22660.39
643.713	22534.52
644.066	22669.43
644.419	22442.55
644.771	22360.97
645.124	22139.28
645.477	22163
645.83	21864.93
646.182	21892.05
646.535	21953.07
646.888	21842.56
647.24	21844.37
647.593	21958.04
647.945	21866.74
648.298	21746.29
648.65	21869.91
649.002	21686.63
649.355	21777.93
649.707	21723.47
650.059	21893.63
650.411	22046.85
650.763	22078.04
651.115	22377.01
651.467	22322.1
651.819	22247.75
652.171	22343.57
652.523	22230.57
652.875	22193.96
653.227	22094.31
653.578	22257.01
653.93	22144.7
654.282	22190.57
654.633	22059.5
654.985	22182.44
655.337	22122.55
655.688	22129.56
656.039	22330.91
656.391	22021.31
656.742	22141.76
657.094	22173.63
657.445	22239.16
657.796	22165.04
658.147	22173.63
658.498	22115.55
658.849	22214.08
659.2	22148.32
659.551	22140.86
659.902	22211.14
660.253	22167.52
660.604	22178.6
660.955	22096.57
661.306	22186.96
661.656	22153.74
662.007	22210.24
662.358	22150.12
662.708	22092.5
663.059	22132.27
663.409	22039.84
663.76	22158.03
664.11	22180.41
664.461	22212.95
664.811	22162.78
665.161	22130.24
665.511	22150.35
665.862	22101.76
666.212	22214.08
666.562	22265.6
666.912	22231.93
667.262	22142.89
667.612	22196.9
667.962	22191.93
668.312	22166.17
668.662	22226.73
669.011	22143.8
669.361	22033.97
669.711	22069.9
670.06	22072.16
670.41	22010.69
670.76	22038.71
671.109	22053.4
671.459	22020.86
671.808	21946.51
672.157	22017.25
672.507	21904.48
672.856	21948.55
673.205	21988.55
673.554	21949
673.904	21905.38
674.253	22156.9
674.602	21959.85
674.951	21628.33
675.3	21545.39
675.649	21790.59
675.998	21852.96
676.346	21860.87
676.695	21957.81
677.044	21843.01
677.393	21789
677.741	21782
678.09	21709.68
678.438	21695.45
678.787	21711.04
679.135	21740.42
679.484	21551.72
679.832	21661.55
680.181	21646.86
680.529	21758.04
680.877	21591.27
681.225	21537.94
681.573	21831.71
681.922	21490.03
682.27	21491.16
682.618	21449.58
682.966	21391.27
683.314	21527.54
683.661	21344.72
684.009	21288.68
684.357	21307.21
684.705	21193.31
685.053	21244.84
685.4	21062.69
685.748	20979.08
686.095	20940.66
686.443	20904.96
686.79	20892.3
687.138	20972.3
687.485	20973.88
687.832	20894.56
688.18	20914.22
688.527	20811.18
688.874	20736.38
689.221	20664.97
689.568	20542.48
689.915	20591.07
690.262	20546.78
690.609	20447.34
690.956	20430.62
691.303	20359.89
691.65	20306.56
691.997	20297.74
692.344	20204.41
692.69	20132.1
693.037	20136.62
693.383	20029.05
693.73	20000.12
694.077	19901.14
694.423	19902.5
694.769	19764.65
695.116	19815.04
695.462	19808.94
695.808	19651.43
696.155	19672.9
696.501	19550.42
696.847	19522.17
697.193	19411.89
697.539	19415.96
697.885	19316.98
698.231	19173.7
698.577	19269.75
698.923	19227.04
699.269	19118.57
699.614	18946.14
699.96	18982.3
700.306	18917.67
700.651	18861.4
700.997	18726.03
701.342	18792.47
701.688	18694.4
702.033	18621.18
702.379	18608.97
702.724	18548.64
703.069	18589.99
703.415	18420.73
703.76	18389.09
704.105	18416.89
704.45	18251.47
704.795	18118.37
705.14	18119.27
705.485	18091.93
705.83	17919.73
706.175	18057.8
706.52	17985.26
706.865	17815.77
707.209	17874.53
707.554	17731.48
707.899	17846.28
708.243	17633.86
708.588	17747.08
708.932	17542.34
709.277	17570.58
709.621	17514.77
709.966	17472.28
710.31	17528.1
710.654	17349.35
710.998	17303.92
711.342	17376.46
711.687	17373.75
712.031	17220.31
712.375	17195.68
712.719	17218.05
713.063	17072.74
713.407	17174.21
713.75	17107.09
714.094	17143.25
714.438	16995.01
714.782	17022.35
715.125	16980.77
715.469	16963.14
715.812	16952.29
716.156	16727.22
716.499	16752.07
716.843	16783.94
717.186	16755.92
717.53	16705.75
717.873	16724.28
718.216	16745.52
718.559	16636.37
718.902	16526.99
719.246	16609.03
719.589	16487
719.932	16460.78
720.275	16461.46
720.617	16448.8
720.96	16476.83
721.303	16434.79
721.646	16441.35
721.989	16262.59
722.331	16384.63
722.674	16404.51
723.016	16313.22
723.359	16296.72
723.701	16313.44
724.044	16201.81
724.386	16183.05
724.729	16216.49
725.071	16140.11
725.413	16115.48
725.755	16172.88
726.097	16142.37
726.439	16051.98
726.782	16039.1
727.124	16043.39
727.465	16030.74
727.807	15974.24
728.149	15990.06
728.491	15845.88
728.833	15960.46
729.175	15815.15
729.516	15865.54
729.858	15950.96
730.199	15892.89
730.541	15885.43
730.882	15813.34
731.224	15909.61
731.565	15729.73
731.906	15744.19
732.248	15722.04
732.589	15736.51
732.93	15685.44
733.271	15694.47
733.612	15831.19
733.953	15677.3
734.294	15684.31
734.635	15649.96
734.976	15710.97
735.317	15695.38
735.658	15673.01
735.999	15727.69
736.339	15581.93
736.68	15672.55
737.021	15667.36
737.361	15592.56
737.702	15699.22
738.042	15616.06
738.383	15615.38
738.723	15656.74
739.063	15541.71
739.404	15595.72
739.744	15553.24
740.084	15608.83
740.424	15559.11
740.764	15594.36
741.104	15619.45
741.444	15587.58
741.784	15550.75
742.124	15565.89
742.464	15593.69
742.804	15603.18
743.143	15520.24
743.483	15542.84
743.823	15564.53
744.162	15564.53
744.502	15642.05
744.841	15558.88
745.181	15657.19
745.52	15623.97
745.86	15665.55
746.199	15765.21
746.538	15665.55
746.877	15777.18
747.216	15826.22
747.556	15749.16
747.895	15821.7
748.234	15961.36
748.573	15828.26
748.911	15941.93
749.25	15961.59
749.589	15909.61
749.928	16013.56
750.267	16104.18
750.605	16049.49
750.944	16063.28
751.283	16074.58
751.621	16190.96
751.96	16265.31
752.298	16284.29
752.636	16388.92
752.975	16314.35
753.313	16360.9
753.651	16608.12
753.989	16500.1
754.327	16488.8
754.666	16503.27
755.004	16700.32
755.342	16717.27
755.679	16837.72
756.017	16791.62
756.355	16980.99
756.693	16905.74
757.031	17066.42
757.368	17044.5
