Data from hue_80_FLMS001491_91.txt Node
Date: Mon Feb 06 15:24:04 GMT 2017
User: dcchb
Spectrometer: FLMS00149
Trigger mode: 0
Integration Time (sec): 2.000000E-2
Scans to average: 10
Electric dark correction enabled: true
Nonlinearity correction enabled: false
Boxcar width: 0
XAxis mode: Wavelengths
Number of Pixels in Spectrum: 2048
>>>>>Begin Spectral Data<<<<<
341.393	-14.79
341.776	-14.79
342.16	-14.79
342.543	-51.62
342.927	-39.87
343.31	-62.92
343.693	-53.66
344.077	-66.76
344.46	-63.6
344.843	-64.05
345.226	-66.31
345.61	-9.36
345.993	-33.09
346.376	15.95
346.759	16.17
347.142	2.84
347.525	44.19
347.908	60.24
348.291	86
348.674	98.2
349.057	96.17
349.44	120.12
349.823	138.2
350.206	179.78
350.588	186.34
350.971	182.04
351.354	208.48
351.737	246.67
352.119	240.35
352.502	242.15
352.884	257.97
353.267	273.11
353.65	292.1
354.032	318.31
354.414	316.28
354.797	319.67
355.179	314.92
355.562	315.37
355.944	321.7
356.326	329.38
356.709	304.75
357.091	328.03
357.473	337.52
357.855	340.23
358.238	333
358.62	346.33
359.002	338.88
359.384	338.2
359.766	355.15
360.148	324.41
360.53	323.28
360.912	328.03
361.294	340.01
361.676	352.43
362.057	322.15
362.439	316.73
362.821	339.33
363.203	335.94
363.584	324.41
363.966	342.27
364.348	325.32
364.729	329.16
365.111	323.06
365.493	314.24
365.874	312.89
366.256	315.83
366.637	337.75
367.019	319.44
367.4	307.46
367.781	309.5
368.163	309.5
368.544	325.09
368.925	328.71
369.306	311.08
369.688	322.15
370.069	318.54
370.45	315.6
370.831	306.79
371.212	315.6
371.593	308.59
371.974	323.73
372.355	314.92
372.736	316.28
373.117	322.6
373.498	320.8
373.879	321.7
374.26	313.34
374.641	330.51
375.021	330.06
375.402	328.03
375.783	334.36
376.163	338.42
376.544	335.94
376.925	315.15
377.305	332.55
377.686	321.25
378.066	328.93
378.447	317.63
378.827	322.83
379.208	329.16
379.588	323.06
379.968	330.29
380.349	337.52
380.729	336.62
381.109	319.67
381.489	322.6
381.87	340.46
382.25	326.9
382.63	340.23
383.01	340.23
383.39	343.85
383.77	345.65
384.15	370.51
384.53	331.19
384.91	359.21
385.29	355.15
385.67	332.77
386.049	353.34
386.429	360.12
386.809	336.39
387.189	350.17
387.568	346.56
387.948	364.86
388.328	358.76
388.707	374.13
389.087	349.95
389.466	377.29
389.846	354.47
390.225	370.96
390.605	368.03
390.984	358.54
391.363	374.58
391.743	390.85
392.122	383.39
392.501	366.67
392.881	364.86
393.26	378.42
393.639	354.02
394.018	387.24
394.397	381.59
394.776	369.38
395.155	387.91
395.534	375.71
395.913	377.97
396.292	379.33
396.671	366.22
397.05	391.08
397.429	392.89
397.808	391.08
398.186	398.08
398.565	396.27
398.944	400.79
399.323	392.43
399.701	382.49
400.08	384.07
400.458	400.12
400.837	418.42
401.215	375.48
401.594	409.16
401.972	429.95
402.351	407.57
402.729	415.03
403.107	419.55
403.486	419.33
403.864	398.31
404.242	433.11
404.62	432.21
404.999	429.04
405.377	416.39
405.755	433.11
406.133	425.88
406.511	431.53
406.889	438.31
407.267	435.14
407.645	449.61
408.023	436.95
408.401	449.83
408.779	448.93
409.156	445.54
409.534	469.27
409.912	468.82
410.29	473.56
410.667	476.95
411.045	478.31
411.422	489.15
411.8	471.98
412.178	476.95
412.555	490.96
412.933	480.34
413.31	490.51
413.687	485.99
414.065	492.77
414.442	493.22
414.819	506.1
415.197	512.43
415.574	516.5
415.951	505.42
416.328	495.93
416.705	505.65
417.082	505.65
417.46	508.14
417.837	519.89
418.214	529.38
418.591	505.88
418.967	527.12
419.344	517.63
419.721	519.66
420.098	532.09
420.475	546.55
420.852	568.25
421.228	539.1
421.605	580
421.982	565.08
422.358	560.79
422.735	548.36
423.111	550.85
423.488	590.17
423.864	566.67
424.241	567.12
424.617	575.25
424.994	594.01
425.37	586.55
425.746	623.39
426.123	599.66
426.499	608.25
426.875	584.97
427.251	599.43
427.627	616.61
428.003	630.84
428.379	642.82
428.756	629.26
429.132	632.65
429.507	665.65
429.883	631.07
430.259	646.44
430.635	660
431.011	659.54
431.387	665.19
431.763	687.11
432.138	702.26
432.514	686.21
432.89	678.08
433.265	700.45
433.641	717.85
434.016	697.74
434.392	710.84
434.767	722.82
435.143	715.59
435.518	760.11
435.894	752.88
436.269	735.7
436.644	751.75
437.02	758.53
437.395	762.59
437.77	753.33
438.145	796.49
438.52	771.86
438.895	789.48
439.271	801.01
439.646	801.69
440.021	799.2
440.395	812.54
440.77	802.14
441.145	805.08
441.52	824.06
441.895	834.46
442.27	837.85
442.645	834.46
443.019	819.99
443.394	855.92
443.769	815.47
444.143	848.69
444.518	869.03
444.892	862.25
445.267	873.55
445.641	869.93
446.016	880.33
446.39	875.58
446.764	897.05
447.139	885.08
447.513	904.06
447.887	906.77
448.262	904.28
448.636	926.88
449.01	921.23
449.384	941.12
449.758	944.51
450.132	945.86
450.506	966.66
450.88	941.12
451.254	973.21
451.628	961.91
452.002	979.54
452.376	993.32
452.75	997.16
453.123	1001.46
453.497	1026.54
453.871	1027.44
454.244	1031.06
454.618	1052.98
454.992	1094.79
455.365	1034.45
455.739	1085.3
456.112	1087.33
456.486	1105.41
456.859	1142.92
457.232	1139.08
457.606	1118.06
457.979	1142.24
458.352	1186.31
458.725	1162.36
459.099	1184.05
459.472	1210.26
459.845	1213.43
460.218	1233.99
460.591	1243.71
460.964	1245.29
461.337	1277.61
461.71	1287.1
462.083	1312.18
462.456	1331.84
462.829	1327.32
463.201	1323.93
463.574	1368
463.947	1395.57
464.32	1386.98
464.692	1429.69
465.065	1442.12
465.438	1457.49
465.81	1469.47
466.183	1490.48
466.555	1545.17
466.928	1490.26
467.3	1554.66
467.672	1582.91
468.045	1654.77
468.417	1622.91
468.789	1618.16
469.161	1664.94
469.534	1701.1
469.906	1765.96
470.278	1752.4
470.65	1768.67
471.022	1830.14
471.394	1847.76
471.766	1895.22
472.138	1899.74
472.51	1963.69
472.882	2011.15
473.253	2027.64
473.625	2056.12
473.997	2108.55
474.369	2156.91
474.74	2171.37
475.112	2244.59
475.484	2317.81
475.855	2362.78
476.227	2382.89
476.598	2458.82
476.97	2498.59
477.341	2613.62
477.713	2629.66
478.084	2654.97
478.455	2777.68
478.827	2838.7
479.198	2950.56
479.569	2967.73
479.94	3106.03
480.311	3143.1
480.682	3281.17
481.053	3301.51
481.424	3421.96
481.795	3489.98
482.166	3585.34
482.537	3666.92
482.908	3770.88
483.279	3864.43
483.65	3970.64
484.021	4125.89
484.391	4211.99
484.762	4344.87
485.133	4389.84
485.503	4459.9
485.874	4626.9
486.244	4736.27
486.615	4877.74
486.985	4971.07
487.356	5173.32
487.726	5205.64
488.097	5428.46
488.467	5469.36
488.837	5644.05
489.207	5837.94
489.578	5925.85
489.948	6032.51
490.318	6164.94
490.688	6305.05
491.058	6430.47
491.428	6581.87
491.798	6769.21
492.168	6891.92
492.538	6997.01
492.908	7174.18
493.278	7337.34
493.648	7392.7
494.017	7616.2
494.387	7709.53
494.757	7879.47
495.126	8034.49
495.496	8125.56
495.866	8253.24
496.235	8420.7
496.605	8610.07
496.974	8743.4
497.344	8838.31
497.713	8927.8
498.082	9081.24
498.452	9258.41
498.821	9354.01
499.19	9427.45
499.559	9587.45
499.928	9707.89
500.298	9861.11
500.667	9949.47
501.036	10022.01
501.405	10205.73
501.774	10290.7
502.143	10415.67
502.512	10498.61
502.88	10687.3
503.249	10718.26
503.618	10849.33
503.987	10986.96
504.356	11044.58
504.724	11179.95
505.093	11276.44
505.462	11338.59
505.83	11456.55
506.199	11631.23
506.567	11751.46
506.936	11834.84
507.304	11966.82
507.672	12038.68
508.041	12047.27
508.409	12198.45
508.777	12330.65
509.145	12430.53
509.514	12494.49
509.882	12630.76
510.25	12655.61
510.618	12856.29
510.986	12829.85
511.354	13016.96
511.722	13107.13
512.09	13197.52
512.458	13346.67
512.826	13393.45
513.193	13429.6
513.561	13496.04
513.929	13653.1
514.297	13720.44
514.664	13795.7
515.032	13862.81
515.4	13922.25
515.767	14030.27
516.135	14017.39
516.502	14060.1
516.869	14334.67
517.237	14253.31
517.604	14327.43
517.972	14470.71
518.339	14629.8
518.706	14569.01
519.073	14654.88
519.44	14735.33
519.808	14843.13
520.175	14830.7
520.542	15035.89
520.909	15043.57
521.276	15127.19
521.643	15235.21
522.009	15303
522.376	15347.29
522.743	15370.57
523.11	15580.28
523.477	15653.73
523.843	15746.15
524.21	15888.07
524.577	15954.06
524.943	15905.92
525.31	16026.82
525.676	16166.71
526.043	16157.89
526.409	16210.77
526.776	16441.95
527.142	16367.83
527.508	16356.08
527.874	16466.36
528.241	16505.91
528.607	16561.05
528.973	16664.77
529.339	16689.41
529.705	16829.06
530.071	16889.17
530.437	16875.16
530.803	16949.06
531.169	17055.72
531.535	17027.02
531.901	17103.86
532.267	17039.23
532.632	17178.66
532.998	17227.47
533.364	17113.35
533.73	17171.88
534.095	17350.41
534.461	17307.69
534.826	17318.54
535.192	17400.12
535.557	17477.41
535.923	17398.99
536.288	17438.99
536.653	17487.35
537.019	17380.91
537.384	17368.26
537.749	17404.42
538.114	17432.66
538.479	17435.15
538.845	17452.1
539.21	17501.36
539.575	17396.28
539.94	17413.68
540.305	17541.59
540.67	17435.37
541.034	17467.01
541.399	17535.49
541.764	17507.01
542.129	17547.69
542.494	17503.85
542.858	17513.56
543.223	17455.94
543.587	17678.53
543.952	17537.75
544.316	17465.43
544.681	17420.69
545.045	17471.76
545.41	17605.77
545.774	17575.03
546.138	17524.41
546.503	17511.08
546.867	17401.03
547.231	17663.84
547.595	17404.42
547.959	17554.47
548.324	17535.03
548.688	17502.72
549.052	17530.06
549.416	17512.21
549.779	17542.49
550.143	17517.63
550.507	17571.19
550.871	17528.93
551.235	17504.3
551.599	17603.05
551.962	17503.62
552.326	17580.68
552.689	17603.51
553.053	17516.95
553.417	17467.92
553.78	17723.28
554.143	17605.31
554.507	17673.56
554.87	17606.44
555.234	17744.07
555.597	17676.05
555.96	17569.61
556.323	17702.71
556.686	17720.11
557.05	17770.06
557.413	17680.34
557.776	17721.24
558.139	17847.57
558.502	17831.3
558.865	17734.35
559.228	17824.52
559.59	17821.35
559.953	17781.35
560.316	18013.66
560.679	17953.1
561.041	18022.93
561.404	18039.2
561.767	18158.75
562.129	18038.3
562.492	18179.54
562.854	18080.33
563.217	18075.13
563.579	18189.25
563.941	18212.76
564.304	18324.39
564.666	18378.17
565.028	18282.36
565.39	18402.58
565.753	18427.44
566.115	18488.45
566.477	18564.61
566.839	18534.78
567.201	18645.06
567.563	18579.53
567.925	18705.17
568.287	18743.36
568.648	18663.82
569.01	18837.82
569.372	18922.34
569.734	18839.41
570.095	18854.32
570.457	18941.78
570.819	19006.41
571.18	19005.96
571.542	18966.18
571.903	19041.43
572.265	19089.57
572.626	19105.61
572.987	19033.75
573.349	19102.45
573.71	19200.53
574.071	19146.74
574.432	19264.03
574.794	19386.06
575.155	19265.38
575.516	19244.37
575.877	19292.28
576.238	19474.19
576.599	19341.31
576.96	19439.84
577.32	19527.75
577.681	19448.43
578.042	19524.36
578.403	19475.77
578.763	19498.15
579.124	19451.59
579.485	19506.96
579.845	19601.19
580.206	19464.47
580.566	19480.52
580.927	19529.11
581.287	19564.58
581.648	19428.77
582.008	19586.5
582.368	19558.26
582.728	19493.17
583.089	19491.82
583.449	19513.51
583.809	19506.28
584.169	19602.32
584.529	19506.73
584.889	19604.36
585.249	19442.1
585.609	19390.35
585.969	19571.59
586.329	19479.84
586.688	19444.14
587.048	19421.54
587.408	19485.72
587.768	19452.72
588.127	19371.6
588.487	19457.47
588.846	19530.24
589.206	19360.75
589.565	19339.51
589.925	19450.92
590.284	19436.45
590.643	19444.81
591.003	19412.27
591.362	19510.57
591.721	19433.29
592.08	19465.6
592.44	19427.41
592.799	19416.57
593.158	19340.41
593.517	19413.18
593.876	19452.5
594.235	19379.73
594.593	19391.26
594.952	19344.7
595.311	19317.13
595.67	19510.57
596.029	19523.46
596.387	19451.14
596.746	19416.34
597.104	19323.01
597.463	19362.78
597.822	19412.27
598.18	19332.27
598.538	19262.45
598.897	19439.39
599.255	19328.88
599.613	19539.73
599.972	19440.07
600.33	19421.99
600.688	19389.45
601.046	19526.85
601.404	19607.52
601.762	19504.02
602.12	19514.19
602.478	19556.9
602.836	19583.57
603.194	19468.32
603.552	19448.2
603.91	19407.75
604.268	19471.93
604.625	19414.53
604.983	19499.5
605.341	19402.78
605.698	19493.85
606.056	19496.79
606.413	19496.11
606.771	19690.46
607.128	19596.22
607.485	19569.56
607.843	19489.56
608.2	19738.37
608.557	19619.72
608.914	19573.4
609.272	19693.85
609.629	19700.17
609.986	19741.53
610.343	19727.97
610.7	19785.37
611.057	19826.27
611.414	19757.57
611.771	19832.83
612.127	19832.37
612.484	19886.38
612.841	19789.89
613.198	19793.96
613.554	19749.44
613.911	19920.06
614.267	19983.1
614.624	19901.52
614.98	19886.16
615.337	20026.95
615.693	19959.6
616.05	19860.17
616.406	20106.72
616.762	20002.54
617.118	19990.34
617.475	20021.3
617.831	20059.71
618.187	20128.19
618.543	20207.73
618.899	20271.46
619.255	20199.14
619.611	20137.9
619.967	20239.82
620.323	20256.32
620.678	20241.85
621.034	20161.4
621.39	20208.86
621.746	20214.28
622.101	20383.09
622.457	20154.4
622.812	20245.47
623.168	20362.98
623.523	20287.73
623.879	20205.92
624.234	20180.61
624.589	20211.12
624.945	20251.35
625.3	20246.83
625.655	20275.53
626.01	20264
626.365	20232.14
626.72	20252.02
627.075	20234.17
627.43	20266.94
627.785	20214.74
628.14	20157.11
628.495	20248.18
628.85	20246.15
629.205	20117.56
629.559	20301.06
629.914	20195.08
630.269	20144
630.623	20149.2
630.978	20070.33
631.332	20208.86
631.687	20154.4
632.041	20114.63
632.396	20178.35
632.75	20093.84
633.104	20106.04
633.459	20104.23
633.813	20037.57
634.167	19994.4
634.521	20029.88
634.875	20068.75
635.229	20023.56
635.583	19753.51
635.937	19914.41
636.291	19758.03
636.645	19800.96
636.999	19778.36
637.352	19850.45
637.706	19748.76
638.06	19744.47
638.413	19779.95
638.767	19791.25
639.121	19696.56
639.474	19627.41
639.828	19659.72
640.181	19776.56
640.534	19660.18
640.888	19670.12
641.241	19549.44
641.594	19587.63
641.947	19652.94
642.301	19471.03
642.654	19615.43
643.007	19655.88
643.36	19536.11
643.713	19497.24
644.066	19628.76
644.419	19445.94
644.771	19261.99
645.124	19228.77
645.477	19188.1
645.83	19024.71
646.182	18970.48
646.535	18864.72
646.888	18921.21
647.24	18846.41
647.593	18993.53
647.945	18880.99
648.298	18735.23
648.65	18682.57
649.002	18662.91
649.355	18774.55
649.707	18794.21
650.059	18894.77
650.411	19034.88
650.763	19056.58
651.115	19283.69
651.467	19232.39
651.819	19164.82
652.171	19197.14
652.523	19166.85
652.875	19144.48
653.227	19068.78
653.578	19259.28
653.93	19276.68
654.282	19256.34
654.633	19189.23
654.985	19127.53
655.337	19253.41
655.688	19203.69
656.039	19232.16
656.391	19111.94
656.742	19136.57
657.094	19229.9
657.445	19222.67
657.796	19130.47
658.147	19232.62
658.498	19105.84
658.849	19168.66
659.2	19142.67
659.551	19147.42
659.902	19207.08
660.253	19194.2
660.604	19277.81
660.955	19190.58
661.306	19192.62
661.656	19202.11
662.007	19191.94
662.358	19183.8
662.708	19173.41
663.059	19358.94
663.409	19039.63
663.76	19214.31
664.11	19217.25
664.461	19231.03
664.811	19168.44
665.161	19190.58
665.511	19137.03
665.862	19265.61
666.212	19319.62
666.562	19350.35
666.912	19216.8
667.262	19114.2
667.612	19121.43
667.962	19284.59
668.312	19260.41
668.662	19287.53
669.011	19218.83
669.361	19172.28
669.711	19160.75
670.06	19195.33
670.41	19104.48
670.76	19062.9
671.109	19298.6
671.459	19218.38
671.808	19006.41
672.157	19221.99
672.507	19021.32
672.856	19042.79
673.205	19102.9
673.554	19145.39
673.904	19050.25
674.253	19060.42
674.602	19149
674.951	18798.05
675.3	18724.83
675.649	18990.81
675.998	18961.21
676.346	18906.52
676.695	18979.29
677.044	18883.7
677.393	18869.01
677.741	18837.6
678.09	18888.67
678.438	18822.91
678.787	18911.04
679.135	18749.01
679.484	18738.17
679.832	18758.28
680.181	18589.92
680.529	18726.64
680.877	18659.75
681.225	18573.42
681.573	18745.17
681.922	18535.23
682.27	18474.22
682.618	18483.71
682.966	18493.88
683.314	18557.38
683.661	18500.43
684.009	18346.31
684.357	18404.84
684.705	18295.01
685.053	18226.09
685.4	18214.56
685.748	18160.1
686.095	18095.02
686.443	18133.21
686.79	18054.79
687.138	18104.74
687.485	18128.46
687.832	17956.72
688.18	18065.87
688.527	17977.51
688.874	17899.09
689.221	17835.14
689.568	17744.07
689.915	17669.94
690.262	17714.69
690.609	17638.31
690.956	17691.87
691.303	17543.17
691.65	17429.5
691.997	17422.72
692.344	17304.76
692.69	17364.64
693.037	17289.16
693.383	17203.52
693.73	17211.88
694.077	17112.45
694.423	17055.95
694.769	17009.62
695.116	16936.4
695.462	16968.27
695.808	16817.76
696.155	16898.67
696.501	16760.14
696.847	16776.86
697.193	16543.19
697.539	16631.1
697.885	16513.37
698.231	16457.1
698.577	16444.67
698.923	16432.01
699.269	16246.03
699.614	16258.91
699.96	16178.91
700.306	16150.89
700.651	16146.82
700.997	16057.56
701.342	15982.98
701.688	15928.3
702.033	15852.14
702.379	15939.82
702.724	15805.59
703.069	15808.98
703.415	15575.99
703.76	15632.03
704.105	15676.78
704.45	15545.26
704.795	15452.6
705.14	15339.61
705.485	15452.83
705.83	15332.83
706.175	15275.43
706.52	15327.18
706.865	15272.49
707.209	15233.17
707.554	15144.14
707.899	15216.22
708.243	15103.01
708.588	15038.15
708.932	14910.7
709.277	15008.32
709.621	14918.83
709.966	14800.87
710.31	14836.12
710.654	14717.25
710.998	14721.1
711.342	14775.78
711.687	14661.66
712.031	14681.77
712.375	14606.75
712.719	14504.15
713.063	14478.62
713.407	14553.87
713.75	14464.38
714.094	14474.77
714.438	14368.34
714.782	14396.81
715.125	14290.37
715.469	14310.03
715.812	14272.75
716.156	14279.75
716.499	14215.8
716.843	14265.74
717.186	14141.68
717.53	14177.38
717.873	14159.3
718.216	14179.64
718.559	14074.56
718.902	13996.82
719.246	14058.51
719.589	14006.09
719.932	13953.66
720.275	13994.11
720.617	13889.71
720.96	13871.85
721.303	13935.13
721.646	13955.24
721.989	13871.63
722.331	13906.43
722.674	13813.55
723.016	13793.21
723.359	13839.09
723.701	13851.74
724.044	13742.82
724.386	13672.31
724.729	13794.79
725.071	13747.11
725.413	13680.9
725.755	13673.44
726.097	13583.27
726.439	13613.1
726.782	13603.39
727.124	13679.99
727.465	13622.14
727.807	13646.55
728.149	13581.01
728.491	13527.91
728.833	13587.34
729.175	13491.75
729.516	13561.13
729.858	13527.68
730.199	13596.38
730.541	13472.99
730.882	13433.45
731.224	13531.75
731.565	13404.29
731.906	13460.11
732.248	13495.37
732.589	13470.28
732.93	13414.01
733.271	13411.53
733.612	13398.42
733.953	13503.95
734.294	13439.77
734.635	13387.35
734.976	13402.71
735.317	13384.86
735.658	13383.28
735.999	13370.4
736.339	13256.28
736.68	13368.14
737.021	13429.15
737.361	13386.89
737.702	13424.18
738.042	13419.44
738.383	13402.03
738.723	13430.73
739.063	13336.73
739.404	13376.95
739.744	13492.43
740.084	13430.28
740.424	13409.94
740.764	13526.33
741.104	13545.53
741.444	13437.06
741.784	13358.19
742.124	13472.54
742.464	13425.31
742.804	13504.63
743.143	13481.81
743.483	13525.42
743.823	13469.38
744.162	13578.75
744.502	13576.72
744.841	13599.77
745.181	13679.77
745.52	13610.39
745.86	13773.55
746.199	13644.29
746.538	13730.39
746.877	13913.66
747.216	13815.58
747.556	13894
747.895	13974.45
748.234	13998.4
748.573	13991.62
748.911	13993.88
749.25	14122.69
749.589	14057.38
749.928	14247.89
750.267	14402.46
750.605	14313.65
750.944	14322.24
751.283	14374.89
751.621	14468.22
751.96	14562.68
752.298	14589.35
752.636	14714.54
752.975	14787.31
753.313	14779.17
753.651	15073.4
753.989	15105.04
754.327	15133.29
754.666	15146.4
755.004	15314.07
755.342	15535.76
755.679	15529.89
756.017	15581.64
756.355	15734.85
