Data from hue_160_FLMS001491_00030.txt Node
Date: Tue Feb 07 16:50:59 GMT 2017
User: dcchb
Spectrometer: FLMS00149
Trigger mode: 0
Integration Time (sec): 2.000000E-2
Scans to average: 10
Electric dark correction enabled: true
Nonlinearity correction enabled: false
Boxcar width: 0
XAxis mode: Wavelengths
Number of Pixels in Spectrum: 2048
>>>>>Begin Spectral Data<<<<<
341.393	-26.34
341.776	-26.34
342.16	-26.34
342.543	-38.54
342.927	-50.75
343.31	-71.31
343.693	-57.98
344.077	-54.14
344.46	-69.73
344.843	-58.88
345.226	-44.87
345.61	-23.86
345.993	-19.34
346.376	3.71
346.759	21.12
347.142	24.73
347.525	23.38
347.908	24.73
348.291	81.45
348.674	105.18
349.057	115.8
349.44	120.1
349.823	146.31
350.206	140.43
350.588	209.81
350.971	190.15
351.354	218.62
351.737	236.93
352.119	257.04
352.502	263.59
352.884	282.13
353.267	276.48
353.65	294.33
354.032	308.34
354.414	297.49
354.797	319.64
355.179	306.53
355.562	324.16
355.944	331.84
356.326	336.14
356.709	331.84
357.091	338.85
357.473	342.69
357.855	346.3
358.238	339.3
358.62	354.89
359.002	327.77
359.384	362.8
359.766	341.11
360.148	327.1
360.53	323.93
360.912	316.47
361.294	345.17
361.676	331.62
362.057	343.37
362.439	321.22
362.821	311.05
363.203	310.37
363.584	315.34
363.966	337.04
364.348	317.6
364.729	319.19
365.111	309.02
365.493	312.41
365.874	295.68
366.256	315.8
366.637	279.19
367.019	308.11
367.4	281.9
367.781	308.11
368.163	315.57
368.544	336.81
368.925	308.57
369.306	309.7
369.688	301.79
370.069	323.48
370.45	305.63
370.831	316.25
371.212	304.72
371.593	317.6
371.974	326.64
372.355	324.61
372.736	295.91
373.117	314.21
373.498	324.84
373.879	315.12
374.26	294.55
374.641	303.14
375.021	316.47
375.402	324.16
375.783	338.85
376.163	311.28
376.544	335.46
376.925	296.59
377.305	313.99
377.686	333.88
378.066	316.02
378.447	324.84
378.827	337.94
379.208	319.41
379.588	334.55
379.968	324.61
380.349	356.02
380.729	338.85
381.109	332.97
381.489	335.91
381.87	318.28
382.25	336.81
382.63	333.2
383.01	340.2
383.39	351.05
383.77	339.52
384.15	336.59
384.53	330.94
384.91	357.38
385.29	342.69
385.67	329.81
386.049	349.47
386.429	332.97
386.809	347.43
387.189	357.38
387.568	343.59
387.948	355.34
388.328	359.41
388.707	356.93
389.087	359.86
389.466	367.09
389.846	364.84
390.225	350.37
390.605	388.34
390.984	356.93
391.363	371.16
391.743	364.84
392.122	370.03
392.501	357.83
392.881	347.66
393.26	366.19
393.639	362.12
394.018	376.59
394.397	355.8
394.776	367.55
395.155	342.46
395.534	376.13
395.913	381.11
396.292	388.34
396.671	391.05
397.05	368.9
397.429	369.13
397.808	386.3
398.186	394.21
398.565	389.92
398.944	403.03
399.323	393.76
399.701	393.08
400.08	393.08
400.458	389.02
400.837	408.68
401.215	415.68
401.594	407.77
401.972	405.51
402.351	425.17
402.729	410.71
403.107	398.51
403.486	407.77
403.864	409.81
404.242	421.1
404.62	403.25
404.999	419.75
405.377	413.42
405.755	415.91
406.133	425.85
406.511	408.45
406.889	424.72
407.267	419.3
407.645	431.5
408.023	428.34
408.401	441.9
408.779	432.18
409.156	438.51
409.534	428.34
409.912	454.78
410.29	450.93
410.667	469.92
411.045	461.1
411.422	455.68
411.8	441.67
412.178	479.86
412.555	465.85
412.933	459.52
413.31	460.88
413.687	499.75
414.065	472.18
414.442	480.09
414.819	476.7
415.197	498.62
415.574	492.29
415.951	506.98
416.328	478.96
416.705	490.71
417.082	508.56
417.46	489.13
417.837	530.03
418.214	511.5
418.591	515.79
418.967	527.77
419.344	548.11
419.721	521.22
420.098	524.38
420.475	529.8
420.852	536.13
421.228	549.69
421.605	547.66
421.982	534.1
422.358	554.89
422.735	551.5
423.111	562.57
423.488	548.79
423.864	541.33
424.241	566.64
424.617	580.87
424.994	558.28
425.37	566.41
425.746	571.38
426.123	590.14
426.499	595.34
426.875	602.79
427.251	591.5
427.627	619.97
428.003	605.05
428.379	581.78
428.756	616.13
429.132	622.68
429.507	661.1
429.883	643.7
430.259	663.58
430.635	665.39
431.011	659.97
431.387	651.61
431.763	685.28
432.138	689.8
432.514	675.56
432.89	683.7
433.265	696.13
433.641	697.93
434.016	715.79
434.392	727.76
434.767	746.52
435.143	727.76
435.518	732.51
435.894	762.11
436.269	742.45
436.644	761.66
437.02	759.4
437.395	781.32
437.77	786.97
438.145	798.04
438.52	800.08
438.895	784.26
439.271	786.29
439.646	784.71
440.021	802.56
440.395	801.66
440.77	824.71
441.145	835.33
441.52	840.53
441.895	849.34
442.27	856.35
442.645	864.93
443.019	856.12
443.394	876.91
443.769	884.6
444.143	879.17
444.518	891.37
444.892	903.13
445.267	885.73
445.641	905.61
446.016	878.49
446.39	939.28
446.764	928.44
447.139	909.68
447.513	926.4
447.887	930.47
448.262	918.94
448.636	944.93
449.01	976.8
449.384	979.06
449.758	961.2
450.132	984.93
450.506	972.28
450.88	988.32
451.254	998.72
451.628	984.03
452.002	1009.34
452.376	1059.73
452.75	1010.02
453.123	1012.73
453.497	1036.91
453.871	1051.82
454.244	1065.83
454.618	1079.39
454.992	1120.97
455.365	1132.95
455.739	1100.18
456.112	1135.44
456.486	1135.44
456.859	1137.47
457.232	1196.45
457.606	1172.72
457.979	1184.93
458.352	1201.65
458.725	1219.28
459.099	1250.46
459.472	1258.37
459.845	1262.21
460.218	1319.84
460.591	1280.74
460.964	1294.98
461.337	1341.53
461.71	1351.48
462.083	1379.95
462.456	1388.08
462.829	1392.83
463.201	1399.16
463.574	1450
463.947	1437.12
464.32	1469.21
464.692	1502.43
465.065	1492.04
465.438	1525.26
465.81	1559.38
466.183	1561.87
466.555	1627.17
466.928	1617.46
467.3	1646.84
467.672	1647.51
468.045	1708.3
468.417	1753.73
468.789	1733.84
469.161	1802.09
469.534	1782.88
469.906	1812.03
470.278	1850.67
470.65	1911.24
471.022	1934.06
471.394	1970.22
471.766	1989.43
472.138	2025.58
472.51	2079.82
472.882	2149.42
473.253	2170.44
473.625	2191
473.997	2287.27
474.369	2328.63
474.74	2363.43
475.112	2401.84
475.484	2465.34
475.855	2499.24
476.227	2550.77
476.598	2642.29
476.97	2694.04
477.341	2720.48
477.713	2781.04
478.084	2868.5
478.455	2940.13
478.827	3018.55
479.198	3103.07
479.569	3145.78
479.94	3259.9
480.311	3332.44
480.682	3433.23
481.053	3567.24
481.424	3619.89
481.795	3696.5
482.166	3782.37
482.537	3865.99
482.908	3999.54
483.279	4042.48
483.65	4144.17
484.021	4260.33
484.391	4374.22
484.762	4490.83
485.133	4552.52
485.503	4644.95
485.874	4824.6
486.244	4923.13
486.615	5046.52
486.985	5142.11
487.356	5296.91
487.726	5375.55
488.097	5584.81
488.467	5609.44
488.837	5771.92
489.207	5855.09
489.578	6005.59
489.948	6091.24
490.318	6344.56
490.688	6349.76
491.058	6476.76
491.428	6613.71
491.798	6763.31
492.168	6942.06
492.538	7024.32
492.908	7112.45
493.278	7231.55
493.648	7372.33
494.017	7480.58
494.387	7610.52
494.757	7765.77
495.126	7923.51
495.496	7959.89
495.866	8074.69
496.235	8224.97
496.605	8311.74
496.974	8366.21
497.344	8491.85
497.713	8642.13
498.082	8731.17
498.452	8848.91
498.821	8887.55
499.19	9048.22
499.559	9100.88
499.928	9208.67
500.298	9295.22
500.667	9388.33
501.036	9438.95
501.405	9606.17
501.774	9556.68
502.143	9759.84
502.512	9783.34
502.88	9867.86
503.249	9927.75
503.618	10028.54
503.987	10114.18
504.356	10195.31
504.724	10224.46
505.093	10252.71
505.462	10353.27
505.83	10437.11
506.199	10502.42
506.567	10649.08
506.936	10577.67
507.304	10740.16
507.672	10847.72
508.041	10850.44
508.409	10858.57
508.777	10988.51
509.145	11116.64
509.514	10974.95
509.882	11168.17
510.25	11176.98
510.618	11238.9
510.986	11239.13
511.354	11320.48
511.722	11469.18
512.09	11492.45
512.458	11515.95
512.826	11575.39
513.193	11557.31
513.561	11594.82
513.929	11679.34
514.297	11716.4
514.664	11729.06
515.032	11833.69
515.4	11863.06
515.767	11910.29
516.135	11924.76
516.502	11818.77
516.869	11960.91
517.237	11995.94
517.604	12017.41
517.972	12115.49
518.339	12116.84
518.706	12162.26
519.073	12061.93
519.44	12173.34
519.808	12293.11
520.175	12239.33
520.542	12414.24
520.909	12359.77
521.276	12291.3
521.643	12343.28
522.009	12395.93
522.376	12431.64
522.743	12444.74
523.11	12517.74
523.477	12635.25
523.843	12550.96
524.21	12712.08
524.577	12707.79
524.943	12764.73
525.31	12679.09
525.676	12789.82
526.043	12754.79
526.409	12785.75
526.776	12846.77
527.142	12817.84
527.508	12783.27
527.874	12944.84
528.241	12886.54
528.607	12924.73
528.973	12909.14
529.339	12919.31
529.705	12930.15
530.071	12996.59
530.437	12968.8
530.803	13025.75
531.169	13066.42
531.535	12915.92
531.901	12932.41
532.267	12844.73
532.632	12933.09
532.998	12879.99
533.364	12937.84
533.73	12901.91
534.095	12953.2
534.461	12923.37
534.826	12886.31
535.192	12905.52
535.557	12854.45
535.923	12832.08
536.288	12867.78
536.653	12817.61
537.019	12696.94
537.384	12679.99
537.749	12745.3
538.114	12734.68
538.479	12688.58
538.845	12654.68
539.21	12574.23
539.575	12554.57
539.94	12565.64
540.305	12507.34
540.67	12390.51
541.034	12467.79
541.399	12418.98
541.764	12419.89
542.129	12426.66
542.494	12372.43
542.858	12374.91
543.223	12338.31
543.587	12351.86
543.952	12318.65
544.316	12222.6
544.681	12172.43
545.045	12240
545.41	12170.63
545.774	12148.71
546.138	12053.12
546.503	12009.95
546.867	11964.98
547.231	11988.71
547.595	11954.59
547.959	11981.93
548.324	11846.79
548.688	11854.93
549.052	11792.33
549.416	11830.75
549.779	11739.68
550.143	11791.2
550.507	11715.72
550.871	11695.61
551.235	11608.83
551.599	11662.62
551.962	11626.46
552.326	11588.27
552.689	11614.03
553.053	11508.27
553.417	11563.41
553.78	11589.4
554.143	11468.27
554.507	11509.4
554.87	11465.11
555.234	11468.72
555.597	11365.22
555.96	11360.7
556.323	11388.05
556.686	11421.27
557.05	11437.09
557.413	11366.13
557.776	11297.65
558.139	11306.47
558.502	11368.84
558.865	11366.58
559.228	11362.06
559.59	11328.61
559.953	11359.12
560.316	11343.53
560.679	11330.42
561.041	11363.87
561.404	11411.1
561.767	11364.77
562.129	11309.18
562.492	11408.16
562.854	11337.88
563.217	11265.11
563.579	11384.43
563.941	11365.9
564.304	11417.2
564.666	11440.48
565.028	11458.1
565.39	11400.03
565.753	11439.8
566.115	11406.58
566.477	11510.98
566.839	11466.92
567.201	11464.43
567.563	11493.36
567.925	11510.3
568.287	11501.49
568.648	11480.7
569.01	11526.58
569.372	11509.4
569.734	11500.14
570.095	11482.51
570.457	11491.77
570.819	11575.39
571.18	11480.47
571.542	11534.26
571.903	11566.57
572.265	11597.53
572.626	11614.48
572.987	11656.97
573.349	11599.57
573.71	11601.15
574.071	11567.93
574.432	11599.79
574.794	11693.58
575.155	11654.26
575.516	11631.21
575.877	11676.4
576.238	11764.08
576.599	11628.49
576.96	11648.83
577.32	11677.53
577.681	11689.51
578.042	11675.72
578.403	11660.13
578.763	11681.15
579.124	11641.83
579.485	11749.62
579.845	11723.63
580.206	11633.92
580.566	11643.63
580.927	11676.4
581.287	11696.06
581.648	11756.17
582.008	11689.51
582.368	11684.31
582.728	11703.75
583.089	11667.81
583.449	11681.15
583.809	11648.83
584.169	11684.54
584.529	11581.49
584.889	11678.21
585.249	11621.94
585.609	11633.01
585.969	11650.87
586.329	11579
586.688	11606.12
587.048	11614.93
587.408	11578.33
587.768	11620.81
588.127	11527.93
588.487	11510.3
588.846	11619.23
589.206	11454.26
589.565	11461.72
589.925	11563.86
590.284	11569.29
590.643	11582.85
591.003	11497.42
591.362	11564.31
591.721	11516.63
592.08	11502.85
592.44	11502.62
592.799	11473.02
593.158	11447.03
593.517	11470.76
593.876	11483.64
594.235	11467.59
594.593	11406.35
594.952	11442.06
595.311	11448.84
595.67	11510.3
596.029	11545.56
596.387	11432.11
596.746	11442.96
597.104	11422.4
597.463	11420.82
597.822	11383.75
598.18	11420.82
598.538	11391.21
598.897	11465.33
599.255	11346.02
599.613	11463.75
599.972	11429.63
600.33	11483.64
600.688	11364.77
601.046	11369.29
601.404	11486.8
601.762	11386.47
602.12	11441.15
602.478	11489.06
602.836	11425.56
603.194	11423.53
603.552	11382.17
603.91	11442.28
604.268	11477.54
604.625	11355.51
604.983	11428.05
605.341	11431.89
605.698	11479.8
606.056	11389.18
606.413	11387.82
606.771	11427.14
607.128	11432.11
607.485	11428.05
607.843	11444.09
608.2	11505.33
608.557	11539.46
608.914	11394.6
609.272	11566.57
609.629	11475.28
609.986	11501.04
610.343	11506.01
610.7	11562.73
611.057	11492.45
611.414	11577.65
611.771	11480.7
612.127	11513.02
612.484	11577.87
612.841	11554.15
613.198	11489.74
613.554	11523.64
613.911	11629.4
614.267	11614.71
614.624	11608.38
614.98	11660.58
615.337	11697.19
615.693	11564.09
616.05	11655.16
616.406	11704.2
616.762	11640.47
617.118	11631.43
617.475	11663.3
617.831	11733.58
618.187	11682.28
618.543	11673.92
618.899	11764.54
619.255	11696.51
619.611	11704.2
619.967	11781.48
620.323	11801.37
620.678	11726.8
621.034	11735.38
621.39	11765.44
621.746	11730.41
622.101	11778.77
622.457	11717.76
622.812	11751.88
623.168	11828.94
623.523	11724.76
623.879	11806.12
624.234	11671.2
624.589	11797.53
624.945	11748.04
625.3	11754.82
625.655	11757.76
626.01	11699.68
626.365	11666.23
626.72	11734.93
627.075	11750.75
627.43	11766.8
627.785	11701.03
628.14	11730.64
628.495	11758.66
628.85	11732.9
629.205	11703.29
629.559	11738.77
629.914	11698.55
630.269	11747.59
630.623	11626.46
630.978	11622.62
631.332	11702.39
631.687	11671.88
632.041	11586.01
632.396	11638.44
632.75	11601.6
633.104	11625.78
633.459	11619.91
633.813	11570.64
634.167	11540.81
634.521	11527.03
634.875	11544.43
635.229	11507.59
635.583	11477.99
635.937	11450.65
636.291	11482.96
636.645	11495.39
636.999	11380.59
637.352	11413.36
637.706	11403.87
638.06	11369.52
638.413	11363.42
638.767	11414.26
639.121	11436.86
639.474	11298.33
639.828	11373.59
640.181	11313.7
640.534	11443.87
640.888	11258.33
641.241	11213.14
641.594	11301.04
641.947	11313.47
642.301	11265.79
642.654	11236.19
643.007	11273.02
643.36	11318.22
643.713	11244.55
644.066	11279.8
644.419	11249.52
644.771	11163.87
645.124	11061.28
645.477	11070.99
645.83	10927.27
646.182	10915.52
646.535	10891.79
646.888	10944.67
647.24	10852.92
647.593	10947.38
647.945	10887.5
648.298	10841.17
648.65	10857.44
649.002	10777.22
649.355	10855.18
649.707	10825.35
650.059	10984.67
650.411	11060.15
650.763	11047.94
651.115	11167.04
651.467	11102.63
651.819	11117.32
652.171	11116.42
652.523	11103.08
652.875	11113.48
653.227	11085.68
653.578	11169.07
653.93	11133.37
654.282	11099.47
654.633	11078.23
654.985	11115.74
655.337	11076.64
655.688	11123.42
656.039	11176.53
656.391	11001.62
656.742	11080.71
657.094	11128.17
657.445	11148.51
657.796	11087.94
658.147	11160.94
658.498	11087.72
658.849	11092.69
659.2	11081.16
659.551	11127.04
659.902	11102.86
660.253	11119.13
660.604	11128.39
660.955	11067.6
661.306	11152.57
661.656	11059.47
662.007	11181.27
662.358	11189.18
662.708	11136.3
663.059	11105.34
663.409	11143.53
663.76	11150.09
664.11	11116.87
664.461	11158.22
664.811	11203.19
665.161	11195.06
665.511	11121.84
665.862	11137.89
666.212	11162.74
666.562	11217.43
666.912	11107.15
667.262	11229.86
667.612	11150.54
667.962	11209.07
668.312	11185.57
668.662	11222.63
669.011	11127.72
669.361	11133.37
669.711	11119.35
670.06	11161.16
670.41	11146.7
670.76	11063.54
671.109	11200.03
671.459	11127.94
671.808	11084.1
672.157	11122.07
672.507	11039.36
672.856	11040.03
673.205	11060.6
673.554	11033.93
673.904	11036.19
674.253	11156.42
674.602	11047.72
674.951	10937.21
675.3	10850.21
675.649	11058.34
675.998	11053.14
676.346	11014.05
676.695	11056.76
677.044	10939.47
677.393	11003.2
677.741	11021.5
678.09	10945.8
678.438	10907.38
678.787	10942.86
679.135	10885.24
679.484	10911
679.832	10972.92
680.181	10809.53
680.529	10897.44
680.877	10822.64
681.225	10781.96
681.573	10773.15
681.922	10823.09
682.27	10754.62
682.618	10767.05
682.966	10699.03
683.314	10712.59
683.661	10747.84
684.009	10656.99
684.357	10588.3
684.705	10633.49
685.053	10575.41
685.4	10605.24
685.748	10579.48
686.095	10509.43
686.443	10511.69
686.79	10456.55
687.138	10492.7
687.485	10490.22
687.832	10504.68
688.18	10441.18
688.527	10400.73
688.874	10313.27
689.221	10298.81
689.568	10281.64
689.915	10287.74
690.262	10310.34
690.609	10225.37
690.956	10245.93
691.303	10135.43
691.65	10116.22
691.997	10137.46
692.344	10114.41
692.69	10080.29
693.037	10061.3
693.383	9935.2
693.73	9931.36
694.077	9913.74
694.423	9928.65
694.769	9863.57
695.116	9869.22
695.462	9774.31
695.808	9736.57
696.155	9750.58
696.501	9664.03
696.847	9723.01
697.193	9617.02
697.539	9573.18
697.885	9595.33
698.231	9541.99
698.577	9513.97
698.923	9461.77
699.269	9471.49
699.614	9354.2
699.96	9318.27
700.306	9347.65
700.651	9316.01
700.997	9280.76
701.342	9220.65
701.688	9153.3
702.033	9265.39
702.379	9191.5
702.724	9181.33
703.069	9139.29
703.415	9027.88
703.76	9100.42
704.105	9012.52
704.45	8975.91
704.795	8922.35
705.14	8898.62
705.485	8893.88
705.83	8881.45
706.175	8877.83
706.52	8779.98
706.865	8784.73
707.209	8702.24
707.554	8749.7
707.899	8762.13
708.243	8662.47
708.588	8703.82
708.932	8621.12
709.277	8589.03
709.621	8662.24
709.966	8504.28
710.31	8536.15
710.654	8439.88
710.998	8538.86
711.342	8453.44
711.687	8506.99
712.031	8451.18
712.375	8433.1
712.719	8434.45
713.063	8458.18
713.407	8459.09
713.75	8371.63
714.094	8336.83
714.438	8260.45
714.782	8298.64
715.125	8326.43
715.469	8297.51
715.812	8208.47
716.156	8266.1
716.499	8241.46
716.843	8223.61
717.186	8170.96
717.53	8218.64
717.873	8216.15
718.216	8168.7
718.559	8177.96
718.902	8092.77
719.246	8140
719.589	8139.77
719.932	8110.39
720.275	8159.43
720.617	8089.83
720.96	8020.23
721.303	8046.21
721.646	8081.24
721.989	8050.96
722.331	8025.65
722.674	8068.81
723.016	8089.6
723.359	7998.53
723.701	8060.9
724.044	7967.12
724.386	7984.07
724.729	8044.18
725.071	7982.26
725.413	7983.17
725.755	7929.61
726.097	7936.84
726.439	7903.85
726.782	7889.61
727.124	8009.38
727.465	7918.31
727.807	7912.43
728.149	7862.94
728.491	7905.43
728.833	7914.92
729.175	7817.97
729.516	7906.56
729.858	7933.45
730.199	7882.83
730.541	7860.23
730.882	7838.76
731.224	7885.09
731.565	7772.78
731.906	7814.36
732.248	7858.65
732.589	7883.73
732.93	7897.97
733.271	7814.58
733.612	7851.64
733.953	7905.88
734.294	7836.73
734.635	7791.53
734.976	7876.28
735.317	7870.63
735.658	7755.15
735.999	7872.89
736.339	7833.57
736.68	7840.8
737.021	7867.91
737.361	7816.62
737.702	7987.69
738.042	7853.45
738.383	7895.94
738.723	7985.2
739.063	7917.63
739.404	7903.39
739.744	7875.15
740.084	7941.58
740.424	7933.22
740.764	8031.53
741.104	7968.02
741.444	7976.84
741.784	7933.22
742.124	8002.83
742.464	7999.44
742.804	8055.71
743.143	7996.72
743.483	8028.81
743.823	8044.86
744.162	8077.63
744.502	8133.44
744.841	8168.02
745.181	8195.82
745.52	8222.48
745.86	8242.59
746.199	8262.48
746.538	8228.36
746.877	8390.39
747.216	8347
747.556	8454.79
747.895	8473.77
748.234	8517.62
748.573	8495.69
748.911	8592.42
749.25	8666.99
749.589	8745.41
749.928	8790.15
750.267	8868.79
750.605	8882.13
750.944	9044.61
751.283	8988.11
751.621	9090.71
751.96	9133.87
752.298	9287.99
752.636	9351.72
752.975	9415.67
753.313	9506.97
753.651	9662.67
753.989	9681.88
754.327	9755.1
754.666	9881.65
755.004	10040.74
755.342	10139.49
755.679	10253.84
756.017	10355.53
756.355	10547.17
756.693	10585.13
757.031	10822.41
757.368	10940.38
757.706	11009.07
758.044	11155.06
758.381	11329.29
758.719	11356.86
759.056	11588.04
759.394	11710.53
759.731	11902.61
