Data from hue_260_FLMS001491_00012.txt Node
Date: Tue Feb 07 15:58:38 GMT 2017
User: dcchb
Spectrometer: FLMS00149
Trigger mode: 0
Integration Time (sec): 2.000000E-2
Scans to average: 10
Electric dark correction enabled: true
Nonlinearity correction enabled: false
Boxcar width: 0
XAxis mode: Wavelengths
Number of Pixels in Spectrum: 2048
>>>>>Begin Spectral Data<<<<<
341.393	-3.32
341.776	-3.32
342.16	-3.32
342.543	-66.59
342.927	-75.41
343.31	-70.21
343.693	-62.53
344.077	-74.73
344.46	-75.63
344.843	-69.08
345.226	-44.9
345.61	-16.43
345.993	-6.71
346.376	-5.8
346.759	28.54
347.142	21.09
347.525	41.2
347.908	41.43
348.291	78.71
348.674	98.6
349.057	116.45
349.44	121.42
349.823	120.07
350.206	141.54
350.588	190.12
350.971	214.08
351.354	228.77
351.737	222.44
352.119	240.74
352.502	248.2
352.884	265.6
353.267	264.47
353.65	264.7
354.032	284.58
354.414	304.02
354.797	280.29
355.179	299.27
355.562	305.15
355.944	318.93
356.326	319.16
356.709	308.31
357.091	321.64
357.473	335.2
357.855	327.75
358.238	356.67
358.62	331.81
359.002	329.78
359.384	351.02
359.766	313.96
360.148	314.64
360.53	348.31
360.912	334.75
361.294	334.07
361.676	324.13
362.057	330.01
362.439	331.14
362.821	333.17
363.203	322.77
363.584	311.93
363.966	311.47
364.348	316.45
364.729	306.73
365.111	318.03
365.493	308.54
365.874	306.96
366.256	302.21
366.637	289.33
367.019	286.62
367.4	315.99
367.781	315.54
368.163	311.47
368.544	320.97
368.925	301.76
369.306	316.67
369.688	313.06
370.069	301.53
370.45	309.67
370.831	300.18
371.212	305.83
371.593	316.67
371.974	318.71
372.355	294.53
372.736	309.44
373.117	334.98
373.498	301.08
373.879	306.5
374.26	319.16
374.641	308.54
375.021	305.15
375.402	303.57
375.783	293.85
376.163	327.52
376.544	306.28
376.925	304.92
377.305	319.61
377.686	314.19
378.066	329.1
378.447	325.94
378.827	315.54
379.208	315.99
379.588	306.96
379.968	317.35
380.349	337.46
380.729	321.64
381.109	312.6
381.489	322.1
381.87	325.03
382.25	344.47
382.63	333.4
383.01	312.38
383.39	343.79
383.77	330.91
384.15	332.27
384.53	353.51
384.91	338.37
385.29	344.92
385.67	349.44
386.049	350.8
386.429	326.84
386.809	337.01
387.189	338.82
387.568	337.91
387.948	341.98
388.328	364.13
388.707	353.06
389.087	344.47
389.466	368.87
389.846	369.55
390.225	351.25
390.605	359.38
390.984	356.9
391.363	358.25
391.743	365.71
392.122	359.38
392.501	378.59
392.881	365.26
393.26	380.17
393.639	373.62
394.018	366.84
394.397	386.95
394.776	383.11
395.155	372.94
395.534	389.66
395.913	386.95
396.292	396.67
396.671	384.47
397.05	389.66
397.429	386.05
397.808	391.92
398.186	371.59
398.565	384.47
398.944	384.92
399.323	384.47
399.701	394.64
400.08	387.63
400.458	419.95
400.837	423.34
401.215	412.49
401.594	394.86
401.972	393.05
402.351	412.26
402.729	412.49
403.107	406.61
403.486	414.07
403.864	444.58
404.242	423.56
404.62	427.18
404.999	432.6
405.377	440.06
405.755	448.87
406.133	456.1
406.511	451.81
406.889	438.48
407.267	467.4
407.645	478.25
408.023	457.91
408.401	478.02
408.779	487.74
409.156	495.88
409.534	483.45
409.912	489.1
410.29	508.76
410.667	517.12
411.045	505.59
411.422	530
411.8	523.67
412.178	511.47
412.555	534.75
412.933	534.07
413.31	574.52
413.687	571.36
414.065	580.62
414.442	578.36
414.819	596.89
415.197	599.15
415.574	601.41
415.951	609.32
416.328	603.22
416.705	606.61
417.082	622.65
417.46	637.12
417.837	641.64
418.214	648.42
418.591	655.42
418.967	660.84
419.344	655.87
419.721	680.05
420.098	673.5
420.475	701.3
420.852	709.2
421.228	708.98
421.605	701.52
421.982	701.3
422.358	727.06
422.735	723.67
423.111	748.07
423.488	790.33
423.864	792.59
424.241	813.16
424.617	797.11
424.994	804.57
425.37	817.22
425.746	797.56
426.123	845.25
426.499	837.79
426.875	846.15
427.251	888.63
427.627	884.57
428.003	893.61
428.379	900.61
428.756	886.37
429.132	906.71
429.507	913.04
429.883	942.42
430.259	958.69
430.635	956.66
431.011	981.06
431.387	999.37
431.763	1000.04
432.138	1013.38
432.514	1019.48
432.89	1039.37
433.265	1063.55
433.641	1076.43
434.016	1069.65
434.392	1110.32
434.767	1105.58
435.143	1114.62
435.518	1132.92
435.894	1170.21
436.269	1178.12
436.644	1192.36
437.02	1212.47
437.395	1226.48
437.77	1265.57
438.145	1289.3
438.52	1254.95
438.895	1285.46
439.271	1335.63
439.646	1306.93
440.021	1360.26
440.395	1362.75
440.77	1359.13
441.145	1390.09
441.52	1383.31
441.895	1411.78
442.27	1436.64
442.645	1444.55
443.019	1453.14
443.394	1469.41
443.769	1482.29
444.143	1494.04
444.518	1506.47
444.892	1510.54
445.267	1544.89
445.641	1551.44
446.016	1533.82
446.39	1559.13
446.764	1563.19
447.139	1570.88
447.513	1566.58
447.887	1588.5
448.262	1605.9
448.636	1628.28
449.01	1643.42
449.384	1625.11
449.758	1693.13
450.132	1680.93
450.506	1675.73
450.88	1718.44
451.254	1682.74
451.628	1719.35
452.002	1738.78
452.376	1751.44
452.75	1764.32
453.123	1793.92
453.497	1795.73
453.871	1775.84
454.244	1862.17
454.618	1874.82
454.992	1890.42
455.365	1854.26
455.739	1925.44
456.112	1921.15
456.486	1955.27
456.859	1948.49
457.232	1963.41
457.606	2000.02
457.979	1990.98
458.352	2059.45
458.725	2071.2
459.099	2081.15
459.472	2126.34
459.845	2129.73
460.218	2146.23
460.591	2184.65
460.964	2181.71
461.337	2209.96
461.71	2210.86
462.083	2248.6
462.456	2282.72
462.829	2310.74
463.201	2352.55
463.574	2348.03
463.947	2385.32
464.32	2404.75
464.692	2411.76
465.065	2453.57
465.438	2475.94
465.81	2512.32
466.183	2526.33
466.555	2614.69
466.928	2572.21
467.3	2593
467.672	2618.08
468.045	2680.23
468.417	2702.6
468.789	2725.2
469.161	2773.56
469.534	2777.17
469.906	2865.76
470.278	2872.54
470.65	2835.48
471.022	2936.72
471.394	2936.26
471.766	2978.98
472.138	3048.8
472.51	3049.03
472.882	3094.9
473.253	3141
473.625	3141.23
473.997	3246.99
474.369	3252.19
474.74	3256.71
475.112	3325.18
475.484	3401.11
475.855	3443.6
476.227	3466.87
476.598	3541.67
476.97	3555.91
477.341	3641.56
477.713	3698.28
478.084	3663.93
478.455	3771.04
478.827	3810.37
479.198	3894.43
479.569	3885.39
479.94	3981.89
480.311	4011.94
480.682	4076.35
481.053	4177.14
481.424	4199.51
481.795	4254.65
482.166	4347.53
482.537	4347.3
482.908	4413.97
483.279	4415.55
483.65	4536
484.021	4565.37
484.391	4637.24
484.762	4711.13
485.133	4715.88
485.503	4740.28
485.874	4864.58
486.244	4906.38
486.615	4997.91
486.985	5046.49
487.356	5073.16
487.726	5153.16
488.097	5195.87
488.467	5215.07
488.837	5323.77
489.207	5382.75
489.578	5420.27
489.948	5488.29
490.318	5525.12
490.688	5528.74
491.058	5619.81
491.428	5685.8
491.798	5743.65
492.168	5794.95
492.538	5865.23
492.908	5918.11
493.278	6012.34
493.648	5962.63
494.017	5986.81
494.387	6099.35
494.757	6163.75
495.126	6127.82
495.496	6213.01
495.866	6188.38
496.235	6246.69
496.605	6294.37
496.974	6274.71
497.344	6361.49
497.713	6405.1
498.082	6467.47
498.452	6537.53
498.821	6502.27
499.19	6498.2
499.559	6626.79
499.928	6592.44
500.298	6632.66
500.667	6713.79
501.036	6716.5
501.405	6716.05
501.774	6733.9
502.143	6753.11
502.512	6808.48
502.88	6846.67
503.249	6848.48
503.618	6889.83
503.987	6917.85
504.356	6933.9
504.724	6900
505.093	6946.1
505.462	6991.75
505.83	7005.31
506.199	7005.08
506.567	7149.26
506.936	7107.91
507.304	7132.31
507.672	7152.42
508.041	7161.46
508.409	7208.47
508.777	7201.24
509.145	7302.48
509.514	7222.93
509.882	7344.96
510.25	7317.62
510.618	7353.1
510.986	7342.7
511.354	7404.4
511.722	7472.64
512.09	7441.23
512.458	7506.99
512.826	7455.69
513.193	7562.36
513.561	7504.28
513.929	7515.58
514.297	7623.82
514.664	7618.85
515.032	7612.3
515.4	7706.08
515.767	7667.44
516.135	7658.17
516.502	7680.77
516.869	7761.9
517.237	7784.95
517.604	7672.86
517.972	7809.81
518.339	7760.77
518.706	7741.11
519.073	7753.77
519.44	7821.56
519.808	7851.62
520.175	7836.47
520.542	7927.32
520.909	7930.26
521.276	7894.78
521.643	7871.28
522.009	7952.86
522.376	7960.31
522.743	7974.55
523.11	8047.99
523.477	8070.14
523.843	8115.11
524.21	8126.41
524.577	8170.03
524.943	8154.21
525.31	8105.62
525.676	8173.42
526.043	8211.15
526.409	8209.57
526.776	8289.8
527.142	8328.21
527.508	8239.4
527.874	8293.19
528.241	8323.24
528.607	8380.19
528.973	8386.52
529.339	8347.2
529.705	8390.58
530.071	8483.24
530.437	8474.2
530.803	8454.99
531.169	8540.86
531.535	8469.68
531.901	8474.65
532.267	8467.19
532.632	8550.13
532.998	8451.37
533.364	8489.56
533.73	8513.29
534.095	8576.79
534.461	8467.87
534.826	8540.86
535.192	8494.54
535.557	8528.43
535.923	8495.21
536.288	8543.8
536.653	8577.02
537.019	8464.93
537.384	8518.94
537.749	8503.12
538.114	8456.57
538.479	8499.06
538.845	8524.59
539.21	8473.07
539.575	8457.93
539.94	8451.83
540.305	8542.44
540.67	8425.84
541.034	8537.25
541.399	8518.26
541.764	8465.84
542.129	8502.45
542.494	8526.17
542.858	8525.27
543.223	8481.43
543.587	8517.59
543.952	8444.82
544.316	8526.17
544.681	8457.7
545.045	8512.16
545.41	8476.46
545.774	8477.59
546.138	8438.27
546.503	8530.69
546.867	8476.68
547.231	8513.75
547.595	8484.59
547.959	8413.18
548.324	8473.97
548.688	8490.02
549.052	8462
549.416	8425.16
549.779	8406.18
550.143	8414.54
550.507	8436.01
550.871	8375.9
551.235	8372.28
551.599	8391.49
551.962	8421.32
552.326	8400.08
552.689	8436.91
553.053	8390.13
553.417	8322.79
553.78	8447.53
554.143	8399.85
554.507	8395.56
554.87	8388.78
555.234	8520.3
555.597	8404.14
555.96	8450.47
556.323	8466.51
556.686	8417.25
557.05	8485.95
557.413	8467.42
557.776	8485.72
558.139	8478.72
558.502	8521.2
558.865	8486.4
559.228	8491.15
559.59	8522.33
559.953	8506.97
560.316	8533.18
560.679	8503.8
561.041	8551.03
561.404	8554.2
561.767	8673.74
562.129	8592.39
562.492	8706.51
562.854	8635.55
563.217	8675.1
563.579	8652.27
563.941	8666.51
564.304	8685.72
564.666	8751.25
565.028	8748.32
565.39	8786.05
565.753	8786.28
566.115	8791.03
566.477	8821.31
566.839	8807.52
567.201	8867.18
567.563	8869.44
567.925	8909.67
568.287	8887.75
568.648	8959.16
569.01	8998.25
569.372	8989.66
569.734	8956.45
570.095	9048.42
570.457	9062.21
570.819	9054.3
571.18	9076.22
571.542	9093.84
571.903	9199.83
572.265	9155.54
572.626	9148.53
572.987	9176.1
573.349	9216.33
573.71	9247.74
574.071	9283.89
574.432	9207.74
574.794	9339.71
575.155	9290.67
575.516	9294.29
575.877	9332.48
576.238	9400.05
576.599	9353.5
576.96	9436.88
577.32	9384.68
577.681	9557.11
578.042	9455.42
578.403	9513.49
578.763	9540.61
579.124	9466.49
579.485	9529.09
579.845	9568.86
580.206	9626.94
580.566	9548.07
580.927	9654.05
581.287	9680.27
581.648	9615.19
582.008	9688.4
582.368	9746.93
582.728	9701.96
583.089	9768.63
583.449	9710.55
583.809	9728.4
584.169	9836.87
584.529	9815.18
584.889	9899.25
585.249	9863.09
585.609	9784.67
585.969	9848.63
586.329	9906.48
586.688	9841.17
587.048	9864.22
587.408	9847.04
587.768	9852.01
588.127	9817.44
588.487	9882.07
588.846	9975.4
589.206	9862.64
589.565	9923.43
589.925	9985.12
590.284	10028.28
590.643	9983.76
591.003	10019.24
591.362	10080.26
591.721	10054.04
592.08	10010.43
592.44	10035.51
592.799	10051.11
593.158	10118.9
593.517	10035.06
593.876	10085
594.235	10048.39
594.593	10092.23
594.952	10114.61
595.311	10096.08
595.67	10102.63
596.029	10151.22
596.387	10128.62
596.746	10217.88
597.104	10155.51
597.463	10138.56
597.822	10264.66
598.18	10185.11
598.538	10142.63
598.897	10230.31
599.255	10184.44
599.613	10339.23
599.972	10189.18
600.33	10278.44
600.688	10293.13
601.046	10267.6
601.404	10275.73
601.762	10313.25
602.12	10299.69
602.478	10312.12
602.836	10306.69
603.194	10285.45
603.552	10342.17
603.91	10232.8
604.268	10337.65
604.625	10288.84
604.983	10338.33
605.341	10345.79
605.698	10321.16
606.056	10327.48
606.413	10334.04
606.771	10440.7
607.128	10393.47
607.485	10334.04
607.843	10283.42
608.2	10457.42
608.557	10437.54
608.914	10346.92
609.272	10489.51
609.629	10386.69
609.986	10461.04
610.343	10423.75
610.7	10494.26
611.057	10426.01
611.414	10472.56
611.771	10504.65
612.127	10574.71
612.484	10508.49
612.841	10584.65
613.198	10466.91
613.554	10585.1
613.911	10595.72
614.267	10551.43
614.624	10572
614.98	10541.94
615.337	10616.51
615.693	10589.85
616.05	10601.83
616.406	10659.9
616.762	10623.52
617.118	10612.45
617.475	10636.63
617.831	10664.2
618.187	10721.14
618.543	10698.32
618.899	10792.1
619.255	10738.55
619.611	10650.41
619.967	10666.68
620.323	10743.74
620.678	10724.08
621.034	10642.05
621.39	10703.52
621.746	10652.9
622.101	10792.33
622.457	10727.7
622.812	10717.75
623.168	10669.85
623.523	10782.61
623.879	10709.85
624.234	10708.26
624.589	10744.19
624.945	10712.11
625.3	10677.3
625.655	10776.51
626.01	10741.03
626.365	10703.52
626.72	10702.84
627.075	10692.22
627.43	10703.29
627.785	10684.54
628.14	10687.7
628.495	10734.48
628.85	10704.42
629.205	10650.41
629.559	10735.61
629.914	10674.14
630.269	10654.25
630.623	10650.64
630.978	10592.11
631.332	10690.41
631.687	10638.43
632.041	10585.33
632.396	10658.55
632.75	10580.36
633.104	10538.1
633.459	10481.15
633.813	10529.29
634.167	10536.52
634.521	10506.24
634.875	10495.39
635.229	10462.62
635.583	10321.16
635.937	10475.05
636.291	10457.42
636.645	10365.67
636.999	10319.8
637.352	10386.24
637.706	10390.53
638.06	10425.11
638.413	10317.31
638.767	10250.65
639.121	10412.68
639.474	10259.46
639.828	10317.77
640.181	10331.55
640.534	10396.63
640.888	10293.13
641.241	10234.38
641.594	10225.11
641.947	10270.54
642.301	10245.68
642.654	10262.63
643.007	10330.19
643.36	10229.41
643.713	10242.74
644.066	10231.67
644.419	10171.55
644.771	10143.98
645.124	10064.89
645.477	9995.51
645.83	9995.51
646.182	9954.61
646.535	9854.73
646.888	9859.25
647.24	9818.34
647.593	9905.35
647.945	9830.77
648.298	9775.18
648.65	9818.57
649.002	9815.63
649.355	9856.53
649.707	9839.59
650.059	9894.27
650.411	10040.71
650.763	9945.35
651.115	10152.35
651.467	10102.18
651.819	10085.46
652.171	10063.76
652.523	9979.47
652.875	10074.16
653.227	10028.28
653.578	10021.05
653.93	10024.89
654.282	9988.96
654.633	9987.15
654.985	9947.38
655.337	10040.71
655.688	9962.07
656.039	10065.34
656.391	10039.35
656.742	9960.49
657.094	10061.5
657.445	10069.86
657.796	10046.59
658.147	10034.16
658.498	9961.16
658.849	10046.59
659.2	9972.92
659.551	9981.05
659.902	9942.18
660.253	10047.72
660.604	10010.43
660.955	9971.33
661.306	10051.56
661.656	10002.75
662.007	10004.1
662.358	10012.69
662.708	10001.62
663.059	10017.43
663.409	9878.23
663.76	10092.69
664.11	10078.22
664.461	10059.47
664.811	9998
665.161	10075.74
665.511	10059.47
665.862	10113.25
666.212	10083.87
666.562	10035.29
666.912	10002.52
667.262	10048.39
667.612	10028.96
667.962	10020.6
668.312	9968.4
668.662	10095.62
669.011	10053.14
669.361	10021.73
669.711	10047.26
670.06	9967.04
670.41	9973.59
670.76	9945.12
671.109	10029.19
671.459	10012.01
671.808	9956.87
672.157	10017.21
672.507	9873.26
672.856	9986.7
673.205	9939.47
673.554	9891.11
673.904	9931.33
674.253	9957.32
674.602	9865.8
674.951	9768.85
675.3	9680.04
675.649	9836.42
675.998	9800.26
676.346	9846.59
676.695	9895.63
677.044	9802.07
677.393	9805.69
677.741	9804.56
678.09	9841.17
678.438	9804.33
678.787	9774.28
679.135	9778.12
679.484	9729.31
679.832	9757.55
680.181	9738.8
680.529	9714.84
680.877	9705.8
681.225	9625.13
681.573	9749.87
681.922	9602.98
682.27	9604.11
682.618	9627.39
682.966	9594.39
683.314	9635.3
683.661	9585.81
684.009	9548.29
684.357	9528.18
684.705	9481.18
685.053	9516.66
685.4	9510.78
685.748	9452.93
686.095	9414.74
686.443	9360.05
686.79	9398.24
687.138	9368.64
687.485	9379.94
687.832	9262.88
688.18	9321.18
688.527	9262.65
688.874	9286.15
689.221	9245.03
689.568	9193.05
689.915	9152.37
690.262	9285.48
690.609	9212.71
690.956	9117.35
691.303	9069.44
691.65	9025.14
691.997	9040.51
692.344	8995.54
692.69	8918.03
693.037	8979.27
693.383	8898.82
693.73	8963.45
694.077	8840.06
694.423	8803.68
694.769	8796.45
695.116	8811.82
695.462	8747.41
695.808	8792.83
696.155	8763.23
696.501	8633.97
696.847	8684.14
697.193	8556.46
697.539	8673.51
697.885	8534.99
698.231	8533.63
698.577	8525.04
698.923	8509.9
699.269	8415.89
699.614	8439.85
699.96	8374.09
700.306	8386.52
700.651	8329.34
700.997	8281.66
701.342	8230.81
701.688	8205.28
702.033	8252.06
702.379	8163.92
702.724	8175.67
703.069	8126.86
703.415	8077.37
703.76	8090.25
704.105	8080.99
704.45	8019.29
704.795	8022.91
705.14	7932.52
705.485	7977.94
705.83	7964.15
706.175	7999.41
706.52	7928.45
706.865	7858.4
707.209	7880.99
707.554	7800.54
707.899	7802.58
708.243	7771.62
708.588	7714.22
708.932	7697.04
709.277	7680.77
709.621	7701.11
709.966	7657.95
710.31	7666.76
710.654	7573.43
710.998	7607.55
711.342	7626.76
711.687	7603.49
712.031	7577.27
712.375	7530.04
712.719	7514.45
713.063	7509.03
713.407	7514.22
713.75	7472.19
714.094	7453.89
714.438	7486.65
714.782	7454.56
715.125	7427.9
715.469	7427.67
715.812	7393.1
716.156	7360.1
716.499	7382.93
716.843	7374.57
717.186	7358.3
717.53	7337.28
717.873	7381.8
718.216	7284.85
718.559	7338.63
718.902	7308.8
719.246	7319.2
719.589	7249.37
719.932	7189.26
720.275	7191.97
720.617	7247.56
720.96	7201.92
721.303	7196.27
721.646	7252.08
721.989	7133.67
722.331	7227.68
722.674	7156.49
723.016	7157.4
723.359	7158.07
723.701	7138.19
724.044	7176.15
724.386	7099.77
724.729	7110.17
725.071	7118.3
725.413	7115.14
725.755	7100.45
726.097	7080.34
726.439	7078.3
726.782	7090.73
727.124	7062.03
727.465	7015.03
727.807	7048.92
728.149	6973.22
728.491	7042.82
728.833	7032.65
729.175	7045.08
729.516	6998.53
729.858	6999.66
730.199	7031.75
730.541	7050.73
730.882	7022.48
731.224	7053.44
731.565	6972.54
731.906	7049.6
732.248	6982.26
732.589	6998.08
732.93	6931.64
733.271	6996.04
733.612	6996.27
733.953	7016.38
734.294	6960.79
734.635	7004.18
734.976	6961.02
735.317	6935.93
735.658	6922.83
735.999	6916.05
736.339	6923.05
736.68	7016.61
737.021	6924.41
737.361	6927.12
737.702	6935.03
738.042	6984.29
738.383	6981.13
738.723	6975.48
739.063	6965.54
739.404	6958.76
739.744	7053.9
740.084	6994.24
740.424	7017.06
740.764	6991.98
741.104	7060.45
741.444	7057.51
741.784	7003.5
742.124	7071.98
742.464	7054.35
742.804	7112.88
743.143	7114.23
743.483	7062.94
743.823	7057.06
744.162	7123.95
744.502	7161.92
744.841	7119.66
745.181	7219.77
745.52	7167.79
745.86	7183.16
746.199	7226.55
746.538	7289.37
746.877	7377.05
747.216	7293.89
747.556	7385.64
747.895	7383.15
748.234	7389.48
748.573	7379.76
748.911	7494.56
749.25	7507.22
749.589	7568.23
749.928	7632.19
750.267	7703.14
750.605	7743.14
750.944	7791.73
751.283	7876.02
751.621	7893.65
751.96	7935.91
752.298	7988.11
752.636	8073.76
752.975	8162.34
753.313	8204.15
753.651	8302
753.989	8352.62
754.327	8453.86
754.666	8512.16
755.004	8626.06
755.342	8676.45
755.679	8771.82
756.017	8911.25
756.355	9023.56
756.693	9056.56
757.031	9246.16
757.368	9364.8
757.706	9405.47
758.044	9499.26
758.381	9653.83
758.719	9799.59
759.056	9880.26
759.394	9966.14
759.731	9989.64
760.068	10216.75
760.405	10306.92
760.743	10384.66
761.08	10598.44
761.417	10724.53
761.754	10767.7
762.091	10946.9
762.428	11068.48
762.765	11135.6
763.102	11365.2
763.438	11383.5
763.775	11548.47
764.112	11612.65
764.449	11901.45
764.785	11941.68
765.122	12003.14
765.458	12059.64
