Data from hue_30_FLMS001491_4.txt Node
Date: Mon Feb 06 15:04:34 GMT 2017
User: dcchb
Spectrometer: FLMS00149
Trigger mode: 0
Integration Time (sec): 2.000000E-2
Scans to average: 10
Electric dark correction enabled: true
Nonlinearity correction enabled: false
Boxcar width: 0
XAxis mode: Wavelengths
Number of Pixels in Spectrum: 2048
>>>>>Begin Spectral Data<<<<<
341.393	-23.43
341.776	-23.43
342.16	-23.43
342.543	-29.99
342.927	-71.79
343.31	-56.65
343.693	-60.94
344.077	-58.01
344.46	-63.2
344.843	-72.47
345.226	-44.9
345.61	-38.35
345.993	-19.59
346.376	1.65
346.759	25.38
347.142	30.13
347.525	43.46
347.908	50.92
348.291	59.05
348.674	91.14
349.057	112.38
349.44	118.03
349.823	143.12
350.206	170.69
350.588	195.09
350.971	217.92
351.354	213.4
351.737	214.53
352.119	248.65
352.502	244.13
352.884	268.99
353.267	265.37
353.65	293.17
354.032	290.91
354.414	297.69
354.797	307.18
355.179	339.72
355.562	313.96
355.944	332.27
356.326	341.3
356.709	345.6
357.091	358.93
357.473	344.69
357.855	350.34
358.238	353.28
358.62	361.87
359.002	341.3
359.384	352.6
359.766	327.75
360.148	351.47
360.53	347.86
360.912	334.3
361.294	358.93
361.676	329.33
362.057	329.1
362.439	322.77
362.821	347.18
363.203	331.14
363.584	314.86
363.966	344.69
364.348	343.56
364.729	320.97
365.111	305.37
365.493	325.71
365.874	308.76
366.256	316.9
366.637	322.32
367.019	312.6
367.4	329.78
367.781	330.91
368.163	324.58
368.544	317.8
368.925	316.45
369.306	319.16
369.688	327.29
370.069	325.26
370.45	315.99
370.831	299.05
371.212	325.94
371.593	321.42
371.974	313.28
372.355	311.02
372.736	292.94
373.117	312.38
373.498	314.86
373.879	324.13
374.26	313.96
374.641	316.45
375.021	311.93
375.402	308.76
375.783	335.88
376.163	330.68
376.544	344.02
376.925	315.09
377.305	307.18
377.686	321.64
378.066	341.53
378.447	336.33
378.827	323.9
379.208	310.57
379.588	350.34
379.968	315.32
380.349	320.06
380.729	340.63
381.109	334.3
381.489	337.46
381.87	317.35
382.25	350.12
382.63	330.91
383.01	346.73
383.39	341.08
383.77	339.04
384.15	318.48
384.53	330.01
384.91	351.02
385.29	376.33
385.67	359.61
386.049	364.81
386.429	322.32
386.809	341.3
387.189	348.31
387.568	363.45
387.948	373.62
388.328	342.89
388.707	346.05
389.087	345.82
389.466	355.09
389.846	339.5
390.225	344.47
390.605	328.42
390.984	353.96
391.363	355.09
391.743	350.57
392.122	382.21
392.501	361.19
392.881	353.06
393.26	360.74
393.639	359.61
394.018	378.82
394.397	365.26
394.776	367.97
395.155	348.99
395.534	368.87
395.913	389.44
396.292	365.71
396.671	378.14
397.05	380.63
397.429	378.37
397.808	385.82
398.186	368.87
398.565	360.06
398.944	400.29
399.323	374.07
399.701	380.63
400.08	383.11
400.458	375.65
400.837	375.65
401.215	390.12
401.594	407.29
401.972	383.79
402.351	416.56
402.729	394.41
403.107	403.68
403.486	404.35
403.864	377.69
404.242	395.54
404.62	411.13
404.999	416.78
405.377	395.99
405.755	413.85
406.133	391.25
406.511	431.02
406.889	428.08
407.267	394.41
407.645	435.31
408.023	428.53
408.401	402.55
408.779	440.29
409.156	419.27
409.534	411.36
409.912	432.83
410.29	435.54
410.667	414.97
411.045	423.11
411.422	435.99
411.8	444.58
412.178	412.04
412.555	455.88
412.933	432.38
413.31	457.46
413.687	445.03
414.065	444.58
414.442	460.17
414.819	450.23
415.197	459.72
415.574	445.48
415.951	459.27
416.328	484.8
416.705	475.76
417.082	475.31
417.46	480.06
417.837	471.47
418.214	473.28
418.591	488.87
418.967	489.32
419.344	485.48
419.721	478.93
420.098	503.56
420.475	482.77
420.852	495.2
421.228	483.9
421.605	497.23
421.982	521.86
422.358	500.62
422.735	480.74
423.111	516.22
423.488	502.2
423.864	503.11
424.241	511.02
424.617	525.25
424.994	539.49
425.37	524.8
425.746	515.31
426.123	513.5
426.499	553.73
426.875	536.1
427.251	533.39
427.627	533.62
428.003	553.05
428.379	534.75
428.756	546.72
429.132	550.79
429.507	569.55
429.883	530.9
430.259	577
430.635	548.08
431.011	582.65
431.387	587.17
431.763	560.51
432.138	607.96
432.514	607.06
432.89	577.46
433.265	604.35
433.641	591.69
434.016	605.03
434.392	602.99
434.767	619.94
435.143	622.65
435.518	631.69
435.894	646.38
436.269	630.56
436.644	660.62
437.02	653.84
437.395	652.48
437.77	636.21
438.145	671.92
438.52	670.11
438.895	655.87
439.271	644.12
439.646	685.7
440.021	667.17
440.395	700.84
440.77	683.67
441.145	673.5
441.52	677.34
441.895	693.16
442.27	689.09
442.645	709.88
443.019	715.98
443.394	714.85
443.769	723.67
444.143	691.58
444.518	733.61
444.892	720.73
445.267	720.5
445.641	714.18
446.016	729.77
446.39	734.74
446.764	740.16
447.139	733.16
447.513	744.01
447.887	730.45
448.262	732.93
448.636	760.73
449.01	769.77
449.384	740.62
449.758	764.57
450.132	776.32
450.506	775.19
450.88	775.87
451.254	780.16
451.628	770.45
452.002	799.6
452.376	798.47
452.75	810.44
453.123	821.29
453.497	840.5
453.871	805.7
454.244	843.66
454.618	838.01
454.992	858.35
455.365	857
455.739	849.77
456.112	868.3
456.486	881.86
456.859	897.45
457.232	904.23
457.606	878.47
457.979	908.97
458.352	917.56
458.725	928.86
459.099	949.42
459.472	946.03
459.845	922.98
460.218	969.99
460.591	984
460.964	983.55
461.337	1018.12
461.71	1017.22
462.083	1011.57
462.456	1033.26
462.829	1012.47
463.201	1043.21
463.574	1018.8
463.947	1042.53
464.32	1059.7
464.692	1051.12
465.065	1082.98
465.438	1084.79
465.81	1098.35
466.183	1118.69
466.555	1135.41
466.928	1188.74
467.3	1153.94
467.672	1179.02
468.045	1175.86
468.417	1192.81
468.789	1216.08
469.161	1234.16
469.534	1265.12
469.906	1252.92
470.278	1297.44
470.65	1306.7
471.022	1316.65
471.394	1320.94
471.766	1328.62
472.138	1347.38
472.51	1384.89
472.882	1417.43
473.253	1454.95
473.625	1426.93
473.997	1492.46
474.369	1500.37
474.74	1528.39
475.112	1532.01
475.484	1574.94
475.855	1602.29
476.227	1622.17
476.598	1672.57
476.97	1710.99
477.341	1743.98
477.713	1790.08
478.084	1770.87
478.455	1849.74
478.827	1828.95
479.198	1899.46
479.569	1926.12
479.94	1959.79
480.311	1979.45
480.682	2056.51
481.053	2083.63
481.424	2148.04
481.795	2159.79
482.166	2207.24
482.537	2232.78
482.908	2326.34
483.279	2353.46
483.65	2405.66
484.021	2450.18
484.391	2484.53
484.762	2522.72
485.133	2548.25
485.503	2608.82
485.874	2686.33
486.244	2700.56
486.615	2789.83
486.985	2822.37
487.356	2906.21
487.726	2938.52
488.097	2996.15
488.467	3011.29
488.837	3107.33
489.207	3155.02
489.578	3229.59
489.948	3274.56
490.318	3336.93
490.688	3345.97
491.058	3454.9
491.428	3487.44
491.798	3546.19
492.168	3600.2
492.538	3655.34
492.908	3689.24
493.278	3744.38
493.648	3808.56
494.017	3881.78
494.387	3929.68
494.757	3980.53
495.126	4053.52
495.496	4008.33
495.866	4084.71
496.235	4132.84
496.605	4183.01
496.974	4260.3
497.344	4276.57
497.713	4291.71
498.082	4321.09
498.452	4427.07
498.821	4438.82
499.19	4480.63
499.559	4546.17
499.928	4582.77
500.298	4595.2
500.667	4653.06
501.036	4676.56
501.405	4704.35
501.774	4778.93
502.143	4794.75
502.512	4810.11
502.88	4905.25
503.249	4880.62
503.618	4958.36
503.987	4962.2
504.356	5062.99
504.724	5039.94
505.093	5042.65
505.462	5134.17
505.83	5132.59
506.199	5189.99
506.567	5257.11
506.936	5183.21
507.304	5280.61
507.672	5316.54
508.041	5342.75
508.409	5411.91
508.777	5451.23
509.145	5477.44
509.514	5516.76
509.882	5525.8
510.25	5542.98
510.618	5544.56
510.986	5646.02
511.354	5654.39
511.722	5683.76
512.09	5701.39
512.458	5748.17
512.826	5769.86
513.193	5801.73
513.561	5863.87
513.929	5891.67
514.297	5930.99
514.664	5952.68
515.032	5966.69
515.4	6008.95
515.767	6009.86
516.135	6037.2
516.502	6033.36
516.869	6133.02
517.237	6174.6
517.604	6132.56
517.972	6140.7
518.339	6250.98
518.706	6254.82
519.073	6257.76
519.44	6262.5
519.808	6350.41
520.175	6309.51
520.542	6411.2
520.909	6414.82
521.276	6439.9
521.643	6490.52
522.009	6543.63
522.376	6546.11
522.743	6588.82
523.11	6622.5
523.477	6713.11
523.843	6741.14
524.21	6789.72
524.577	6814.58
524.943	6760.12
525.31	6809.16
525.676	6929.61
526.043	6942.49
526.409	6956.05
526.776	7052.99
527.142	7017.06
527.508	7046.21
527.874	7130.28
528.241	7139.77
528.607	7170.28
528.973	7232.87
529.339	7239.65
529.705	7349.93
530.071	7372.76
530.437	7407.56
530.803	7420.89
531.169	7489.14
531.535	7487.78
531.901	7510.16
532.267	7511.96
532.632	7609.81
532.998	7581.57
533.364	7658.4
533.73	7725.07
534.095	7752.18
534.461	7752.86
534.826	7808.45
535.192	7844.61
535.557	7933.87
535.923	7903.82
536.288	7958.28
536.653	8017.94
537.019	7984.27
537.384	8028.56
537.749	8021.1
538.114	8098.39
538.479	8139.97
538.845	8156.92
539.21	8132.29
539.575	8178.39
539.94	8177.03
540.305	8262.9
540.67	8227.42
541.034	8285.73
541.399	8381.55
541.764	8368.89
542.129	8443.24
542.494	8470.58
542.858	8483.01
543.223	8504.71
543.587	8584.25
543.952	8634.19
544.316	8636.23
544.681	8642.78
545.045	8621.54
545.41	8713.97
545.774	8710.12
546.138	8775.43
546.503	8792.61
546.867	8885.26
547.231	8898.59
547.595	8945.15
547.959	8947.63
548.324	8889.55
548.688	8930.91
549.052	8995.99
549.416	9034.41
549.779	9024.69
550.143	9101.3
550.507	9145.82
550.871	9219.72
551.235	9230.79
551.599	9306.94
551.962	9224.69
552.326	9307.62
552.689	9377
553.053	9365.02
553.417	9399.82
553.78	9516.43
554.143	9408.64
554.507	9515.53
554.87	9516.66
555.234	9592.13
555.597	9575.41
555.96	9617.22
556.323	9664.22
556.686	9589.87
557.05	9696.76
557.413	9691.12
557.776	9764.79
558.139	9804.33
558.502	9902.64
558.865	9833.94
559.228	9962.29
559.59	9922.97
559.953	9989.64
560.316	9958.9
560.679	9976.53
561.041	10113.25
561.404	10152.8
561.767	10180.59
562.129	10158.9
562.492	10216.53
562.854	10220.37
563.217	10278.44
563.579	10290.42
563.941	10300.82
564.304	10335.17
564.666	10419.01
565.028	10439.34
565.39	10354.15
565.753	10507.14
566.115	10542.39
566.477	10578.55
566.839	10583.52
567.201	10618.55
567.563	10676.17
567.925	10781.26
568.287	10797.07
568.648	10825.55
569.01	10921.37
569.372	10900.35
569.734	10927.24
570.095	11006.56
570.457	10986.67
570.819	11074.81
571.18	11134.69
571.542	11120.68
571.903	11240.68
572.265	11349.38
572.626	11440.67
572.987	11382.82
573.349	11380.34
573.71	11510.05
574.071	11518.64
574.432	11654
574.794	11717.5
575.155	11774.22
575.516	11632.53
575.877	11863.71
576.238	11918.63
576.599	12048.12
576.96	12095.8
577.32	12143.03
577.681	12343.47
578.042	12381.21
578.403	12447.88
578.763	12579.17
579.124	12623.92
579.485	12790.24
579.845	12920.18
580.206	12991.59
580.566	13089.22
580.927	13246.28
581.287	13423.45
581.648	13449.21
582.008	13679.26
582.368	13765.58
582.728	13933.94
583.089	14053.49
583.449	14232.46
583.809	14418.67
584.169	14656.41
584.529	14679.46
584.889	15019.79
585.249	15102.05
585.609	15249.84
585.969	15516.5
586.329	15670.17
586.688	15948.13
587.048	16095.24
587.408	16316.48
587.768	16556.92
588.127	16717.82
588.487	16965.95
588.846	17256.11
589.206	17291.37
589.565	17543.56
589.925	17936.55
590.284	18097.9
590.643	18309.65
591.003	18616.3
591.362	18873.02
591.721	19080.25
592.08	19325.89
592.44	19771.98
592.799	19901.24
593.158	20112.76
593.517	20282.7
593.876	20624.39
594.235	20853.99
594.593	21150.93
594.952	21354.54
595.311	21689.67
595.67	21925.14
596.029	22309.54
596.387	22570.55
596.746	22854.84
597.104	22948.39
597.463	23219.12
597.822	23608.04
598.18	23757.64
598.538	23805.77
598.897	24360.33
599.255	24282.14
599.613	24857.04
599.972	24991.28
600.33	25391.27
600.688	25447.54
601.046	25743.35
601.404	26053.4
601.762	26304.69
602.12	26620.61
602.478	26791.46
602.836	26958.46
603.194	27007.5
603.552	27338.33
603.91	27537.2
604.268	27803.86
604.625	27839.56
604.983	28233.45
605.341	28339.44
605.698	28658.3
606.056	28755.47
606.413	28994.79
606.771	29250.83
607.128	29482.23
607.485	29514.1
607.843	29773.98
608.2	29927.19
608.557	30177.36
608.914	30328.09
609.272	30604.24
609.629	30787.06
609.986	30946.38
610.343	31048.07
610.7	31336.2
611.057	31490.54
611.414	31622.52
611.771	31793.13
612.127	31958.33
612.484	32097.08
612.841	32391.99
613.198	32480.35
613.554	32445.77
613.911	32942.26
614.267	32988.81
614.624	33043.04
614.98	33245.98
615.337	33347.67
615.693	33445.97
616.05	33567.55
616.406	33733.42
616.762	33824.49
617.118	34058.61
617.475	34006.18
617.831	34266.97
618.187	34387.64
618.543	34501.54
618.899	34719.84
619.255	34869.44
619.611	34786.27
619.967	34953.05
620.323	35197.56
620.678	35086.83
621.034	35063.33
621.39	35169.77
621.746	35231.23
622.101	35782.86
622.457	35431
622.812	35691.11
623.168	35790.54
623.523	35871.22
623.879	35874.38
624.234	35819.69
624.589	35921.39
624.945	36075.05
625.3	36182.62
625.655	36239.8
626.01	36242.96
626.365	36276.4
626.72	36341.49
627.075	36360.02
627.43	36447.25
627.785	36351.88
628.14	36440.02
628.495	36601.37
628.85	36604.98
629.205	36613.35
629.559	36738.99
629.914	36535.38
630.269	36672.33
630.623	36558.21
630.978	36559.79
631.332	36832.32
631.687	36936.5
632.041	36616.51
632.396	36865.32
632.75	36858.99
633.104	36758.65
633.459	36725.43
633.813	36728.14
634.167	36693.34
634.521	36778.54
634.875	36811.08
635.229	36766.34
635.583	36592.78
635.937	36633.01
636.291	36718.88
636.645	36713.91
636.999	36627.36
637.352	36830.74
637.706	36459.45
638.06	36852.43
638.413	36747.8
638.767	36458.55
639.121	36734.7
639.474	36474.37
639.828	36519.34
640.181	36597.3
640.534	36600.69
640.888	36488.6
641.241	36503.07
641.594	36522.95
641.947	36669.84
642.301	36549.62
642.654	36587.58
643.007	36473.69
643.36	36506.91
643.713	36432.78
644.066	36471.2
644.419	36319.79
644.771	36061.95
645.124	35824.67
645.477	35669.42
645.83	35554.16
646.182	35460.38
646.535	35411.79
646.888	35421.96
647.24	35353.49
647.593	35441.4
647.945	35435.75
648.298	35201.4
648.65	35155.08
649.002	35169.77
649.355	35235.08
649.707	35252.7
650.059	35377.45
650.411	35821.28
650.763	35788.73
651.115	36090.87
651.467	36112.12
651.819	36082.29
652.171	36059.91
652.523	35864.89
652.875	35957.09
653.227	35773.82
653.578	36097.2
653.93	35903.53
654.282	35786.93
654.633	35701.28
654.985	35836.87
655.337	35835.96
655.688	35849.52
656.039	36054.72
656.391	35752.8
656.742	35748.28
657.094	35752.35
657.445	35902.18
657.796	35863.08
658.147	35738.11
658.498	35679.81
658.849	35752.8
659.2	35640.26
659.551	35619.92
659.902	35760.94
660.253	35667.16
660.604	35616.99
660.955	35494.96
661.306	35499.48
661.656	35604.11
662.007	35608.4
662.358	35475.52
662.708	35561.17
663.059	35466.71
663.409	35391.91
663.76	35583.54
664.11	35720.49
664.461	35720.94
664.811	35615.18
665.161	35506.93
665.511	35490.89
665.862	35551.68
666.212	35641.85
666.562	35561.85
666.912	35480.27
667.262	35465.8
667.612	35560.04
667.962	35610.43
668.312	35505.58
668.662	35610.43
669.011	35536.54
669.361	35408.41
669.711	35461.96
670.06	35581.73
670.41	35357.56
670.76	35370.89
671.109	35490.44
671.459	35425.13
671.808	35273.27
672.157	35268.07
672.507	35185.81
672.856	35194.17
673.205	35252.7
673.554	35332.47
673.904	35283.66
674.253	35393.72
674.602	35240.95
674.951	34848.42
675.3	34643.45
675.649	35193.04
675.998	35095.87
676.346	35262.87
676.695	35304
677.044	34946.72
677.393	35170.67
677.741	35074.63
678.09	35146.72
678.438	34926.16
678.787	35098.13
679.135	35125.93
679.484	34772.72
679.832	35015.87
680.181	34743.11
680.529	34876.67
680.877	34690.91
681.225	34694.75
681.573	34804.35
681.922	34587.86
682.27	34520.29
682.618	34602.78
682.966	34506.96
683.314	34586.96
683.661	34441.65
684.009	34293.86
684.357	34257.25
684.705	34077.14
685.053	34231.71
685.4	34026.29
685.748	33963.02
686.095	34017.48
686.443	33894.55
686.79	33842.57
687.138	33922.34
687.485	33804.15
687.832	33740.43
688.18	33749.92
688.527	33613.88
688.874	33557.38
689.221	33540.21
689.568	33334.11
689.915	33260.89
690.262	33264.51
690.609	33260.44
690.956	33097.96
691.303	33088.47
691.65	32885.53
691.997	32961.46
692.344	32714.24
692.69	32767.57
693.037	32870.84
693.383	32579.55
693.73	32663.84
694.077	32311.54
694.423	32336.85
694.769	32273.12
695.116	32143.63
695.462	32257.08
695.808	32173.24
696.155	31971.43
696.501	31839.91
696.847	31926.24
697.193	31665.9
697.539	31639.69
697.885	31501.84
698.231	31461.16
698.577	31399.02
698.923	31445.12
699.269	31258.46
699.614	31223.43
699.96	31018.69
700.306	31049.88
700.651	30895.98
700.997	30680.62
701.342	30831.8
701.688	30753.16
702.033	30625.48
702.379	30632.94
702.724	30536.22
703.069	30598.14
703.415	30172.61
703.76	30285.6
704.105	30285.15
704.45	30128.54
704.795	30080.41
705.14	29920.87
705.485	29977.36
705.83	29735.11
706.175	29796.8
706.52	29699.63
706.865	29562.23
707.209	29535.57
707.554	29418.05
707.899	29639.97
708.243	29344.84
708.588	29372.63
708.932	29185.29
709.277	29120.43
709.621	29273.2
709.966	28871.4
710.31	29117.27
710.654	28838.63
710.998	28886.09
711.342	28808.35
711.687	28814.23
712.031	28655.14
712.375	28617.4
712.719	28588.92
713.063	28572.88
713.407	28625.98
713.75	28293.11
714.094	28470.28
714.438	28239.33
714.782	28282.49
715.125	28269.38
715.469	28152.32
715.812	28013.57
716.156	27980.35
716.499	27984.19
716.843	27985.32
717.186	27801.6
717.53	27911.2
717.873	27880.24
718.216	27804.99
718.559	27722.73
718.902	27511.21
719.246	27566.13
719.589	27518.22
719.932	27472.34
720.275	27425.34
720.617	27426.02
720.96	27397.99
721.303	27294.72
721.646	27270.54
721.989	27146.48
722.331	27160.94
722.674	27045.24
723.016	27252.24
723.359	27123.65
723.701	27092.24
724.044	26944.67
724.386	26699.93
724.729	27009.08
725.071	26804.34
725.413	26831
725.755	26751.46
726.097	26555.53
726.439	26553.95
726.782	26572.03
727.124	26684.11
727.465	26476.44
727.807	26437.34
728.149	26425.36
728.491	26307.63
728.833	26361.19
729.175	26275.76
729.516	26199.16
729.858	26172.72
730.199	26190.12
730.541	26245.48
730.882	26142.21
731.224	26177.24
731.565	25954.19
731.906	25937.02
732.248	26034.87
732.589	25899.05
732.93	25764.59
733.271	25739.73
733.612	25766.17
733.953	25831.03
734.294	25783.57
734.635	25679.4
734.976	25662.22
735.317	25509.23
735.658	25608.44
735.999	25607.53
736.339	25573.64
736.68	25631.71
737.021	25494.32
737.361	25375.9
737.702	25539.29
738.042	25398.27
738.383	25316.47
738.723	25364.83
739.063	25349.46
739.404	25313.98
739.744	25198.73
740.084	25100.65
740.424	25177.26
740.764	25040.09
741.104	25211.84
741.444	24977.72
741.784	24942.92
742.124	25080.32
742.464	24986.98
742.804	24901.34
743.143	24892.3
743.483	24883.71
743.823	24684.62
744.162	24745.63
744.502	24764.62
744.841	24685.52
745.181	24705.41
745.52	24735.24
745.86	24732.53
746.199	24572.76
746.538	24564.62
746.877	24605.98
747.216	24529.14
747.556	24472.65
747.895	24500.22
748.234	24364.4
748.573	24358.07
748.911	24258.42
749.25	24377.06
749.589	24139.77
749.928	24169.38
750.267	24220.22
750.605	24095.48
750.944	24095.26
751.283	24051.87
751.621	24072.66
751.96	23942.04
752.298	23938.2
752.636	23896.17
752.975	23817.98
753.313	23798.54
753.651	23872.44
753.989	23755.83
754.327	23697.75
754.666	23616.62
755.004	23636.06
755.342	23701.37
755.679	23594.03
756.017	23453.92
756.355	23552.67
756.693	23507.02
757.031	23498.44
757.368	23333.92
757.706	23278.78
758.044	23230.42
758.381	23323.53
758.719	23138.9
759.056	23113.59
759.394	23017.54
759.731	22951.33
