Data from hue_160_FLMS001491_00097.txt Node
Date: Tue Feb 07 16:51:58 GMT 2017
User: dcchb
Spectrometer: FLMS00149
Trigger mode: 0
Integration Time (sec): 2.000000E-2
Scans to average: 10
Electric dark correction enabled: true
Nonlinearity correction enabled: false
Boxcar width: 0
XAxis mode: Wavelengths
Number of Pixels in Spectrum: 2048
>>>>>Begin Spectral Data<<<<<
341.393	-6.43
341.776	-6.43
342.16	-6.43
342.543	-68.35
342.927	-65.41
343.31	-81.9
343.693	-68.8
344.077	-87.1
344.46	-34.67
344.843	-54.56
345.226	-50.04
345.61	-30.15
345.993	-34.67
346.376	-8.69
346.759	22.73
347.142	29.96
347.525	33.57
347.908	63.18
348.291	85.32
348.674	97.07
349.057	118.77
349.44	134.36
349.823	161.03
350.206	163.29
350.588	174.81
350.971	224.53
351.354	206
351.737	228.6
352.119	235.83
352.502	244.41
352.884	275.37
353.267	280.8
353.65	286.9
354.032	295.94
354.414	292.77
354.797	309.27
355.179	314.47
355.562	309.95
355.944	318.76
356.326	331.42
356.709	357.63
357.091	315.6
357.473	343.85
357.855	345.88
358.238	334.13
358.62	344.07
359.002	354.92
359.384	369.38
359.766	334.13
360.148	333.9
360.53	327.12
360.912	345.2
361.294	312.89
361.676	323.28
362.057	331.64
362.439	329.16
362.821	321.93
363.203	333.23
363.584	306.33
363.966	317.63
364.348	330.74
364.729	336.84
365.111	325.54
365.493	304.53
365.874	304.3
366.256	314.92
366.637	312.21
367.019	311.08
367.4	319.44
367.781	306.33
368.163	320.34
368.544	320.57
368.925	335.03
369.306	335.49
369.688	327.35
370.069	311.53
370.45	334.81
370.831	314.47
371.212	306.33
371.593	340.46
371.974	298.42
372.355	283.51
372.736	313.34
373.117	332.32
373.498	324.19
373.879	341.14
374.26	317.18
374.641	295.26
375.021	318.54
375.402	315.37
375.783	336.16
376.163	294.58
376.544	309.27
376.925	340.46
377.305	316.5
377.686	346.78
378.066	332.1
378.447	328.93
378.827	340.46
379.208	328.25
379.588	354.02
379.968	350.85
380.349	337.75
380.729	331.87
381.109	354.24
381.489	324.41
381.87	339.33
382.25	337.29
382.63	332.77
383.01	342.94
383.39	344.75
383.77	361.47
384.15	342.27
384.53	341.14
384.91	336.84
385.29	344.52
385.67	364.86
386.049	349.27
386.429	351.3
386.809	344.52
387.189	365.09
387.568	378.87
387.948	363.51
388.328	383.17
388.707	355.6
389.087	355.6
389.466	367.58
389.846	358.99
390.225	346.78
390.605	353.11
390.984	352.66
391.363	378.65
391.743	357.63
392.122	360.34
392.501	370.29
392.881	399.44
393.26	372.55
393.639	357.86
394.018	370.74
394.397	373
394.776	366.9
395.155	382.72
395.534	384.07
395.913	395.37
396.292	377.29
396.671	366.9
397.05	379.33
397.429	401.47
397.808	397.86
398.186	380.68
398.565	383.39
398.944	382.26
399.323	388.59
399.701	385.65
400.08	410.29
400.458	380.46
400.837	398.76
401.215	399.66
401.594	413.45
401.972	410.96
402.351	379.33
402.729	403.51
403.107	408.03
403.486	406.44
403.864	394.24
404.242	423.39
404.62	427.01
404.999	428.82
405.377	420.46
405.755	443.05
406.133	430.85
406.511	420.23
406.889	428.36
407.267	434.01
407.645	449.83
408.023	431.53
408.401	469.49
408.779	450.51
409.156	439.66
409.534	457.97
409.912	468.14
410.29	454.13
410.667	437.4
411.045	460.45
411.422	465.65
411.8	471.3
412.178	456.16
412.555	469.04
412.933	453.9
413.31	481.92
413.687	499.55
414.065	486.44
414.442	480.11
414.819	499.1
415.197	483.28
415.574	489.83
415.951	518.98
416.328	496.16
416.705	499.1
417.082	510.4
417.46	508.81
417.837	520.34
418.214	502.49
418.591	527.34
418.967	517.63
419.344	511.98
419.721	531.19
420.098	527.34
420.475	553.78
420.852	547.91
421.228	557.4
421.605	549.04
421.982	534.35
422.358	558.98
422.735	544.52
423.111	572.09
423.488	578.42
423.864	598.53
424.241	608.7
424.617	595.37
424.994	565.54
425.37	595.59
425.746	606.89
426.123	582.94
426.499	603.5
426.875	601.92
427.251	588.36
427.627	626.33
428.003	620.22
428.379	652.31
428.756	637.4
429.132	633.1
429.507	630.17
429.883	628.81
430.259	655.25
430.635	660
431.011	666.55
431.387	653.67
431.763	685.08
432.138	694.35
432.514	704.06
432.89	697.51
433.265	695.48
433.641	696.83
434.016	709.26
434.392	717.85
434.767	734.12
435.143	714.01
435.518	733.89
435.894	739.99
436.269	749.94
436.644	767.56
437.02	756.72
437.395	750.84
437.77	756.04
438.145	795.81
438.52	811.63
438.895	797.62
439.271	811.86
439.646	796.94
440.021	823.61
440.395	787.9
440.77	806.89
441.145	832.65
441.52	850.27
441.895	841.91
442.27	880.33
442.645	858.41
443.019	867.45
443.394	851.18
443.769	874.23
444.143	857.73
444.518	894.11
444.892	903.15
445.267	888.47
445.641	910.61
446.016	897.28
446.39	911.74
446.764	893.21
447.139	921.46
447.513	917.62
447.887	933.89
448.262	949.71
448.636	926.88
449.01	949.03
449.384	947.67
449.758	988.8
450.132	999.42
450.506	982.7
450.88	1003.26
451.254	1008.91
451.628	1007.56
452.002	1031.29
452.376	1029.7
452.75	1025.41
453.123	1029.93
453.497	1076.93
453.871	1062.7
454.244	1066.99
454.618	1081.23
454.992	1117.39
455.365	1085.75
455.739	1144.28
456.112	1136.14
456.486	1171.17
456.859	1135.46
457.232	1177.05
457.606	1197.84
457.979	1193.54
458.352	1196.03
458.725	1238.06
459.099	1228.8
459.472	1263.14
459.845	1289.81
460.218	1283.03
460.591	1309.7
460.964	1317.15
461.337	1334.56
461.71	1339.3
462.083	1332.52
462.456	1389.24
462.829	1398.96
463.201	1408.23
463.574	1431.05
463.947	1445.06
464.32	1483.03
464.692	1514.44
465.065	1503.82
465.438	1519.18
465.81	1550.59
466.183	1553.53
466.555	1599.86
466.928	1633.76
467.3	1630.59
467.672	1632.17
468.045	1707.2
468.417	1683.02
468.789	1724.6
469.161	1779.06
469.534	1808.22
469.906	1842.79
470.278	1833.53
470.65	1890.47
471.022	1947.87
471.394	1945.84
471.766	1997.81
472.138	2053.18
472.51	2092.28
472.882	2125.27
473.253	2158.94
473.625	2197.36
473.997	2229.9
474.369	2274.19
474.74	2349.44
475.112	2392.61
475.484	2458.82
475.855	2494.98
476.227	2579.95
476.598	2597.35
476.97	2676.67
477.341	2712.6
477.713	2812.03
478.084	2838.92
478.455	2967.28
478.827	3001.4
479.198	3084.79
479.569	3102.42
479.94	3249.76
480.311	3303.32
480.682	3384.67
481.053	3521.62
481.424	3603.87
481.795	3666.02
482.166	3717.09
482.537	3810.87
482.908	4011.32
483.279	4031.43
483.65	4166.35
484.021	4285.89
484.391	4331.76
484.762	4480.46
485.133	4537.18
485.503	4588.03
485.874	4773.11
486.244	4888.81
486.615	5005.65
486.985	5063.72
487.356	5232.76
487.726	5383.71
488.097	5510.49
488.467	5560.21
488.837	5740.09
489.207	5891.05
489.578	6049.01
489.948	6135.56
490.318	6308.21
490.688	6400.18
491.058	6523.57
491.428	6644.47
491.798	6748.42
492.168	6916.1
492.538	7020.96
492.908	7177.57
493.278	7327.62
493.648	7381.4
494.017	7508.63
494.387	7625.92
494.757	7785.46
495.126	7850.54
495.496	7970.76
495.866	8031.55
496.235	8245.79
496.605	8298.21
496.974	8422.05
497.344	8494.14
497.713	8645.32
498.082	8731.42
498.452	8824.98
498.821	8937.97
499.19	8976.61
499.559	9174.8
499.928	9225.65
500.298	9359.43
500.667	9410.73
501.036	9467
501.405	9594.45
501.774	9635.58
502.143	9754.9
502.512	9815.69
502.88	9927.78
503.249	9936.59
503.618	10048
503.987	10149.92
504.356	10162.12
504.724	10339.29
505.093	10283.47
505.462	10341.1
505.83	10496.35
506.199	10549.45
506.567	10691.6
506.936	10708.09
507.304	10826.51
507.672	10812.27
508.041	10898.37
508.409	10887.75
508.777	11088.42
509.145	11122.77
509.514	11137.24
509.882	11219.27
510.25	11168.42
510.618	11226.05
510.986	11273.95
511.354	11302.2
511.722	11472.59
512.09	11466.94
512.458	11472.59
512.826	11615.64
513.193	11602.08
513.561	11693.6
513.929	11734.96
514.297	11791
514.664	11825.8
515.032	11853.83
515.4	11931.79
515.767	12000.94
516.135	11997.78
516.502	11909.87
516.869	12068.74
517.237	12090.2
517.604	12047.04
517.972	12110.09
518.339	12161.84
518.706	12211.78
519.073	12187.15
519.44	12223.31
519.808	12368.16
520.175	12325.45
520.542	12415.85
520.909	12385.34
521.276	12370.65
521.643	12525.22
522.009	12556.41
522.376	12534.71
522.743	12598.21
523.11	12579.01
523.477	12690.41
523.843	12740.58
524.21	12775.84
524.577	12797.98
524.943	12743.52
525.31	12821.48
525.676	12891.54
526.043	12906.91
526.409	12958.43
526.776	12936.74
527.142	12900.58
527.508	12962.72
527.874	13036.39
528.241	13040.46
528.607	13009.73
528.973	13153
529.339	13029.62
529.705	13058.99
530.071	13169.05
530.437	13118.65
530.803	13211.98
531.169	13070.29
531.535	13031.65
531.901	13094.25
532.267	13040.24
532.632	13030.07
532.998	13023.06
533.364	13037.3
533.73	13020.58
534.095	13077.3
534.461	12959.56
534.826	12961.82
535.192	12922.95
535.557	13094.92
535.923	12980.58
536.288	12920.01
536.653	12968.15
537.019	12966.34
537.384	12885.44
537.749	12863.29
538.114	12862.61
538.479	12840.24
538.845	12768.6
539.21	12743.29
539.575	12801.6
539.94	12756.4
540.305	12776.74
540.67	12651.55
541.034	12634.37
541.399	12666.01
541.764	12588.95
542.129	12633.24
542.494	12517.09
542.858	12482.74
543.223	12459.91
543.587	12559.34
543.952	12420.14
544.316	12423.76
544.681	12364.1
545.045	12318
545.41	12347.83
545.774	12420.82
546.138	12240.71
546.503	12347.6
546.867	12283.65
547.231	12194.38
547.595	12225.34
547.959	12143.76
548.324	12169.98
548.688	12089.53
549.052	12085.01
549.416	12080.49
549.779	12030.09
550.143	11936.08
550.507	12018.79
550.871	12049.3
551.235	11871
551.599	11976.76
551.962	11914.39
552.326	11838.23
552.689	11876.2
553.053	11812.02
553.417	11806.14
553.78	11879.59
554.143	11678.69
554.507	11777.44
554.87	11754.39
555.234	11812.7
555.597	11660.84
555.96	11683.89
556.323	11657.9
556.686	11683.89
557.05	11775.41
557.413	11645.7
557.776	11616.54
558.139	11667.62
558.502	11620.61
558.865	11610.67
559.228	11694.06
559.59	11678.24
559.953	11638.24
560.316	11738.58
560.679	11610.67
561.041	11636.88
561.404	11680.95
561.767	11715.53
562.129	11582.42
562.492	11727.28
562.854	11666.49
563.217	11691.57
563.579	11621.29
563.941	11661.52
564.304	11703.77
564.666	11791.68
565.028	11725.02
565.39	11708.52
565.753	11747.84
566.115	11771.57
566.477	11750.33
566.839	11780.38
567.201	11795.07
567.563	11812.25
567.925	11806.6
568.287	11814.05
568.648	11811.34
569.01	11870.32
569.372	11880.49
569.734	11907.84
570.095	11867.39
570.457	11906.71
570.819	11898.12
571.18	11885.01
571.542	11921.62
571.903	11858.12
572.265	11878.91
572.626	11915.52
572.987	11899.48
573.349	12032.81
573.71	11970.66
574.071	11984.22
574.432	11974.5
574.794	12100.37
575.155	11988.29
575.516	12006.37
575.877	12106.25
576.238	11986.03
576.599	11980.6
576.96	12120.71
577.32	12072.8
577.681	12068.51
578.042	12113.71
578.403	12060.15
578.763	12103.31
579.124	12022.64
579.485	12118.9
579.845	12120.49
580.206	12172.46
580.566	12040.94
580.927	12078.91
581.287	12146.25
581.648	12067.38
582.008	12129.98
582.368	12136.98
582.728	12076.87
583.089	12010.88
583.449	12057.21
583.809	12112.58
584.169	12058.79
584.529	12023.54
584.889	12040.26
585.249	12025.35
585.609	11987.16
585.969	12015.63
586.329	11981.51
586.688	12027.16
587.048	11955.52
587.408	11979.25
587.768	11967.95
588.127	11995.29
588.487	11955.97
588.846	12020.83
589.206	11867.61
589.565	11876.43
589.925	11945.8
590.284	11859.25
590.643	12005.91
591.003	11993.48
591.362	11962.75
591.721	11974.73
592.08	11918.23
592.44	11849.76
592.799	11898.35
593.158	11849.99
593.517	11849.76
593.876	11852.02
594.235	11809.76
594.593	11853.37
594.952	11848.63
595.311	11820.61
595.67	11838.69
596.029	11918.68
596.387	11971.79
596.746	11892.02
597.104	11760.27
597.463	11826.03
597.822	11915.97
598.18	11805.01
598.538	11828.06
598.897	11871
599.255	11783.55
599.613	11920.04
599.972	11774.73
600.33	11813.83
600.688	11722.53
601.046	11873.94
601.404	11821.96
601.762	11825.8
602.12	11894.73
602.478	11817.44
602.836	11895.86
603.194	11762.76
603.552	11798.69
603.91	11808.86
604.268	11831.68
604.625	11754.62
604.983	11856.99
605.341	11757.56
605.698	11835.07
606.056	11877.1
606.413	11798.69
606.771	11856.09
607.128	11795.07
607.485	11862.41
607.843	11816.54
608.2	11849.99
608.557	11957.1
608.914	11890.44
609.272	11987.38
609.629	11986.7
609.986	12018.57
610.343	11953.49
610.7	11960.72
611.057	11943.09
611.414	11982.64
611.771	11975.86
612.127	12025.57
612.484	11904.9
612.841	12036.87
613.198	11981.06
613.554	11998.23
613.911	11960.04
614.267	12028.51
614.624	12007.04
614.98	12018.34
615.337	12089.07
615.693	12013.82
616.05	12004.33
616.406	12135.4
616.762	12054.5
617.118	12090.88
617.475	12082.97
617.831	12065.35
618.187	12161.39
618.543	12168.39
618.899	12204.33
619.255	12216.3
619.611	12129.07
619.967	12200.94
620.323	12238.22
620.678	12141.05
621.034	12174.72
621.39	12146.25
621.746	12129.75
622.101	12333.59
622.457	12086.59
622.812	12227.83
623.168	12191.67
623.523	12154.61
623.879	12280.71
624.234	12133.59
624.589	12213.82
624.945	12222.18
625.3	12222.4
625.655	12155.06
626.01	12225.57
626.365	12227.38
626.72	12055.4
627.075	12089.3
627.43	12119.36
627.785	12103.76
628.14	12163.88
628.495	12202.29
628.85	12127.04
629.205	12148.06
629.559	12232.8
629.914	12053.14
630.269	12141.5
630.623	12085.91
630.978	12034.84
631.332	12032.35
631.687	12188.51
632.041	12052.69
632.396	12090.43
632.75	11939.7
633.104	12011.11
633.459	12136.98
633.813	11926.59
634.167	11997.78
634.521	11961.39
634.875	11913.03
635.229	11877.1
635.583	11831
635.937	11929.53
636.291	11847.05
636.645	11849.31
636.999	11860.38
637.352	11908.06
637.706	11795.07
638.06	11882.75
638.413	11847.73
638.767	11892.7
639.121	11711.01
639.474	11681.4
639.828	11757.11
640.181	11759.82
640.534	11788.74
640.888	11661.52
641.241	11685.92
641.594	11748.74
641.947	11778.35
642.301	11682.08
642.654	11640.72
643.007	11696.77
643.36	11675.75
643.713	11628.75
644.066	11631.01
644.419	11578.58
644.771	11586.04
645.124	11445.93
645.477	11333.39
645.83	11403.67
646.182	11232.37
646.535	11274.63
646.888	11252.03
647.24	11200.96
647.593	11262.43
647.945	11229.44
648.298	11229.66
648.65	11111.7
649.002	11171.81
649.355	11258.59
649.707	11244.58
650.059	11315.99
650.411	11475.31
650.763	11447.06
651.115	11550.78
651.467	11485.47
651.819	11547.39
652.171	11540.84
652.523	11457
652.875	11468.3
653.227	11366.16
653.578	11520.73
653.93	11463.33
654.282	11401.64
654.633	11485.47
654.985	11408.64
655.337	11455.42
655.688	11489.32
656.039	11540.61
656.391	11445.7
656.742	11469.2
657.094	11561.18
657.445	11511.01
657.796	11409.77
658.147	11446.61
658.498	11416.55
658.849	11521.18
659.2	11527.51
659.551	11470.79
659.902	11509.65
660.253	11430.56
660.604	11572.93
660.955	11403.67
661.306	11508.75
661.656	11533.61
662.007	11506.72
662.358	11475.31
662.708	11564.34
663.059	11514.63
663.409	11401.41
663.76	11475.31
664.11	11617.9
664.461	11495.42
664.811	11555.53
665.161	11545.13
665.511	11503.55
665.862	11499.49
666.212	11457.23
666.562	11560.95
666.912	11509.65
667.262	11479.83
667.612	11485.93
667.962	11512.14
668.312	11535.87
668.662	11573.61
669.011	11465.81
669.361	11497
669.711	11479.37
670.06	11471.24
670.41	11484.8
670.76	11470.11
671.109	11510.78
671.459	11508.3
671.808	11423.1
672.157	11466.27
672.507	11401.86
672.856	11470.33
673.205	11461.29
673.554	11422.88
673.904	11420.84
674.253	11489.77
674.602	11429.43
674.951	11191.92
675.3	11177.91
675.649	11409.54
675.998	11321.19
676.346	11332.94
676.695	11433.5
677.044	11294.97
677.393	11357.57
677.741	11342.43
678.09	11327.06
678.438	11331.81
678.787	11273.5
679.135	11326.16
679.484	11249.32
679.832	11301.98
680.181	11226.5
680.529	11225.59
680.877	11132.72
681.225	11107.18
681.573	11102.21
681.922	11095.65
682.27	11087.75
682.618	11144.69
682.966	11028.76
683.314	11081.19
683.661	11032.83
684.009	10894.08
684.357	10945.6
684.705	10885.94
685.053	10912.83
685.4	10996
685.748	10796.91
686.095	10867.41
686.443	10786.74
686.79	10833.06
687.138	10832.38
687.485	10834.87
687.832	10776.79
688.18	10761.88
688.527	10708.55
688.874	10588.1
689.221	10619.28
689.568	10636.01
689.915	10573.63
690.262	10576.35
690.609	10560.53
690.956	10536.35
691.303	10472.62
691.65	10528.89
691.997	10402.34
692.344	10337.26
692.69	10301.33
693.037	10302.23
693.383	10235.56
693.73	10166.19
694.077	10176.81
694.423	10236.47
694.769	10121.89
695.116	10097.04
695.462	10087.55
695.808	10031.28
696.155	10059.07
696.501	9941.56
696.847	9980.88
697.193	9931.62
697.539	9945.85
697.885	9827.44
698.231	9831.06
698.577	9803.26
698.923	9758.51
699.269	9760.1
699.614	9656.37
699.96	9585.86
700.306	9659.53
700.651	9495.92
700.997	9580.67
701.342	9530.05
701.688	9502.7
702.033	9485.3
702.379	9449.6
702.724	9362.59
703.069	9438.07
703.415	9252.31
703.76	9317.62
704.105	9330.73
704.45	9259.54
704.795	9262.93
705.14	9186.78
705.485	9225.65
705.83	9104.97
706.175	9093.22
706.52	9119.89
706.865	9081.24
707.209	9078.08
707.554	9016.61
707.899	8981.13
708.243	8958.31
708.588	8921.47
708.932	8870.4
709.277	8876.96
709.621	8862.49
709.966	8790.63
710.31	8793.79
710.654	8662.95
710.998	8770.07
711.342	8746.56
711.687	8703.18
712.031	8682.61
712.375	8628.37
712.719	8704.53
713.063	8636.96
713.407	8681.03
713.75	8593.57
714.094	8553.8
714.438	8581.14
714.782	8566.68
715.125	8514.25
715.469	8544.99
715.812	8489.17
716.156	8521.03
716.499	8453.46
716.843	8452.11
717.186	8436.06
717.53	8497.98
717.873	8430.87
718.216	8399.91
718.559	8347.48
718.902	8384.09
719.246	8341.38
719.589	8311.77
719.932	8296.41
720.275	8312.45
720.617	8257.31
720.96	8319.91
721.303	8291.43
721.646	8262.28
721.989	8237.42
722.331	8197.88
722.674	8251.21
723.016	8233.81
723.359	8269.29
723.701	8253.24
724.044	8159.46
724.386	8149.74
724.729	8223.87
725.071	8178.9
725.413	8210.76
725.755	8197.2
726.097	8139.35
726.439	8144.09
726.782	8171.21
727.124	8216.18
727.465	8187.26
727.807	8177.31
728.149	8165.79
728.491	8067.49
728.833	8142.74
729.175	8141.16
729.516	8141.83
729.858	8078.33
730.199	8104.77
730.541	8086.92
730.882	8090.54
731.224	8157.65
731.565	8120.14
731.906	8111.1
732.248	8079.69
732.589	8076.52
732.93	8051.21
733.271	8089.63
733.612	8029.75
733.953	8108.84
734.294	8081.27
734.635	8015.51
734.976	8044.66
735.317	8032.46
735.658	7977.32
735.999	8035.85
736.339	8025.23
736.68	8041.95
737.021	8065.45
737.361	8074.49
737.702	8112.91
738.042	8098.45
738.383	8086.02
738.723	8114.94
739.063	8112.91
739.404	8116.98
739.744	8127.82
740.084	8109.29
740.424	8116.98
740.764	8123.98
741.104	8162.17
741.444	8136.86
741.784	8173.02
742.124	8218.67
742.464	8278.1
742.804	8238.78
743.143	8203.75
743.483	8245.79
743.823	8207.59
744.162	8300.7
744.502	8378.21
744.841	8284.43
745.181	8356.29
745.52	8414.6
745.86	8461.83
746.199	8460.92
746.538	8505.44
746.877	8553.12
747.216	8579.34
747.556	8628.83
747.895	8624.31
748.234	8686.9
748.573	8738.65
748.911	8792.44
749.25	8845.54
749.589	8900.46
749.928	8937.29
750.267	8997.86
750.605	9036.5
750.944	9112.2
751.283	9254.35
751.621	9349.49
751.96	9313.1
752.298	9417.96
752.636	9510.61
752.975	9580.89
753.313	9648.24
753.651	9829.02
753.989	9822.92
754.327	9968.9
754.666	10039.86
755.004	10212.06
755.342	10304.94
755.679	10455.67
756.017	10469.23
756.355	10664.03
756.693	10763.01
757.031	10996.67
757.368	10998.26
757.706	11158.03
758.044	11295.88
758.381	11454.52
758.719	11604.34
759.056	11755.75
759.394	11872.81
759.731	11915.97
760.068	12129.98
