Data from hue_50_FLMS001491_6.txt Node
Date: Mon Feb 06 15:09:30 GMT 2017
User: dcchb
Spectrometer: FLMS00149
Trigger mode: 0
Integration Time (sec): 2.000000E-2
Scans to average: 10
Electric dark correction enabled: true
Nonlinearity correction enabled: false
Boxcar width: 0
XAxis mode: Wavelengths
Number of Pixels in Spectrum: 2048
>>>>>Begin Spectral Data<<<<<
341.393	-23.25
341.776	-23.25
342.16	-23.25
342.543	-67.99
342.927	-35.9
343.31	-73.19
343.693	-64.38
344.077	-59.18
344.46	-57.15
344.843	-23.47
345.226	-35.9
345.61	-35
345.993	-17.37
346.376	-11.5
346.759	10.2
347.142	11.33
347.525	53.81
347.908	43.42
348.291	70.31
348.674	75.73
349.057	112.34
349.44	129.97
349.823	127.93
350.206	157.76
350.588	199.35
350.971	223.53
351.354	236.63
351.737	248.84
352.119	260.13
352.502	258.55
352.884	280.7
353.267	308.72
353.65	312.34
354.032	295.39
354.414	297.87
354.797	330.19
355.179	337.87
355.562	319.12
355.944	342.62
356.326	343.52
356.709	336.29
357.091	342.62
357.473	365.67
357.855	349.62
358.238	342.17
358.62	342.62
359.002	349.4
359.384	342.62
359.766	334.48
360.148	332.22
360.53	362.28
360.912	339.45
361.294	327.25
361.676	348.95
362.057	356.86
362.439	324.99
362.821	327.93
363.203	310.98
363.584	346.01
363.966	336.06
364.348	330.87
364.729	326.35
365.111	342.39
365.493	346.91
365.874	322.05
366.256	343.97
366.637	332.45
367.019	331.54
367.4	321.83
367.781	327.48
368.163	314.82
368.544	301.26
368.925	313.69
369.306	315.27
369.688	316.63
370.069	335.84
370.45	291.55
370.831	315.27
371.212	329.96
371.593	322.73
371.974	331.77
372.355	323.86
372.736	316.18
373.117	334.48
373.498	316.63
373.879	310.53
374.26	321.83
374.641	322.28
375.021	309.85
375.402	320.25
375.783	322.51
376.163	327.93
376.544	339.23
376.925	325.9
377.305	335.84
377.686	328.38
378.066	327.03
378.447	317.99
378.827	317.76
379.208	314.37
379.588	328.83
379.968	317.53
380.349	342.17
380.729	321.83
381.109	345.78
381.489	339.23
381.87	335.61
382.25	340.81
382.63	343.3
383.01	331.32
383.39	330.42
383.77	334.48
384.15	328.16
384.53	333.35
384.91	349.62
385.29	334.48
385.67	335.84
386.049	339.68
386.429	329.06
386.809	369.74
387.189	357.08
387.568	334.26
387.948	374.03
388.328	351.66
388.707	377.42
389.087	364.31
389.466	344.43
389.846	366.57
390.225	357.08
390.605	349.62
390.984	360.47
391.363	370.64
391.743	388.94
392.122	350.3
392.501	398.44
392.881	362.5
393.26	351.21
393.639	379.91
394.018	368.83
394.397	388.94
394.776	368.15
395.155	368.61
395.534	361.6
395.913	368.83
396.292	378.78
396.671	381.26
397.05	385.1
397.429	378.32
397.808	383.07
398.186	357.76
398.565	360.92
398.944	356.18
399.323	387.81
399.701	399.34
400.08	374.48
400.458	414.48
400.837	388.72
401.215	397.76
401.594	397.53
401.972	400.7
402.351	404.76
402.729	377.87
403.107	370.87
403.486	387.81
403.864	373.8
404.242	407.25
404.62	414.03
404.999	390.98
405.377	394.82
405.755	417.87
406.133	430.53
406.511	407.25
406.889	415.84
407.267	437.08
407.645	412.22
408.023	398.44
408.401	427.59
408.779	446.34
409.156	414.48
409.534	407.25
409.912	431.66
410.29	442.5
410.667	423.07
411.045	442.95
411.422	428.72
411.8	433.92
412.178	446.34
412.555	448.38
412.933	450.86
413.31	444.54
413.687	444.31
414.065	471.43
414.442	446.57
414.819	455.61
415.197	437.08
415.574	462.39
415.951	477.98
416.328	448.83
416.705	463.97
417.082	466.91
417.46	470.07
417.837	482.95
418.214	481.82
418.591	485.21
418.967	465.78
419.344	492.9
419.721	497.64
420.098	493.35
420.475	487.7
420.852	488.15
421.228	477.3
421.605	488.38
421.982	505.1
422.358	509.39
422.735	501.26
423.111	512.33
423.488	524.53
423.864	525.89
424.241	495.38
424.617	527.7
424.994	520.24
425.37	524.31
425.746	535.83
426.123	521.37
426.499	532.22
426.875	553.69
427.251	562.5
427.627	542.39
428.003	558.66
428.379	565.66
428.756	528.83
429.132	552.1
429.507	562.27
429.883	557.3
430.259	580.35
430.635	563.4
431.011	557.75
431.387	586
431.763	597.53
432.138	590.3
432.514	590.75
432.89	607.24
433.265	588.04
433.641	618.09
434.016	623.51
434.392	609.73
434.767	622.84
435.143	628.26
435.518	637.07
435.894	627.36
436.269	634.36
436.644	639.79
437.02	646.11
437.395	630.97
437.77	646.79
438.145	653.8
438.52	655.38
438.895	649.05
439.271	652.89
439.646	694.25
440.021	658.54
440.395	673.23
440.77	675.26
441.145	695.6
441.52	697.64
441.895	710.97
442.27	682.72
442.645	688.15
443.019	701.93
443.394	715.49
443.769	712.78
444.143	719.78
444.518	701.03
444.892	717.07
445.267	724.53
445.641	742.61
446.016	733.57
446.39	713.91
446.764	741.03
447.139	736.05
447.513	743.29
447.887	746
448.262	752.78
448.636	768.14
449.01	757.3
449.384	760.91
449.758	767.24
450.132	751.87
450.506	769.73
450.88	767.24
451.254	777.18
451.628	785.09
452.002	793.23
452.376	813.57
452.75	806.56
453.123	814.47
453.497	813.57
453.871	832.32
454.244	840.23
454.618	859.67
454.992	849.72
455.365	842.94
455.739	891.98
456.112	868.93
456.486	880.23
456.859	897.86
457.232	887.46
457.606	904.19
457.979	922.72
458.352	912.32
458.725	941.47
459.099	957.97
459.472	955.71
459.845	974.69
460.218	986.22
460.591	985.31
460.964	988.93
461.337	1005.88
461.71	996.39
462.083	1027.12
462.456	1026.22
462.829	1038.42
463.201	1048.14
463.574	1072.77
463.947	1083.84
464.32	1117.74
464.692	1102.82
465.065	1108.02
465.438	1137.4
465.81	1123.84
466.183	1166.78
466.555	1192.54
466.928	1187.34
467.3	1202.48
467.672	1202.48
468.045	1247
468.417	1242.03
468.789	1267.34
469.161	1289.94
469.534	1308.92
469.906	1322.48
470.278	1353.66
470.65	1383.72
471.022	1388.24
471.394	1416.49
471.766	1455.13
472.138	1474.79
472.51	1522.02
472.882	1552.98
473.253	1567.9
473.625	1599.99
473.997	1642.92
474.369	1658.52
474.74	1676.14
475.112	1706.65
475.484	1773.77
475.855	1795.01
476.227	1831.62
476.598	1875.23
476.97	1963.37
477.341	2013.76
477.713	2028.22
478.084	2072.06
478.455	2133.98
478.827	2190.25
479.198	2273.87
479.569	2298.5
479.94	2416.46
480.311	2451.94
480.682	2504.37
481.053	2611.94
481.424	2684.03
481.795	2761.99
482.166	2798.37
482.537	2831.59
482.908	3011.93
483.279	3022.55
483.65	3109.33
484.021	3234.52
484.391	3305.25
484.762	3409.2
485.133	3459.82
485.503	3538.69
485.874	3647.84
486.244	3724.22
486.615	3887.16
486.985	3943.43
487.356	4068.17
487.726	4152.91
488.097	4316.75
488.467	4395.17
488.837	4529.63
489.207	4674.71
489.578	4806.23
489.948	4893.23
490.318	4990.63
490.688	5080.12
491.058	5277.86
491.428	5393.11
491.798	5538.41
492.168	5650.5
492.538	5696.15
492.908	5860.21
493.278	5971.4
493.648	6110.15
494.017	6211.62
494.387	6349.92
494.757	6431.27
495.126	6623.36
495.496	6654.54
495.866	6861.54
496.235	6954.65
496.605	7057.92
496.974	7169.56
497.344	7341.08
497.713	7440.74
498.082	7587.63
498.452	7732.48
498.821	7802.99
499.19	7975.19
499.559	8021.96
499.928	8174.95
500.298	8261.51
500.667	8390.32
501.036	8486.36
501.405	8672.12
501.774	8711.44
502.143	8868.95
502.512	8934.03
502.88	9082.28
503.249	9149.84
503.618	9280.01
503.987	9354.13
504.356	9459.89
504.724	9598.42
505.093	9687.46
505.462	9681.36
505.83	9900.56
506.199	10006.32
506.567	10169.03
506.936	10223.04
507.304	10416.93
507.672	10541.22
508.041	10625.06
508.409	10687.66
508.777	10811.27
509.145	10936.92
509.514	10936.24
509.882	11072.28
510.25	11243.12
510.618	11235.89
510.986	11408.54
511.354	11494.42
511.722	11640.85
512.09	11752.94
512.458	11756.33
512.826	11923.33
513.193	12078.81
513.561	12055.08
513.929	12215.3
514.297	12302.98
514.664	12455.07
515.032	12484.22
515.4	12632.46
515.767	12739.58
516.135	12801.95
516.502	12827.94
516.869	13051.89
517.237	13098.21
517.604	13034.49
517.972	13314.93
518.339	13425.66
518.706	13483.74
519.073	13570.07
519.44	13614.81
519.808	13683.06
520.175	13825.88
520.542	13960.79
520.909	14053.67
521.276	14151.75
521.643	14323.04
522.009	14281.91
522.376	14445.07
522.743	14459.99
523.11	14718.51
523.477	14855.91
523.843	14931.61
524.21	15009.13
524.577	15250.25
524.943	15318.27
525.31	15304.48
525.676	15545.16
526.043	15613.4
526.409	15671.48
526.776	15853.4
527.142	15886.16
527.508	16093.62
527.874	16163.45
528.241	16201.86
528.607	16280.73
528.973	16493.38
529.339	16577.9
529.705	16715.97
530.071	16822.41
530.437	16799.36
530.803	17007.72
531.169	17109.86
531.535	17066.02
531.901	17158.45
532.267	17188.95
532.632	17342.85
532.998	17440.02
533.364	17548.04
533.73	17643.86
534.095	17687.47
534.461	17768.83
534.826	17924.3
535.192	17975.6
535.557	18087.01
535.923	18068.93
536.288	18091.76
536.653	18300.34
537.019	18213.56
537.384	18366.78
537.749	18512.31
538.114	18458.07
538.479	18460.79
538.845	18597.96
539.21	18618.52
539.575	18714.34
539.94	18902.58
540.305	18968.8
540.67	18955.46
541.034	18947.55
541.399	19141.67
541.764	19209.24
542.129	19221.67
542.494	19289.92
542.858	19312.97
543.223	19393.87
543.587	19428.9
543.952	19460.53
544.316	19608.33
544.681	19657.14
545.045	19804.03
545.41	19742.79
545.774	19940.07
546.138	19877.25
546.503	20025.49
546.867	19967.86
547.231	20270
547.595	20250.57
547.959	20343.22
548.324	20215.77
548.688	20354.75
549.052	20527.4
549.416	20498.92
549.779	20563.56
550.143	20686.49
550.507	20712.48
550.871	20800.84
551.235	20769.43
551.599	20986.6
551.962	20976.65
552.326	21105.91
552.689	21186.14
553.053	21103.88
553.417	21115.86
553.78	21547.26
554.143	21413.48
554.507	21525.34
554.87	21524.89
555.234	21817.08
555.597	21664.32
555.96	21812.79
556.323	21993.35
556.686	21933.46
557.05	22068.15
557.413	22122.84
557.776	22227.01
558.139	22389.72
558.502	22463.17
558.865	22479.21
559.228	22536.84
559.59	22652.99
559.953	22719.66
560.316	22926.88
560.679	22913.78
561.041	23059.31
561.404	23266.99
561.767	23276.03
562.129	23277.83
562.492	23554.44
562.854	23513.99
563.217	23391.28
563.579	23582.23
563.941	23756.47
564.304	23854.09
564.666	24006.18
565.028	24004.14
565.39	24077.59
565.753	24278.26
566.115	24312.61
566.477	24456.11
566.839	24507.18
567.201	24755.54
567.563	24709.21
567.925	24777.91
568.287	24796.89
568.648	24826.72
569.01	25057.9
569.372	25266.71
569.734	25223.32
570.095	25342.64
570.457	25550.32
570.819	25549.19
571.18	25458.12
571.542	25822.63
571.903	25735.4
572.265	25823.3
572.626	25900.59
572.987	26014.49
573.349	26256.96
573.71	26221.49
574.071	26311.65
574.432	26421.03
574.794	26545.32
575.155	26564.53
575.516	26531.08
575.877	26721.81
576.238	26841.36
576.599	26954.12
576.96	27008.58
577.32	27031.18
577.681	27303.72
578.042	27279.08
578.403	27373.32
578.763	27515.01
579.124	27564.5
579.485	27650.83
579.845	27847.66
580.206	27793.87
580.566	27891.27
580.927	27936.02
581.287	28159.29
581.648	28112.06
582.008	28240.64
582.368	28389.56
582.728	28500.52
583.089	28524.93
583.449	28672.72
583.809	28725.6
584.169	28895.09
584.529	28893.96
584.889	29112.03
585.249	29063.9
585.609	29089.43
585.969	29329.88
586.329	29307.96
586.688	29602.41
587.048	29585.69
587.408	29575.52
587.768	29620.72
588.127	29715.41
588.487	29824.55
588.846	30183.19
589.206	30067.03
589.565	30176.41
589.925	30429.28
590.284	30234.71
590.643	30486.01
591.003	30671.54
591.362	30751.76
591.721	30928.71
592.08	30954.92
592.44	31120.11
592.799	31349.94
593.158	31285.53
593.517	31368.69
593.876	31522.59
594.235	31292.09
594.593	31471.07
594.952	31691.17
595.311	31633.32
595.67	31866.31
596.029	32075.8
596.387	32177.49
596.746	32317.82
597.104	32171.61
597.463	32307.43
597.822	32502.68
598.18	32443.69
598.538	32501.09
598.897	32809.34
599.255	32568.44
599.613	33101.98
599.972	32910.58
600.33	33167.74
600.688	32935.89
601.046	33180.17
601.404	33361.18
601.762	33358.02
602.12	33595.98
602.478	33620.39
602.836	33590.78
603.194	33591.24
603.552	33531.8
603.91	33706.49
604.268	33932.02
604.625	33800.5
604.983	33965.01
605.341	33905.13
605.698	34215.85
606.056	34341.95
606.413	34241.39
606.771	34380.59
607.128	34702.62
607.485	34452
607.843	34486.13
608.2	34766.8
608.557	34918.43
608.914	34867.36
609.272	34918.66
609.629	35018.99
609.986	35118.88
610.343	35142.16
610.7	35434.35
611.057	35433.22
611.414	35433.9
611.771	35544.63
612.127	35641.8
612.484	35600.45
612.841	35869.59
613.198	35636.15
613.554	35837.05
613.911	36144.39
614.267	36033.21
614.624	36010.38
614.98	36056.71
615.337	36260.54
615.693	36303.71
616.05	36343.71
616.406	36573.3
616.762	36327.66
617.118	36415.12
617.475	36496.24
617.831	36749.34
618.187	36626.41
618.543	36835.44
618.899	37191.82
619.255	36941.43
619.611	36974.65
619.967	37049.45
620.323	37240.63
620.678	37128.32
621.034	37102.78
621.39	37068.43
621.746	37119.73
622.101	37494.64
622.457	37138.03
622.812	37282.44
623.168	37503.45
623.523	37367.86
623.879	37530.57
624.234	37396.79
624.589	37428.87
624.945	37609.66
625.3	37654.18
625.655	37615.99
626.01	37590.9
626.365	37621.64
626.72	37521.98
627.075	37578.93
627.43	37660.73
627.785	37677.46
628.14	37728.98
628.495	37703.22
628.85	37713.61
629.205	37647.63
629.559	37839.71
629.914	37737.12
630.269	37767.85
630.623	37576.67
630.978	37504.58
631.332	37732.82
631.687	37857.79
632.041	37655.31
632.396	37808.98
632.75	37639.04
633.104	37708.42
633.459	37512.94
633.813	37551.13
634.167	37496.22
634.521	37620.96
634.875	37654.18
635.229	37661.41
635.583	37408.54
635.937	37538.25
636.291	37391.36
636.645	37428.87
636.999	37432.94
637.352	37507.06
637.706	37271.59
638.06	37428.87
638.413	37518.82
638.767	37235.66
639.121	37309.33
639.474	37219.16
639.828	37247.86
640.181	37273.62
640.534	37370.12
640.888	37238.37
641.241	37140.07
641.594	37180.52
641.947	37308.88
642.301	37135.55
642.654	37256.68
643.007	37170.12
643.36	37079.96
643.713	37004.25
644.066	37178.71
644.419	36907.31
644.771	36650.14
645.124	36289.02
645.477	36327.89
645.83	36061.23
646.182	35951.4
646.535	35797.05
646.888	35898.75
647.24	35686.1
647.593	35930.16
647.945	35809.48
648.298	35729.48
648.65	35638.19
649.002	35609.94
649.355	35712.54
649.707	35669.37
650.059	35828.92
650.411	36216.48
650.763	36209.47
651.115	36696.69
651.467	36545.51
651.819	36495.11
652.171	36372.63
652.523	36365.63
652.875	36324.95
653.227	36159.76
653.578	36491.5
653.93	36153.43
654.282	36260.77
654.633	36284.72
654.985	36141.68
655.337	36284.72
655.688	36243.14
656.039	36319.3
656.391	36112.3
656.742	36152.3
657.094	36033.88
657.445	36312.07
657.796	36122.92
658.147	36014.22
658.498	35997.95
658.849	36063.49
659.2	35937.84
659.551	36002.92
659.902	36098.74
660.253	36083.37
660.604	36105.29
660.955	35803.15
661.306	36131.51
661.656	35857.16
662.007	36002.25
662.358	36032.98
662.708	36019.65
663.059	35924.73
663.409	35682.93
663.76	36037.27
664.11	36059.19
664.461	35988.46
664.811	35998.18
665.161	36059.42
665.511	35850.16
665.862	35876.15
666.212	36024.17
666.562	36021.23
666.912	36025.07
667.262	35890.84
667.612	35893.55
667.962	36014.67
668.312	35791.63
668.662	35980.78
669.011	35773.1
669.361	35809.93
669.711	35675.93
670.06	35862.81
670.41	35659.66
670.76	35698.52
671.109	35779.43
671.459	35705.53
671.808	35681.35
672.157	35715.47
672.507	35529.49
672.856	35530.39
673.205	35654.46
673.554	35636.83
673.904	35508.47
674.253	35723.38
674.602	35584.63
674.951	35094.47
675.3	35008.83
675.649	35375.6
675.998	35431.86
676.346	35519.77
676.695	35477.51
677.044	35373.56
677.393	35424.18
677.741	35282.72
678.09	35443.16
678.438	35307.8
678.787	35367.23
679.135	35319.78
679.484	35042.5
679.832	35291.3
680.181	35040.01
680.529	35188.93
680.877	35068.26
681.225	35030.07
681.573	35111.87
681.922	34938.32
682.27	34868.72
682.618	34786.68
682.966	34747.82
683.314	34823.52
683.661	34766.57
684.009	34696.52
684.357	34506.24
684.705	34518.22
685.053	34592.11
685.4	34506.92
685.748	34341.95
686.095	34363.87
686.443	34266.47
686.79	34094.27
687.138	34147.6
687.485	34254.27
687.832	34114.16
688.18	34100.15
688.527	33929.98
688.874	33891.34
689.221	33744.68
689.568	33671.91
689.915	33603.89
690.262	33656.09
690.609	33478.02
690.956	33444.35
691.303	33390.79
691.65	33239.38
691.997	33289.32
692.344	33135.43
692.69	33058.82
693.037	32974.08
693.383	32854.98
693.73	32991.48
694.077	32688.21
694.423	32806.62
694.769	32512.17
695.116	32685.95
695.462	32517.82
695.808	32412.51
696.155	32428.1
696.501	32144.95
696.847	32245.06
697.193	32033.76
697.539	32194.21
697.885	31879.64
698.231	31812.3
698.577	31815.91
698.923	31743.15
699.269	31518.52
699.614	31427.68
699.96	31349.94
700.306	31511.97
700.651	31383.61
700.997	31163.05
701.342	31247.34
701.688	31110.62
702.033	30926.9
702.379	31010.74
702.724	30841.03
703.069	30873.11
703.415	30711.09
703.76	30572.33
704.105	30653.91
704.45	30531.2
704.795	30354.94
705.14	30231.78
705.485	30340.02
705.83	30197.43
706.175	30171.21
706.52	30077.66
706.865	29932.12
707.209	29891.9
707.554	29809.19
707.899	29910.2
708.243	29697.78
708.588	29675.18
708.932	29482.19
709.277	29496.88
709.621	29473.6
709.966	29389.54
710.31	29291.46
710.654	29169.66
710.998	29128.53
711.342	29150.9
711.687	29137.57
712.031	28983.9
712.375	28832.04
712.719	28911.58
713.063	28856.44
713.407	29012.6
713.75	28796.33
714.094	28760.85
714.438	28719.05
714.782	28665.72
715.125	28418.94
715.469	28541.2
715.812	28387.98
716.156	28213.52
716.499	28284.26
716.843	28245.16
717.186	28070.48
717.53	28340.3
717.873	28177.82
718.216	28162.9
718.559	27848.34
718.902	27786.19
719.246	27886.53
719.589	27740.99
719.932	27692.86
720.275	27759.98
720.617	27693.99
720.96	27578.51
721.303	27685.85
721.646	27625.52
721.989	27375.13
722.331	27447.67
722.674	27390.49
723.016	27430.72
723.359	27415.8
723.701	27394.56
724.044	27125.64
724.386	27098.75
724.729	27262.14
725.071	27101.01
725.413	27166.55
725.755	27061.92
726.097	26904.63
726.439	26906.89
726.782	26858.08
727.124	26944.86
727.465	26784.41
727.807	26800.45
728.149	26675.71
728.491	26712.77
728.833	26747.57
729.175	26470.29
729.516	26510.74
729.858	26564.98
730.199	26581.25
730.541	26349.39
730.882	26394.81
731.224	26425.32
731.565	26237.3
731.906	26237.98
732.248	26285.66
732.589	26190.53
732.93	26162.28
733.271	26042.96
733.612	26118.66
733.953	26176.52
734.294	26039.34
734.635	26077.31
734.976	26128.38
735.317	25851.55
735.658	25841.16
735.999	25834.83
736.339	25657.43
736.68	25868.27
737.021	25782.18
737.361	25529.98
737.702	25903.98
738.042	25542.18
738.383	25614.27
738.723	25597.32
739.063	25534.05
739.404	25590.99
739.744	25348.29
740.084	25492.24
740.424	25491.34
740.764	25308.52
741.104	25421.51
741.444	25287.95
741.784	25184.22
742.124	25129.31
742.464	25159.59
742.804	25179.48
743.143	25078.69
743.483	25075.08
743.823	24964.8
744.162	24918.92
744.502	24984.68
744.841	24773.39
745.181	24976.77
745.52	24738.59
745.86	24907.85
746.199	24724.35
746.538	24720.51
746.877	24774.52
747.216	24706.05
747.556	24645.26
747.895	24616.33
748.234	24502.66
748.573	24503.34
748.911	24462.89
749.25	24473.28
749.589	24367.3
749.928	24291.59
750.267	24424.7
750.605	24270.35
750.944	24309.22
751.283	24160.07
751.621	24191.03
751.96	24108.09
752.298	24126.4
752.636	24056.12
752.975	24006.63
753.313	23837.59
753.651	23903.13
753.989	23817.03
754.327	23786.3
754.666	23678.5
755.004	23685.28
755.342	23725.28
755.679	23577.49
756.017	23552.18
756.355	23510.82
756.693	23464.5
