Data from hue_310_FLMS001491_14.txt Node
Date: Mon Feb 06 15:48:54 GMT 2017
User: dcchb
Spectrometer: FLMS00149
Trigger mode: 0
Integration Time (sec): 2.000000E-2
Scans to average: 10
Electric dark correction enabled: true
Nonlinearity correction enabled: false
Boxcar width: 0
XAxis mode: Wavelengths
Number of Pixels in Spectrum: 2048
>>>>>Begin Spectral Data<<<<<
341.393	-23.71
341.776	-23.71
342.16	-23.71
342.543	-81.79
342.927	-73.43
343.31	-70.04
343.693	-61.45
344.077	-89.02
344.46	-63.94
344.843	-49.7
345.226	-53.09
345.61	-29.14
345.993	-19.19
346.376	-6.77
346.759	22.16
347.142	28.49
347.525	33.01
347.908	59.22
348.291	77.53
348.674	96.06
349.057	125.89
349.44	133.34
349.823	145.32
350.206	150.52
350.588	178.09
350.971	193.46
351.354	219.9
351.737	245.43
352.119	247.47
352.502	260.35
352.884	284.3
353.267	265.09
353.65	286.11
354.032	294.92
354.414	301.02
354.797	320.01
355.179	316.84
355.562	333.11
355.944	321.59
356.326	337.41
356.709	323.62
357.091	339.89
357.473	348.03
357.855	341.7
358.238	329.72
358.62	332.21
359.002	331.08
359.384	351.64
359.766	325.43
360.148	334.69
360.53	333.56
360.912	334.47
361.294	325.2
361.676	317.52
362.057	319.78
362.439	325.88
362.821	319.1
363.203	305.32
363.584	307.35
363.966	310.29
364.348	314.13
364.729	329.05
365.111	315.26
365.493	325.88
365.874	320.91
366.256	297.63
366.637	305.09
367.019	319.78
367.4	310.97
367.781	315.03
368.163	317.97
368.544	316.16
368.925	310.74
369.306	327.46
369.688	308.03
370.069	317.75
370.45	311.42
370.831	299.22
371.212	292.89
371.593	307.12
371.974	309.84
372.355	289.72
372.736	297.86
373.117	325.66
373.498	330.63
373.879	332.89
374.26	311.19
374.641	315.71
375.021	304.41
375.402	298.31
375.783	316.84
376.163	333.34
376.544	331.98
376.925	336.73
377.305	324.98
377.686	330.63
378.066	297.18
378.447	302.38
378.827	322.27
379.208	335.37
379.588	322.49
379.968	336.28
380.349	340.34
380.729	322.94
381.109	352.55
381.489	345.99
381.87	326.79
382.25	327.24
382.63	346.45
383.01	345.99
383.39	332.43
383.77	329.95
384.15	362.04
384.53	337.86
384.91	339.44
385.29	332.43
385.67	329.95
386.049	364.52
386.429	355.26
386.809	349.61
387.189	365.2
387.568	381.02
387.948	346.22
388.328	332.89
388.707	363.62
389.087	356.84
389.466	364.07
389.846	352.55
390.225	353.9
390.605	360.46
390.984	353.23
391.363	348.93
391.743	368.37
392.122	347.12
392.501	409.49
392.881	381.7
393.26	354.58
393.639	370.17
394.018	370.17
394.397	380.12
394.776	368.37
395.155	361.13
395.534	385.99
395.913	375.82
396.292	357.97
396.671	381.92
397.05	405.43
397.429	395.03
397.808	392.55
398.186	371.08
398.565	396.84
398.944	382.6
399.323	395.48
399.701	385.31
400.08	391.87
400.458	406.78
400.837	385.77
401.215	404.07
401.594	396.39
401.972	394.81
402.351	405.43
402.729	418.53
403.107	403.85
403.486	416.95
403.864	408.36
404.242	411.75
404.62	444.97
404.999	451.3
405.377	423.05
405.755	429.61
406.133	442.04
406.511	435.93
406.889	435.48
407.267	443.62
407.645	449.04
408.023	454.69
408.401	473.67
408.779	467.12
409.156	460.79
409.534	461.24
409.912	480.68
410.29	490.62
410.667	491.98
411.045	487.46
411.422	482.94
411.8	490.85
412.178	517.51
412.555	514.8
412.933	529.49
413.31	546.67
413.687	531.3
414.065	545.76
414.442	570.39
414.819	562.26
415.197	564.75
415.574	581.24
415.951	592.31
416.328	587.57
416.705	583.05
417.082	602.71
417.46	580.79
417.837	618.3
418.214	640.68
418.591	640.68
418.967	644.74
419.344	632.99
419.721	658.75
420.098	666.66
420.475	682.03
420.852	682.93
421.228	685.65
421.605	688.36
421.982	693.78
422.358	704.4
422.735	687
423.111	717.28
423.488	741.01
423.864	732.88
424.241	737.62
424.617	753.89
424.994	755.47
425.37	751.86
425.746	756.83
426.123	758.64
426.499	775.81
426.875	798.64
427.251	811.29
427.627	802.93
428.003	802.03
428.379	834.34
428.756	819.43
429.132	835.25
429.507	871.18
429.883	877.96
430.259	870.27
430.635	901.23
431.011	883.38
431.387	898.75
431.763	923.15
432.138	920.22
432.514	936.26
432.89	919.31
433.265	961.12
433.641	988.91
434.016	998.86
434.392	997.73
434.767	996.37
435.143	999.76
435.518	1028.24
435.894	1015.35
436.269	1009.71
436.644	1050.16
437.02	1035.47
437.395	1052.64
437.77	1065.75
438.145	1086.99
438.52	1114.11
438.895	1124.5
439.271	1107.56
439.646	1141
440.021	1142.13
440.395	1154.79
440.77	1135.13
441.145	1135.35
441.52	1157.05
441.895	1144.39
442.27	1179.42
442.645	1141.91
443.019	1153.88
443.394	1166.76
443.769	1172.86
444.143	1195.24
444.518	1189.36
444.892	1174.67
445.267	1213.99
445.641	1230.94
446.016	1206.31
446.39	1198.85
446.764	1233.2
447.139	1203.82
447.513	1284.95
447.887	1245.18
448.262	1259.42
448.636	1271.39
449.01	1245.41
449.384	1274.33
449.758	1259.87
450.132	1270.49
450.506	1304.39
450.88	1298.96
451.254	1299.64
451.628	1269.36
452.002	1289.47
452.376	1294.44
452.75	1301.9
453.123	1330.83
453.497	1323.37
453.871	1323.14
454.244	1369.7
454.618	1355.01
454.992	1394.1
455.365	1368.57
455.739	1399.75
456.112	1407.43
456.486	1392.29
456.859	1448.79
457.232	1415.57
457.606	1410.37
457.979	1449.02
458.352	1468.9
458.725	1476.59
459.099	1491.95
459.472	1488.79
459.845	1466.64
460.218	1540.09
460.591	1525.85
460.964	1512.52
461.337	1549.35
461.71	1562.23
462.083	1607.88
462.456	1583.48
462.829	1569.46
463.201	1600.65
463.574	1575.11
463.947	1607.43
464.32	1625.73
464.692	1679.97
465.065	1662.34
465.438	1672.51
465.81	1685.17
466.183	1693.98
466.555	1725.39
466.928	1706.64
467.3	1723.13
467.672	1748.89
468.045	1788.22
468.417	1741.89
468.789	1780.53
469.161	1790.25
469.534	1802.45
469.906	1831.83
470.278	1856.46
470.65	1879.29
471.022	1896.24
471.394	1896.24
471.766	1941.66
472.138	1939.17
472.51	1963.8
472.882	1971.71
473.253	2016.23
473.625	2058.72
473.997	2040.19
474.369	2062.11
474.74	2062.56
475.112	2078.15
475.484	2103.01
475.855	2137.13
476.227	2124.25
476.598	2192.95
476.97	2172.39
477.341	2243.12
477.713	2254.64
478.084	2239.05
478.455	2311.37
478.827	2295.77
479.198	2348.43
479.569	2340.07
479.94	2412.38
480.311	2403.79
480.682	2450.12
481.053	2496.22
481.424	2506.16
481.795	2517.24
482.166	2547.29
482.537	2591.58
482.908	2599.27
483.279	2640.62
483.65	2665.71
484.021	2648.76
484.391	2728.3
484.762	2741.41
485.133	2769.88
485.503	2791.13
485.874	2837.91
486.244	2847.85
486.615	2897.34
486.985	2900.05
487.356	2897.79
487.726	2934.17
488.097	2996.77
488.467	2959.94
488.837	3049.88
489.207	3070.67
489.578	3084.23
489.948	3108.18
490.318	3167.61
490.688	3160.83
491.058	3194.05
491.428	3205.35
491.798	3262.98
492.168	3284.45
492.538	3300.94
492.908	3355.41
493.278	3316.76
493.648	3345.24
494.017	3377.55
494.387	3413.71
494.757	3431.56
495.126	3486.48
495.496	3433.6
495.866	3504.55
496.235	3500.71
496.605	3501.39
496.974	3536.42
497.344	3550.66
497.713	3590.65
498.082	3619.58
498.452	3639.69
498.821	3682.63
499.19	3626.81
499.559	3665.91
499.928	3702.74
500.298	3700.48
500.667	3730.54
501.036	3712.01
501.405	3776.19
501.774	3719.92
502.143	3780.93
502.512	3782.51
502.88	3808.5
503.249	3803.08
503.618	3839.69
503.987	3845.34
504.356	3864.32
504.724	3870.87
505.093	3908.61
505.462	3886.47
505.83	3905.9
506.199	3941.38
506.567	3930.53
506.936	3965.56
507.304	3963.98
507.672	3964.88
508.041	4040.59
508.409	4036.74
508.777	4038.55
509.145	4037.87
509.514	4022.51
509.882	4055.05
510.25	4074.03
510.618	4080.58
510.986	4123.97
511.354	4121.26
511.722	4102.51
512.09	4169.4
512.458	4141.37
512.826	4242.39
513.193	4177.76
513.561	4169.62
513.929	4221.37
514.297	4220.47
514.664	4220.47
515.032	4234.25
515.4	4272.67
515.767	4277.19
516.135	4284.42
516.502	4286.23
516.869	4308.38
517.237	4309.28
517.604	4339.34
517.972	4359.22
518.339	4373.01
518.706	4316.28
519.073	4387.24
519.44	4386.34
519.808	4414.36
520.175	4409.84
520.542	4429.28
520.909	4460.46
521.276	4445.09
521.643	4531.42
522.009	4496.17
522.376	4492.55
522.743	4562.15
523.11	4558.54
523.477	4543.17
523.843	4611.42
524.21	4653.68
524.577	4637.86
524.943	4650.97
525.31	4691.64
525.676	4654.81
526.043	4731.19
526.409	4794.69
526.776	4794.69
527.142	4779.78
527.508	4778.65
527.874	4821.36
528.241	4853.9
528.607	4820
528.973	4899.09
529.339	4930.73
529.705	4942.94
530.071	5001.24
530.437	4974.57
530.803	5044.18
531.169	5033.78
531.535	5066.32
531.901	5046.44
532.267	5051.18
532.632	5090.05
532.998	5076.94
533.364	5161.23
533.73	5149.71
534.095	5217.05
534.461	5203.72
534.826	5206.66
535.192	5293.89
535.557	5329.59
535.923	5314.45
536.288	5276.94
536.653	5339.99
537.019	5287.33
537.384	5349.7
537.749	5408.01
538.114	5394.45
538.479	5370.04
538.845	5464.05
539.21	5461.34
539.575	5508.34
539.94	5474.45
540.305	5557.38
540.67	5542.47
541.034	5547.89
541.399	5553.77
541.764	5615.01
542.129	5623.6
542.494	5649.36
542.858	5662.01
543.223	5660.2
543.587	5720.54
543.952	5723.25
544.316	5826.75
544.681	5793.08
545.045	5801.67
545.41	5845.51
545.774	5883.25
546.138	5861.33
546.503	5917.37
546.867	5905.62
547.231	5971.61
547.595	5994.66
547.959	6000.08
548.324	6010.7
548.688	6011.16
549.052	6083.92
549.416	6054.77
549.779	6113.75
550.143	6059.97
550.507	6174.32
550.871	6185.39
551.235	6183.58
551.599	6207.76
551.962	6196.01
552.326	6210.02
552.689	6271.04
553.053	6204.14
553.417	6211.38
553.78	6287.76
554.143	6332.28
554.507	6367.98
554.87	6396.23
555.234	6381.99
555.597	6392.39
555.96	6396
556.323	6379.96
556.686	6430.13
557.05	6490.24
557.413	6506.96
557.776	6582.67
558.139	6541.54
558.502	6506.96
558.865	6582.44
559.228	6573.4
559.59	6609.78
559.953	6661.53
560.316	6628.09
560.679	6677.58
561.041	6730.01
561.404	6702.89
561.767	6726.84
562.129	6775.43
562.492	6823.34
562.854	6823.56
563.217	6767.97
563.579	6821.76
563.941	6818.82
564.304	6870.79
564.666	6894.75
565.028	6922.32
565.39	6942.88
565.753	6963.9
566.115	6991.92
566.477	7003.9
566.839	7010
567.201	7085.48
567.563	7108.53
567.925	7152.14
568.287	7162.99
568.648	7190.56
569.01	7263.1
569.372	7230.11
569.734	7190.56
570.095	7297.45
570.457	7292.93
570.819	7346.04
571.18	7439.82
571.542	7471.46
571.903	7392.36
572.265	7462.42
572.626	7526.14
572.987	7479.37
573.349	7597.55
573.71	7719.81
574.071	7644.78
574.432	7713.03
574.794	7833.25
575.155	7937.21
575.516	7844.33
575.877	7930.65
576.238	8062.18
576.599	8125
576.96	8178.33
577.32	8214.04
577.681	8306.01
578.042	8348.5
578.403	8434.37
578.763	8471.88
579.124	8590.75
579.485	8680.69
579.845	8845.88
580.206	8879.1
580.566	8994.35
580.927	9143.28
581.287	9239.32
581.648	9390.5
582.008	9523.61
582.368	9635.02
582.728	9827.78
583.089	9957.04
583.449	10043.59
583.809	10219.86
584.169	10450.36
584.529	10517.48
584.889	10800.41
585.249	10932.83
585.609	11028.88
585.969	11356.55
586.329	11507.06
586.688	11746.37
587.048	11949.3
587.408	12113.37
587.768	12464.32
588.127	12605.56
588.487	12831.99
588.846	13195.37
589.206	13268.14
589.565	13545.87
589.925	13843.27
590.284	14079.19
590.643	14388.34
591.003	14705.39
591.362	14895.67
591.721	15161.65
592.08	15501.98
592.44	15730.22
592.799	16041.63
593.158	16398.23
593.517	16592.57
593.876	16969.51
594.235	17197.75
594.593	17529.04
594.952	17875.7
595.311	18054.68
595.67	18398.17
596.029	18826.86
596.387	19144.14
596.746	19440.86
597.104	19647.18
597.463	19878.81
597.822	20268.86
598.18	20452.81
598.538	20828.62
598.897	21175.95
599.255	21374.37
599.613	21955.37
599.972	22016.16
600.33	22243.95
600.688	22642.36
601.046	23012.06
601.404	23299.97
601.762	23463.13
602.12	23953.06
602.478	24160.06
602.836	24364.35
603.194	24538.35
603.552	24863.77
603.91	25027.6
604.268	25413.58
604.625	25614.03
604.983	25951.65
605.341	26073
605.698	26589.37
606.056	26672.31
606.413	26983.71
606.771	27289.92
607.128	27559.29
607.485	27603.58
607.843	27932.61
608.2	28311.81
608.557	28503.45
608.914	28527.63
609.272	29043.32
609.629	29230.21
609.986	29503.19
610.343	29608.5
610.7	29894.6
611.057	30055.04
611.414	30306.79
611.771	30436.28
612.127	30719.66
612.484	30802.59
612.841	31232.19
613.198	31164.62
613.554	31390.6
613.911	31675.57
614.267	31822.68
614.624	31977.25
614.98	32146.97
615.337	32409.11
615.693	32507.41
616.05	32560.29
616.406	32876.21
616.762	32984.91
617.118	32937.45
617.475	33240.95
617.831	33387.16
618.187	33634.84
618.543	33659.02
618.899	34070.3
619.255	34040.93
619.611	34235.05
619.967	34465.1
620.323	34583.74
620.678	34574.25
621.034	34612.44
621.39	34668.71
621.746	34789.83
622.101	35274.34
622.457	35095.81
622.812	35227.79
623.168	35426.43
623.523	35470.04
623.879	35636.14
624.234	35554.33
624.589	35736.48
624.945	35715.23
625.3	36002.46
625.655	36082.91
626.01	36124.04
626.365	36246.52
626.72	36282.45
627.075	36178.05
627.43	36262.56
627.785	36277.48
628.14	36379.4
628.495	36541.88
628.85	36639.28
629.205	36469.34
629.559	36701.65
629.914	36553.63
630.269	36602.22
630.623	36643.34
630.978	36662.1
631.332	36836.33
631.687	37058.93
632.041	36801.08
632.396	36953.62
632.75	36814.19
633.104	36915.2
633.459	36732.61
633.813	36931.47
634.167	36820.06
634.521	37062.09
634.875	37124.01
635.229	37038.14
635.583	36905.94
635.937	36998.82
636.291	36947.07
636.645	36982.09
636.999	36886.5
637.352	37041.75
637.706	36982.54
638.06	37060.51
638.413	36933.96
638.767	36994.97
639.121	36956.56
639.474	36860.51
639.828	36920.17
640.181	36957.23
640.534	36986.16
640.888	36977.57
641.241	36909.1
641.594	36870.01
641.947	37084.24
642.301	36892.38
642.654	36771.7
643.007	36889.89
643.36	36736.68
643.713	36677.24
644.066	36983.9
644.419	36806.73
644.771	36590.69
645.124	36313.64
645.477	36146.18
645.83	35968.11
646.182	35889.69
646.535	35744.61
646.888	35903.93
647.24	35604.05
647.593	35842.69
647.945	35759.98
648.298	35570.38
648.65	35671.17
649.002	35461.68
649.355	35703.26
649.707	35719.07
650.059	35797.26
650.411	36175.33
650.763	36184.6
651.115	36592.5
651.467	36446.29
651.819	36545.72
652.171	36464.82
652.523	36430.24
652.875	36443.58
653.227	36318.61
653.578	36585.27
653.93	36359.51
654.282	36385.05
654.633	36180.98
654.985	36308.89
655.337	36384.82
655.688	36239.97
656.039	36386.4
656.391	36089.46
656.742	36190.02
657.094	36175.56
657.445	36237.48
657.796	36221.43
658.147	36202
658.498	35946.41
658.849	36206.97
659.2	36101.66
659.551	36116.8
659.902	36176.24
660.253	36192.06
660.604	36242.9
660.955	35979.63
661.306	36152.51
661.656	36112.28
662.007	36251.04
662.358	36172.62
662.708	36000.65
663.059	36029.35
663.409	35755.46
663.76	36072.74
664.11	35911.84
664.461	36055.56
664.811	36008.11
665.161	36036.58
665.511	35964.27
665.862	36063.25
666.212	36233.86
666.562	36165.62
666.912	35973.53
667.262	35900.77
667.612	36089.23
667.962	36021.44
668.312	36046.3
668.662	35972.63
669.011	35797.94
669.361	35894.89
669.711	35925.4
670.06	35739.64
670.41	35856.02
670.76	35821.9
671.109	36004.72
671.459	36021.67
671.808	35804.04
672.157	35921.56
672.507	35645.4
672.856	35663.94
673.205	35858.73
673.554	35815.8
673.904	35722.92
674.253	35908.22
674.602	35681.34
674.951	35305.07
675.3	35071.41
675.649	35739.41
675.998	35526.09
676.346	35630.49
676.695	35781.22
677.044	35381.91
677.393	35549.36
677.741	35525.18
678.09	35461.45
678.438	35439.76
678.787	35538.51
679.135	35536.71
679.484	35407.9
679.832	35520.66
680.181	35278.63
680.529	35440.66
680.877	35308.69
681.225	35216.04
681.573	35407.44
681.922	35033.67
682.27	35057.17
682.618	35244.74
682.966	35003.84
683.314	34931.53
683.661	34905.09
684.009	34887.46
684.357	34781.47
684.705	34612.21
685.053	34639.56
685.4	34682.04
685.748	34589.16
686.095	34521.59
686.443	34429.84
686.79	34274.37
687.138	34345.33
687.485	34385.55
687.832	34246.57
688.18	34230.07
688.527	34111.43
688.874	34128.38
689.221	33968.39
689.568	33753.25
689.915	33826.92
690.262	33815.85
690.609	33793.7
690.956	33605.68
691.303	33656.98
691.65	33467.61
691.997	33510.32
692.344	33318.69
692.69	33200.5
693.037	33306.48
693.383	33016.77
693.73	33122.08
694.077	33024.46
694.423	32927.06
694.769	32764.12
695.116	32770.9
695.462	32627.4
695.808	32594.64
696.155	32690.68
696.501	32427.18
696.847	32408.43
697.193	32118.94
697.539	32304.02
697.885	32109.45
698.231	32039.85
698.577	31994.65
698.923	32046.18
699.269	31760.53
699.614	31669.46
699.96	31572.52
700.306	31540.65
700.651	31523.48
700.997	31448.45
701.342	31411.17
701.688	31379.75
702.033	31219.08
702.379	31164.62
702.724	31075.13
703.069	31172.75
703.415	30812.09
703.76	30902.7
704.105	30740.67
704.45	30803.5
704.795	30484.86
705.14	30561.47
705.485	30455.71
705.83	30391.31
706.175	30410.97
706.52	30355.6
706.865	30238.99
707.209	30219.78
707.554	29989.96
707.899	30177.3
708.243	29944.76
708.588	29876.74
708.932	29811.21
709.277	29709.74
709.621	29709.97
709.966	29557.2
710.31	29565.11
710.654	29285.12
710.998	29443.08
711.342	29374.16
711.687	29319.24
712.031	29159.7
712.375	29120.6
712.719	29135.52
713.063	29155.41
713.407	29212.13
713.75	28915.64
714.094	28918.12
714.438	28865.92
714.782	28942.76
715.125	28595.19
715.469	28797.9
715.812	28609.43
716.156	28397.91
716.499	28505.71
716.843	28394.07
717.186	28307.74
717.53	28406.27
717.873	28476.33
718.216	28314.07
718.559	28178.26
718.902	27977.58
719.246	28095.09
719.589	27973.29
719.932	27995.44
720.275	27957.25
720.617	27826.63
720.96	27831.15
721.303	27903.91
721.646	27691.72
721.989	27572.85
722.331	27757.25
722.674	27724.03
723.016	27596.58
723.359	27584.37
723.701	27693.3
724.044	27435.22
724.386	27374.66
724.729	27413.98
725.071	27257.83
725.413	27399.75
725.755	27352.29
726.097	27282.91
726.439	27054.22
726.782	27131.96
727.124	27192.52
727.465	26958.4
727.807	26940.55
728.149	26965.18
728.491	27026.65
728.833	26930.61
729.175	26717.96
729.516	26753.66
729.858	26676.37
730.199	26710.72
730.541	26664.17
730.882	26565.19
731.224	26711.4
731.565	26503.5
731.906	26498.07
732.248	26533.78
732.589	26280.45
732.93	26294.46
733.271	26354.58
733.612	26343.73
733.953	26358.64
734.294	26203.17
734.635	26101.25
734.976	26249.95
735.317	26035.94
735.658	26214.24
735.999	26080.91
736.339	26009.95
736.68	26036.62
737.021	25842.27
737.361	25754.82
737.702	26035.26
738.042	25774.03
738.383	25660.13
738.723	25783.29
739.063	25724.99
739.404	25848.37
739.744	25712.56
740.084	25601.15
740.424	25704.65
740.764	25568.61
741.104	25769.05
741.444	25489.74
741.784	25468.05
742.124	25484.99
742.464	25389.18
742.804	25277.32
743.143	25239.8
743.483	25227.6
743.823	25128.39
744.162	25242.51
744.502	25133.59
744.841	25058.34
745.181	25163.87
745.52	24963.2
745.86	25066.02
746.199	24987.38
746.538	24917.33
746.877	24947.61
747.216	24921.39
747.556	24965.01
747.895	24903.54
748.234	24853.15
748.573	24750.1
748.911	24663.77
749.25	24741.96
749.589	24669.65
749.928	24645.24
750.267	24609.76
750.605	24591.01
750.944	24488.41
751.283	24397.11
751.621	24419.94
751.96	24346.27
752.298	24321.41
752.636	24324.12
752.975	24200.28
753.313	24112.15
753.651	24218.59
753.989	24099.72
754.327	24019.04
754.666	23932.72
755.004	23952.83
755.342	23881.87
755.679	23821.08
756.017	23814.53
756.355	23735.44
756.693	23674.65
757.031	23727.98
757.368	23494.76
757.706	23483.24
758.044	23474.88
758.381	23476.23
758.719	23331.83
759.056	23381.09
