Data from hue_70_FLMS001491_29.txt Node
Date: Mon Feb 06 15:20:21 GMT 2017
User: dcchb
Spectrometer: FLMS00149
Trigger mode: 0
Integration Time (sec): 2.000000E-2
Scans to average: 10
Electric dark correction enabled: true
Nonlinearity correction enabled: false
Boxcar width: 0
XAxis mode: Wavelengths
Number of Pixels in Spectrum: 2048
>>>>>Begin Spectral Data<<<<<
341.393	-6.82
341.776	-6.82
342.16	-6.82
342.543	-61.51
342.927	-68.29
343.31	-61.06
343.693	-59.02
344.077	-65.58
344.46	-57.89
344.843	-47.95
345.226	-42.98
345.61	-17.44
345.993	-10.66
346.376	-17.9
346.759	-10.21
347.142	43.8
347.525	43.57
347.908	48.77
348.291	81.99
348.674	80.41
349.057	92.16
349.44	112.72
349.823	132.61
350.206	161.54
350.588	191.37
350.971	219.84
351.354	221.87
351.737	246.5
352.119	244.92
352.502	261.42
352.884	272.27
353.267	277.92
353.65	279.95
354.032	298.71
354.414	302.77
354.797	311.36
355.179	319.72
355.562	331.25
355.944	313.4
356.326	311.36
356.709	338.48
357.091	341.19
357.473	336.45
357.855	323.34
358.238	356.56
358.62	348.88
359.002	337.35
359.384	342.77
359.766	340.74
360.148	332.83
360.53	333.51
360.912	329.44
361.294	338.25
361.676	356.33
362.057	326.05
362.439	322.21
362.821	329.21
363.203	322.21
363.584	315.88
363.966	347.29
364.348	320.85
364.729	318.14
365.111	333.73
365.493	326.28
365.874	341.64
366.256	306.39
366.637	331.93
367.019	317.24
367.4	326.95
367.781	328.54
368.163	307.07
368.544	320.63
368.925	311.36
369.306	328.76
369.688	312.04
370.069	298.25
370.45	294.64
370.831	324.92
371.212	323.34
371.593	310.91
371.974	308.42
372.355	317.46
372.736	339.61
373.117	336.45
373.498	343.23
373.879	313.4
374.26	330.57
374.641	323.11
375.021	308.65
375.402	319.27
375.783	300.06
376.163	334.41
376.544	320.85
376.925	313.4
377.305	323.34
377.686	326.05
378.066	326.05
378.447	343.68
378.827	317.69
379.208	318.14
379.588	331.7
379.968	334.64
380.349	339.84
380.729	328.76
381.109	341.19
381.489	350
381.87	336.9
382.25	357.24
382.63	360.4
383.01	335.32
383.39	344.81
383.77	342.77
384.15	361.3
384.53	356.33
384.91	325.82
385.29	324.02
385.67	340.74
386.049	337.12
386.429	339.61
386.809	358.14
387.189	338.03
387.568	358.37
387.948	373.28
388.328	342.1
388.707	361.3
389.087	353.85
389.466	331.25
389.846	360.63
390.225	358.14
390.605	361.98
390.984	375.31
391.363	381.87
391.743	358.37
392.122	364.47
392.501	354.75
392.881	361.08
393.26	363.79
393.639	385.48
394.018	366.05
394.397	370.8
394.776	374.19
395.155	366.5
395.534	369.44
395.913	360.63
396.292	396.78
396.671	377.57
397.05	365.6
397.429	383
397.808	386.61
398.186	382.32
398.565	379.16
398.944	385.26
399.323	381.42
399.701	375.09
400.08	392.04
400.458	388.42
400.837	397.91
401.215	392.04
401.594	389.55
401.972	349.55
402.351	406.05
402.729	389.1
403.107	404.69
403.486	389.78
403.864	412.83
404.242	386.61
404.62	416.9
404.999	415.09
405.377	407.86
405.755	399.04
406.133	398.37
406.511	419.16
406.889	409.89
407.267	434.52
407.645	406.5
408.023	426.84
408.401	423.22
408.779	413.05
409.156	434.3
409.534	425.03
409.912	443.34
410.29	414.64
410.667	442.21
411.045	453.05
411.422	448.99
411.8	437.69
412.178	434.3
412.555	430
412.933	446.27
413.31	449.89
413.687	459.83
414.065	453.28
414.442	475.65
414.819	469.78
415.197	464.8
415.574	475.2
415.951	488.76
416.328	469.55
416.705	472.94
417.082	465.48
417.46	473.17
417.837	459.83
418.214	468.42
418.591	474.52
418.967	496.89
419.344	479.49
419.721	491.47
420.098	488.31
420.475	513.84
420.852	506.84
421.228	509.1
421.605	496.67
421.982	503.22
422.358	527.4
422.735	518.59
423.111	519.04
423.488	523.79
423.864	524.46
424.241	540.28
424.617	525.59
424.994	530.79
425.37	536.44
425.746	539.83
426.123	544.35
426.499	526.5
426.875	546.16
427.251	557.01
427.627	561.3
428.003	553.16
428.379	575.99
428.756	559.72
429.132	568.76
429.507	552.49
429.883	591.35
430.259	566.95
430.635	595.2
431.011	603.33
431.387	583.22
431.763	607.17
432.138	581.41
432.514	605.37
432.89	602.65
433.265	611.24
433.641	627.74
434.016	618.25
434.392	641.52
434.767	623.44
435.143	641.97
435.518	647.85
435.894	660.96
436.269	631.35
436.644	655.99
437.02	688.75
437.395	661.64
437.77	677.68
438.145	696.66
438.52	688.08
438.895	683.33
439.271	679.26
439.646	711.58
440.021	685.14
440.395	700.5
440.77	709.77
441.145	691.24
441.52	703.44
441.895	724.46
442.27	724.91
442.645	710.22
443.019	746.6
443.394	763.33
443.769	750.9
444.143	744.57
444.518	753.84
444.892	735.53
445.267	752.48
445.641	765.81
446.016	774.85
446.39	749.32
446.764	765.59
447.139	796.77
447.513	793.61
447.887	785.25
448.262	779.82
448.636	800.61
449.01	797.9
449.384	791.8
449.758	806.72
450.132	819.82
450.506	800.84
450.88	806.94
451.254	813.72
451.628	822.31
452.002	820.5
452.376	832.93
452.75	832.25
453.123	826.83
453.497	857.34
453.871	874.96
454.244	874.74
454.618	870.67
454.992	900.27
455.365	888.52
455.739	900.5
456.112	923.78
456.486	905.7
456.859	955.41
457.232	955.19
457.606	943.66
457.979	943.21
458.352	971.68
458.725	1010.33
459.099	995.64
459.472	1011
459.845	1018.69
460.218	1032.92
460.591	1027.28
460.964	1005.81
461.337	1050.55
461.71	1067.73
462.083	1113.6
462.456	1104.79
462.829	1086.48
463.201	1123.77
463.574	1138.46
463.947	1137.78
464.32	1137.78
464.692	1157.67
465.065	1169.19
465.438	1216.2
465.81	1217.33
466.183	1261.62
466.555	1251
466.928	1263.2
467.3	1295.06
467.672	1310.43
468.045	1298
468.417	1326.48
468.789	1343.43
469.161	1369.87
469.534	1411.67
469.906	1436.3
470.278	1467.49
470.65	1474.5
471.022	1511.78
471.394	1530.31
471.766	1538.9
472.138	1564.21
472.51	1609.18
472.882	1665
473.253	1666.35
473.625	1712
473.997	1744.77
474.369	1801.04
474.74	1819.8
475.112	1850.76
475.484	1914.26
475.855	1961.49
476.227	2007.81
476.598	2051.88
476.97	2086.91
477.341	2133.46
477.713	2201.93
478.084	2257.98
478.455	2340.91
478.827	2358.09
479.198	2457.97
479.569	2475.6
479.94	2529.16
480.311	2642.83
480.682	2719.43
481.053	2842.14
481.424	2840.79
481.795	2946.32
482.166	3032.65
482.537	3128.69
482.908	3221.12
483.279	3317.84
483.65	3388.34
484.021	3546.53
484.391	3566.87
484.762	3675.79
485.133	3764.83
485.503	3856.35
485.874	4004.15
486.244	4069.91
486.615	4190.36
486.985	4297.7
487.356	4436.9
487.726	4550.57
488.097	4725.26
488.467	4769.78
488.837	4948.08
489.207	5035.76
489.578	5214.51
489.948	5357.78
490.318	5443.88
490.688	5540.83
491.058	5685.01
491.428	5879.35
491.798	6013.81
492.168	6210.19
492.538	6292
492.908	6427.59
493.278	6583.51
493.648	6640.69
494.017	6809.27
494.387	6989.38
494.757	7048.59
495.126	7228.24
495.496	7346.88
495.866	7492.42
496.235	7641.56
496.605	7715.46
496.974	7855.12
497.344	8042.01
497.713	8194.32
498.082	8293.52
498.452	8423.46
498.821	8587.53
499.19	8700.52
499.559	8794.75
499.928	8905.03
500.298	9083.33
500.667	9185.03
501.036	9233.16
501.405	9522.65
501.774	9485.36
502.143	9735.29
502.512	9784.33
502.88	9974.38
503.249	10039.24
503.618	10196.53
503.987	10233.59
504.356	10361.27
504.724	10532.56
505.093	10594.93
505.462	10699.11
505.83	10853.01
506.199	11003.74
506.567	11175.48
506.936	11237.85
507.304	11308.59
507.672	11430.17
508.041	11520.56
508.409	11639.2
508.777	11791.29
509.145	11884.16
509.514	11932.53
509.882	12047.1
510.25	12174.78
510.618	12299.52
510.986	12351.5
511.354	12464.71
511.722	12605.5
512.09	12774.31
512.458	12830.35
512.826	12914.87
513.193	12988.99
513.561	12960.97
513.929	13159.61
514.297	13271.47
514.664	13426.72
515.032	13534.52
515.4	13554.86
515.767	13660.62
516.135	13765.02
516.502	13724.79
516.869	13973.6
517.237	14053.83
517.604	14073.03
517.972	14214.05
518.339	14308.06
518.706	14288.17
519.073	14448.84
519.44	14499.46
519.808	14647.93
520.175	14679.35
520.542	14857.19
520.909	14949.17
521.276	14964.31
521.643	15114.36
522.009	15206.79
522.376	15297.41
522.743	15374.92
523.11	15489.27
523.477	15642.71
523.843	15740.56
524.21	15885.87
524.577	15951.4
524.943	15985.98
525.31	16029.14
525.676	16109.36
526.043	16311.17
526.409	16343.03
526.776	16500.54
527.142	16530.6
527.508	16614.66
527.874	16775.34
528.241	16840.42
528.607	16841.55
528.973	16974.43
529.339	16918.83
529.705	17073.63
530.071	17150.47
530.437	17248.09
530.803	17331.48
531.169	17385.49
531.535	17285.15
531.901	17414.87
532.267	17527.63
532.632	17531.02
532.998	17669.78
533.364	17624.58
533.73	17714.75
534.095	17830
534.461	17803.33
534.826	17939.37
535.192	17874.74
535.557	18030.9
535.923	17974.85
536.288	18052.82
536.653	18147.5
537.019	18079.03
537.384	18129.65
537.749	18177.56
538.114	18154.96
538.479	18280.61
538.845	18245.81
539.21	18230.21
539.575	18321.06
539.94	18269.31
540.305	18388.63
540.67	18348.63
541.034	18330.1
541.399	18508.85
541.764	18402.19
542.129	18447.83
542.494	18435.18
542.858	18542.97
543.223	18394.73
543.587	18558.11
543.952	18462.3
544.316	18602.63
544.681	18513.6
545.045	18596.98
545.41	18762.63
545.774	18764.66
546.138	18690.77
546.503	18717.88
546.867	18653.7
547.231	18816.64
547.595	18780.03
547.959	18773.93
548.324	18875.39
548.688	18798.79
549.052	18955.39
549.416	18829.07
549.779	18976.18
550.143	18834.26
550.507	19015.28
550.871	19005.11
551.235	18927.82
551.599	19120.13
551.962	18963.53
552.326	19036.97
552.689	19122.17
553.053	19030.64
553.417	19036.97
553.78	19282.16
554.143	19133.01
554.507	19231.77
554.87	19173.69
555.234	19372.56
555.597	19387.47
555.96	19305.89
556.323	19474.93
556.686	19465.66
557.05	19400.58
557.413	19509.05
557.776	19520.35
558.139	19671.08
558.502	19627.69
558.865	19744.3
559.228	19804.86
559.59	19847.8
559.953	19801.24
560.316	20050.05
560.679	19981.81
561.041	19882.82
561.404	20117.62
561.767	20122.14
562.129	20068.13
562.492	20275.81
562.854	20296.6
563.217	20282.59
563.579	20279.65
563.941	20400.33
564.304	20394.45
564.666	20475.13
565.028	20580.21
565.39	20590.6
565.753	20643.71
566.115	20699.53
566.477	20842.35
566.839	20847.32
567.201	20922.12
567.563	20890.03
567.925	21048.22
568.287	21055.68
568.648	21085.05
569.01	21163.69
569.372	21304.71
569.734	21220.19
570.095	21387.19
570.457	21363.24
570.819	21366.4
571.18	21440.3
571.542	21504.93
571.903	21514.87
572.265	21619.73
572.626	21620.18
572.987	21667.86
573.349	21724.36
573.71	21797.12
574.071	21817.01
574.432	21839.61
574.794	21989.89
575.155	22054.97
575.516	21905.37
575.877	21966.39
576.238	21938.82
576.599	22065.82
576.96	22105.14
577.32	22155.08
577.681	22124.8
578.042	22290.44
578.403	22110.56
578.763	22232.59
579.124	22119.6
579.485	22246.15
579.845	22407.96
580.206	22350.78
580.566	22334.06
580.927	22288.19
581.287	22403.44
581.648	22325.25
582.008	22475.07
582.368	22446.15
582.728	22514.62
583.089	22396.66
583.449	22364.12
583.809	22434.85
584.169	22439.37
584.529	22400.05
584.889	22582.64
585.249	22454.96
585.609	22381.29
585.969	22493.15
586.329	22429.2
586.688	22431.46
587.048	22506.26
587.408	22333.16
587.768	22512.59
588.127	22320.27
588.487	22280.5
588.846	22531.12
589.206	22382.19
589.565	22306.72
589.925	22493.83
590.284	22269.2
590.643	22469.2
591.003	22501.96
591.362	22536.77
591.721	22481.17
592.08	22482.53
592.44	22502.87
592.799	22456.54
593.158	22442.31
593.517	22421.97
593.876	22504.9
594.235	22367.05
594.593	22407.28
594.952	22486.37
595.311	22513.26
595.67	22410.22
596.029	22576.99
596.387	22666.03
596.746	22585.35
597.104	22573.6
597.463	22506.26
597.822	22646.59
598.18	22502.64
598.538	22471.68
598.897	22655.86
599.255	22413.61
599.613	22733.37
599.972	22708.29
600.33	22668.51
600.688	22648.85
601.046	22627.84
601.404	22751.22
601.762	22631.9
602.12	22826.48
602.478	22689.08
602.836	22740.83
603.194	22598.23
603.552	22718
603.91	22675.07
604.268	22697.89
604.625	22668.29
604.983	22831.45
605.341	22721.62
605.698	22763.65
606.056	22923.87
606.413	22778.12
606.771	22867.15
607.128	22884.55
607.485	22854.72
607.843	22838.91
608.2	22964.1
608.557	23075.74
608.914	22960.94
609.272	23043.65
609.629	23044.32
609.986	23146.47
610.343	23142.85
610.7	23168.39
611.057	23309.4
611.414	23283.64
611.771	23220.14
612.127	23437.53
612.484	23177.88
612.841	23406.57
613.198	23299.68
613.554	23389.4
613.911	23526.12
614.267	23557.08
614.624	23478.89
614.98	23613.57
615.337	23555.95
615.693	23640.47
616.05	23524.54
616.406	23667.36
616.762	23664.19
617.118	23575.61
617.475	23684.31
617.831	23646.34
618.187	23660.35
618.543	23690.63
618.899	23820.35
619.255	23769.28
619.611	23728.6
619.967	23869.16
620.323	23840.01
620.678	23803.63
621.034	23788.03
621.39	23800.69
621.746	23789.61
622.101	24119.55
622.457	23799.33
622.812	23903.06
623.168	23914.81
623.523	24039.55
623.879	24061.02
624.234	23892.66
624.589	23995.26
624.945	23949.84
625.3	24136.72
625.655	24001.13
626.01	24078.42
626.365	24041.59
626.72	23948.03
627.075	24021.25
627.43	23942.6
627.785	23943.96
628.14	24074.35
628.495	24099.89
628.85	23996.16
629.205	23962.04
629.559	24074.58
629.914	23901.25
630.269	23936.73
630.623	23909.16
630.978	23857.18
631.332	24079.78
631.687	24055.82
632.041	23978.31
632.396	23969.72
632.75	23907.8
633.104	23942.15
633.459	23765.89
633.813	23885.43
634.167	23847.47
634.521	23789.61
634.875	23828.48
635.229	23809.28
635.583	23628.49
635.937	23716.4
636.291	23713.91
636.645	23727.24
636.999	23617.87
637.352	23654.25
637.706	23594.59
638.06	23605.44
638.413	23633.01
638.767	23562.28
639.121	23602.05
639.474	23525.67
639.828	23447.25
640.181	23480.02
640.534	23518.44
640.888	23417.42
641.241	23489.74
641.594	23359.34
641.947	23498.55
642.301	23360.7
642.654	23332.45
643.007	23374.71
643.36	23338.1
643.713	23364.09
644.066	23271.89
644.419	23210.19
644.771	23126.81
645.124	22766.59
645.477	22817.44
645.83	22740.6
646.182	22550.55
646.535	22511.46
646.888	22643.43
647.24	22473.49
647.593	22629.87
647.945	22470.55
648.298	22502.19
648.65	22362.53
649.002	22359.6
649.355	22502.64
649.707	22313.04
650.059	22513.26
650.411	22766.36
650.763	22861.96
651.115	23045
651.467	23004.78
651.819	22880.26
652.171	22960.94
652.523	22983.08
652.875	22855.63
653.227	22875.51
653.578	22966.59
653.93	22879.58
654.282	22785.12
654.633	22800.04
654.985	22858.11
655.337	22877.32
655.688	22867.6
656.039	22976.08
656.391	22746.93
656.742	22843.65
657.094	22753.48
657.445	22981.95
657.796	22832.58
658.147	22768.17
658.498	22887.49
658.849	22868.96
659.2	22835.52
659.551	22699.02
659.902	22864.22
660.253	22913.03
660.604	22897.89
660.955	22737.21
661.306	22849.53
661.656	22838
662.007	22783.77
662.358	22877.55
662.708	22843.65
663.059	22898.56
663.409	22830.09
663.76	22857.89
664.11	22857.66
664.461	22900.82
664.811	22911.45
665.161	22845.68
665.511	22720.26
665.862	22771.79
666.212	22815.85
666.562	22826.93
666.912	22827.15
667.262	22843.88
667.612	22852.69
667.962	22841.39
668.312	22690.66
668.662	22803.2
669.011	22823.31
669.361	22728.4
669.711	22783.31
670.06	22714.61
670.41	22568.4
670.76	22614.28
671.109	22721.39
671.459	22680.49
671.808	22752.81
672.157	22762.75
672.507	22597.78
672.856	22626.26
673.205	22614.5
673.554	22618.8
673.904	22718.68
674.253	22688.85
674.602	22729.76
674.951	22342.2
675.3	22269.88
675.649	22590.1
675.998	22538.8
676.346	22515.98
676.695	22579.48
677.044	22419.26
677.393	22556.88
677.741	22404.34
678.09	22437.11
678.438	22361.18
678.787	22530.21
679.135	22411.35
679.484	22333.83
679.832	22271.46
680.181	22174.06
680.529	22235.53
680.877	22183.56
681.225	22200.96
681.573	22305.81
681.922	22099.72
682.27	22005.71
682.618	22070.11
682.966	21931.36
683.314	22034.41
683.661	21849.1
684.009	21850.23
684.357	21826.28
684.705	21749.89
685.053	21760.74
685.4	21780.63
685.748	21660.86
686.095	21602.78
686.443	21479.17
686.79	21384.93
687.138	21618.37
687.485	21527.98
687.832	21377.7
688.18	21539.28
688.527	21450.69
688.874	21350.81
689.221	21295.22
689.568	21259.96
689.915	21165.73
690.262	21107.65
690.609	21075.56
690.956	20909.69
691.303	20985.85
691.65	20866.3
691.997	20835.12
692.344	20728.9
692.69	20756.7
693.037	20680.32
693.383	20467.44
693.73	20606.42
694.077	20480.55
694.423	20377.73
694.769	20384.96
695.116	20250.05
695.462	20311.06
695.808	20132.99
696.155	20237.39
696.501	20066.32
696.847	20044.85
697.193	19813.9
697.539	19928.02
697.885	19741.59
698.231	19786.78
698.577	19619.33
698.923	19680.34
699.269	19595.6
699.614	19513.34
699.96	19499.11
700.306	19414.14
700.651	19365.78
700.997	19260.47
701.342	19258.21
701.688	19182.96
702.033	19109.96
702.379	19112.9
702.724	19058.21
703.069	19067.48
703.415	18741.16
703.76	18867.03
704.105	18801.27
704.45	18816.41
704.795	18652.8
705.14	18569.19
705.485	18641.5
705.83	18468.4
706.175	18505.46
706.52	18380.94
706.865	18455.29
707.209	18374.62
707.554	18269.08
707.899	18337.1
708.243	18254.84
708.588	18130.33
708.932	18049.88
709.277	18001.29
709.621	18012.82
709.966	17942.08
710.31	17918.36
710.654	17748.42
710.998	17846.27
711.342	17832.03
711.687	17664.35
712.031	17642.43
712.375	17700.06
712.719	17601.3
713.063	17575.77
713.407	17614.64
713.75	17418.93
714.094	17414.19
714.438	17442.44
714.782	17452.61
715.125	17285.38
715.469	17284.02
715.812	17230.47
716.156	17119.28
716.499	17223.91
716.843	17167.64
717.186	17092.16
717.53	17089.68
717.873	17235.66
718.216	17079.96
718.559	17090.81
718.902	16945.27
719.246	17037.02
719.589	17005.84
719.932	16903.24
720.275	16874.99
720.617	16885.84
720.96	16851.72
721.303	16935.56
721.646	16836.13
721.989	16760.42
722.331	16766.52
722.674	16689.46
723.016	16728.56
723.359	16651.27
723.701	16782.34
724.044	16599.07
724.386	16574.21
724.729	16659.18
725.071	16604.49
725.413	16546.87
725.755	16546.64
726.097	16475
726.439	16406.76
726.782	16513.2
727.124	16453.99
727.465	16423.71
727.807	16345.74
728.149	16428.45
728.491	16294.9
728.833	16331.51
729.175	16261
729.516	16277.27
729.858	16270.49
730.199	16253.99
730.541	16185.75
730.882	16246.08
731.224	16291.51
731.565	16183.94
731.906	16228.68
732.248	16227.33
732.589	16038.18
732.93	16091.74
733.271	16103.71
733.612	16140.55
733.953	16191.85
734.294	16035.47
734.635	16073.21
734.976	16142.36
735.317	15992.31
735.658	16039.76
735.999	16075.24
736.339	15983.72
736.68	16063.26
737.021	16068.01
737.361	16016.03
737.702	16032.08
738.042	15931.29
738.383	15954.11
738.723	16044.06
739.063	15971.29
739.404	16036.15
739.744	15994.34
740.084	15934.45
740.424	16011.97
740.764	15962.93
741.104	16052.42
741.444	15904.62
741.784	16034.56
742.124	15967.22
742.464	15969.71
742.804	16009.93
743.143	15960.89
743.483	16009.03
743.823	15932.87
744.162	15910.73
744.502	16048.58
744.841	15995.92
745.181	16113.66
745.52	16127.9
745.86	16040.89
746.199	16075.02
746.538	16138.29
746.877	16117.5
747.216	16258.29
747.556	16173.54
747.895	16261.22
748.234	16163.6
748.573	16250.6
748.911	16282.47
749.25	16268.46
749.589	16286.08
749.928	16361.34
750.267	16532.86
750.605	16495.57
750.944	16486.98
751.283	16548.68
751.621	16633.87
751.96	16626.87
752.298	16714.55
752.636	16722.46
752.975	16739.86
753.313	16759.29
753.651	16851.04
753.989	16930.81
754.327	17050.81
754.666	17037.7
755.004	17125.16
755.342	17154.53
755.679	17260.97
756.017	17141.2
756.355	17407.18
756.693	17418.48
757.031	17553.39
757.368	17528.99
