Data from hue_90_FLMS001491_95.txt Node
Date: Mon Feb 06 15:25:56 GMT 2017
User: dcchb
Spectrometer: FLMS00149
Trigger mode: 0
Integration Time (sec): 2.000000E-2
Scans to average: 10
Electric dark correction enabled: true
Nonlinearity correction enabled: false
Boxcar width: 0
XAxis mode: Wavelengths
Number of Pixels in Spectrum: 2048
>>>>>Begin Spectral Data<<<<<
341.393	-16.79
341.776	-16.79
342.16	-16.79
342.543	-54.08
342.927	-67.19
343.31	-72.16
343.693	-60.41
344.077	-67.19
344.46	-56.11
344.843	-52.5
345.226	-47.75
345.61	-26.06
345.993	-26.96
346.376	6.26
346.759	10.1
347.142	13.04
347.525	57.78
347.908	58.23
348.291	63.43
348.674	78.35
349.057	121.96
349.44	122.86
349.823	167.16
350.206	149.3
350.588	183.2
350.971	201.51
351.354	218.23
351.737	221.62
352.119	252.8
352.502	266.36
352.884	262.97
353.267	286.93
353.65	280.37
354.032	305.01
354.414	285.57
354.797	339.81
355.179	316.08
355.562	312.69
355.944	328.73
356.326	322.63
356.709	316.76
357.091	319.47
357.473	357.66
357.855	336.64
358.238	343.88
358.62	328.51
359.002	329.86
359.384	340.94
359.766	330.77
360.148	326.93
360.53	342.07
360.912	307.27
361.294	323.54
361.676	329.41
362.057	326.93
362.439	349.07
362.821	311.56
363.203	343.42
363.584	323.99
363.966	323.76
364.348	316.76
364.729	326.25
365.111	333.25
365.493	301.84
365.874	300.03
366.256	312.46
366.637	307.49
367.019	319.92
367.4	305.23
367.781	327.15
368.163	294.84
368.544	302.29
368.925	323.54
369.306	315.18
369.688	294.61
370.069	307.94
370.45	317.21
370.831	316.76
371.212	312.69
371.593	288.74
371.974	330.77
372.355	296.19
372.736	307.94
373.117	298
373.498	304.78
373.879	321.5
374.26	302.52
374.641	321.5
375.021	324.89
375.402	325.57
375.783	317.44
376.163	322.18
376.544	332.12
376.925	308.17
377.305	317.44
377.686	330.99
378.066	332.8
378.447	320.82
378.827	332.58
379.208	319.24
379.588	331.22
379.968	324.21
380.349	346.81
380.729	353.82
381.109	329.41
381.489	323.08
381.87	323.76
382.25	312.46
382.63	319.69
383.01	339.58
383.39	337.55
383.77	334.61
384.15	321.95
384.53	358.56
384.91	349.75
385.29	353.82
385.67	314.5
386.049	368.73
386.429	341.16
386.809	351.56
387.189	377.32
387.568	347.72
387.948	355.85
388.328	340.26
388.707	372.57
389.087	369.86
389.466	370.09
389.846	361.05
390.225	372.8
390.605	362.86
390.984	389.98
391.363	378
391.743	360.6
392.122	365.34
392.501	370.77
392.881	373.25
393.26	375.06
393.639	358.79
394.018	359.24
394.397	378.45
394.776	373.03
395.155	373.03
395.534	394.72
395.913	367.83
396.292	373.25
396.671	367.15
397.05	369.41
397.429	368.06
397.808	380.26
398.186	394.04
398.565	420.26
398.944	383.87
399.323	408.28
399.701	401.27
400.08	403.76
400.458	410.77
400.837	412.8
401.215	383.42
401.594	378.68
401.972	411.22
402.351	404.66
402.729	402.63
403.107	399.01
403.486	398.11
403.864	419.13
404.242	413.03
404.62	417.55
404.999	411.44
405.377	419.35
405.755	418.9
406.133	410.09
406.511	420.71
406.889	415.74
407.267	440.37
407.645	429.3
408.023	427.71
408.401	458
408.779	427.94
409.156	420.71
409.534	451.67
409.912	461.16
410.29	436.53
410.667	448.96
411.045	438.11
411.422	467.04
411.8	460.48
412.178	462.74
412.555	480.59
412.933	474.72
413.31	487.37
413.687	465.68
414.065	478.33
414.442	472.01
414.819	476.98
415.197	484.66
415.574	494.61
415.951	484.21
416.328	498.9
416.705	498.67
417.082	507.71
417.46	520.59
417.837	526.7
418.214	504.77
418.591	528.05
418.967	519.92
419.344	513.14
419.721	541.38
420.098	516.98
420.475	513.81
420.852	545.68
421.228	527.37
421.605	546.36
421.982	542.06
422.358	537.99
422.735	553.36
423.111	533.47
423.488	566.02
423.864	553.81
424.241	569.63
424.617	559.01
424.994	562.4
425.37	557.88
425.746	570.08
426.123	580.48
426.499	551.33
426.875	578.9
427.251	580.48
427.627	589.29
428.003	604.66
428.379	577.54
428.756	609.18
429.132	620.93
429.507	627.03
429.883	621.16
430.259	631.1
430.635	615.05
431.011	639.01
431.387	636.52
431.763	642.4
432.138	635.17
432.514	668.61
432.89	653.92
433.265	678.1
433.641	671.78
434.016	684.21
434.392	681.72
434.767	692.79
435.143	700.02
435.518	694.37
435.894	711.1
436.269	705.22
436.644	738.89
437.02	731.44
437.395	712
437.77	706.35
438.145	741.6
438.52	736.63
438.895	724.43
439.271	747.48
439.646	784.32
440.021	768.72
440.395	753.36
440.77	768.95
441.145	772.79
441.52	790.64
441.895	777.99
442.27	807.37
442.645	801.49
443.019	787.25
443.394	790.64
443.769	802.85
444.143	831.55
444.518	847.82
444.892	836.97
445.267	826.35
445.641	815.95
446.016	819.12
446.39	870.41
446.764	836.97
447.139	872
447.513	837.2
447.887	868.16
448.262	886.46
448.636	888.72
449.01	871.54
449.384	891.43
449.758	884.43
450.132	933.46
450.506	912
450.88	900.47
451.254	908.83
451.628	946.12
452.002	935.27
452.376	942.5
452.75	931.88
453.123	954.03
453.497	971.66
453.871	959.9
454.244	998.32
454.618	1002.39
454.992	1009.62
455.365	991.32
455.739	1026.34
456.112	1032.44
456.486	1055.95
456.859	1058.21
457.232	1077.42
457.606	1071.31
457.979	1071.09
458.352	1094.36
458.725	1110.41
459.099	1124.87
459.472	1118.54
459.845	1149.73
460.218	1157.19
460.591	1173.23
460.964	1183.63
461.337	1207.13
461.71	1238.31
462.083	1245.77
462.456	1243.96
462.829	1248.94
463.201	1266.11
463.574	1262.27
463.947	1317.63
464.32	1321.93
464.692	1325.77
465.065	1345.88
465.438	1368.03
465.81	1369.16
466.183	1408.25
466.555	1402.38
466.928	1450.74
467.3	1449.61
467.672	1484.64
468.045	1529.61
468.417	1520.34
468.789	1554.46
469.161	1533.22
469.534	1579.55
469.906	1622.26
470.278	1653.67
470.65	1678.08
471.022	1708.81
471.394	1731.18
471.766	1759.88
472.138	1778.64
472.51	1819.99
472.882	1887.34
473.253	1888.69
473.625	1967.11
473.997	1981.57
474.369	1991.97
474.74	2031.29
475.112	2102.47
475.484	2158.52
475.855	2167.78
476.227	2211.85
476.598	2308.57
476.97	2353.77
477.341	2437.61
477.713	2470.6
478.084	2536.13
478.455	2598.28
478.827	2663.59
479.198	2757.37
479.569	2763.25
479.94	2877.82
480.311	2868.1
480.682	3055.67
481.053	3111.49
481.424	3157.36
481.795	3206.17
482.166	3372.04
482.537	3402.78
482.908	3539.05
483.279	3598.93
483.65	3682.09
484.021	3824.24
484.391	3892.48
484.762	3947.17
485.133	4051.35
485.503	4152.59
485.874	4307.16
486.244	4386.71
486.615	4514.16
486.985	4621.05
487.356	4735.62
487.726	4781.5
488.097	4977.65
488.467	5015.16
488.837	5203.18
489.207	5305.33
489.578	5406.11
489.948	5545.77
490.318	5722.72
490.688	5792.55
491.058	5847.46
491.428	6067.34
491.798	6095.81
492.168	6249.48
492.538	6403.38
492.908	6547.1
493.278	6672.3
493.648	6718.4
494.017	6878.39
494.387	7007.88
494.757	7105.51
495.126	7234.09
495.496	7342.34
495.866	7404.48
496.235	7534.87
496.605	7738.93
496.974	7795.66
497.344	7943.9
497.713	8034.29
498.082	8128.3
498.452	8256.89
498.821	8375.98
499.19	8363.1
499.559	8573.72
499.928	8615.07
500.298	8733.26
500.667	8840.83
501.036	8849.41
501.405	8970.99
501.774	9036.75
502.143	9203.53
502.512	9231.33
502.88	9406.24
503.249	9442.62
503.618	9494.14
503.987	9622.73
504.356	9680.58
504.724	9726.23
505.093	9810.29
505.462	9914.02
505.83	9864.53
506.199	10016.62
506.567	10165.99
506.936	10138.19
507.304	10262.71
507.672	10325.76
508.041	10355.14
508.409	10448.24
508.777	10543.61
509.145	10618.41
509.514	10658.41
509.882	10737.27
510.25	10776.6
510.618	10855.01
510.986	10902.69
511.354	10921.9
511.722	11061.79
512.09	11123.93
512.458	11097.49
512.826	11193.76
513.193	11315.11
513.561	11253.42
513.929	11306.98
514.297	11429.69
514.664	11373.64
515.032	11438.72
515.4	11489.8
515.767	11563.92
516.135	11607.08
516.502	11574.31
516.869	11719.62
517.237	11803.91
517.604	11761.65
517.972	11812.5
518.339	11842.56
518.706	11828.54
519.073	11868.77
519.44	11954.87
519.808	11969.78
520.175	11949.45
520.542	12151.47
520.909	12177.91
521.276	12076.67
521.643	12195.09
522.009	12220.63
522.376	12292.49
522.743	12342.88
523.11	12367.97
523.477	12448.64
523.843	12482.99
524.21	12565.93
524.577	12528.19
524.943	12609.32
525.31	12598.02
525.676	12695.64
526.043	12678.47
526.409	12777.9
526.776	12843.21
527.142	12795.98
527.508	12870.1
527.874	12833.04
528.241	12865.58
528.607	12871.23
528.973	12949.65
529.339	12923.43
529.705	12980.38
530.071	13022.41
530.437	12995.29
530.803	12909.19
531.169	13053.82
531.535	13049.98
531.901	13022.64
532.267	12982.41
532.632	13005.92
532.998	13061.73
533.364	13005.46
533.73	12974.5
534.095	13099.47
534.461	13069.19
534.826	13060.38
535.192	13033.94
535.557	13073.71
535.923	13041.39
536.288	12968.85
536.653	13095.63
537.019	12999.59
537.384	12936.76
537.749	12914.39
538.114	13006.82
538.479	12878.91
538.845	12976.31
539.21	12871.46
539.575	12827.84
539.94	12843.66
540.305	12878.91
540.67	12770.22
541.034	12752.59
541.399	12747.84
541.764	12710.56
542.129	12714.62
542.494	12750.1
542.858	12777.67
543.223	12678.24
543.587	12716.21
543.952	12622.65
544.316	12631.69
544.681	12592.59
545.045	12622.87
545.41	12600.05
545.774	12629.43
546.138	12530.9
546.503	12519.6
546.867	12363.67
547.231	12576.77
547.595	12470.34
547.959	12414.97
548.324	12423.56
548.688	12369.77
549.052	12354.86
549.416	12307.63
549.779	12291.36
550.143	12257.91
550.507	12304.46
550.871	12193.06
551.235	12217.91
551.599	12298.59
551.962	12248.87
552.326	12256.1
552.689	12275.76
553.053	12170.91
553.417	12136.33
553.78	12278.02
554.143	12056.56
554.507	12115.54
554.87	12187.86
555.234	12239.61
555.597	11999.39
555.96	12158.25
556.323	12167.97
556.686	12061.53
557.05	11991.7
557.413	12023.57
557.776	12047.52
558.139	12038.03
558.502	12121.42
558.865	12110.35
559.228	12193.51
559.59	12111.02
559.953	12108.54
560.316	12146.5
560.679	12106.73
561.041	12149.67
561.404	12153.06
561.767	12122.32
562.129	12026.05
562.492	12169.33
562.854	12106.28
563.217	12154.41
563.579	12202.77
563.941	12175.43
564.304	12239.61
564.666	12267.63
565.028	12158.71
565.39	12229.21
565.753	12343.33
566.115	12282.09
566.477	12297.91
566.839	12328.87
567.201	12379.94
567.563	12333.39
567.925	12408.42
568.287	12365.03
568.648	12391.92
569.01	12405.7
569.372	12496.32
569.734	12414.07
570.095	12528.87
570.457	12485.25
570.819	12511.24
571.18	12500.62
571.542	12556.21
571.903	12525.93
572.265	12546.94
572.626	12501.75
572.987	12572.93
573.349	12623.1
573.71	12657.22
574.071	12653.83
574.432	12650.67
574.794	12703.55
575.155	12693.38
575.516	12579.49
575.877	12785.81
576.238	12607.73
576.599	12779.71
576.96	12737
577.32	12619.26
577.681	12763.66
578.042	12735.87
578.403	12775.64
578.763	12734.74
579.124	12784.23
579.485	12752.36
579.845	12753.94
580.206	12735.87
580.566	12779.25
580.927	12730.67
581.287	12811.34
581.648	12739.71
582.008	12803.89
582.368	12760.95
582.728	12757.56
583.089	12794.17
583.449	12692.48
583.809	12725.7
584.169	12765.7
584.529	12672.36
584.889	12774.06
585.249	12756.66
585.609	12687.51
585.969	12773.38
586.329	12725.7
586.688	12723.44
587.048	12660.16
587.408	12697.45
587.768	12612.03
588.127	12704
588.487	12576.77
588.846	12639.15
589.206	12534.06
589.565	12525.7
589.925	12643.44
590.284	12656.77
590.643	12587.62
591.003	12569.54
591.362	12693.83
591.721	12541.97
592.08	12502.88
592.44	12622.87
592.799	12566.15
593.158	12542.2
593.517	12564.57
593.876	12605.7
594.235	12517.57
594.593	12550.56
594.952	12592.59
595.311	12474.63
595.67	12554.18
596.029	12677.34
596.387	12619.03
596.746	12627.62
597.104	12515.98
597.463	12624.46
597.822	12663.55
598.18	12553.27
598.538	12487.51
598.897	12613.38
599.255	12481.64
599.613	12627.62
599.972	12588.52
600.33	12559.83
600.688	12418.13
601.046	12590.11
601.404	12603.67
601.762	12598.47
602.12	12575.42
602.478	12499.71
602.836	12549.43
603.194	12537.23
603.552	12535.42
603.91	12542.88
604.268	12555.98
604.625	12518.47
604.983	12536.77
605.341	12515.08
605.698	12558.7
606.056	12553.27
606.413	12501.97
606.771	12577.45
607.128	12595.3
607.485	12529.54
607.843	12568.86
608.2	12569.77
608.557	12561.86
608.914	12606.6
609.272	12595.98
609.629	12696.32
609.986	12677.11
610.343	12545.36
610.7	12703.32
611.057	12704.23
611.414	12699.03
611.771	12727.28
612.127	12784.23
612.484	12749.42
612.841	12765.24
613.198	12754.4
613.554	12738.8
613.911	12770.67
614.267	12773.6
614.624	12825.35
614.98	12797.11
615.337	12840.04
615.693	12833.72
616.05	12730.44
616.406	12849.31
616.762	12835.75
617.118	12806.15
617.475	12838.46
617.831	12840.5
618.187	12884.34
618.543	12829.42
618.899	13009.53
619.255	12846.82
619.611	12891.57
619.967	12963.88
620.323	12960.94
620.678	12891.12
621.034	12914.62
621.39	12850.66
621.746	12882.53
622.101	13053.15
622.457	12826.26
622.812	12952.81
623.168	12991.9
623.523	12927.05
623.879	13035.07
624.234	12934.73
624.589	13028.29
624.945	12966.82
625.3	12996.88
625.655	12988.97
626.01	12983.32
626.365	12945.35
626.72	12876.2
627.075	12931.79
627.43	12943.77
627.785	12884.79
628.14	12908.97
628.495	12874.85
628.85	12888.86
629.205	12895.18
629.559	12939.93
629.914	12866.94
630.269	12860.38
630.623	12849.76
630.978	12798.69
631.332	12851.34
631.687	12855.86
632.041	12810.44
632.396	12802.08
632.75	12746.03
633.104	12778.35
633.459	12717.56
633.813	12706.04
634.167	12745.58
634.521	12720.95
634.875	12675.98
635.229	12678.47
635.583	12565.7
635.937	12644.57
636.291	12659.94
636.645	12646.15
636.999	12583.55
637.352	12600.05
637.706	12637.34
638.06	12556.21
638.413	12545.59
638.767	12509.2
639.121	12624
639.474	12517.57
639.828	12456.33
640.181	12506.04
640.534	12502.88
640.888	12493.39
641.241	12407.51
641.594	12427.63
641.947	12456.55
642.301	12452.03
642.654	12342.66
643.007	12400.06
643.36	12329.1
643.713	12297.46
644.066	12442.77
644.419	12384.01
644.771	12261.53
645.124	12183.11
645.477	12192.6
645.83	12034.42
646.182	11979.73
646.535	11985.6
646.888	12007.98
647.24	11918.94
647.593	11932.5
647.945	12009.78
648.298	11887.98
648.65	11923.01
649.002	11858.83
649.355	11919.16
649.707	11870.8
650.059	11955.32
650.411	12075.77
650.763	12143.11
651.115	12271.92
651.467	12212.72
651.819	12264.92
652.171	12237.35
652.523	12193.51
652.875	12145.6
653.227	12165.94
653.578	12207.52
653.93	12197.35
654.282	12183.34
654.633	12197.12
654.985	12145.6
655.337	12153.73
655.688	12181.08
656.039	12255.88
656.391	12174.3
656.742	12156.22
657.094	12182.89
657.445	12215.2
657.796	12180.4
658.147	12131.14
658.498	12116.67
658.849	12170.91
659.2	12229.89
659.551	12112.15
659.902	12185.37
660.253	12149.21
660.604	12168.87
660.955	12138.14
661.306	12188.31
661.656	12163.23
662.007	12150.12
662.358	12111.93
662.708	12199.83
663.059	12146.5
663.409	12073.74
663.76	12164.36
664.11	12174.07
664.461	12254.3
664.811	12176.33
665.161	12174.52
665.511	12227.4
665.862	12218.37
666.212	12228.08
666.562	12226.27
666.912	12208.42
667.262	12163.9
667.612	12226.27
667.962	12246.84
668.312	12215.2
668.662	12313.28
669.011	12193.06
669.361	12193.51
669.711	12183.11
670.06	12213.17
670.41	12191.93
670.76	12189.21
671.109	12226.05
671.459	12169.55
671.808	12150.34
672.157	12189.44
672.507	12143.34
672.856	12167.07
673.205	12116.22
673.554	12122.77
673.904	12082.32
674.253	12128.42
674.602	12136.79
674.951	11937.02
675.3	11814.08
675.649	11959.16
675.998	11995.09
676.346	12055.21
676.695	12057.69
677.044	11941.54
677.393	11922.55
677.741	11951.71
678.09	11890.24
678.438	11933.17
678.787	11913.74
679.135	11974.3
679.484	11796.91
679.832	11923.01
680.181	11856.11
680.529	11855.66
680.877	11837.13
681.225	11784.48
681.573	11902.44
681.922	11788.77
682.27	11741.77
682.618	11728.89
682.966	11718.94
683.314	11766.17
683.661	11695.89
684.009	11570.25
684.357	11602.56
684.705	11567.99
685.053	11598.27
685.4	11481.21
685.748	11536.8
686.095	11485.73
686.443	11462
686.79	11429.46
687.138	11387.65
687.485	11443.24
687.832	11379.52
688.18	11368.44
688.527	11275.79
688.874	11208.67
689.221	11263.81
689.568	11210.26
689.915	11242.12
690.262	11159.64
690.609	11182.46
690.956	11123.93
691.303	11075.12
691.65	11071.95
691.997	10969.36
692.344	11002.35
692.69	10953.99
693.037	10944.27
693.383	10879.87
693.73	10875.8
694.077	10818.63
694.423	10833.54
694.769	10761.45
695.116	10729.59
695.462	10710.16
695.808	10704.73
696.155	10648.69
696.501	10537.28
696.847	10504.06
697.193	10535.47
697.539	10566.66
697.885	10477.39
698.231	10444.4
698.577	10385.65
698.923	10404.4
699.269	10281.24
699.614	10259.77
699.96	10266.55
700.306	10274.69
700.651	10143.39
700.997	10146.78
701.342	10089.38
701.688	10129.15
702.033	10071.98
702.379	10036.05
702.724	9993.11
703.069	9990.4
703.415	9906.56
703.76	9895.49
704.105	9810.29
704.45	9865.66
704.795	9784.98
705.14	9707.47
705.485	9746.79
705.83	9638.55
706.175	9725.78
706.52	9716.28
706.865	9641.48
707.209	9639.45
707.554	9541.15
707.899	9546.35
708.243	9530.07
708.588	9558.77
708.932	9358.55
709.277	9440.59
709.621	9389.51
709.966	9375.73
710.31	9453.92
710.654	9287.37
710.998	9350.19
711.342	9312
711.687	9296.86
712.031	9165.34
712.375	9191.1
712.719	9234.49
713.063	9185
713.407	9229.74
713.75	9196.98
714.094	9117.43
714.438	9068.62
714.782	9091.89
715.125	9032.01
715.469	9060.48
715.812	8975.29
716.156	9010.99
716.499	8994.95
716.843	9023.19
717.186	8899.58
717.53	8996.98
717.873	8961.05
718.216	8943.65
718.559	8869.3
718.902	8851.9
719.246	8860.49
719.589	8873.14
719.932	8866.14
720.275	8819.81
720.617	8844.89
720.96	8815.97
721.303	8778.23
721.646	8766.25
721.989	8748.17
722.331	8778.91
722.674	8713.15
723.016	8776.42
723.359	8721.73
723.701	8731
724.044	8683.32
724.386	8678.35
724.729	8713.82
725.071	8669.08
725.413	8716.54
725.755	8688.51
726.097	8598.57
726.439	8577.78
726.782	8600.61
727.124	8649.65
727.465	8576.43
727.807	8635.41
728.149	8580.49
728.491	8563.55
728.833	8647.61
729.175	8546.82
729.516	8518.35
729.858	8522.19
730.199	8569.2
730.541	8532.59
730.882	8564.68
731.224	8567.84
731.565	8566.26
731.906	8479.48
732.248	8537.33
732.589	8454.85
732.93	8460.72
733.271	8469.54
733.612	8422.08
733.953	8499.82
734.294	8500.95
734.635	8508.86
734.976	8542.3
735.317	8439.26
735.658	8502.08
735.999	8492.36
736.339	8512.93
736.68	8507.28
737.021	8466.83
737.361	8471.57
737.702	8521.29
738.042	8517.67
738.383	8496.66
738.723	8610.55
739.063	8496.43
739.404	8506.82
739.744	8571.46
740.084	8552.02
740.424	8572.81
740.764	8574.85
741.104	8636.09
741.444	8554.73
741.784	8565.58
742.124	8610.55
742.464	8600.61
742.804	8658.68
743.143	8645.35
743.483	8648.74
743.823	8634.05
744.162	8688.97
744.502	8735.52
744.841	8702.53
745.181	8727.16
745.52	8813.26
745.86	8847.15
746.199	8840.83
746.538	8902.97
746.877	8880.15
747.216	8934.38
747.556	8958.11
747.895	9010.54
748.234	8975.51
748.573	9053.02
748.911	9129.41
749.25	9171.21
749.589	9185.68
749.928	9295.96
750.267	9321.94
750.605	9319.23
750.944	9463.64
751.283	9436.52
751.621	9582.05
751.96	9613.46
752.298	9748.37
752.636	9737.98
752.975	9801.93
753.313	9884.64
753.651	10032.21
753.989	10092.32
754.327	10139.1
754.666	10199.21
755.004	10363.27
755.342	10543.38
755.679	10530.5
756.017	10609.14
756.355	10739.31
756.693	10885.74
757.031	11007.55
757.368	11037.83
757.706	11193.76
758.044	11328.45
758.381	11527.08
758.719	11556.24
759.056	11715.78
759.394	11869
759.731	11904.02
