Data from hue_36_FLMS001491_00084.txt Node
Date: Tue Feb 07 17:30:24 GMT 2017
User: dcchb
Spectrometer: FLMS00149
Trigger mode: 0
Integration Time (sec): 2.000000E-2
Scans to average: 10
Electric dark correction enabled: true
Nonlinearity correction enabled: false
Boxcar width: 0
XAxis mode: Wavelengths
Number of Pixels in Spectrum: 2048
>>>>>Begin Spectral Data<<<<<
341.393	-23.06
341.776	-23.06
342.16	-23.06
342.543	-64.19
342.927	-67.13
343.31	-60.8
343.693	-75.49
344.077	-54.93
344.46	-67.81
344.843	-49.28
345.226	-35.72
345.61	-28.04
345.993	-9.73
346.376	-14.25
346.759	-13.12
347.142	31.62
347.525	44.05
347.908	63.94
348.291	64.39
348.674	91.28
349.057	113.88
349.44	121.56
349.823	141.23
350.206	157.5
350.588	202.24
350.971	221.45
351.354	209.02
351.737	234.78
352.119	250.83
352.502	245.86
352.884	256.93
353.267	265.74
353.65	282.24
354.032	303.25
354.414	317.49
354.797	313.42
355.179	309.13
355.562	308
355.944	322.69
356.326	336.02
356.709	326.98
357.091	317.94
357.473	336.47
357.855	358.62
358.238	325.18
358.62	341.45
359.002	335.57
359.384	349.58
359.766	344.38
360.148	331.73
360.53	342.58
360.912	331.5
361.294	322.24
361.676	330.37
362.057	337.38
362.439	349.58
362.821	348.23
363.203	354.78
363.584	335.34
363.966	334.44
364.348	331.05
364.729	286.76
365.111	333.08
365.493	328.79
365.874	333.54
366.256	313.2
366.637	325.4
367.019	308.23
367.4	352.52
367.781	319.07
368.163	309.81
368.544	299.41
368.925	328.34
369.306	308.45
369.688	308.23
370.069	307.77
370.45	311.84
370.831	301.67
371.212	307.1
371.593	325.18
371.974	323.37
372.355	304.38
372.736	319.75
373.117	314.33
373.498	313.65
373.879	317.27
374.26	309.36
374.641	322.24
375.021	312.97
375.402	315.01
375.783	332.18
376.163	313.65
376.544	324.72
376.925	333.31
377.305	328.79
377.686	338.51
378.066	322.92
378.447	337.83
378.827	324.72
379.208	333.76
379.588	329.24
379.968	307.55
380.349	339.41
380.729	353.87
381.109	335.34
381.489	346.64
381.87	318.85
382.25	343.25
382.63	336.25
383.01	339.41
383.39	349.58
383.77	332.86
384.15	338.06
384.53	336.93
384.91	324.72
385.29	345.97
385.67	350.94
386.049	352.74
386.429	358.85
386.809	350.71
387.189	336.47
387.568	366.08
387.948	366.98
388.328	353.87
388.707	343.71
389.087	359.98
389.466	358.62
389.846	364.72
390.225	379.41
390.605	367.66
390.984	349.81
391.363	353.2
391.743	353.87
392.122	355
392.501	352.97
392.881	381.9
393.26	383.25
393.639	355.46
394.018	350.26
394.397	370.6
394.776	378.51
395.155	376.7
395.534	373.31
395.913	382.35
396.292	367.89
396.671	365.85
397.05	372.18
397.429	398.85
397.808	368.56
398.186	395.23
398.565	380.09
398.944	389.13
399.323	397.72
399.701	383.7
400.08	383.48
400.458	392.07
400.837	370.37
401.215	378.28
401.594	417.83
401.972	383.48
402.351	397.26
402.729	384.16
403.107	401.33
403.486	401.56
403.864	412.63
404.242	403.37
404.62	407.43
404.999	392.52
405.377	405.17
405.755	395.68
406.133	431.16
406.511	395.46
406.889	402.01
407.267	414.21
407.645	420.54
408.023	422.57
408.401	419.18
408.779	427.77
409.156	421.9
409.534	432.29
409.912	437.94
410.29	426.19
410.667	423.03
411.045	441.78
411.422	443.59
411.8	435.45
412.178	425.29
412.555	453.99
412.933	455.12
413.31	477.04
413.687	465.06
414.065	445.17
414.442	466.64
414.819	463.93
415.197	448.34
415.574	470.71
415.951	452.63
416.328	473.87
416.705	468.67
417.082	479.07
417.46	482.01
417.837	475.45
418.214	477.49
418.591	500.54
418.967	492.85
419.344	497.37
419.721	490.14
420.098	498.28
420.475	470.71
420.852	500.31
421.228	522.68
421.605	496.92
421.982	522.23
422.358	531.05
422.735	503.93
423.111	537.6
423.488	524.72
423.864	517.94
424.241	540.08
424.617	536.69
424.994	527.2
425.37	535.79
425.746	547.77
426.123	558.62
426.499	535.79
426.875	552.74
427.251	559.29
427.627	551.38
428.003	583.47
428.379	538.28
428.756	578.05
429.132	580.08
429.507	566.3
429.883	570.37
430.259	571.5
430.635	592.74
431.011	575.56
431.387	584.38
431.763	593.87
432.138	586.19
432.514	611.72
432.89	627.54
433.265	597.26
433.641	618.05
434.016	608.56
434.392	640.2
434.767	651.27
435.143	631.38
435.518	660.99
435.894	641.55
436.269	661.21
436.644	668.22
437.02	649.91
437.395	638.84
437.77	699.18
438.145	677.93
438.52	667.99
438.895	675.45
439.271	685.84
439.646	699.4
440.021	697.14
440.395	707.09
440.77	708.44
441.145	706.18
441.52	716.13
441.895	714.09
442.27	740.76
442.645	730.36
443.019	736.01
443.394	739.63
443.769	755.22
444.143	725.62
444.518	738.5
444.892	734.43
445.267	735.56
445.641	731.94
446.016	738.27
446.39	782.34
446.764	745.95
447.139	765.84
447.513	751.83
447.887	753.64
448.262	766.97
448.636	777.82
449.01	770.59
449.384	762
449.758	770.59
450.132	798.38
450.506	775.33
450.88	796.58
451.254	809.68
451.628	810.13
452.002	818.04
452.376	825.73
452.75	852.17
453.123	832.96
453.497	858.72
453.871	834.09
454.244	874.31
454.618	878.38
454.992	865.05
455.365	877.7
455.739	859.4
456.112	902.56
456.486	898.27
456.859	904.59
457.232	906.85
457.606	928.78
457.979	936.01
458.352	942.11
458.725	956.57
459.099	946.63
459.472	941.88
459.845	959.96
460.218	989.11
460.591	994.54
460.964	1010.13
461.337	1021.43
461.71	1039.05
462.083	1045.38
462.456	1051.48
462.829	1057.81
463.201	1065.95
463.574	1084.93
463.947	1107.75
464.32	1115.44
464.692	1121.09
465.065	1119.5
465.438	1182.1
465.81	1173.51
466.183	1146.85
466.555	1204.47
466.928	1205.15
467.3	1209.67
467.672	1211.48
468.045	1262.55
468.417	1247.86
468.789	1249.44
469.161	1268.65
469.534	1297.35
469.906	1345.71
470.278	1362.66
470.65	1352.04
471.022	1382.32
471.394	1434.3
471.766	1462.55
472.138	1433.85
472.51	1477.69
472.882	1500.06
473.253	1526.27
473.625	1565.37
473.997	1604.92
474.369	1594.29
474.74	1654.41
475.112	1659.6
475.484	1674.52
475.855	1746.61
476.227	1765.82
476.598	1854.63
476.97	1850.78
477.341	1908.86
477.713	1943.21
478.084	1988.63
478.455	2055.98
478.827	2084
479.198	2147.27
479.569	2191.34
479.94	2282.19
480.311	2287.38
480.682	2357.89
481.053	2412.58
481.424	2497.32
481.795	2522.86
482.166	2592.46
482.537	2667.26
482.908	2731.21
483.279	2839.23
483.65	2918.55
484.021	2946.35
484.391	3011.88
484.762	3019.34
485.133	3145.44
485.503	3190.18
485.874	3318.77
486.244	3369.39
486.615	3480.8
486.985	3577.52
487.356	3628.82
487.726	3718.53
488.097	3823.84
488.467	3897.28
488.837	4008.24
489.207	4093.66
489.578	4197.62
489.948	4255.69
490.318	4347.89
490.688	4386.76
491.058	4538.17
491.428	4595.12
491.798	4692.29
492.168	4831.5
492.538	4910.14
492.908	5038.5
493.278	5107.87
493.648	5119.63
494.017	5233.97
494.387	5333.86
494.757	5465.15
495.126	5511.93
495.496	5575.43
495.866	5719.61
496.235	5797.8
496.605	5872.83
496.974	5961.41
497.344	6002.09
497.713	6070.11
498.082	6189.43
498.452	6221.52
498.821	6383.77
499.19	6395.3
499.559	6508.74
499.928	6593.26
500.298	6671
500.667	6725.68
501.036	6769.98
501.405	6908.5
501.774	6948.73
502.143	7023.76
502.512	7110.31
502.88	7169.29
503.249	7189.4
503.618	7293.13
503.987	7344.88
504.356	7392.11
504.724	7533.8
505.093	7522.95
505.462	7580.8
505.83	7667.35
506.199	7788.03
506.567	7900.57
506.936	7934.69
507.304	8028.02
507.672	8057.85
508.041	8062.82
508.409	8209.04
508.777	8228.47
509.145	8334.23
509.514	8405.41
509.882	8458.75
510.25	8466.43
510.618	8491.74
510.986	8595.01
511.354	8662.58
511.722	8730.83
512.09	8764.28
512.458	8862.8
512.826	8959.98
513.193	9010.82
513.561	9023.7
513.929	9088.79
514.297	9199.52
514.664	9166.52
515.032	9277.26
515.4	9356.12
515.767	9378.27
516.135	9427.31
516.502	9379.4
516.869	9611.26
517.237	9624.82
517.604	9565.16
517.972	9726.96
518.339	9764.47
518.706	9788.66
519.073	9850.8
519.44	9859.16
519.808	9977.12
520.175	10010.8
520.542	10166.05
520.909	10191.36
521.276	10130.57
521.643	10289.43
522.009	10347.74
522.376	10434.74
522.743	10439.94
523.11	10577.33
523.477	10600.16
523.843	10698.69
524.21	10764
524.577	10904.78
524.943	10949.08
525.31	10926.7
525.676	11079.92
526.043	11080.37
526.409	11178
526.776	11327.37
527.142	11276.53
527.508	11288.05
527.874	11351.55
528.241	11465.9
528.607	11572.11
528.973	11654.37
529.339	11677.87
529.705	11730.3
530.071	11900.69
530.437	11972.55
530.803	11986.11
531.169	12006
531.535	12001.93
531.901	12103.85
532.267	12152.89
532.632	12219.78
532.998	12293.45
533.364	12405.08
533.73	12384.97
534.095	12503.39
534.461	12536.15
534.826	12604.17
535.192	12650.5
535.557	12732.98
535.923	12737.96
536.288	12801.01
536.653	12860.44
537.019	12890.95
537.384	12951.51
537.749	13054.11
538.114	13049.59
538.479	13075.35
538.845	13081.68
539.21	13155.8
539.575	13200.09
539.94	13288
540.305	13307.66
540.67	13372.74
541.034	13390.14
541.399	13483.02
541.764	13497.71
542.129	13577.26
542.494	13664.26
542.858	13642.11
543.223	13693.86
543.587	13739.06
543.952	13784.03
544.316	13822.9
544.681	13805.27
545.045	13991.26
545.41	14065.6
545.774	14089.33
546.138	14099.95
546.503	14256.79
546.867	14198.93
547.231	14425.37
547.595	14289.33
547.959	14350.57
548.324	14348.99
548.688	14476.44
549.052	14459.72
549.416	14537.46
549.779	14612.71
550.143	14639.15
550.507	14704.23
550.871	14794.85
551.235	14749.43
551.599	14980.61
551.962	14945.13
552.326	15009.99
552.689	15001.85
553.053	15060.15
553.417	15048.18
553.78	15152.81
554.143	15135.18
554.507	15252.01
554.87	15245.01
555.234	15482.97
555.597	15389.41
555.96	15455.17
556.323	15561.61
556.686	15502.86
557.05	15649.97
557.413	15643.87
557.776	15684.77
558.139	15848.61
558.502	15789.85
558.865	15907.82
559.228	15996.4
559.59	16115.95
559.953	16038.66
560.316	16157.98
560.679	16256.73
561.041	16352.78
561.404	16430.06
561.767	16437.97
562.129	16424.41
562.492	16705.54
562.854	16669.83
563.217	16615.37
563.579	16660.79
563.941	16739.88
564.304	16853.78
564.666	16974.91
565.028	17035.02
565.39	16965.87
565.753	17159.08
566.115	17147.78
566.477	17259.19
566.839	17288.34
567.201	17463.93
567.563	17416.25
567.925	17507.55
568.287	17591.16
568.648	17571.28
569.01	17770.82
569.372	17874.77
569.734	17795.22
570.095	17993.41
570.457	17964.94
570.819	17989.12
571.18	18017.37
571.542	18107.98
571.903	18201.09
572.265	18293.52
572.626	18347.07
572.987	18414.87
573.349	18519.27
573.71	18608.99
574.071	18683.56
574.432	18798.59
574.794	18963.1
575.155	18993.16
575.516	18911.8
575.877	19147.96
576.238	19280.61
576.599	19359.48
576.96	19402.64
577.32	19563.99
577.681	19672.46
578.042	19845.57
578.403	19770.09
578.763	19988.61
579.124	20107.48
579.485	20301.15
579.845	20456.85
580.206	20487.13
580.566	20594.25
580.927	20780.46
581.287	21048.25
581.648	21023.84
582.008	21370.5
582.368	21313.78
582.728	21608.23
583.089	21748.11
583.449	21833.76
583.809	22003.02
584.169	22307.2
584.529	22402.33
584.889	22703.8
585.249	22865.83
585.609	22948.76
585.969	23243.67
586.329	23245.48
586.688	23687.27
587.048	23805.69
587.408	23905.8
587.768	24062.18
588.127	24287.71
588.487	24563.18
588.846	24927.69
589.206	24880.46
589.565	25214.01
589.925	25470.73
590.284	25598.63
590.643	25925.63
591.003	26074.1
591.362	26390.48
591.721	26454.21
592.08	26739.17
592.44	27037.92
592.799	27201.3
593.158	27326.27
593.517	27531.92
593.876	27847.16
594.235	28023.66
594.593	28148.4
594.952	28506.13
595.311	28575.51
595.67	28995.16
596.029	29353.56
596.387	29493.67
596.746	29616.83
597.104	29823.61
597.463	30015.47
597.822	30297.72
598.18	30409.58
598.538	30541.78
598.897	30944.71
599.255	30862
599.613	31443.9
599.972	31558.7
600.33	31658.14
600.688	31643.45
601.046	32047.96
601.404	32370.21
601.762	32409.08
602.12	32633.25
602.478	32836.18
602.836	32964.09
603.194	33057.2
603.552	33348.04
603.91	33330.63
604.268	33602.49
604.625	33627.35
604.983	34017.62
605.341	33905.31
605.698	34312.53
606.056	34470.27
606.413	34470.72
606.771	34735.57
607.128	34979.41
607.485	34945.51
607.843	35034.77
608.2	35328.55
608.557	35712.27
608.914	35520.18
609.272	35757.92
609.629	35938.02
609.986	36279.71
610.343	36162.2
610.7	36548.18
611.057	36599.7
611.414	36546.6
611.771	36732.13
612.127	37067.26
612.484	37089.18
612.841	37363.98
613.198	37180.48
613.554	37429.06
613.911	37645.32
614.267	37652.78
614.624	37747.69
614.98	37976.16
615.337	38034.01
615.693	38111.98
616.05	38219.77
616.406	38441.69
616.762	38241.24
617.118	38452.76
617.475	38662.25
617.831	38716.93
618.187	38797.38
618.543	38877.16
618.899	39107.21
619.255	39062.69
619.611	39193.98
619.967	39418.84
620.323	39461.32
620.678	39379.74
621.034	39361.89
621.39	39302.46
621.746	39398.95
622.101	39870.58
622.457	39549.23
622.812	39761.65
623.168	39861.31
623.523	40054.98
623.879	40087.52
624.234	39858.82
624.589	40128.2
624.945	40064.24
625.3	40202.32
625.655	40167.74
626.01	40334.07
626.365	40385.14
626.72	40451.13
627.075	40394.86
627.43	40471.24
627.785	40358.47
628.14	40498.81
628.495	40547.17
628.85	40495.64
629.205	40450.67
629.559	40673.04
629.914	40507.17
630.269	40625.81
630.623	40511.69
630.978	40466.04
631.332	40713.49
631.687	40784
632.041	40549.2
632.396	40670.1
632.75	40552.37
633.104	40695.41
633.459	40518.02
633.813	40471.69
634.167	40582.65
634.521	40602.76
634.875	40626.49
635.229	40596.21
635.583	40468.07
635.937	40492.93
636.291	40391.69
636.645	40511.69
636.999	40524.34
637.352	40573.61
637.706	40366.61
638.06	40512.59
638.413	40267.4
638.767	40280.96
639.121	40385.82
639.474	40142.43
639.828	40242.09
640.181	40205.48
640.534	40377.91
640.888	40280.73
641.241	40141.53
641.594	40084.13
641.947	40240.06
642.301	40149.21
642.654	40114.41
643.007	40268.76
643.36	40267.4
643.713	40187.18
644.066	40227.4
644.419	39943.12
644.771	39831.48
645.124	39283.25
645.477	39316.01
645.83	39076.47
646.182	38944.72
646.535	38915.35
646.888	38998.06
647.24	38771.17
647.593	39157.83
647.945	39062.01
648.298	38871.28
648.65	38764.39
649.002	38678.97
649.355	38889.81
649.707	38832.41
650.059	38979.3
650.411	39569.11
650.763	39421.1
651.115	39778.6
651.467	39583.58
651.819	39720.3
652.171	39659.73
652.523	39453.41
652.875	39522.11
653.227	39337.03
653.578	39636.68
653.93	39471.49
654.282	39378.16
654.633	39131.84
654.985	39378.84
655.337	39364.6
655.688	39421.55
656.039	39585.16
656.391	39135.45
656.742	39255.68
657.094	39262.23
657.445	39485.73
657.796	39340.19
658.147	39218.84
658.498	39300.42
658.849	39342.91
659.2	39188.11
659.551	39164.15
659.902	39266.75
660.253	39214.32
660.604	39238.05
660.955	39099.97
661.306	39201.89
661.656	39190.82
662.007	39138.39
662.358	39104.04
662.708	39224.72
663.059	39217.03
663.409	38807.55
663.76	39128.22
664.11	39189.01
664.461	39217.49
664.811	39186.07
665.161	39190.37
665.511	39130.26
665.862	39019.98
666.212	39224.72
666.562	39142.91
666.912	39043.48
667.262	39006.19
667.612	39055.91
667.962	39019.07
668.312	39175.68
668.662	39182.68
669.011	39058.17
669.361	39002.12
669.711	39079.18
670.06	38942.92
670.41	38878.51
670.76	38935.91
671.109	39004.61
671.459	38951.05
671.808	38916.02
672.157	38946.31
672.507	38677.84
672.856	38648.91
673.205	38751.06
673.554	38857.04
673.904	38596.03
674.253	39019.98
674.602	38756.48
674.951	38335.93
675.3	38131.64
675.649	38699.99
675.998	38602.36
676.346	38712.41
676.695	38797.84
677.044	38433.78
677.393	38689.59
677.741	38609.14
678.09	38560.55
678.438	38376.38
678.787	38556.03
679.135	38600.78
679.484	38359.2
679.832	38501.57
680.181	38174.58
680.529	38344.74
680.877	38157.63
681.225	38156.5
681.573	38350.62
681.922	38191.52
682.27	38075.14
682.618	38007.35
682.966	37940.01
683.314	38050.51
683.661	37748.82
684.009	37779.33
684.357	37683.29
684.705	37494.59
685.053	37584.31
685.4	37648.49
685.748	37293.24
686.095	37459.34
686.443	37322.62
686.79	37329.63
687.138	37340.92
687.485	37348.38
687.832	37174.15
688.18	37250.53
688.527	37032.23
688.874	36975.74
689.221	36884.44
689.568	37069.29
689.915	36711.79
690.262	36690.77
690.609	36586.37
690.956	36539.36
691.303	36545.47
691.65	36237.9
691.997	36305.25
692.344	36155.65
692.69	36204.91
693.037	36099.38
693.383	35875.43
693.73	36090.56
694.077	35790.23
694.423	35853.28
694.769	35613.51
695.116	35580.52
695.462	35578.26
695.808	35461.2
696.155	35506.62
696.501	35279.96
696.847	35300.75
697.193	35045.84
697.539	35085.62
697.885	34871.16
698.231	34830.03
698.577	34805.62
698.923	34805.62
699.269	34586.65
699.614	34398.18
699.96	34476.59
700.306	34431.62
700.651	34231.18
700.997	34221.01
701.342	34073.67
701.688	33946.21
702.033	33935.36
702.379	33809.94
702.724	33719.78
703.069	33791.87
703.415	33414.25
703.76	33544.64
704.105	33491.08
704.45	33347.36
704.795	33253.12
705.14	33271.43
705.485	33132.9
705.83	32976.97
706.175	33036.18
706.52	32946.46
706.865	32868.5
707.209	32835.05
707.554	32678.9
707.899	32734.94
708.243	32525.01
708.588	32610.43
708.932	32362.52
709.277	32219.48
709.621	32345.35
709.966	32086.6
710.31	32190.78
710.654	31866.04
710.998	31975.42
711.342	32022.87
711.687	31848.87
712.031	31694.07
712.375	31637.12
712.719	31651.58
713.063	31544.24
713.407	31721.64
713.75	31474.64
714.094	31458.82
714.438	31309.45
714.782	31198.71
715.125	31182.89
715.469	31383.34
715.812	31042.79
716.156	31074.65
716.499	30875.11
716.843	30986.29
717.186	30820.19
717.53	30967.99
717.873	30962.56
718.216	30849.57
718.559	30761.21
718.902	30464.95
719.246	30495.91
719.589	30476.25
719.932	30414.33
720.275	30350.15
720.617	30368.23
720.96	30344.5
721.303	30299.08
721.646	30338.62
721.989	30064.73
722.331	30171.17
722.674	30130.95
723.016	30036.94
723.359	29908.35
723.701	29994.45
724.044	29839.88
724.386	29764.63
724.729	29727.11
725.071	29779.32
725.413	29745.42
725.755	29831.97
726.097	29514.01
726.439	29400.34
726.782	29391.08
727.124	29543.84
727.465	29356.5
727.807	29361.7
728.149	29356.5
728.491	29276.28
728.833	29268.37
729.175	29236.96
729.516	29052.33
729.858	29150.86
730.199	29050.75
730.541	28998.77
730.882	29015.49
731.224	29056.4
731.565	28884.2
731.906	28898.66
732.248	28879.45
732.589	28732.79
732.93	28612.34
733.271	28642.85
733.612	28699.8
733.953	28707.25
734.294	28571.21
734.635	28483.3
734.976	28568.73
735.317	28343.2
735.658	28464.1
735.999	28436.53
736.339	28333.03
736.68	28514.72
737.021	28244.44
737.361	28146.14
737.702	28304.33
738.042	28220.03
738.383	28188.4
738.723	28145.46
739.063	28050.1
739.404	28056.88
739.744	28046.93
740.084	27987.5
740.424	27870.21
740.764	27913.6
741.104	27926.94
741.444	27817.11
741.784	27776.2
742.124	27630.45
742.464	27647.85
742.804	27606.27
743.143	27520.39
743.483	27568.75
743.823	27368.53
744.162	27368.31
744.502	27521.52
744.841	27394.75
745.181	27469.77
745.52	27346.16
745.86	27190.46
746.199	27285.37
746.538	27133.74
746.877	27316.78
747.216	27179.38
747.556	27094.19
747.895	27050.12
748.234	26991.37
748.573	26865.72
748.911	26962.21
749.25	27002.67
749.589	26742.79
749.928	26847.42
750.267	26879.28
750.605	26843.8
750.944	26684.03
751.283	26603.13
751.621	26606.52
751.96	26475.45
752.298	26533.98
752.636	26477.71
752.975	26324.72
753.313	26390.25
753.651	26402.46
753.989	26178.73
754.327	26148.68
754.666	26109.81
755.004	26180.77
755.342	26214.44
755.679	26138.06
756.017	25956.14
756.355	25934.45
756.693	25815.8
757.031	25911.17
757.368	25717.73
757.706	25705.52
