Data from hue_240_FLMS001491_00070.txt Node
Date: Tue Feb 07 16:35:49 GMT 2017
User: dcchb
Spectrometer: FLMS00149
Trigger mode: 0
Integration Time (sec): 2.000000E-2
Scans to average: 10
Electric dark correction enabled: true
Nonlinearity correction enabled: false
Boxcar width: 0
XAxis mode: Wavelengths
Number of Pixels in Spectrum: 2048
>>>>>Begin Spectral Data<<<<<
341.393	5.55
341.776	5.55
342.16	5.55
342.543	-62.92
342.927	-67.89
343.31	-50.94
343.693	-69.7
344.077	-77.16
344.46	-88.91
344.843	-70.61
345.226	-21.12
345.61	-27.67
345.993	-11.85
346.376	-2.13
346.759	27.25
347.142	26.12
347.525	26.57
347.908	51.2
348.291	91.88
348.674	82.84
349.057	114.25
349.44	146.79
349.823	147.69
350.206	158.77
350.588	195.83
350.971	207.81
351.354	236.73
351.737	228.82
352.119	259.1
352.502	259.78
352.884	270.85
353.267	279.89
353.65	294.81
354.032	291.87
354.414	294.36
354.797	309.72
355.179	318.54
355.562	318.76
355.944	319.89
356.326	328.71
356.709	322.6
357.091	328.03
357.473	336.16
357.855	327.12
358.238	324.86
358.62	321.25
359.002	317.18
359.384	326.9
359.766	328.93
360.148	325.99
360.53	333.9
360.912	321.47
361.294	345.88
361.676	332.77
362.057	337.52
362.439	339.78
362.821	310.63
363.203	314.7
363.584	322.83
363.966	313.79
364.348	300.46
364.729	325.77
365.111	309.5
365.493	314.7
365.874	341.59
366.256	314.7
366.637	309.72
367.019	292.1
367.4	318.31
367.781	314.92
368.163	314.7
368.544	292.32
368.925	299.55
369.306	324.41
369.688	303.4
370.069	309.95
370.45	289.16
370.831	317.63
371.212	300.68
371.593	315.83
371.974	306.79
372.355	304.75
372.736	309.05
373.117	303.17
373.498	294.13
373.879	300.01
374.26	306.56
374.641	313.11
375.021	313.34
375.402	316.73
375.783	341.36
376.163	320.8
376.544	347.24
376.925	299.55
377.305	325.09
377.686	324.41
378.066	319.44
378.447	315.15
378.827	327.35
379.208	330.74
379.588	328.93
379.968	311.98
380.349	323.73
380.729	298.88
381.109	334.58
381.489	339.55
381.87	342.94
382.25	342.27
382.63	336.16
383.01	336.39
383.39	332.55
383.77	346.56
384.15	342.49
384.53	340.68
384.91	336.16
385.29	362.83
385.67	318.54
386.049	351.98
386.429	353.11
386.809	353.56
387.189	348.82
387.568	338.65
387.948	345.65
388.328	352.21
388.707	372.32
389.087	353.79
389.466	365.77
389.846	350.4
390.225	361.47
390.605	373.9
390.984	363.73
391.363	356.5
391.743	365.09
392.122	359.89
392.501	361.02
392.881	368.93
393.26	373
393.639	370.29
394.018	388.37
394.397	397.4
394.776	376.84
395.155	365.99
395.534	381.59
395.913	381.13
396.292	390.4
396.671	396.27
397.05	392.66
397.429	415.48
397.808	411.42
398.186	394.92
398.565	379.33
398.944	395.14
399.323	389.5
399.701	412.32
400.08	394.92
400.458	416.61
400.837	418.65
401.215	409.38
401.594	400.57
401.972	415.71
402.351	435.37
402.729	416.39
403.107	421.13
403.486	445.99
403.864	445.77
404.242	423.84
404.62	423.62
404.999	448.25
405.377	435.14
405.755	428.82
406.133	441.92
406.511	441.7
406.889	458.42
407.267	445.31
407.645	454.35
408.023	482.37
408.401	482.6
408.779	450.28
409.156	466.56
409.534	468.36
409.912	490.74
410.29	497.52
410.667	514.24
411.045	522.15
411.422	501.81
411.8	495.26
412.178	528.93
412.555	527.12
412.933	529.15
413.31	544.07
413.687	560.56
414.065	538.64
414.442	567.8
414.819	575.25
415.197	578.42
415.574	588.36
415.951	582.71
416.328	606.21
416.705	605.99
417.082	608.02
417.46	616.16
417.837	620.9
418.214	602.82
418.591	627.68
418.967	630.84
419.344	614.12
419.721	649.38
420.098	655.03
420.475	633.78
420.852	656.38
421.228	674.01
421.605	687.79
421.982	698.41
422.358	679.43
422.735	695.02
423.111	702.26
423.488	697.06
423.864	722.59
424.241	758.3
424.617	742.93
424.994	749.49
425.37	765.3
425.746	758.53
426.123	782.93
426.499	783.16
426.875	811.18
427.251	803.27
427.627	862.03
428.003	833.1
428.379	827
428.756	859.09
429.132	864.51
429.507	859.31
429.883	873.55
430.259	871.52
430.635	902.25
431.011	884.17
431.387	912.87
431.763	918.52
432.138	924.85
432.514	958.75
432.89	951.74
433.265	963.49
433.641	955.81
434.016	998.29
434.392	1022.47
434.767	1032.19
435.143	1043.94
435.518	1062.25
435.894	1071.96
436.269	1086.88
436.644	1108.12
437.02	1083.26
437.395	1143.37
437.77	1128.91
438.145	1192.41
438.52	1153.77
438.895	1174.33
439.271	1166.42
439.646	1227.44
440.021	1234.9
440.395	1255.69
440.77	1226.08
441.145	1231.96
441.52	1278.51
441.895	1264.95
442.27	1312.63
442.645	1264.5
443.019	1302.24
443.394	1290.49
443.769	1321.22
444.143	1298.62
444.518	1362.8
444.892	1362.58
445.267	1374.55
445.641	1360.54
446.016	1405.29
446.39	1389.7
446.764	1385.4
447.139	1403.25
447.513	1409.58
447.887	1432.86
448.262	1420.65
448.636	1438.96
449.01	1455.91
449.384	1458.85
449.758	1457.49
450.132	1492.07
450.506	1513.99
450.88	1529.13
451.254	1507.66
451.628	1520.54
452.002	1563.7
452.376	1576.58
452.75	1569.35
453.123	1552.4
453.497	1611.38
453.871	1632.17
454.244	1645.51
454.618	1650.03
454.992	1685.51
455.365	1663.59
455.739	1699.97
456.112	1728.9
456.486	1747.65
456.859	1765.5
457.232	1774.54
457.606	1775.67
457.979	1778.61
458.352	1815.67
458.725	1880.3
459.099	1875.11
459.472	1877.82
459.845	1911.72
460.218	1916.23
460.591	1945.61
460.964	1939.06
461.337	2009.11
461.71	2014.99
462.083	2056.12
462.456	2048.89
462.829	2030.58
463.201	2101.77
463.574	2076
463.947	2154.42
464.32	2174.08
464.692	2144.25
465.065	2201.2
465.438	2216.57
465.81	2203.01
466.183	2252.72
466.555	2315.55
466.928	2334.3
467.3	2275.55
467.672	2379.05
468.045	2372.72
468.417	2377.01
468.789	2404.58
469.161	2493.85
469.534	2485.26
469.906	2524.13
470.278	2509.44
470.65	2568.65
471.022	2612.71
471.394	2673.5
471.766	2693.39
472.138	2686.61
472.51	2735.87
472.882	2775.2
473.253	2758.25
473.625	2840.73
473.997	2885.47
474.369	2880.96
474.74	2945.13
475.112	2934.51
475.484	3020.84
475.855	3079.14
476.227	3070.33
476.598	3143.77
476.97	3183.55
477.341	3233.94
477.713	3314.16
478.084	3307.84
478.455	3366.14
478.827	3435.29
479.198	3522.29
479.569	3478.91
479.94	3581.5
480.311	3624.21
480.682	3679.13
481.053	3759.12
481.424	3828.5
481.795	3820.59
482.166	3869.86
482.537	3893.58
482.908	3950.31
483.279	4013.35
483.65	4078.89
484.021	4203.18
484.391	4185.1
484.762	4195.72
485.133	4239.56
485.503	4291.99
485.874	4379.22
486.244	4426.23
486.615	4488.82
486.985	4538.31
487.356	4643.39
487.726	4604.07
488.097	4727.46
488.467	4732.43
488.837	4837.51
489.207	4852.43
489.578	4921.58
489.948	4998.87
490.318	4997.96
490.688	5027.79
491.058	5119.09
491.428	5172.19
491.798	5199.99
492.168	5248.58
492.538	5261.01
492.908	5312.3
493.278	5390.04
493.648	5432.53
494.017	5468.46
494.387	5495.12
494.757	5513.88
495.126	5618.06
495.496	5652.63
495.866	5660.09
496.235	5712.75
496.605	5694.89
496.974	5735.34
497.344	5793.2
497.713	5861.44
498.082	5898.73
498.452	5921.33
498.821	5990.93
499.19	5884.27
499.559	5971.27
499.928	6003.13
500.298	6007.88
500.667	6101.89
501.036	6064.83
501.405	6086.29
501.774	6108.22
502.143	6169.23
502.512	6176.46
502.88	6246.74
503.249	6204.71
503.618	6290.81
503.987	6263.24
504.356	6354.54
504.724	6334.2
505.093	6344.14
505.462	6361.99
505.83	6428.66
506.199	6458.49
506.567	6479.28
506.936	6493.74
507.304	6517.47
507.672	6548.88
508.041	6508.88
508.409	6599.95
508.777	6627.3
509.145	6661.87
509.514	6674.98
509.882	6648.09
510.25	6718.59
510.618	6773.51
510.986	6782.55
511.354	6735.09
511.722	6848.76
512.09	6827.29
512.458	6877.01
512.826	6919.27
513.193	6907.97
513.561	6914.52
513.929	6931.47
514.297	7040.85
514.664	7064.57
515.032	6988.87
515.4	7026.16
515.767	7046.27
516.135	7115.65
516.502	7012.15
516.869	7140.96
517.237	7136.44
517.604	7184.12
517.972	7220.28
518.339	7155.87
518.706	7182.76
519.073	7251.69
519.44	7225.47
519.808	7244
520.175	7217.11
520.542	7307.05
520.909	7348.63
521.276	7288.3
521.643	7390.67
522.009	7388.41
522.376	7439.03
522.743	7429.54
523.11	7457.11
523.477	7497.11
523.843	7559.48
524.21	7560.38
524.577	7569.19
524.943	7606.03
525.31	7654.16
525.676	7708.17
526.043	7609.19
526.409	7662.3
526.776	7708.4
527.142	7686.93
527.508	7675.41
527.874	7803.54
528.241	7825.68
528.607	7727.61
528.973	7807.61
529.339	7817.55
529.705	7858.9
530.071	7910.43
530.437	7900.26
530.803	7834.5
531.169	7950.2
531.535	7924.21
531.901	7907.49
532.267	7926.47
532.632	7976.64
532.998	7886.93
533.364	7888.06
533.73	7935.06
534.095	7955.62
534.461	7990.88
534.826	8001.05
535.192	8000.37
535.557	7965.12
535.923	7981.61
536.288	7935.29
536.653	8015.96
537.019	7968.28
537.384	7996.75
537.749	8053.47
538.114	7981.61
538.479	7961.05
538.845	7987.26
539.21	7878.79
539.575	7946.13
539.94	7912.46
540.305	7967.6
540.67	7899.58
541.034	7935.06
541.399	8015.74
541.764	7961.05
542.129	7955.62
542.494	7906.13
542.858	7914.5
543.223	7977.77
543.587	7981.84
543.952	7973.25
544.316	7923.99
544.681	7945
545.045	7922.86
545.41	7927.15
545.774	7913.59
546.138	7894.38
546.503	7927.15
546.867	7834.27
547.231	7959.47
547.595	7904.1
547.959	7888.51
548.324	7900.26
548.688	7860.26
549.052	7863.88
549.416	7860.03
549.779	7814.61
550.143	7808.96
550.507	7918.79
550.871	7871.56
551.235	7857.55
551.599	7849.64
551.962	7876.98
552.326	7872.01
552.689	7847.38
553.053	7862.75
553.417	7841.28
553.78	7966.7
554.143	7800.6
554.507	7854.84
554.87	7850.54
555.234	7959.69
555.597	7811.45
555.96	7871.11
556.323	7886.93
556.686	7850.77
557.05	7855.06
557.413	7912.24
557.776	7907.72
558.139	7946.36
558.502	7926.25
558.865	7940.71
559.228	8034.94
559.59	8041.95
559.953	7954.72
560.316	7960.14
560.679	8021.61
561.041	8046.7
561.404	8086.24
561.767	8096.64
562.129	8045.34
562.492	8095.73
562.854	8045.11
563.217	8120.14
563.579	8136.41
563.941	8143.87
564.304	8214.15
564.666	8185.67
565.028	8175.96
565.39	8241.27
565.753	8302.73
566.115	8265.22
566.477	8315.39
566.839	8304.09
567.201	8337.08
567.563	8356.07
567.925	8372.34
568.287	8413.24
568.648	8426.12
569.01	8407.36
569.372	8474.93
569.734	8467.7
570.095	8506.12
570.457	8465.89
570.819	8493.46
571.18	8543.41
571.542	8563.97
571.903	8574.14
572.265	8585.66
572.626	8575.27
572.987	8590.18
573.349	8669.28
573.71	8659.33
574.071	8736.39
574.432	8662.5
574.794	8756.96
575.155	8761.03
575.516	8712.21
575.877	8770.07
576.238	8717.41
576.599	8828.37
576.96	8784.3
577.32	8815.49
577.681	8868.59
578.042	8862.04
578.403	8860.46
578.763	8888.93
579.124	8952.43
579.485	8908.82
579.845	8918.08
580.206	8986.78
580.566	8951.76
580.927	8955.15
581.287	8983.39
581.648	8941.81
582.008	9090.74
582.368	9025.88
582.728	9023.62
583.089	9021.58
583.449	9005.99
583.809	9095.03
584.169	9082.15
584.529	9091.87
584.889	9144.97
585.249	9123.05
585.609	9091.87
585.969	9154.69
586.329	9168.02
586.688	9152.43
587.048	9121.24
587.408	9139.32
587.768	9136.38
588.127	9128.47
588.487	9138.42
588.846	9244.63
589.206	9182.94
589.565	9211.18
589.925	9223.39
590.284	9229.26
590.643	9195.82
591.003	9208.02
591.362	9253.22
591.721	9285.31
592.08	9234.69
592.44	9288.02
592.799	9274.69
593.158	9271.07
593.517	9274.91
593.876	9276.04
594.235	9203.27
594.593	9282.59
594.952	9316.94
595.311	9235.82
595.67	9281.92
596.029	9350.84
596.387	9302.93
596.746	9318.98
597.104	9337.51
597.463	9313.78
597.822	9381.12
598.18	9281.92
598.538	9339.99
598.897	9346.32
599.255	9322.82
599.613	9452.53
599.972	9354.91
600.33	9411.41
600.688	9414.34
601.046	9412.08
601.404	9443.04
601.762	9462.48
602.12	9492.31
602.478	9442.14
602.836	9440.1
603.194	9474.68
603.552	9452.76
603.91	9390.16
604.268	9493.44
604.625	9402.82
604.983	9477.62
605.341	9396.49
605.698	9516.04
606.056	9528.01
606.413	9471.06
606.771	9514.45
607.128	9506.54
607.485	9424.06
607.843	9474.23
608.2	9476.94
608.557	9542.25
608.914	9532.76
609.272	9545.19
609.629	9605.07
609.986	9619.08
610.343	9553.77
610.7	9598.29
611.057	9603.94
611.414	9552.64
611.771	9585.19
612.127	9620.44
612.484	9651.17
612.841	9638.07
613.198	9626.31
613.554	9625.41
613.911	9671.06
614.267	9701.11
614.624	9711.74
614.98	9684.62
615.337	9741.79
615.693	9630.16
616.05	9709.48
616.406	9704.96
616.762	9752.41
617.118	9730.94
617.475	9672.19
617.831	9708.35
618.187	9779.31
618.543	9740.44
618.899	9775.01
619.255	9848.23
619.611	9779.31
619.967	9831.96
620.323	9836.7
620.678	9785.63
621.034	9827.21
621.39	9802.81
621.746	9738.63
622.101	9903.82
622.457	9767.55
622.812	9798.74
623.168	9815.91
623.523	9816.59
623.879	9876.48
624.234	9727.55
624.589	9797.61
624.945	9820.66
625.3	9825.18
625.655	9815.69
626.01	9784.28
626.365	9741.34
626.72	9804.39
627.075	9760.55
627.43	9786.54
627.785	9728.68
628.14	9855.01
628.495	9870.15
628.85	9739.76
629.205	9749.48
629.559	9770.27
629.914	9757.38
630.269	9738.63
630.623	9716.03
630.978	9753.77
631.332	9751.06
631.687	9749.02
632.041	9711.74
632.396	9687.1
632.75	9618.18
633.104	9683.04
633.459	9620.67
633.813	9666.99
634.167	9620.44
634.521	9572.3
634.875	9674.67
635.229	9661.79
635.583	9588.8
635.937	9594.9
636.291	9573.21
636.645	9555.36
636.999	9535.47
637.352	9608.01
637.706	9552.42
638.06	9537.5
638.413	9474.23
638.767	9518.07
639.121	9532.31
639.474	9466.54
639.828	9367.56
640.181	9451.86
640.534	9445.08
640.888	9403.04
641.241	9387.45
641.594	9447.11
641.947	9470.39
642.301	9391.07
642.654	9395.59
643.007	9393.1
643.36	9383.16
643.713	9357.4
644.066	9369.37
644.419	9338.19
644.771	9268.81
645.124	9213.9
645.477	9169.83
645.83	9073.56
646.182	9149.72
646.535	9035.37
646.888	9011.64
647.24	9008.7
647.593	9067.01
647.945	9010.96
648.298	8994.01
648.65	8995.82
649.002	9021.58
649.355	9067.23
649.707	9015.48
650.059	9052.54
650.411	9143.39
650.763	9129.83
651.115	9253.9
651.467	9244.86
651.819	9199.21
652.171	9192.43
652.523	9237.85
652.875	9170.96
653.227	9162.15
653.578	9250.96
653.93	9155.14
654.282	9184.29
654.633	9129.38
654.985	9167.34
655.337	9166.44
655.688	9146.33
656.039	9200.11
656.391	9161.24
656.742	9195.14
657.094	9184.07
657.445	9207.79
657.796	9118.31
658.147	9191.07
658.498	9192.65
658.849	9180.22
659.2	9166.67
659.551	9193.78
659.902	9220.68
660.253	9173.45
660.604	9153.56
660.955	9156.95
661.306	9174.58
661.656	9191.3
662.007	9234.23
662.358	9129.38
662.708	9172.32
663.059	9176.16
663.409	9135.03
663.76	9153.11
664.11	9189.72
664.461	9160.11
664.811	9201.92
665.161	9192.2
665.511	9190.85
665.862	9138.19
666.212	9203.27
666.562	9191.75
666.912	9135.25
667.262	9148.59
667.612	9168.02
667.962	9193.56
668.312	9158.3
668.662	9122.6
669.011	9167.57
669.361	9147.23
669.711	9156.5
670.06	9072.43
670.41	9092.32
670.76	9038.76
671.109	9074.92
671.459	9073.56
671.808	9109.04
672.157	9144.07
672.507	9071.08
672.856	9054.13
673.205	9088.7
673.554	9093.22
673.904	9122.83
674.253	9110.4
674.602	9071.3
674.951	8956.73
675.3	8955.15
675.649	9071.53
675.998	8985.88
676.346	9051.41
676.695	8999.44
677.044	8968.7
677.393	9017.29
677.741	9085.76
678.09	9001.25
678.438	8941.13
678.787	9018.87
679.135	8995.37
679.484	8921.25
679.832	8938.2
680.181	8867.46
680.529	8896.84
680.877	8854.36
681.225	8874.92
681.573	8843.28
681.922	8810.74
682.27	8773.46
682.618	8816.39
682.966	8765.77
683.314	8824.98
683.661	8736.85
684.009	8747.92
684.357	8730.97
684.705	8652.1
685.053	8677.19
685.4	8690.52
685.748	8654.81
686.095	8593.57
686.443	8629.5
686.79	8562.61
687.138	8593.35
687.485	8638.77
687.832	8535.95
688.18	8513.8
688.527	8484.2
688.874	8491.43
689.221	8424.54
689.568	8444.42
689.915	8420.02
690.262	8389.74
690.609	8420.47
690.956	8312.68
691.303	8360.59
691.65	8280.81
691.997	8284.2
692.344	8296.18
692.69	8292.56
693.037	8264.09
693.383	8106.58
693.73	8201.04
694.077	8146.81
694.423	8148.16
694.769	8117.2
695.116	8037.66
695.462	8063.19
695.808	7993.14
696.155	8061.84
696.501	7943.65
696.847	7960.82
697.193	7884.21
697.539	7886.47
697.885	7942.52
698.231	7792.01
698.577	7815.74
698.923	7772.8
699.269	7745.91
699.614	7729.64
699.96	7720.83
700.306	7710.21
700.651	7655.75
700.997	7653.94
701.342	7593.83
701.688	7626.37
702.033	7604.45
702.379	7597.44
702.724	7484
703.069	7525.8
703.415	7425.24
703.76	7472.7
704.105	7411.68
704.45	7430.21
704.795	7376.66
705.14	7340.73
705.485	7328.97
705.83	7266.83
706.175	7321.29
706.52	7287.39
706.865	7271.8
707.209	7272.03
707.554	7241.52
707.899	7297.56
708.243	7209.2
708.588	7167.85
708.932	7113.39
709.277	7117.23
709.621	7090.34
709.966	7088.3
710.31	7108.64
710.654	6980.73
710.998	7063.44
711.342	6972.15
711.687	6985.48
712.031	7013.73
712.375	6923.11
712.719	6975.31
713.063	6975.31
713.407	6973.5
713.75	6931.02
714.094	6935.99
714.438	6872.71
714.782	6913.39
715.125	6864.35
715.469	6885.82
715.812	6789.55
716.156	6853.28
716.499	6822.32
716.843	6832.26
717.186	6777.12
717.53	6796.56
717.873	6760.63
718.216	6779.38
718.559	6788.2
718.902	6706.39
719.246	6761.31
719.589	6707.75
719.932	6676.79
720.275	6637.92
720.617	6719.5
720.96	6652.38
721.303	6661.19
721.646	6698.26
721.989	6626.85
722.331	6627.75
722.674	6613.96
723.016	6668.88
723.359	6669.33
723.701	6623
724.044	6652.38
724.386	6539.84
724.729	6584.13
725.071	6579.39
725.413	6552.5
725.755	6591.59
726.097	6511.82
726.439	6505.27
726.782	6476.34
727.124	6533.29
727.465	6458.49
727.807	6536.45
728.149	6531.03
728.491	6472.27
728.833	6489.67
729.175	6460.97
729.516	6507.3
729.858	6493.52
730.199	6436.34
730.541	6446.51
730.882	6479.05
731.224	6485.83
731.565	6416
731.906	6429.11
732.248	6420.3
732.589	6427.75
732.93	6382.33
733.271	6403.35
733.612	6440.86
733.953	6437.25
734.294	6407.19
734.635	6375.78
734.976	6392.95
735.317	6412.16
735.658	6421.65
735.999	6412.39
736.339	6405.61
736.68	6467.3
737.021	6413.74
737.361	6444.03
737.702	6501.88
738.042	6426.4
738.383	6413.97
738.723	6458.04
739.063	6420.98
739.404	6406.51
739.744	6391.82
740.084	6422.56
740.424	6424.59
740.764	6425.04
741.104	6463.69
741.444	6466.62
741.784	6459.84
742.124	6491.26
742.464	6418.94
742.804	6472.73
743.143	6519.96
743.483	6492.61
743.823	6444.48
744.162	6460.07
744.502	6554.98
744.841	6517.92
745.181	6567.86
745.52	6592.5
745.86	6589.56
746.199	6640.4
746.538	6683.79
746.877	6712.04
747.216	6722.44
747.556	6716.11
747.895	6690.57
748.234	6714.3
748.573	6802.21
748.911	6836.56
749.25	6855.54
749.589	6810.34
749.928	6924.46
750.267	6927.18
750.605	7039.26
750.944	6968.98
751.283	7067.29
751.621	7119.26
751.96	7141.63
752.298	7199.26
752.636	7244
752.975	7263.66
753.313	7325.36
753.651	7400.38
753.989	7533.04
754.327	7559.25
754.666	7558.12
755.004	7658.46
755.342	7764.67
755.679	7792.46
756.017	7860.49
756.355	7947.49
756.693	8001.95
757.031	8146.81
757.368	8159.69
757.706	8252.34
758.044	8307.93
758.381	8434.93
758.719	8513.35
759.056	8551.77
759.394	8700.46
759.731	8729.39
760.068	8802.61
760.405	8883.96
760.743	8954.02
761.08	9127.57
761.417	9187.23
761.754	9262.48
762.091	9391.07
762.428	9425.19
762.765	9512.42
763.102	9646.65
763.438	9677.16
763.775	9741.57
764.112	9808.46
764.449	9955.35
764.785	10026.76
765.122	10097.04
765.458	10160.54
765.795	10213.64
766.131	10288.44
766.467	10391.49
766.804	10516.69
767.14	10462.22
767.476	10570.24
767.812	10624.03
768.148	10712.16
768.485	10733.86
768.821	10748.32
769.157	10847.07
769.492	10896.11
