Data from hue_210_FLMS001491_00043.txt Node
Date: Tue Feb 07 16:41:15 GMT 2017
User: dcchb
Spectrometer: FLMS00149
Trigger mode: 0
Integration Time (sec): 2.000000E-2
Scans to average: 10
Electric dark correction enabled: true
Nonlinearity correction enabled: false
Boxcar width: 0
XAxis mode: Wavelengths
Number of Pixels in Spectrum: 2048
>>>>>Begin Spectral Data<<<<<
341.393	-1.12
341.776	-1.12
342.16	-1.12
342.543	-80.21
342.927	-76.14
343.31	-70.94
343.693	-55.13
344.077	-65.29
344.46	-66.42
344.843	-53.09
345.226	-63.04
345.61	-58.74
345.993	-12.87
346.376	20.58
346.759	16.28
347.142	43.18
347.525	26.45
347.908	48.37
348.291	78.2
348.674	88.6
349.057	123.85
349.44	139.45
349.823	141.71
350.206	169.28
350.588	190.97
350.971	204.3
351.354	222.61
351.737	244.3
352.119	211.31
352.502	265.77
352.884	263.51
353.267	267.8
353.65	298.76
354.032	296.5
354.414	292.44
354.797	287.46
355.179	317.29
355.562	312.32
355.944	323.62
356.326	324.98
356.709	327.01
357.091	342.38
357.473	331.76
357.855	331.53
358.238	351.42
358.62	336.5
359.002	320.46
359.384	323.85
359.766	342.6
360.148	343.06
360.53	358.2
360.912	350.97
361.294	319.78
361.676	346.67
362.057	319.1
362.439	329.5
362.821	339.67
363.203	312.77
363.584	305.09
363.966	317.29
364.348	310.97
364.729	323.62
365.111	313.9
365.493	315.26
365.874	303.73
366.256	305.99
366.637	325.43
367.019	304.41
367.4	314.81
367.781	296.5
368.163	293.57
368.544	303.28
368.925	293.34
369.306	328.82
369.688	316.62
370.069	313.9
370.45	297.18
370.831	326.11
371.212	284.53
371.593	299.67
371.974	305.99
372.355	290.4
372.736	311.42
373.117	301.93
373.498	307.58
373.879	306.67
374.26	302.38
374.641	301.25
375.021	322.49
375.402	323.85
375.783	331.53
376.163	322.27
376.544	323.62
376.925	324.3
377.305	324.98
377.686	309.16
378.066	329.27
378.447	305.32
378.827	323.62
379.208	318.65
379.588	314.58
379.968	324.75
380.349	322.94
380.729	348.48
381.109	345.77
381.489	322.72
381.87	319.1
382.25	374.02
382.63	327.24
383.01	320.46
383.39	336.28
383.77	352.32
384.15	353
384.53	355.03
384.91	363.62
385.29	350.29
385.67	352.1
386.049	334.47
386.429	347.58
386.809	340.57
387.189	376.05
387.568	353.23
387.948	329.27
388.328	334.69
388.707	351.42
389.087	340.8
389.466	339.67
389.846	367.24
390.225	376.05
390.605	383.05
390.984	370.63
391.363	363.85
391.743	357.29
392.122	381.25
392.501	372.89
392.881	374.92
393.26	384.18
393.639	391.87
394.018	384.86
394.397	374.92
394.776	369.72
395.155	383.05
395.534	373.34
395.913	368.59
396.292	398.65
396.671	392.55
397.05	395.48
397.429	399.33
397.808	378.76
398.186	385.09
398.565	391.87
398.944	375.15
399.323	389.83
399.701	410.4
400.08	409.49
400.458	407.91
400.837	423.05
401.215	405.88
401.594	407.91
401.972	413.56
402.351	415.82
402.729	425.54
403.107	446.1
403.486	429.83
403.864	458.53
404.242	437.74
404.62	449.49
404.999	435.03
405.377	459.44
405.755	453.56
406.133	450.4
406.511	461.02
406.889	450.85
407.267	493.11
407.645	509.15
408.023	497.18
408.401	488.14
408.779	497.63
409.156	509.83
409.534	512.54
409.912	527.91
410.29	494.01
410.667	523.39
411.045	541.92
411.422	536.5
411.8	560
412.178	556.84
412.555	572.88
412.933	589.6
413.31	600.22
413.687	603.39
414.065	586.67
414.442	604.29
414.819	602.71
415.197	623.27
415.574	645.19
415.951	636.61
416.328	654.23
416.705	654.46
417.082	648.36
417.46	664.4
417.837	684.29
418.214	669.83
418.591	727.68
418.967	704.63
419.344	718.19
419.721	705.98
420.098	721.35
420.475	742.59
420.852	733.33
421.228	755.02
421.605	792.31
421.982	799.77
422.358	806.55
422.735	816.72
423.111	825.53
423.488	847
423.864	855.81
424.241	886.32
424.617	885.19
424.994	905.08
425.37	919.76
425.746	931.74
426.123	927.9
426.499	949.37
426.875	959.08
427.251	979.42
427.627	1008.8
428.003	995.24
428.379	1013.77
428.756	1037.73
429.132	1034.79
429.507	1051.51
429.883	1052.64
430.259	1070.72
430.635	1099.65
431.011	1114.56
431.387	1103.71
431.763	1147.78
432.138	1180.77
432.514	1177.61
432.89	1183.03
433.265	1210.38
433.641	1207.67
434.016	1254.22
434.392	1279.3
434.767	1308.23
435.143	1307.78
435.518	1354.55
435.894	1334.89
436.269	1390.71
436.644	1418.28
437.02	1411.95
437.395	1438.85
437.77	1443.82
438.145	1479.3
438.52	1552.74
438.895	1536.02
439.271	1552.97
439.646	1607.2
440.021	1600.65
440.395	1634.55
440.77	1632.29
441.145	1669.12
441.52	1702.34
441.895	1709.12
442.27	1737.14
442.645	1731.27
443.019	1762
443.394	1767.88
443.769	1795.9
444.143	1787.99
444.518	1858.72
444.892	1837.25
445.267	1860.53
445.641	1873.19
446.016	1882.22
446.39	1893.3
446.764	1930.81
447.139	1908.21
447.513	1947.53
447.887	1980.75
448.262	1966.52
448.636	1976.69
449.01	2021.43
449.384	2028.66
449.758	2024.37
450.132	2066.4
450.506	2068.89
450.88	2118.83
451.254	2089.9
451.628	2102.11
452.002	2121.09
452.376	2156.12
452.75	2201.99
453.123	2190.47
453.497	2244.25
453.871	2236.34
454.244	2282.21
454.618	2300.74
454.992	2349.1
455.365	2341.87
455.739	2402.66
456.112	2409.22
456.486	2440.63
456.859	2447.18
457.232	2508.42
457.606	2492.83
457.979	2548.87
458.352	2597.69
458.725	2596.56
459.099	2604.69
459.472	2687.4
459.845	2691.69
460.218	2697.8
460.591	2763.11
460.964	2755.65
461.337	2830.9
461.71	2857.79
462.083	2856.44
462.456	2879.03
462.829	2898.47
463.201	2955.64
463.574	2940.5
463.947	3024.34
464.32	3059.37
464.692	3091.23
465.065	3136.88
465.438	3133.72
465.81	3175.3
466.183	3194.96
466.555	3296.42
466.928	3298.68
467.3	3326.25
467.672	3326.25
468.045	3427.04
468.417	3469.3
468.789	3493.48
469.161	3521.5
469.534	3545.01
469.906	3672.91
470.278	3641.95
470.65	3645.34
471.022	3696.64
471.394	3815.28
471.766	3815.06
472.138	3887.6
472.51	3942.28
472.882	3923.3
473.253	4017.54
473.625	4091.43
473.997	4185.21
474.369	4156.52
474.74	4174.82
475.112	4261.15
475.484	4338.66
475.855	4391.76
476.227	4455.94
476.598	4531.65
476.97	4601.93
477.341	4633.56
477.713	4744.07
478.084	4784.52
478.455	4867.91
478.827	4912.43
479.198	5050.05
479.569	5040.11
479.94	5109.71
480.311	5201.46
480.682	5291.17
481.053	5403.49
481.424	5419.76
481.795	5485.07
482.166	5572.52
482.537	5650.71
482.908	5700.43
483.279	5758.51
483.65	5845.28
484.021	6002.57
484.391	6025.17
484.762	6048.22
485.133	6065.84
485.503	6169.8
485.874	6283.24
486.244	6314.88
486.615	6425.83
486.985	6507.64
487.356	6595.77
487.726	6592.84
488.097	6774.75
488.467	6787.18
488.837	6886.84
489.207	6905.6
489.578	7049.32
489.948	7055.65
490.318	7197.56
490.688	7247.73
491.058	7280.05
491.428	7360.5
491.798	7366.37
492.168	7586.93
492.538	7589.87
492.908	7696.08
493.278	7732.69
493.648	7713.71
494.017	7824.89
494.387	7907.15
494.757	7930.43
495.126	8047.49
495.496	7943.53
495.866	8045.23
496.235	8130.87
496.605	8146.47
496.974	8185.79
497.344	8259.91
497.713	8343.75
498.082	8341.72
498.452	8452.22
498.821	8421.04
499.19	8372.45
499.559	8515.72
499.928	8463.29
500.298	8566.57
500.667	8587.13
501.036	8597.53
501.405	8631.43
501.774	8697.19
502.143	8710.29
502.512	8720.69
502.88	8799.1
503.249	8784.19
503.618	8860.57
503.987	8839.56
504.356	8882.72
504.724	8878.88
505.093	8947.12
505.462	8978.08
505.83	8968.14
506.199	8980.57
506.567	9146.67
506.936	9068.7
507.304	9210.62
507.672	9162.94
508.041	9177.85
508.409	9241.58
508.777	9245.42
509.145	9217.85
509.514	9283.61
509.882	9322.03
510.25	9264.63
510.618	9332.42
510.986	9354.57
511.354	9455.36
511.722	9428.24
512.09	9492.87
512.458	9443.38
512.826	9485.64
513.193	9516.6
513.561	9503.95
513.929	9495.13
514.297	9560.44
514.664	9505.75
515.032	9554.79
515.4	9636.82
515.767	9608.35
516.135	9632.08
516.502	9583.72
516.869	9733.77
517.237	9683.6
517.604	9642.25
517.972	9682.7
518.339	9638.4
518.706	9665.3
519.073	9653.09
519.44	9647.22
519.808	9745.29
520.175	9666.65
520.542	9823.71
520.909	9827.1
521.276	9725.63
521.643	9803.15
522.009	9837.5
522.376	9889.47
522.743	9861.9
523.11	9867.33
523.477	9940.09
523.843	9949.58
524.21	9980.77
524.577	10008.11
524.943	9962.46
525.31	10009.69
525.676	10048.79
526.043	10012.86
526.409	10055.34
526.776	10091.95
527.142	10072.74
527.508	10075.46
527.874	10034.1
528.241	10085.62
528.607	10074.55
528.973	10128.11
529.339	10071.84
529.705	10074.1
530.071	10106.87
530.437	10051.95
530.803	10140.76
531.169	10073.42
531.535	10023.25
531.901	10048.56
532.267	10030.03
532.632	10095.34
532.998	10089.01
533.364	10022.35
533.73	10088.79
534.095	10093.08
534.461	10035
534.826	10021.22
535.192	9946.65
535.557	10058.73
535.923	9905.74
536.288	9929.02
536.653	9902.13
537.019	9844.73
537.384	9865.74
537.749	9771.96
538.114	9801.79
538.479	9743.49
538.845	9745.52
539.21	9719.98
539.575	9728.35
539.94	9745.75
540.305	9738.06
540.67	9595.92
541.034	9631.17
541.399	9712.3
541.764	9643.38
542.129	9564.06
542.494	9584.39
542.858	9506.88
543.223	9563.15
543.587	9501.46
543.952	9436.38
544.316	9387.34
544.681	9395.25
545.045	9370.62
545.41	9408.13
545.774	9413.55
546.138	9320.45
546.503	9279.09
546.867	9265.99
547.231	9253.56
547.595	9256.95
547.959	9213.11
548.324	9182.6
548.688	9163.61
549.052	9067.12
549.416	9102.6
549.779	9042.04
550.143	9044.52
550.507	9085.42
550.871	8985.99
551.235	8928.59
551.599	9051.3
551.962	8980.12
552.326	8909.16
552.689	8938.08
553.053	8908.03
553.417	8868.48
553.78	8874.13
554.143	8867.58
554.507	8783.29
554.87	8842.49
555.234	8872.1
555.597	8788.94
555.96	8790.74
556.323	8772.66
556.686	8687.47
557.05	8770.4
557.413	8801.14
557.776	8692.21
558.139	8749.61
558.502	8714.81
558.865	8686.34
559.228	8729.5
559.59	8687.02
559.953	8680.92
560.316	8706.23
560.679	8749.84
561.041	8791.42
561.404	8724.76
561.767	8756.17
562.129	8618.77
562.492	8741.71
562.854	8629.39
563.217	8646.11
563.579	8673.01
563.941	8719.11
564.304	8677.75
564.666	8729.5
565.028	8724.76
565.39	8775.38
565.753	8660.35
566.115	8687.7
566.477	8738.77
566.839	8779.9
567.201	8778.77
567.563	8791.42
567.925	8780.35
568.287	8784.64
568.648	8778.54
569.01	8820.35
569.372	8856.28
569.734	8849.95
570.095	8818.31
570.457	8932.89
570.819	8908.03
571.18	8881.81
571.542	8937.18
571.903	8901.25
572.265	8884.3
572.626	8854.02
572.987	8896.28
573.349	8914.58
573.71	8953.9
574.071	8973.34
574.432	8952.1
574.794	9086.55
575.155	9015.6
575.516	8994.81
575.877	8994.13
576.238	8949.84
576.599	9031.87
576.96	9012.43
577.32	9066.22
577.681	9072.32
578.042	9009.72
578.403	9118.19
578.763	9049.04
579.124	9110.06
579.485	9123.62
579.845	9165.42
580.206	9098.76
580.566	9095.82
580.927	9150.51
581.287	9155.03
581.648	9102.6
582.008	9204.52
582.368	9184.86
582.728	9162.03
583.089	9194.57
583.449	9158.42
583.809	9177.85
584.169	9187.34
584.529	9184.86
584.889	9260.56
585.249	9210.39
585.609	9209.49
585.969	9184.86
586.329	9239.55
586.688	9242.48
587.048	9210.17
587.408	9166.78
587.768	9273.22
588.127	9233.22
588.487	9245.19
588.846	9301.46
589.206	9272.76
589.565	9226.89
589.925	9236.16
590.284	9237.29
590.643	9327
591.003	9324.97
591.362	9312.54
591.721	9306.44
592.08	9274.8
592.44	9320.22
592.799	9325.87
593.158	9302.82
593.517	9299.88
593.876	9313.89
594.235	9263.27
594.593	9301.46
594.952	9315.93
595.311	9273.44
595.67	9310.5
596.029	9361.58
596.387	9320.22
596.746	9425.98
597.104	9317.96
597.463	9322.03
597.822	9378.98
598.18	9284.97
598.538	9322.93
598.897	9364.06
599.255	9294.91
599.613	9400.67
599.972	9377.39
600.33	9399.99
600.688	9362.93
601.046	9374.23
601.404	9431.18
601.762	9289.49
602.12	9395.25
602.478	9311.63
602.836	9417.85
603.194	9354.12
603.552	9365.19
603.91	9305.08
604.268	9402.48
604.625	9379.88
604.983	9375.81
605.341	9333.55
605.698	9366.55
606.056	9413.1
606.413	9394.57
606.771	9428.01
607.128	9372.42
607.485	9351.63
607.843	9351.41
608.2	9465.3
608.557	9503.72
608.914	9360.22
609.272	9458.75
609.629	9424.63
609.986	9444.96
610.343	9429.14
610.7	9520.67
611.057	9470.05
611.414	9463.49
611.771	9487.45
612.127	9488.58
612.484	9532.19
612.841	9550.72
613.198	9499.65
613.554	9512.76
613.911	9562.02
614.267	9459.65
614.624	9495.36
614.98	9527
615.337	9598.41
615.693	9564.28
616.05	9579.2
616.406	9628.01
616.762	9560.67
617.118	9582.36
617.475	9556.37
617.831	9608.58
618.187	9628.46
618.543	9625.3
618.899	9694.45
619.255	9663.49
619.611	9613.55
619.967	9675.69
620.323	9701
620.678	9649.48
621.034	9698.52
621.39	9591.17
621.746	9587.11
622.101	9685.86
622.457	9604.96
622.812	9666.88
623.168	9633.21
623.523	9670.04
623.879	9622.13
624.234	9665.07
624.589	9646.31
624.945	9603.38
625.3	9645.18
625.655	9670.72
626.01	9583.49
626.365	9664.62
626.72	9657.16
627.075	9577.39
627.43	9635.02
627.785	9613.09
628.14	9653.09
628.495	9652.42
628.85	9588.24
629.205	9603.83
629.559	9623.72
629.914	9593.89
630.269	9562.93
630.623	9549.37
630.978	9537.62
631.332	9601.12
631.687	9586.65
632.041	9479.76
632.396	9523.15
632.75	9535.81
633.104	9443.38
633.459	9441.12
633.813	9494.91
634.167	9431.63
634.521	9442.48
634.875	9413.78
635.229	9470.73
635.583	9430.5
635.937	9405.64
636.291	9346.89
636.645	9381.01
636.999	9315.48
637.352	9363.61
637.706	9308.92
638.06	9365.87
638.413	9400.22
638.767	9349.15
639.121	9314.35
639.474	9261.47
639.828	9213.78
640.181	9343.27
640.534	9249.71
640.888	9226.21
641.241	9167
641.594	9245.19
641.947	9302.82
642.301	9200.68
642.654	9264.63
643.007	9166.55
643.36	9221.69
643.713	9192.54
644.066	9203.39
644.419	9167.91
644.771	9054.01
645.124	9033
645.477	8975.82
645.83	8967.24
646.182	8963.39
646.535	8955.26
646.888	8884.3
647.24	8828.26
647.593	8927.46
647.945	8936.73
648.298	8910.06
648.65	8835.71
649.002	8863.06
649.355	8831.42
649.707	8877.29
650.059	8946.9
650.411	9037.97
650.763	9029.16
651.115	9113.67
651.467	9047.23
651.819	9039.1
652.171	9136.5
652.523	9040.45
652.875	9049.27
653.227	8996.84
653.578	9076.39
653.93	9039.78
654.282	9029.61
654.633	9004.3
654.985	9067.35
655.337	9101.47
655.688	9097.18
656.039	9072.32
656.391	9069.15
656.742	9004.07
657.094	9051.53
657.445	9129.72
657.796	9120.9
658.147	9055.14
658.498	9020.79
658.849	9033.45
659.2	9125.88
659.551	9098.98
659.902	9069.38
660.253	9080
660.604	9152.54
660.955	9061.92
661.306	9091.98
661.656	9094.46
662.007	9119.1
662.358	9066.22
662.708	9070.51
663.059	9084.07
663.409	9032.77
663.76	9117.51
664.11	9118.19
664.461	9124.29
664.811	9059.66
665.161	9068.7
665.511	9096.5
665.862	9128.81
666.212	9056.05
666.562	9156.61
666.912	9109.61
667.262	9080.45
667.612	9107.35
667.962	9142.6
668.312	9072.09
668.662	9170.62
669.011	9100.11
669.361	9117.29
669.711	9074.8
670.06	9094.92
670.41	9053.79
670.76	9043.17
671.109	9063.73
671.459	9044.75
671.808	9070.74
672.157	9048.14
672.507	9057.4
672.856	9035.93
673.205	9018.76
673.554	8979.67
673.904	9022.6
674.253	9048.82
674.602	9046.78
674.951	8907.8
675.3	8868.93
675.649	8997.74
675.998	8960.91
676.346	8992.32
676.695	9016.73
677.044	8891.53
677.393	8931.76
677.741	8973.56
678.09	8931.98
678.438	8930.85
678.787	8925.43
679.135	8835.94
679.484	8839.56
679.832	8832.1
680.181	8844.53
680.529	8832.78
680.877	8801.59
681.225	8751.87
681.573	8861.48
681.922	8776.05
682.27	8778.77
682.618	8767.24
682.966	8680.01
683.314	8673.46
683.661	8699.67
684.009	8657.41
684.357	8595.95
684.705	8635.49
685.053	8670.52
685.4	8687.02
685.748	8555.95
686.095	8595.49
686.443	8424.43
686.79	8480.47
687.138	8573.35
687.485	8521.6
687.832	8430.53
688.18	8457.64
688.527	8396.86
688.874	8415.16
689.221	8348.5
689.568	8296.97
689.915	8270.76
690.262	8343.07
690.609	8244.09
690.956	8249.74
691.303	8268.5
691.65	8218.1
691.997	8152.79
692.344	8178.78
692.69	8105.11
693.037	8116.64
693.383	8010.65
693.73	8094.26
694.077	8001.61
694.423	8016.53
694.769	8020.14
695.116	7997.54
695.462	7984.66
695.808	7901.73
696.155	7941.95
696.501	7824.44
696.847	7860.37
697.193	7736.76
697.539	7808.4
697.885	7746.25
698.231	7772.01
698.577	7676.42
698.923	7684.78
699.269	7686.37
699.614	7489.31
699.96	7559.36
700.306	7563.66
700.651	7534.28
700.997	7452.02
701.342	7438.01
701.688	7428.75
702.033	7380.61
702.379	7311.46
702.724	7339.93
703.069	7339.26
703.415	7251.35
703.76	7287.05
704.105	7262.87
704.45	7252.03
704.795	7186.27
705.14	7188.75
705.485	7139.49
705.83	7170
706.175	7109.88
706.52	7107.17
706.865	7082.09
707.209	7084.12
707.554	7045.93
707.899	7020.62
708.243	7022.43
708.588	7027.85
708.932	6965.71
709.277	6940.17
709.621	6942.66
709.966	6894.75
710.31	6932.49
710.654	6789.67
710.998	6807.52
711.342	6777.69
711.687	6806.61
712.031	6805.48
712.375	6733.85
712.719	6791.7
713.063	6791.7
713.407	6798.03
713.75	6711.93
714.094	6684.81
714.438	6713.28
714.782	6684.13
715.125	6682.1
715.469	6689.1
715.812	6667.18
716.156	6666.51
716.499	6628.31
716.843	6579.73
717.186	6601.2
717.53	6635.32
717.873	6598.71
718.216	6581.31
718.559	6554.87
718.902	6524.81
719.246	6568.65
719.589	6517.58
719.932	6484.36
720.275	6540.41
720.617	6524.36
720.96	6501.99
721.303	6499.5
721.646	6473.74
721.989	6484.59
722.331	6475.1
722.674	6465.83
723.016	6415.44
723.359	6447.98
723.701	6437.13
724.044	6464.7
724.386	6385.61
724.729	6425.83
725.071	6414.53
725.413	6426.06
725.755	6389.45
726.097	6404.82
726.439	6378.38
726.782	6353.75
727.124	6431.26
727.465	6412.27
727.807	6396
728.149	6355.55
728.491	6307.64
728.833	6371.6
729.175	6368.21
729.516	6337.25
729.858	6340.64
730.199	6333.63
730.541	6362.78
730.882	6387.64
731.224	6373.41
731.565	6281.88
731.906	6344.25
732.248	6344.71
732.589	6282.33
732.93	6337.25
733.271	6383.8
733.612	6293.41
733.953	6349
734.294	6350.13
734.635	6356.68
734.976	6332.95
735.317	6366.63
735.658	6361.2
735.999	6360.75
736.339	6359.62
736.68	6423.8
737.021	6382.9
737.361	6386.06
737.702	6339.96
738.042	6396
738.383	6344.25
738.723	6412.5
739.063	6431.94
739.404	6392.16
739.744	6400.98
740.084	6425.16
740.424	6447.08
740.764	6406.4
741.104	6462.9
741.444	6453.18
741.784	6444.82
742.124	6486.17
742.464	6533.85
742.804	6518.03
743.143	6514.19
743.483	6491.82
743.823	6509
744.162	6589.9
744.502	6608.65
744.841	6619.73
745.181	6683
745.52	6694.53
745.86	6699.27
746.199	6715.09
746.538	6758.93
746.877	6815.65
747.216	6861.53
747.556	6885.26
747.895	6945.59
748.234	6996.44
748.573	6965.93
748.911	7066.72
749.25	7149.2
749.589	7167.06
749.928	7235.3
750.267	7257.68
750.605	7298.81
750.944	7424.45
751.283	7476.88
751.621	7549.87
751.96	7577.44
752.298	7650.43
752.636	7769.3
752.975	7852.01
753.313	7966.81
753.651	8059.01
753.989	8156.41
754.327	8241.38
754.666	8333.35
755.004	8456.97
755.342	8608.38
755.679	8703.29
756.017	8754.81
756.355	8955.71
756.693	9028.93
757.031	9167.23
757.368	9293.33
757.706	9464.62
758.044	9524.06
758.381	9828.68
758.719	9896.7
759.056	10104.38
759.394	10115.68
759.731	10376.24
760.068	10488.1
760.405	10607.42
760.743	10776.68
761.08	10943
761.417	11084.24
761.754	11318.36
762.091	11399.94
762.428	11629.99
762.765	11695.53
763.102	11951.11
763.438	12072.92
763.775	12261.61
764.112	12438.78
764.449	12568.05
764.785	12745.89
765.122	12823.63
765.458	13002.38
765.795	13169.16
766.131	13320.34
766.467	13418.87
766.804	13553.1
767.14	13804.85
767.476	13895.24
767.812	14037.61
768.148	14282.58
768.485	14308.56
768.821	14410.93
769.157	14615
