Data from hue_170_FLMS001491_00090.txt Node
Date: Tue Feb 07 16:49:20 GMT 2017
User: dcchb
Spectrometer: FLMS00149
Trigger mode: 0
Integration Time (sec): 2.000000E-2
Scans to average: 10
Electric dark correction enabled: true
Nonlinearity correction enabled: false
Boxcar width: 0
XAxis mode: Wavelengths
Number of Pixels in Spectrum: 2048
>>>>>Begin Spectral Data<<<<<
341.393	-9.24
341.776	-9.24
342.16	-9.24
342.543	-59.63
342.927	-63.02
343.31	-35
343.693	-65.96
344.077	-80.2
344.46	-64.38
344.843	-49.46
345.226	-58.05
345.61	-43.81
345.993	-11.5
346.376	2.51
346.759	16.07
347.142	13.14
347.525	51.55
347.908	60.82
348.291	65.11
348.674	95.17
349.057	103.98
349.44	100.82
349.823	144.43
350.206	128.84
350.588	209.74
350.971	230.53
351.354	240.7
351.737	216.75
352.119	259.68
352.502	254.71
352.884	245.22
353.267	271.21
353.65	293.13
354.032	304.2
354.414	304.88
354.797	316.18
355.179	319.57
355.562	332.67
355.944	339.91
356.326	321.6
356.709	345.56
357.091	352.11
357.473	336.74
357.855	352.79
358.238	323.41
358.62	341.94
359.002	325.67
359.384	336.29
359.766	346.23
360.148	327.7
360.53	323.18
360.912	316.18
361.294	324.77
361.676	334.93
362.057	326.12
362.439	335.84
362.821	337.65
363.203	343.3
363.584	317.99
363.966	337.65
364.348	306.91
364.729	311.43
365.111	323.64
365.493	338.32
365.874	338.55
366.256	312.11
366.637	314.14
367.019	313.24
367.4	308.04
367.781	309.17
368.163	303.3
368.544	291.55
368.925	302.17
369.306	329.51
369.688	314.6
370.069	299
370.45	308.04
370.831	314.6
371.212	293.58
371.593	310.75
371.974	309.17
372.355	313.92
372.736	325.9
373.117	302.39
373.498	312.56
373.879	319.57
374.26	322.51
374.641	311.88
375.021	317.76
375.402	332.9
375.783	330.19
376.163	329.74
376.544	332
376.925	324.09
377.305	318.21
377.686	325.22
378.066	320.7
378.447	337.42
378.827	336.29
379.208	356.4
379.588	349.62
379.968	344.2
380.349	320.25
380.729	336.52
381.109	326.8
381.489	322.05
381.87	338.78
382.25	326.12
382.63	342.17
383.01	340.81
383.39	320.25
383.77	341.94
384.15	339.45
384.53	349.4
384.91	355.95
385.29	339.91
385.67	353.47
386.049	357.31
386.429	350.3
386.809	364.31
387.189	353.47
387.568	344.65
387.948	373.58
388.328	349.85
388.707	350.53
389.087	359.57
389.466	371.54
389.846	379.45
390.225	373.13
390.605	380.13
390.984	384.65
391.363	367.48
391.743	376.74
392.122	364.76
392.501	388.04
392.881	377.87
393.26	376.29
393.639	371.32
394.018	398.44
394.397	384.88
394.776	369.06
395.155	374.03
395.534	404.99
395.913	390.53
396.292	392.79
396.671	411.09
397.05	403.86
397.429	388.49
397.808	392.11
398.186	411.54
398.565	415.16
398.944	402.96
399.323	398.21
399.701	417.19
400.08	419
400.458	398.89
400.837	420.81
401.215	435.27
401.594	415.38
401.972	422.84
402.351	425.33
402.729	446.8
403.107	427.81
403.486	426.01
403.864	442.5
404.242	438.43
404.62	440.69
404.999	460.58
405.377	426.68
405.755	445.67
406.133	468.49
406.511	451.77
406.889	465.78
407.267	449.96
407.645	465.1
408.023	458.32
408.401	483.18
408.779	462.84
409.156	476.17
409.534	489.28
409.912	497.64
410.29	493.57
410.667	474.82
411.045	516.17
411.422	520.01
411.8	522.05
412.178	523.86
412.555	519.79
412.933	538.32
413.31	524.99
413.687	544.42
414.065	517.75
414.442	550.52
414.819	545.55
415.197	559.56
415.574	539.45
415.951	571.76
416.328	565.89
416.705	576.28
417.082	598.2
417.46	590.3
417.837	604.31
418.214	584.19
418.591	624.64
418.967	594.14
419.344	596.4
419.721	651.31
420.098	635.04
420.475	630.75
420.852	629.16
421.228	637.07
421.605	631.88
421.982	663.51
422.358	663.06
422.735	674.36
423.111	689.28
423.488	700.57
423.864	687.92
424.241	702.61
424.617	697.64
424.994	696.51
425.37	711.42
425.746	700.8
426.123	744.64
426.499	736.96
426.875	746.45
427.251	773.34
427.627	782.15
428.003	779.44
428.379	759.33
428.756	774.02
429.132	826.9
429.507	800.91
429.883	815.83
430.259	822.38
430.635	830.29
431.011	822.83
431.387	847.69
431.763	848.14
432.138	873
432.514	884.52
432.89	876.84
433.265	881.59
433.641	901.25
434.016	885.2
434.392	940.12
434.767	931.53
435.143	937.63
435.518	951.42
435.894	959.33
436.269	975.6
436.644	944.86
437.02	998.19
437.395	1001.81
437.77	1028.93
438.145	1035.48
438.52	1052.88
438.895	1054.24
439.271	1066.21
439.646	1087.68
440.021	1089.72
440.395	1091.75
440.77	1129.94
441.145	1117.74
441.52	1146.89
441.895	1134.24
442.27	1166.1
442.645	1154.8
443.019	1164.52
443.394	1163.16
443.769	1204.29
444.143	1192.77
444.518	1220.56
444.892	1207.23
445.267	1245.87
445.641	1268.92
446.016	1216.95
446.39	1227.11
446.764	1272.99
447.139	1264.85
447.513	1293.78
447.887	1294.23
448.262	1281.8
448.636	1308.92
449.01	1331.97
449.384	1332.2
449.758	1324.97
450.132	1350.95
450.506	1348.92
450.88	1369.48
451.254	1371.52
451.628	1387.56
452.002	1399.31
452.376	1465.3
452.75	1423.04
453.123	1457.62
453.497	1486.54
453.871	1479.99
454.244	1488.35
454.618	1520.89
454.992	1556.82
455.365	1539.2
455.739	1583.72
456.112	1598.86
456.486	1609.93
456.859	1646.09
457.232	1681.79
457.606	1697.61
457.979	1696.71
458.352	1714.56
458.725	1738.97
459.099	1731.96
459.472	1773.99
459.845	1824.16
460.218	1825.29
460.591	1822.81
460.964	1834.1
461.337	1889.47
461.71	1925.63
462.083	1957.72
462.456	1981.67
462.829	1977.6
463.201	2014.66
463.574	2029.81
463.947	2053.08
464.32	2087.43
464.692	2116.58
465.065	2164.27
465.438	2158.16
465.81	2181.89
466.183	2224.83
466.555	2312.74
466.928	2330.36
467.3	2361.77
467.672	2361.55
468.045	2423.02
468.417	2444.71
468.789	2501.43
469.161	2515.44
469.534	2569.68
469.906	2622.78
470.278	2661.65
470.65	2710.24
471.022	2757.24
471.394	2848.09
471.766	2848.77
472.138	2877.01
472.51	2975.09
472.882	3025.71
473.253	3054.19
473.625	3099.16
473.997	3215.76
474.369	3256.67
474.74	3307.74
475.112	3379.37
475.484	3455.53
475.855	3505.7
476.227	3601.06
476.598	3737.78
476.97	3749.53
477.341	3857.55
477.713	3933.94
478.084	3958.79
478.455	4093.93
478.827	4169.64
479.198	4333.47
479.569	4361.04
479.94	4501.6
480.311	4578.21
480.682	4659.57
481.053	4844.65
481.424	4931.2
481.795	4981.14
482.166	5107.69
482.537	5225.43
482.908	5306.56
483.279	5430.62
483.65	5624.97
484.021	5732.98
484.391	5787.9
484.762	5882.81
485.133	5967.78
485.503	6172.52
485.874	6302.46
486.244	6386.53
486.615	6568.67
486.985	6691.38
487.356	6889.56
487.726	6921.2
488.097	7122.1
488.467	7145.6
488.837	7375.2
489.207	7483.9
489.578	7638.92
489.948	7819.48
490.318	7941.74
490.688	7994.62
491.058	8177.21
491.428	8274.61
491.798	8414.95
492.168	8599.58
492.538	8699.01
492.908	8802.06
493.278	8987.36
493.648	9011.54
494.017	9186.23
494.387	9297.86
494.757	9445.2
495.126	9514.35
495.496	9602.26
495.866	9708.93
496.235	9831.41
496.605	9982.59
496.974	10004.28
497.344	10175.58
497.713	10195.92
498.082	10348.46
498.452	10483.14
498.821	10487.66
499.19	10530.37
499.559	10662.35
499.928	10778.28
500.298	10807.43
500.667	10949.12
501.036	10978.72
501.405	11109.57
501.774	11162.22
502.143	11284.93
502.512	11328.77
502.88	11448.31
503.249	11391.59
503.618	11468.2
503.987	11571.7
504.356	11634.07
504.724	11639.5
505.093	11771.47
505.462	11812.15
505.83	11930.79
506.199	11946.38
506.567	12139.37
506.936	12056.21
507.304	12137.11
507.672	12242.87
508.041	12277.45
508.409	12319.93
508.777	12353.15
509.145	12512.69
509.514	12495.52
509.882	12577.32
510.25	12577.78
510.618	12607.83
510.986	12700.94
511.354	12754.72
511.722	12822.29
512.09	12930.99
512.458	12858.45
512.826	12976.18
513.193	13021.83
513.561	13010.53
513.929	13098.44
514.297	13121.72
514.664	13255.95
515.032	13169.85
515.4	13364.42
515.767	13257.31
516.135	13313.58
516.502	13251.21
516.869	13483.74
517.237	13502.05
517.604	13403.97
517.972	13447.13
518.339	13510.41
518.706	13497.53
519.073	13539.11
519.44	13613.68
519.808	13629.05
520.175	13601.7
520.542	13784.07
520.909	13795.37
521.276	13721.02
521.643	13765.09
522.009	13810.74
522.376	13874.69
522.743	13912.66
523.11	13970.96
523.477	14097.06
523.843	14011.64
524.21	14120.56
524.577	14221.12
524.943	14167.11
525.31	14141.35
525.676	14182.48
526.043	14346.54
526.409	14259.54
526.776	14320.33
527.142	14321.91
527.508	14374.34
527.874	14384.96
528.241	14387.45
528.607	14337.05
528.973	14404.4
529.339	14309.93
529.705	14455.47
530.071	14484.85
530.437	14400.33
530.803	14414.11
531.169	14440.78
531.535	14330.27
531.901	14463.15
532.267	14438.74
532.632	14373.44
532.998	14454.56
533.364	14330.27
533.73	14368.46
534.095	14418.86
534.461	14328.24
534.826	14455.02
535.192	14313.32
535.557	14436.94
535.923	14297.73
536.288	14357.84
536.653	14269.94
537.019	14189.26
537.384	14236.04
537.749	14213.21
538.114	14171.63
538.479	14153.1
538.845	14116.72
539.21	14059.77
539.575	14058.64
539.94	14015.03
540.305	14075.14
540.67	13975.25
541.034	13966.89
541.399	13926.67
541.764	13819.55
542.129	13826.33
542.494	13808.48
542.858	13719.89
543.223	13730.29
543.587	13698.65
543.952	13671.31
544.316	13644.87
544.681	13584.3
545.045	13601.7
545.41	13549.95
545.774	13542.27
546.138	13502.27
546.503	13412.56
546.867	13416.17
547.231	13363.74
547.595	13406
547.959	13369.85
548.324	13349.06
548.688	13178.89
549.052	13245.78
549.416	13162.17
549.779	13130.08
550.143	13119.01
550.507	13127.82
550.871	13039.69
551.235	13030.19
551.599	13066.58
551.962	13027.03
552.326	12968.95
552.689	13019.12
553.053	12837.88
553.417	12807.15
553.78	12880.82
554.143	12827.94
554.507	12774.61
554.87	12821.61
555.234	12840.37
555.597	12737.32
555.96	12726.93
556.323	12731.9
556.686	12698.9
557.05	12731.44
557.413	12709.75
557.776	12610.54
558.139	12650.54
558.502	12583.88
558.865	12611
559.228	12640.15
559.59	12706.59
559.953	12617.32
560.316	12769.86
560.679	12709.07
561.041	12680.82
561.404	12702.29
561.767	12743.87
562.129	12629.07
562.492	12713.59
562.854	12626.36
563.217	12634.72
563.579	12677.21
563.941	12638.79
564.304	12672.01
564.666	12686.93
565.028	12658.45
565.39	12698.23
565.753	12797.43
566.115	12757.43
566.477	12745
566.839	12818.45
567.201	12818
567.563	12766.25
567.925	12847.37
568.287	12775.06
568.648	12840.37
569.01	12862.97
569.372	12847.15
569.734	12874.94
570.095	12877.88
570.457	12902.06
570.819	12932.34
571.18	12907.71
571.542	12892.34
571.903	12919.91
572.265	12971.44
572.626	13016.64
572.987	13029.29
573.349	12954.49
573.71	12903.64
574.071	12980.25
574.432	13038.78
574.794	13063.64
575.155	12952.23
575.516	12902.97
575.877	13034.49
576.238	13056.18
576.599	13060.7
576.96	13009.86
577.32	13058.22
577.681	13039.23
578.042	13057.09
578.403	13031.55
578.763	13063.41
579.124	13115.39
579.485	13062.74
579.845	13115.62
580.206	13041.72
580.566	13078.33
580.927	13039.46
581.287	13126.91
581.648	13002.4
582.008	13132.34
582.368	13026.13
582.728	13057.99
583.089	13054.37
583.449	13018.44
583.809	13026.58
584.169	13012.79
584.529	12989.29
584.889	13011.21
585.249	12970.53
585.609	13063.19
585.969	13028.39
586.329	12976.64
586.688	12963.76
587.048	12946.81
587.408	12868.16
587.768	12944.77
588.127	12905.23
588.487	12849.86
588.846	12932.12
589.206	12894.15
589.565	12845.57
589.925	12899.12
590.284	12869.07
590.643	12832.91
591.003	12820.03
591.362	12914.26
591.721	12809.18
592.08	12806.7
592.44	12919.91
592.799	12852.35
593.158	12720.15
593.517	12876.53
593.876	12855.51
594.235	12821.84
594.593	12763.31
594.952	12787.04
595.311	12692.8
595.67	12792.23
596.029	12813.02
596.387	12786.13
596.746	12794.95
597.104	12747.72
597.463	12679.92
597.822	12783.19
598.18	12689.86
598.538	12733.48
598.897	12822.06
599.255	12642.18
599.613	12868.39
599.972	12749.52
600.33	12727.83
600.688	12716.98
601.046	12731.44
601.404	12755.63
601.762	12785
602.12	12756.98
602.478	12731.9
602.836	12727.83
603.194	12687.6
603.552	12721.28
603.91	12656.87
604.268	12658.23
604.625	12689.64
604.983	12681.28
605.341	12658
605.698	12768.73
606.056	12718.56
606.413	12778.9
606.771	12817.54
607.128	12859.8
607.485	12707.04
607.843	12736.87
608.2	12693.93
608.557	12838.33
608.914	12856.41
609.272	12839.92
609.629	12827.26
609.986	12834.95
610.343	12905
610.7	12912.68
611.057	12864.32
611.414	12914.04
611.771	12847.37
612.127	12902.06
612.484	12839.69
612.841	12904.77
613.198	12848.5
613.554	12793.14
613.911	12934.83
614.267	12919.01
614.624	12822.06
614.98	12923.98
615.337	13035.84
615.693	12978.22
616.05	12933.25
616.406	12989.07
616.762	12938.9
617.118	12989.29
617.475	12950.65
617.831	12986.81
618.187	12974.83
618.543	12954.49
618.899	13093.7
619.255	13005.56
619.611	13021.61
619.967	13059.12
620.323	13060.48
620.678	13015.05
621.034	13074.03
621.39	13068.84
621.746	12997.2
622.101	13202.62
622.457	13010.53
622.812	13034.04
623.168	13099.8
623.523	13110.64
623.879	13170.3
624.234	13103.41
624.589	13072
624.945	13079.23
625.3	13074.71
625.655	13075.62
626.01	13068.39
626.365	13113.81
626.72	13031.55
627.075	13038.56
627.43	13045.56
627.785	13034.71
628.14	13019.35
628.495	13055.05
628.85	13013.25
629.205	12934.38
629.559	13012.57
629.914	12935.73
630.269	12951.33
630.623	12978.22
630.978	12955.17
631.332	12880.59
631.687	12989.07
632.041	12996.52
632.396	12824.55
632.75	12932.57
633.104	12947.03
633.459	12849.18
633.813	12891.67
634.167	12764.44
634.521	12810.99
634.875	12913.36
635.229	12808.05
635.583	12719.02
635.937	12749.52
636.291	12744.33
636.645	12687.15
636.999	12707.26
637.352	12824.32
637.706	12707.94
638.06	12639.7
638.413	12645.8
638.767	12659.81
639.121	12580.94
639.474	12545.46
639.828	12569.19
640.181	12499.36
640.534	12502.07
640.888	12519.47
641.241	12572.81
641.594	12510.89
641.947	12552.24
642.301	12523.54
642.654	12538.68
643.007	12494.16
643.36	12465.24
643.713	12436.76
644.066	12482.64
644.419	12410.55
644.771	12364.9
645.124	12249.88
645.477	12256.66
645.83	12161.52
646.182	12130.56
646.535	12076.09
646.888	12019.83
647.24	12003.55
647.593	12041.75
647.945	12055.3
648.298	11920.84
648.65	11948.87
649.002	11942.31
649.355	12022.76
649.707	11935.53
650.059	12069.09
650.411	12194.96
650.763	12236.54
651.115	12351.12
651.467	12233.83
651.819	12281.29
652.171	12215.07
652.523	12235.86
652.875	12275.64
653.227	12192.7
653.578	12371.45
653.93	12220.05
654.282	12222.08
654.633	12273.6
654.985	12223.21
655.337	12319.48
655.688	12310.67
656.039	12333.94
656.391	12246.94
656.742	12233.6
657.094	12230.67
657.445	12262.76
657.796	12273.6
658.147	12239.93
658.498	12266.15
658.849	12263.43
659.2	12282.42
659.551	12256.66
659.902	12247.16
660.253	12204.45
660.604	12301.63
660.955	12293.94
661.306	12313.6
661.656	12301.85
662.007	12334.85
662.358	12402.87
662.708	12302.3
663.059	12316.99
663.409	12290.55
663.76	12394.96
664.11	12378.46
664.461	12413.71
664.811	12344.11
665.161	12390.89
665.511	12301.17
665.862	12390.66
666.212	12332.81
666.562	12420.04
666.912	12391.79
667.262	12423.88
667.612	12347.95
667.962	12333.72
668.312	12335.52
668.662	12337.78
669.011	12388.4
669.361	12411.45
669.711	12353.6
670.06	12292.59
670.41	12322.64
670.76	12349.53
671.109	12342.75
671.459	12282.42
671.808	12245.36
672.157	12311.12
672.507	12222.98
672.856	12232.02
673.205	12242.64
673.554	12273.38
673.904	12213.94
674.253	12235.41
674.602	12214.4
674.951	11996.1
675.3	12029.09
675.649	12133.49
675.998	12161.97
676.346	12207.62
676.695	12174.4
677.044	12050.56
677.393	12135.53
677.741	12113.83
678.09	12068.86
678.438	12134.17
678.787	12089.88
679.135	12032.03
679.484	12025.47
679.832	12016.21
680.181	11962.65
680.529	11970.79
680.877	11958.13
681.225	11923.33
681.573	11933.05
681.922	11926.72
682.27	11913.39
682.618	11846.72
682.966	11860.96
683.314	11800.62
683.661	11806.05
684.009	11698.03
684.357	11753.84
684.705	11608.76
685.053	11700.06
685.4	11726.05
685.748	11582.55
686.095	11483.34
686.443	11573.74
686.79	11525.6
687.138	11657.57
687.485	11523.12
687.832	11469.11
688.18	11482.44
688.527	11476.79
688.874	11440.86
689.221	11360.18
689.568	11347.98
689.915	11363.57
690.262	11326.96
690.609	11268.43
690.956	11159.06
691.303	11229.34
691.65	11195.21
691.997	11103.47
692.344	11071.38
692.69	11048.33
693.037	11086.74
693.383	10944.6
693.73	10975.56
694.077	10944.15
694.423	10832.51
694.769	10817.37
695.116	10806.3
695.462	10798.16
695.808	10807.88
696.155	10798.39
696.501	10714.32
696.847	10686.3
697.193	10634.55
697.539	10583.03
697.885	10492.86
698.231	10491.28
698.577	10442.24
698.923	10414.9
699.269	10375.57
699.614	10393.65
699.96	10290.38
700.306	10312.75
700.651	10274.33
700.997	10159.76
701.342	10140.1
701.688	10168.35
702.033	10118.41
702.379	10013.1
702.724	10013.55
703.069	10076.37
703.415	9867.57
703.76	9870.05
704.105	9912.08
704.45	9844.06
704.795	9785.08
705.14	9843.84
705.485	9783.5
705.83	9728.36
706.175	9726.33
706.52	9729.94
706.865	9646.55
707.209	9694.24
707.554	9628.25
707.899	9584.63
708.243	9595.03
708.588	9525.43
708.932	9519.55
709.277	9405.88
709.621	9449.27
709.966	9415.6
710.31	9376.96
710.654	9347.35
710.998	9354.58
711.342	9399.1
711.687	9315.04
712.031	9263.29
712.375	9198.2
712.719	9253.34
713.063	9239.79
713.407	9179
713.75	9155.72
714.094	9174.48
714.438	9131.77
714.782	9131.77
715.125	9069.85
715.469	9133.12
715.812	9064.2
716.156	9030.75
716.499	9001.6
716.843	8984.2
717.186	8933.13
717.53	8939.68
717.873	8937.87
718.216	8959.79
718.559	8960.92
718.902	8867.37
719.246	8922.28
719.589	8831.66
719.932	8849.51
720.275	8844.99
720.617	8794.15
720.96	8782.62
721.303	8768.84
721.646	8821.04
721.989	8746.01
722.331	8793.7
722.674	8822.85
723.016	8788.72
723.359	8727.48
723.701	8755.05
724.044	8798.67
724.386	8670.31
724.729	8724.54
725.071	8659.91
725.413	8670.53
725.755	8706.01
726.097	8645.9
726.439	8583.98
726.782	8681.16
727.124	8703.3
727.465	8679.12
727.807	8624.66
728.149	8663.08
728.491	8639.12
728.833	8572.01
729.175	8636.19
729.516	8633.7
729.858	8588.05
730.199	8657.2
730.541	8656.98
730.882	8587.37
731.224	8594.38
731.565	8587.6
731.906	8568.84
732.248	8604.55
732.589	8578.11
732.93	8583.76
733.271	8509.86
733.612	8572.68
733.953	8632.57
734.294	8548.73
734.635	8532.46
734.976	8541.72
735.317	8532.91
735.658	8555.06
735.999	8540.82
736.339	8542.63
736.68	8606.81
737.021	8562.74
737.361	8550.76
737.702	8633.47
738.042	8581.5
738.383	8589.18
738.723	8605.68
739.063	8547.15
739.404	8577.66
739.744	8670.53
740.084	8567.26
740.424	8652.23
740.764	8636.19
741.104	8659.46
741.444	8550.54
741.784	8650.87
742.124	8694.71
742.464	8677.09
742.804	8708.27
743.143	8768.39
743.483	8751.21
743.823	8781.72
744.162	8769.06
744.502	8757.31
744.841	8828.95
745.181	8900.36
745.52	8927.25
745.86	8974.93
746.199	9017.19
746.538	9011.54
746.877	9094.03
747.216	9131.99
747.556	9185.78
747.895	9227.13
748.234	9181.03
748.573	9294.47
748.911	9374.92
749.25	9447.01
749.589	9439.1
749.928	9510.96
750.267	9584.63
750.605	9660.11
750.944	9713.45
751.283	9809.04
751.621	9882.71
751.96	9928.81
752.298	10023.72
752.636	10223.94
752.975	10207.9
753.313	10293.77
753.651	10475.69
753.989	10534.44
754.327	10700.31
754.666	10675.68
755.004	10875.67
755.342	10978.72
755.679	11127.87
756.017	11216
756.355	11409.22
756.693	11532.38
757.031	11699.83
757.368	11783
757.706	11879.94
758.044	12065.47
758.381	12192.93
