Data from hue_110_FLMS001491_00039.txt Node
Date: Tue Feb 07 17:01:15 GMT 2017
User: dcchb
Spectrometer: FLMS00149
Trigger mode: 0
Integration Time (sec): 2.000000E-2
Scans to average: 10
Electric dark correction enabled: true
Nonlinearity correction enabled: false
Boxcar width: 0
XAxis mode: Wavelengths
Number of Pixels in Spectrum: 2048
>>>>>Begin Spectral Data<<<<<
341.393	-7.47
341.776	-7.47
342.16	-7.47
342.543	-54.7
342.927	-50.63
343.31	-59.9
343.693	-59.22
344.077	-83.63
344.46	-59
344.843	-54.48
345.226	-33.01
345.61	-48.15
345.993	-31.88
346.376	14.22
346.759	13.32
347.142	46.99
347.525	33.88
347.908	50.61
348.291	68.68
348.674	102.36
349.057	99.19
349.44	112.98
349.823	141.9
350.206	166.54
350.588	188.46
350.971	206.99
351.354	237.49
351.737	244.27
352.119	256.02
352.502	249.24
352.884	275.46
353.267	293.31
353.65	308.9
354.032	286.31
354.414	307.1
354.797	323.14
355.179	316.14
355.562	331.73
355.944	314.55
356.326	316.36
356.709	328.79
357.091	343.03
357.473	327.21
357.855	344.61
358.238	320.88
358.62	336.02
359.002	337.83
359.384	330.6
359.766	346.42
360.148	348
360.53	330.82
360.912	349.58
361.294	349.13
361.676	339.86
362.057	330.15
362.439	340.54
362.821	324.5
363.203	315.01
363.584	334.67
363.966	333.54
364.348	331.5
364.729	320.43
365.111	311.84
365.493	327.89
365.874	298.96
366.256	319.75
366.637	318.4
367.019	317.72
367.4	308
367.781	313.65
368.163	309.81
368.544	318.62
368.925	322.69
369.306	315.23
369.688	296.93
370.069	328.34
370.45	315.68
370.831	328.34
371.212	312.07
371.593	343.48
371.974	336.47
372.355	323.82
372.736	306.87
373.117	302.8
373.498	320.2
373.879	316.14
374.26	305.97
374.641	323.14
375.021	325.18
375.402	338.06
375.783	329.69
376.163	334.44
376.544	338.96
376.925	325.85
377.305	317.49
377.686	335.12
378.066	341.45
378.447	319.53
378.827	336.93
379.208	324.95
379.588	333.31
379.968	343.93
380.349	333.31
380.729	352.29
381.109	344.16
381.489	341.67
381.87	340.99
382.25	332.63
382.63	349.58
383.01	337.6
383.39	379.86
383.77	354.1
384.15	348.45
384.53	350.71
384.91	345.97
385.29	355.23
385.67	358.39
386.049	339.86
386.429	362.01
386.809	366.98
387.189	366.76
387.568	365.17
387.948	384.16
388.328	380.09
388.707	380.54
389.087	340.99
389.466	357.04
389.846	362.46
390.225	381.22
390.605	364.27
390.984	384.61
391.363	375.12
391.743	380.99
392.122	368.11
392.501	389.81
392.881	392.74
393.26	384.83
393.639	366.3
394.018	398.39
394.397	386.87
394.776	390.26
395.155	392.07
395.534	367.89
395.913	405.62
396.292	395.68
396.671	398.62
397.05	371.28
397.429	403.59
397.808	403.82
398.186	402.91
398.565	404.72
398.944	416.02
399.323	408.34
399.701	392.29
400.08	393.87
400.458	412.63
400.837	433.87
401.215	421.44
401.594	419.64
401.972	403.82
402.351	419.86
402.729	412.63
403.107	409.69
403.486	417.83
403.864	416.47
404.242	424.16
404.62	429.13
404.999	449.92
405.377	439.52
405.755	448.79
406.133	432.97
406.511	436.36
406.889	425.29
407.267	443.14
407.645	450.37
408.023	450.6
408.401	449.47
408.779	450.14
409.156	442.69
409.534	459.41
409.912	471.39
410.29	469.13
410.667	469.58
411.045	468.67
411.422	474.32
411.8	483.59
412.178	484.49
412.555	501.89
412.933	509.58
413.31	498.73
413.687	497.83
414.065	520.2
414.442	518.84
414.819	513.64
415.197	517.71
415.574	517.49
415.951	504.61
416.328	497.83
416.705	532.18
417.082	553.64
417.46	529.69
417.837	531.27
418.214	533.08
418.591	531.05
418.967	525.62
419.344	529.46
419.721	552.74
420.098	558.84
420.475	559.29
420.852	567.43
421.228	569.46
421.605	573.08
421.982	562.91
422.358	563.59
422.735	591.61
423.111	573.76
423.488	574.43
423.864	590.48
424.241	587.77
424.617	588.67
424.994	584.38
425.37	590.7
425.746	612.4
426.123	619.4
426.499	616.47
426.875	619.4
427.251	619.18
427.627	646.07
428.003	635.68
428.379	655.34
428.756	651.95
429.132	658.05
429.507	666.18
429.883	638.16
430.259	663.7
430.635	670.02
431.011	684.49
431.387	691.27
431.763	694.88
432.138	695.11
432.514	687.2
432.89	690.59
433.265	732.62
433.641	710.02
434.016	714.09
434.392	738.5
434.767	747.76
435.143	732.17
435.518	751.15
435.894	757.03
436.269	770.81
436.644	754.99
437.02	755.9
437.395	784.15
437.77	814.2
438.145	787.31
438.52	811.72
438.895	812.17
439.271	837.48
439.646	814.65
440.021	820.98
440.395	832.51
440.77	820.98
441.145	844.26
441.52	857.14
441.895	876.8
442.27	868.89
442.645	871.15
443.019	881.32
443.394	881.54
443.769	905.95
444.143	889.45
444.518	895.78
444.892	915.22
445.267	880.41
445.641	915.67
446.016	906.4
446.39	922.45
446.764	900.53
447.139	922
447.513	951.6
447.887	942.33
448.262	913.41
448.636	943.01
449.01	976.91
449.384	932.84
449.758	961.32
450.132	988.89
450.506	958.15
450.88	988.66
451.254	988.66
451.628	998.15
452.002	1016.23
452.376	1018.49
452.75	1027.3
453.123	1020.07
453.497	1076.79
453.871	1077.25
454.244	1084.25
454.618	1070.47
454.992	1105.95
455.365	1099.17
455.739	1113.63
456.112	1139.84
456.486	1151.82
456.859	1154.98
457.232	1182.33
457.606	1176.23
457.979	1187.75
458.352	1210.35
458.725	1236.79
459.099	1232.95
459.472	1275.88
459.845	1284.47
460.218	1294.19
460.591	1290.12
460.964	1301.65
461.337	1336
461.71	1344.81
462.083	1378.03
462.456	1380.97
462.829	1392.72
463.201	1395.2
463.574	1384.13
463.947	1437.69
464.32	1502.09
464.692	1474.3
465.065	1491.47
465.438	1512.04
465.81	1535.09
466.183	1548.87
466.555	1619.15
466.928	1616.44
467.3	1624.12
467.672	1649.89
468.045	1671.81
468.417	1711.13
468.789	1709.32
469.161	1757
469.534	1785.25
469.906	1855.53
470.278	1832.93
470.65	1870.22
471.022	1921.97
471.394	1985.7
471.766	2015.07
472.138	2026.15
472.51	2082.64
472.882	2128.74
473.253	2166.03
473.625	2185.47
473.997	2248.97
474.369	2315.63
474.74	2346.82
475.112	2414.16
475.484	2460.94
475.855	2527.15
476.227	2523.76
476.598	2652.57
476.97	2645.79
477.341	2791.32
477.713	2823.19
478.084	2843.75
478.455	3006.23
478.827	3044.65
479.198	3126.91
479.569	3205.55
479.94	3319.67
480.311	3387.47
480.682	3488.26
481.053	3589.5
481.424	3679.44
481.795	3758.08
482.166	3888.02
482.537	3967.11
482.908	4076.94
483.279	4137.73
483.65	4304.05
484.021	4416.82
484.391	4559.41
484.762	4613.88
485.133	4700.43
485.503	4822.68
485.874	4986.07
486.244	5077.14
486.615	5254.99
486.985	5346.96
487.356	5484.59
487.726	5603.68
488.097	5831.24
488.467	5908.98
488.837	6039.15
489.207	6254.06
489.578	6375.19
489.948	6458.8
490.318	6666.93
490.688	6761.84
491.058	6904.21
491.428	7076.41
491.798	7262.17
492.168	7405.21
492.538	7486.12
492.908	7691.54
493.278	7909.38
493.648	7956.84
494.017	8085.65
494.387	8267.79
494.757	8387.11
495.126	8567.9
495.496	8585.52
495.866	8786.65
496.235	8932.18
496.605	9061.67
496.974	9174.43
497.344	9314.09
497.713	9437.93
498.082	9513.41
498.452	9724.02
498.821	9860.07
499.19	9959.5
499.559	10035.65
499.928	10188.42
500.298	10250.11
500.667	10422.76
501.036	10437
501.405	10597.67
501.774	10799.7
502.143	10808.97
502.512	10954.05
502.88	11076.08
503.249	11025.01
503.618	11255.51
503.987	11327.82
504.356	11405.11
504.724	11471.77
505.093	11552
505.462	11668.61
505.83	11763.74
506.199	11886.9
506.567	12046.45
506.936	11986.34
507.304	12174.81
507.672	12180.91
508.041	12267.23
508.409	12357.85
508.777	12514.46
509.145	12572.08
509.514	12654.79
509.882	12741.12
510.25	12748.35
510.618	12819.99
510.986	12894.56
511.354	12987.89
511.722	13031.73
512.09	13206.19
512.458	13159.64
512.826	13232.18
513.193	13335.45
513.561	13347.21
513.929	13438.95
514.297	13533.42
514.664	13612.51
515.032	13660.64
515.4	13714.2
515.767	13691.38
516.135	13864.93
516.502	13742.22
516.869	14007.98
517.237	13878.49
517.604	13885.04
517.972	14107.19
518.339	14110.58
518.706	14069.22
519.073	14150.57
519.44	14167.07
519.808	14276.22
520.175	14236
520.542	14442.32
520.909	14458.36
521.276	14402.55
521.643	14494.29
522.009	14603.44
522.376	14519.15
522.743	14617.23
523.11	14685.7
523.477	14818.81
523.843	14874.17
524.21	14935.86
524.577	14960.27
524.943	15053.15
525.31	14983.32
525.676	15154.16
526.043	15179.25
526.409	15239.81
526.776	15313.93
527.142	15242.3
527.508	15301.96
527.874	15329.53
528.241	15347.6
528.607	15283.88
528.973	15423.54
529.339	15322.97
529.705	15447.04
530.071	15478.67
530.437	15520.71
530.803	15565
531.169	15529.75
531.535	15479.13
531.901	15390.32
532.267	15465.34
532.632	15491.33
532.998	15461.95
533.364	15513.93
533.73	15526.58
534.095	15601.16
534.461	15637.54
534.826	15577.43
535.192	15566.58
535.557	15543.98
535.923	15487.94
536.288	15514.83
536.653	15527.94
537.019	15409.07
537.384	15459.92
537.749	15509.86
538.114	15339.92
538.479	15376.3
538.845	15414.04
539.21	15301.05
539.575	15295.63
539.94	15299.92
540.305	15348.28
540.67	15240.49
541.034	15270.09
541.399	15215.41
541.764	15193.03
542.129	15176.76
542.494	15271.45
542.858	15157.1
543.223	15027.84
543.587	15138.8
543.952	15095.41
544.316	15009.31
544.681	14997.56
545.045	15008.4
545.41	15002.98
545.774	14892.48
546.138	14897.9
546.503	14906.94
546.867	14837.34
547.231	14828.3
547.595	14810.44
547.959	14809.54
548.324	14745.81
548.688	14757.34
549.052	14639.83
549.416	14613.61
549.779	14629.43
550.143	14637.34
550.507	14615.42
550.871	14606.61
551.235	14457.01
551.599	14534.29
551.962	14560.96
552.326	14539.94
552.689	14544.24
553.053	14456.55
553.417	14412.49
553.78	14510.34
554.143	14410.91
554.507	14396.44
554.87	14361.87
555.234	14446.39
555.597	14402.77
555.96	14397.35
556.323	14389.66
556.686	14315.09
557.05	14344.02
557.413	14381.98
557.776	14327.97
558.139	14314.19
558.502	14271.02
558.865	14360.29
559.228	14344.24
559.59	14315.99
559.953	14285.94
560.316	14386.95
560.679	14270.57
561.041	14419.27
561.404	14349.67
561.767	14450
562.129	14291.36
562.492	14498.14
562.854	14417.23
563.217	14386.05
563.579	14421.98
563.941	14459.27
564.304	14578.59
564.666	14574.74
565.028	14543.11
565.39	14537.23
565.753	14573.16
566.115	14584.24
566.477	14621.07
566.839	14613.84
567.201	14594.86
567.563	14600.28
567.925	14731.8
568.287	14679.83
568.648	14631.01
569.01	14740.16
569.372	14760.73
569.734	14640.73
570.095	14765.02
570.457	14781.52
570.819	14861.52
571.18	14809.54
571.542	14802.31
571.903	14830.1
572.265	14794.85
572.626	14875.3
572.987	14892.25
573.349	14864.68
573.71	14913.94
574.071	14960.27
574.432	14906.26
574.794	14992.36
575.155	14894.06
575.516	14963.89
575.877	14996.43
576.238	14938.12
576.599	15058.35
576.96	14984.45
577.32	14997.33
577.681	14993.04
578.042	15029.87
578.403	15094.5
578.763	15058.12
579.124	15035.07
579.485	15016.77
579.845	15037.33
580.206	15124.11
580.566	15065.8
580.927	15004.34
581.287	15064.9
581.648	14945.13
582.008	15128.18
582.368	14986.03
582.728	15017.44
583.089	15029.2
583.449	14999.82
583.809	15108.97
584.169	15091.57
584.529	14962.98
584.889	15092.02
585.249	14946.26
585.609	14968.18
585.969	14976.32
586.329	14930.44
586.688	14957.11
587.048	14958.24
587.408	14894.74
587.768	14849.09
588.127	14887.5
588.487	14961.85
588.846	15000.04
589.206	14896.09
589.565	14820.16
589.925	14830.56
590.284	14857.9
590.643	14898.8
591.003	14895.64
591.362	14914.85
591.721	14887.28
592.08	14903.32
592.44	14847.96
592.799	14877.33
593.158	14781.52
593.517	14861.97
593.876	14852.25
594.235	14727.51
594.593	14877.33
594.952	14798.01
595.311	14712.59
595.67	14770.9
596.029	14811.35
596.387	14777
596.746	14720.73
597.104	14722.08
597.463	14784.23
597.822	14703.1
598.18	14650.9
598.538	14637.57
598.897	14845.47
599.255	14605.93
599.613	14871.46
599.972	14729.77
600.33	14688.64
600.688	14769.99
601.046	14734.06
601.404	14760.95
601.762	14750.78
602.12	14800.05
602.478	14790.78
602.836	14816.55
603.194	14776.77
603.552	14742.65
603.91	14688.87
604.268	14813.16
604.625	14794.4
604.983	14812.7
605.341	14725.7
605.698	14851.8
606.056	14833.04
606.413	14800.95
606.771	14732.93
607.128	14794.63
607.485	14680.28
607.843	14747.39
608.2	14781.29
608.557	14843.44
608.914	14765.7
609.272	14790.33
609.629	14810.9
609.986	14950.78
610.343	14900.61
610.7	14913.49
611.057	14881.85
611.414	14957.33
611.771	14899.03
612.127	14990.78
612.484	15023.77
612.841	14962.53
613.198	14906.71
613.554	14919.59
613.911	14979.7
614.267	15085.69
614.624	14965.24
614.98	15030.78
615.337	15162.3
615.693	15033.49
616.05	15025.13
616.406	15205.69
616.762	15031.46
617.118	15117.55
617.475	15186.25
617.831	15088.4
618.187	15183.09
618.543	15167.27
618.899	15219.92
619.255	15180.6
619.611	15112.13
619.967	15321.39
620.323	15317.32
620.678	15251.56
621.034	15198.91
621.39	15165.69
621.746	15215.18
622.101	15259.92
622.457	15228.29
622.812	15196.65
623.168	15206.37
623.523	15155.52
623.879	15328.4
624.234	15114.84
624.589	15240.26
624.945	15163.88
625.3	15185.8
625.655	15230.55
626.01	15303.31
626.365	15210.21
626.72	15223.77
627.075	15309.41
627.43	15256.31
627.785	15210.43
628.14	15195.52
628.495	15242.52
628.85	15224.67
629.205	15320.71
629.559	15179.25
629.914	15099.93
630.269	15151.68
630.623	15066.93
630.978	15048.63
631.332	15146.93
631.687	15196.42
632.041	15082.98
632.396	15078.01
632.75	14999.14
633.104	15049.76
633.459	14966.37
633.813	15045.92
634.167	14928.63
634.521	14986.03
634.875	15082.98
635.229	14990.1
635.583	14876.88
635.937	14916.88
636.291	14881.4
636.645	14927.05
636.999	14839.6
637.352	14832.36
637.706	14783.55
638.06	14871.69
638.413	14813.61
638.767	14716.44
639.121	14777
639.474	14705.59
639.828	14667.85
640.181	14729.99
640.534	14740.84
640.888	14594.4
641.241	14688.64
641.594	14667.17
641.947	14690.9
642.301	14667.17
642.654	14642.54
643.007	14714.4
643.36	14688.87
643.713	14594.4
644.066	14722.31
644.419	14545.37
644.771	14521.86
645.124	14344.47
645.477	14410.91
645.83	14222.66
646.182	14268.54
646.535	14137.92
646.888	14188.99
647.24	14128.65
647.593	14166.85
647.945	14165.72
648.298	14106.51
648.65	14095.89
649.002	14030.8
649.355	14061.31
649.707	14086.4
650.059	14162.78
650.411	14401.87
650.763	14362.77
651.115	14520.06
651.467	14452.04
651.819	14450.68
652.171	14464.69
652.523	14466.95
652.875	14439.15
653.227	14341.3
653.578	14468.08
653.93	14381.75
654.282	14307.18
654.633	14369.78
654.985	14375.2
655.337	14417.46
655.688	14424.47
656.039	14438.25
656.391	14387.63
656.742	14388.76
657.094	14384.92
657.445	14442.32
657.796	14426.95
658.147	14391.02
658.498	14400.96
658.849	14444.35
659.2	14384.01
659.551	14356.67
659.902	14498.14
660.253	14425.14
660.604	14419.95
660.955	14403.9
661.306	14397.35
661.656	14366.84
662.007	14457.46
662.358	14355.31
662.708	14393.73
663.059	14435.99
663.409	14344.24
663.76	14464.69
664.11	14487.51
664.461	14457.68
664.811	14459.04
665.161	14450
665.511	14484.12
665.862	14447.97
666.212	14479.15
666.562	14474.63
666.912	14472.37
667.262	14427.4
667.612	14462.2
667.962	14461.75
668.312	14450
668.662	14424.47
669.011	14487.74
669.361	14450.23
669.711	14335.88
670.06	14487.97
670.41	14372.49
670.76	14437.12
671.109	14380.17
671.459	14436.44
671.808	14365.48
672.157	14446.84
672.507	14306.95
672.856	14251.14
673.205	14341.3
673.554	14332.26
673.904	14262.21
674.253	14337.01
674.602	14311.7
674.951	14047.07
675.3	14081.42
675.649	14260.85
675.998	14278.71
676.346	14245.04
676.695	14315.54
677.044	14145.15
677.393	14223.11
677.741	14254.53
678.09	14196
678.438	14114.64
678.787	14168.65
679.135	14190.8
679.484	14048.43
679.832	14107.19
680.181	13948.09
680.529	14027.87
680.877	14034.87
681.225	13971.82
681.573	14043.01
681.922	13926.4
682.27	13911.94
682.618	13895.44
682.966	13824.71
683.314	13879.85
683.661	13790.36
684.009	13758.49
684.357	13767.53
684.705	13668.33
685.053	13859.06
685.4	13699.74
685.748	13624.03
686.095	13627.88
686.443	13569.12
686.79	13541.78
687.138	13602.34
687.485	13619.29
687.832	13553.3
688.18	13492.06
688.527	13440.76
688.874	13398.05
689.221	13320.31
689.568	13279.41
689.915	13252.97
690.262	13242.58
690.609	13259.07
690.956	13240.99
691.303	13166.19
691.65	13121.9
691.997	12991.28
692.344	12985.63
692.69	12912.19
693.037	12946.76
693.383	12838.74
693.73	12873.32
694.077	12784.06
694.423	12770.05
694.769	12772.53
695.116	12721.23
695.462	12657.73
695.808	12547.23
696.155	12630.39
696.501	12515.36
696.847	12558.07
697.193	12375.48
697.539	12444.18
697.885	12385.87
698.231	12327.57
698.577	12289.83
698.923	12260.23
699.269	12189.04
699.614	12137.97
699.96	12056.62
700.306	12064.53
700.651	12044.87
700.997	11975.94
701.342	11976.39
701.688	11881.48
702.033	11837.19
702.379	11794.7
702.724	11828.15
703.069	11859.56
703.415	11674.71
703.76	11582.73
704.105	11655.5
704.45	11632
704.795	11569.63
705.14	11526.91
705.485	11512.68
705.83	11422.28
706.175	11474.03
706.52	11346.35
706.865	11389.06
707.209	11324.21
707.554	11254.38
707.899	11298.67
708.243	11208.05
708.588	11182.06
708.932	11105
709.277	11116.08
709.621	11132.12
709.966	11022.29
710.31	11100.03
710.654	10943.88
710.998	10983.65
711.342	10910.21
711.687	10896.42
712.031	10927.61
712.375	10834.28
712.719	10918.57
713.063	10909.3
713.407	10845.58
713.75	10744.79
714.094	10847.38
714.438	10729.2
714.782	10726.03
715.125	10712.02
715.469	10772.36
715.812	10618.69
716.156	10465.47
716.499	10581.85
716.843	10603.55
717.186	10520.84
717.53	10625.92
717.873	10615.3
718.216	10543.89
718.559	10542.99
718.902	10455.53
719.246	10460.95
719.589	10398.58
719.932	10407.17
720.275	10446.49
720.617	10378.47
720.96	10338.92
721.303	10371.24
721.646	10376.89
721.989	10304.35
722.331	10318.36
722.674	10333.27
723.016	10321.97
723.359	10318.81
723.701	10317.45
724.044	10285.82
724.386	10260.51
724.729	10237.46
725.071	10262.77
725.413	10223.22
725.755	10226.84
726.097	10175.09
726.439	10133.05
726.782	10115.88
727.124	10157.91
727.465	10144.13
727.807	10126.5
728.149	10142.09
728.491	10098.48
728.833	10139.38
729.175	10112.26
729.516	10080.62
729.858	10091.25
730.199	10049.44
730.541	10100.29
730.882	10041.98
731.224	10082.21
731.565	10039.72
731.906	10064.13
732.248	10077.69
732.589	10043.34
732.93	9951.81
733.271	10050.34
733.612	10056.44
733.953	10088.76
734.294	10072.49
734.635	10059.16
734.976	10090.57
735.317	10074.3
735.658	10003.56
735.999	10052.83
736.339	10012.83
736.68	10041.08
737.021	10080.17
737.361	9970.35
737.702	10091.25
738.042	10134.41
738.383	10093.96
738.723	10111.36
739.063	10124.24
739.404	10148.65
739.744	10081.75
740.084	10145.03
740.424	10171.02
740.764	10090.12
741.104	10206.05
741.444	10161.3
741.784	10140.96
742.124	10215.08
742.464	10243.56
742.804	10238.59
743.143	10229.1
743.483	10325.14
743.823	10258.93
744.162	10249.43
744.502	10357.23
744.841	10344.35
745.181	10387.74
745.52	10419.82
745.86	10428.64
746.199	10505.92
746.538	10564.68
746.877	10641.74
747.216	10670.44
747.556	10756.09
747.895	10729.2
748.234	10731.91
748.573	10833.83
748.911	10904.11
749.25	10854.39
749.589	10950.88
749.928	11064.33
750.267	11195.85
750.605	11156.53
750.944	11275.62
751.283	11304.32
751.621	11446.24
751.96	11497.76
752.298	11603.52
752.636	11723.75
752.975	11780.92
753.313	11850.07
753.651	12059.78
753.989	12079.22
754.327	12227.46
754.666	12291.87
755.004	12553.78
755.342	12603.5
755.679	12737.5
756.017	12795.81
756.355	13039.87
756.693	13133.88
