Data from hue_140_FLMS001491_00069.txt Node
Date: Tue Feb 07 16:56:16 GMT 2017
User: dcchb
Spectrometer: FLMS00149
Trigger mode: 0
Integration Time (sec): 2.000000E-2
Scans to average: 10
Electric dark correction enabled: true
Nonlinearity correction enabled: false
Boxcar width: 0
XAxis mode: Wavelengths
Number of Pixels in Spectrum: 2048
>>>>>Begin Spectral Data<<<<<
341.393	-9.49
341.776	-9.49
342.16	-9.49
342.543	-89.49
342.927	-65.31
343.31	-66.89
343.693	-68.02
344.077	-90.85
344.46	-58.08
344.843	-58.08
345.226	-38.64
345.61	-21.24
345.993	-28.93
346.376	-10.62
346.759	29.38
347.142	26.67
347.525	39.77
347.908	54.01
348.291	82.94
348.674	89.04
349.057	119.54
349.44	120
349.823	146.21
350.206	180.79
350.588	189.37
350.971	197.73
351.354	217.85
351.737	233.21
352.119	260.78
352.502	266.21
352.884	254.91
353.267	292.65
353.65	295.59
354.032	289.71
354.414	305.08
354.797	331.97
355.179	319.77
355.562	317.05
355.944	349.37
356.326	324.96
356.709	330.39
357.091	330.61
357.473	336.94
357.855	327
358.238	324.06
358.62	345.3
359.002	320.44
359.384	336.04
359.766	348.24
360.148	352.76
360.53	318.64
360.912	345.08
361.294	338.75
361.676	334.45
362.057	311.18
362.439	316.15
362.821	316.38
363.203	326.32
363.584	311.86
363.966	312.76
364.348	323.16
364.729	333.1
365.111	314.57
365.493	319.09
365.874	309.14
366.256	322.25
366.637	341.69
367.019	317.28
367.4	294.68
367.781	309.14
368.163	315.47
368.544	294.68
368.925	326.77
369.306	318.86
369.688	309.82
370.069	324.74
370.45	315.7
370.831	296.72
371.212	314.34
371.593	321.8
371.974	310.5
372.355	326.55
372.736	312.08
373.117	317.51
373.498	317.96
373.879	331.97
374.26	317.96
374.641	303.04
375.021	324.74
375.402	313.44
375.783	338.75
376.163	325.19
376.544	322.48
376.925	338.3
377.305	331.97
377.686	319.09
378.066	310.05
378.447	335.81
378.827	313.89
379.208	334.23
379.588	341.01
379.968	323.61
380.349	337.17
380.729	347.79
381.109	370.61
381.489	348.47
381.87	328.8
382.25	339.2
382.63	351.86
383.01	322.48
383.39	330.61
383.77	346.88
384.15	330.16
384.53	346.43
384.91	334.23
385.29	344.62
385.67	338.75
386.049	336.71
386.429	368.8
386.809	336.71
387.189	338.52
387.568	349.82
387.948	351.63
388.328	353.89
388.707	354.34
389.087	351.86
389.466	340.56
389.846	330.61
390.225	361.35
390.605	355.24
390.984	377.39
391.363	379.43
391.743	361.35
392.122	372.19
392.501	359.54
392.881	373.55
393.26	362.7
393.639	383.94
394.018	366.77
394.397	360.22
394.776	360.67
395.155	374.23
395.534	369.03
395.913	394.79
396.292	371.29
396.671	377.17
397.05	405.64
397.429	380.55
397.808	375.13
398.186	375.13
398.565	380.33
398.944	404.06
399.323	388.69
399.701	397.5
400.08	372.87
400.458	398.18
400.837	411.06
401.215	396.15
401.594	388.46
401.972	397.96
402.351	416.94
402.729	387.79
403.107	381.91
403.486	404.51
403.864	424.85
404.242	396.37
404.62	419.42
404.999	413.77
405.377	434.56
405.755	430.27
406.133	410.38
406.511	414.45
406.889	435.24
407.267	412.87
407.645	417.84
408.023	430.5
408.401	439.99
408.779	430.05
409.156	440.89
409.534	430.27
409.912	432.08
410.29	434.56
410.667	449.93
411.045	463.72
411.422	450.16
411.8	451.06
412.178	468.91
412.555	477.95
412.933	454.45
413.31	454.23
413.687	475.92
414.065	486.09
414.442	475.47
414.819	476.82
415.197	488.8
415.574	481.34
415.951	499.42
416.328	479.54
416.705	491.06
417.082	508.24
417.46	498.74
417.837	520.21
418.214	499.42
418.591	496.94
418.967	510.72
419.344	508.24
419.721	531.96
420.098	539.19
420.475	526.09
420.852	519.31
421.228	541
421.605	536.48
421.982	537.39
422.358	532.19
422.735	558.4
423.111	576.93
423.488	566.99
423.864	555.69
424.241	556.14
424.617	551.4
424.994	548.23
425.37	574.9
425.746	575.35
426.123	574.9
426.499	564.96
426.875	582.81
427.251	572.41
427.627	608.35
428.003	600.21
428.379	607.22
428.756	609.7
429.132	618.51
429.507	598.18
429.883	624.84
430.259	639.31
430.635	619.64
431.011	639.08
431.387	633.66
431.763	648.34
432.138	642.02
432.514	641.57
432.89	665.75
433.265	668.46
433.641	683.82
434.016	662.81
434.392	697.61
434.767	684.95
435.143	683.37
435.518	701
435.894	704.84
436.269	709.59
436.644	721.56
437.02	724.73
437.395	714.56
437.77	713.43
438.145	742.13
438.52	742.81
438.895	783.26
439.271	750.26
439.646	767.89
440.021	794.1
440.395	792.3
440.77	787.32
441.145	766.53
441.52	809.02
441.895	796.82
442.27	785.52
442.645	785.52
443.019	817.15
443.394	817.61
443.769	815.8
444.143	826.87
444.518	821.45
444.892	818.51
445.267	849.47
445.641	848.57
446.016	825.52
446.39	846.53
446.764	840.2
447.139	828.9
447.513	852.63
447.887	859.64
448.262	889.24
448.636	873.42
449.01	872.07
449.384	888.34
449.758	887.89
450.132	883.37
450.506	882.01
450.88	929.47
451.254	919.07
451.628	951.61
452.002	934.89
452.376	958.17
452.75	955
453.123	959.75
453.497	983.7
453.871	966.08
454.244	992.97
454.618	987.09
454.992	1011.95
455.365	1025.06
455.739	1050.82
456.112	1045.17
456.486	1057.6
456.859	1060.54
457.232	1088.33
457.606	1078.16
457.979	1120.65
458.352	1120.65
458.725	1122
459.099	1137.37
459.472	1126.52
459.845	1159.07
460.218	1170.82
460.591	1194.54
460.964	1221.21
461.337	1210.14
461.71	1256.46
462.083	1232.06
462.456	1256.46
462.829	1247.88
463.201	1270.93
463.574	1290.59
463.947	1310.93
464.32	1350.92
464.692	1349.8
465.065	1390.25
465.438	1387.99
465.81	1407.87
466.183	1410.36
466.555	1462.11
466.928	1470.92
467.3	1475.89
467.672	1485.84
468.045	1521.54
468.417	1545.95
468.789	1558.83
469.161	1596.79
469.534	1637.25
469.906	1658.04
470.278	1692.38
470.65	1711.59
471.022	1724.47
471.394	1805.38
471.766	1826.84
472.138	1875.2
472.51	1896.22
472.882	1944.13
473.253	1964.24
473.625	2005.6
473.997	2045.14
474.369	2065.03
474.74	2098.7
475.112	2163.11
475.484	2240.17
475.855	2252.6
476.227	2317.91
476.598	2366.72
476.97	2413.5
477.341	2495.75
477.713	2527.17
478.084	2589.31
478.455	2678.35
478.827	2739.36
479.198	2802.41
479.569	2858.46
479.94	2982.29
480.311	3052.12
480.682	3157.21
481.053	3243.76
481.424	3291.89
481.795	3394.04
482.166	3452.56
482.537	3489.4
482.908	3657.98
483.279	3746.57
483.65	3854.36
484.021	3929.39
484.391	4036.96
484.762	4155.14
485.133	4255.03
485.503	4337.06
485.874	4467
486.244	4551.07
486.615	4696.6
486.985	4750.61
487.356	4936.37
487.726	5010.49
488.097	5184.95
488.467	5274.89
488.837	5393.53
489.207	5518.05
489.578	5653.18
489.948	5790.81
490.318	5938.6
490.688	6048.43
491.058	6138.37
491.428	6332.94
491.798	6400.74
492.168	6553.05
492.538	6682.76
492.908	6802.98
493.278	6932.25
493.648	7083.43
494.017	7178.34
494.387	7357.77
494.757	7462.4
495.126	7589.86
495.496	7656.3
495.866	7848.83
496.235	7846.35
496.605	7998.66
496.974	8171.54
497.344	8337.18
497.713	8353
498.082	8437.52
498.452	8642.03
498.821	8686.33
499.19	8733.1
499.559	8944.85
499.928	9003.15
500.298	9142.81
500.667	9226.65
501.036	9195.46
501.405	9374.89
501.774	9456.02
502.143	9509.35
502.512	9593.42
502.88	9804.49
503.249	9803.58
503.618	9874.99
503.987	9923.58
504.356	10051.71
504.724	10049
505.093	10145.04
505.462	10283.35
505.83	10346.62
506.199	10484.24
506.567	10526.28
506.936	10468.88
507.304	10682.43
507.672	10778.7
508.041	10862.77
508.409	10825.93
508.777	10980.5
509.145	11028.41
509.514	11055.08
509.882	11050.56
510.25	11167.16
510.618	11183.43
510.986	11255.52
511.354	11331.91
511.722	11379.81
512.09	11527.83
512.458	11445.8
512.826	11571
513.193	11617.1
513.561	11634.04
513.929	11737.09
514.297	11798.11
514.664	11872.23
515.032	11803.53
515.4	11884.89
515.767	11975.73
516.135	11982.51
516.502	11866.81
516.869	12130.75
517.237	12126.23
517.604	12081.72
517.972	12266.57
518.339	12211.43
518.706	12244.42
519.073	12218.89
519.44	12260.47
519.808	12404.65
520.175	12381.6
520.542	12439.22
520.909	12548.6
521.276	12488.26
521.643	12519.9
522.009	12589.95
522.376	12609.84
522.743	12619.1
523.11	12765.99
523.477	12709.5
523.843	12767.35
524.21	12913.33
524.577	12825.65
524.943	12863.62
525.31	12864.97
525.676	13021.58
526.043	13013.9
526.409	13002.6
526.776	13055.7
527.142	12990.39
527.508	13127.34
527.874	13119.66
528.241	13073.33
528.607	13073.1
528.973	13234.91
529.339	13119.43
529.705	13176.15
530.071	13197.39
530.437	13284.4
530.803	13222.7
531.169	13216.38
531.535	13176.15
531.901	13128.02
532.267	13145.19
532.632	13103.61
532.998	13148.35
533.364	13141.12
533.73	13106.1
534.095	13199.2
534.461	13154.46
534.826	13142.71
535.192	13236.94
535.557	13144.74
535.923	13081.69
536.288	13122.82
536.653	13156.04
537.019	12997.85
537.384	13034.46
537.749	12978.42
538.114	13014.57
538.479	12955.82
538.845	12946.78
539.21	12824.3
539.575	12934.35
539.94	12860.68
540.305	12883.73
540.67	12776.16
541.034	12828.36
541.399	12830.62
541.764	12722.83
542.129	12712.43
542.494	12714.24
542.858	12693.23
543.223	12666.33
543.587	12665.43
543.952	12570.29
544.316	12620.23
544.681	12570.29
545.045	12513.57
545.41	12494.13
545.774	12497.52
546.138	12414.36
546.503	12478.09
546.867	12371.88
547.231	12348.83
547.595	12335.49
547.959	12381.14
548.324	12280.81
548.688	12206.01
549.052	12172.34
549.416	12180.47
549.779	12187.93
550.143	12200.81
550.507	12170.98
550.871	12096.41
551.235	12081.26
551.599	12090.3
551.962	12118.33
552.326	11960.59
552.689	12033.58
553.053	11927.82
553.417	11882.4
553.78	12054.15
554.143	12027.25
554.507	11967.59
554.87	11827.71
555.234	11994.03
555.597	11850.54
555.96	11864.55
556.323	11897.09
556.686	11862.29
557.05	11848.95
557.413	11838.56
557.776	11838.11
558.139	11885.11
558.502	11845.34
558.865	11802.18
559.228	11915.62
559.59	11881.72
559.953	11905.68
560.316	11941.15
560.679	11835.17
561.041	11898.9
561.404	11862.51
561.767	11932.79
562.129	11799.24
562.492	11839.69
562.854	11924.43
563.217	11855.51
563.579	11885.56
563.941	11904.32
564.304	11864.55
564.666	12003.98
565.028	11979.35
565.39	11952.23
565.753	11993.81
566.115	11985.9
566.477	12058.21
566.839	12008.27
567.201	12090.98
567.563	12022.73
567.925	12075.84
568.287	12052.11
568.648	12069.97
569.01	12143.64
569.372	12123.75
569.734	12121.94
570.095	12090.53
570.457	12197.65
570.819	12189.06
571.18	12125.78
571.542	12178.66
571.903	12217.98
572.265	12198.32
572.626	12295.04
572.987	12270.19
573.349	12207.81
573.71	12189.51
574.071	12289.39
574.432	12332.33
574.794	12288.26
575.155	12379.79
575.516	12311.99
575.877	12325.1
576.238	12279.68
576.599	12325.1
576.96	12292.78
577.32	12302.05
577.681	12411.2
578.042	12299.34
578.403	12253.69
578.763	12377.98
579.124	12325.33
579.485	12438.32
579.845	12375.95
580.206	12438.09
580.566	12392.89
580.927	12392.89
581.287	12454.59
581.648	12360.35
582.008	12360.8
582.368	12328.72
582.728	12388.83
583.089	12398.54
583.449	12296.4
583.809	12297.53
584.169	12306.12
584.529	12328.94
584.889	12377.53
585.249	12313.8
585.609	12220.7
585.969	12411.88
586.329	12255.27
586.688	12353.12
587.048	12355.38
587.408	12330.98
587.768	12299.79
588.127	12190.87
588.487	12250.98
588.846	12265.89
589.206	12196.74
589.565	12178.44
589.925	12277.42
590.284	12208.49
590.643	12236.74
591.003	12249.62
591.362	12247.81
591.721	12207.81
592.08	12185.89
592.44	12235.38
592.799	12165.33
593.158	12114.71
593.517	12213.92
593.876	12227.7
594.235	12127.14
594.593	12105.67
594.952	12187.93
595.311	12107.25
595.67	12068.16
596.029	12193.35
596.387	12210.53
596.746	12181.15
597.104	12066.35
597.463	12166.91
597.822	12114.48
598.18	11989.97
598.538	12101.6
598.897	12100.02
599.255	12077.2
599.613	12211.88
599.972	12031.55
600.33	12184.54
600.688	12117.42
601.046	12151.09
601.404	12237.42
601.762	12101.6
602.12	12142.51
602.478	12196.29
602.836	12211.88
603.194	12101.15
603.552	12093.92
603.91	12059.57
604.268	12200.36
604.625	12080.36
604.983	12064.54
605.341	12098.66
605.698	12096.86
606.056	12258.89
606.413	12147.03
606.771	12201.94
607.128	12186.57
607.485	12173.01
607.843	12133.92
608.2	12304.76
608.557	12196.52
608.914	12219.34
609.272	12301.37
609.629	12252.11
609.986	12277.42
610.343	12203.75
610.7	12330.75
611.057	12305.21
611.414	12322.39
611.771	12246.23
612.127	12376.62
612.484	12294.14
612.841	12307.7
613.198	12318.55
613.554	12215.27
613.911	12324.42
614.267	12367.36
614.624	12372.1
614.98	12317.19
615.337	12426.34
615.693	12360.8
616.05	12442.16
616.406	12488.94
616.762	12376.4
617.118	12438.09
617.475	12422.95
617.831	12424.98
618.187	12530.97
618.543	12427.92
618.899	12551.53
619.255	12516.73
619.611	12590.63
619.967	12596.5
620.323	12587.69
620.678	12525.55
621.034	12572.32
621.39	12479.22
621.746	12505.21
622.101	12628.14
622.457	12552.66
622.812	12594.7
623.168	12509.95
623.523	12597.86
623.879	12651.42
624.234	12528.94
624.589	12529.84
624.945	12606
625.3	12554.92
625.655	12551.08
626.01	12581.36
626.365	12520.12
626.72	12492.55
627.075	12456.62
627.43	12429.73
627.785	12514.02
628.14	12484.42
628.495	12530.97
628.85	12467.92
629.205	12419.33
629.559	12506.11
629.914	12453.46
630.269	12441.25
630.623	12430.18
630.978	12417.3
631.332	12403.06
631.687	12525.77
632.041	12379.56
632.396	12453.46
632.75	12379.34
633.104	12356.29
633.459	12300.02
633.813	12305.67
634.167	12323.97
634.521	12342.27
634.875	12391.76
635.229	12264.76
635.583	12281.71
635.937	12175.5
636.291	12182.96
636.645	12170.75
636.999	12163.97
637.352	12159.91
637.706	12114.71
638.06	12199.45
638.413	12233.58
638.767	12110.19
639.121	12094.6
639.474	11966.24
639.828	12068.38
640.181	12070.64
640.534	12085.78
640.888	12005.11
641.241	12017.76
641.594	12056.86
641.947	12040.81
642.301	11988.84
642.654	12000.59
643.007	12004.43
643.36	12017.09
643.713	12036.29
644.066	12017.99
644.419	11886.69
644.771	12001.94
645.124	11817.77
645.477	11812.34
645.83	11747.04
646.182	11671.78
646.535	11658.22
646.888	11611.67
647.24	11574.84
647.593	11682.86
647.945	11680.82
648.298	11549.53
648.65	11531.67
649.002	11467.95
649.355	11580.94
649.707	11612.12
650.059	11617.1
650.411	11802.63
650.763	11769.18
651.115	11883.08
651.467	11770.76
651.819	11818.67
652.171	11874.04
652.523	11834.04
652.875	11877.43
653.227	11800.37
653.578	11841.72
653.93	11835.85
654.282	11775.28
654.633	11787.26
654.985	11845.56
655.337	11809.41
655.688	11809.63
656.039	11882.4
656.391	11802.63
656.742	11876.07
657.094	11812.57
657.445	11798.79
657.796	11854.38
658.147	11825.68
658.498	11836.52
658.849	11876.3
659.2	11853.7
659.551	11791.33
659.902	11909.97
660.253	11886.92
660.604	11843.98
660.955	11804.21
661.306	11907.71
661.656	11840.82
662.007	11827.49
662.358	11812.57
662.708	11841.95
663.059	11882.17
663.409	11729.86
663.76	11941.83
664.11	11894.15
664.461	11894.15
664.811	11842.4
665.161	11860.48
665.511	11870.2
665.862	11899.12
666.212	11807.15
666.562	11850.54
666.912	11793.81
667.262	11873.81
667.612	11887.15
667.962	11828.84
668.312	11883.08
668.662	11859.35
669.011	11840.82
669.361	11817.32
669.711	11873.59
670.06	11758.33
670.41	11871.78
670.76	11792.46
671.109	11810.99
671.459	11853.47
671.808	11808.05
672.157	11803.08
672.507	11722.86
672.856	11687.38
673.205	11811.89
673.554	11800.37
673.904	11763.08
674.253	11817.54
674.602	11752.23
674.951	11600.15
675.3	11563.31
675.649	11756.98
675.998	11755.17
676.346	11674.72
676.695	11691.9
677.044	11651.67
677.393	11624.55
677.741	11548.17
678.09	11553.59
678.438	11590.2
678.787	11608.28
679.135	11575.29
679.484	11460.49
679.832	11535.52
680.181	11497.78
680.529	11530.77
680.877	11452.35
681.225	11477.21
681.573	11512.01
681.922	11436.08
682.27	11391.34
682.618	11447.83
682.966	11378.23
683.314	11387.27
683.661	11344.56
684.009	11292.81
684.357	11342.75
684.705	11266.37
685.053	11353.6
685.4	11349.98
685.748	11227.5
686.095	11216.2
686.443	11191.34
686.79	11118.13
687.138	11105.47
687.485	11089.2
687.832	11072.25
688.18	11051.91
688.527	11061.63
688.874	11026.6
689.221	10954.74
689.568	11002.42
689.915	10917
690.262	10961.29
690.609	10875.87
690.956	10810.34
691.303	10807.4
691.65	10682.88
691.997	10801.98
692.344	10707.29
692.69	10656.44
693.037	10697.8
693.383	10526.5
693.73	10634.52
694.077	10489.89
694.423	10566.73
694.769	10392.72
695.116	10409.44
695.462	10399.73
695.808	10343.23
696.155	10387.3
696.501	10288.32
696.847	10292.84
697.193	10147.76
697.539	10224.36
697.885	10179.17
698.231	10116.12
698.577	10145.04
698.923	10080.64
699.269	10006.74
699.614	9945.5
699.96	9967.2
700.306	9910.25
700.651	9865.5
700.997	9864.83
701.342	9820.76
701.688	9769.46
702.033	9811.04
702.379	9728.33
702.724	9706.19
703.069	9649.01
703.415	9603.82
703.76	9629.35
704.105	9608.79
704.45	9567.66
704.795	9543.93
705.14	9517.49
705.485	9449.24
705.83	9395.69
706.175	9460.09
706.52	9387.55
706.865	9383.03
707.209	9400.88
707.554	9284.95
707.899	9324.95
708.243	9245.63
708.588	9222.36
708.932	9222.58
709.277	9202.47
709.621	9184.62
709.966	9182.58
710.31	9138.97
710.654	9076.82
710.998	9068.69
711.342	9089.25
711.687	9019.2
712.031	8965.87
712.375	8921.12
712.719	8914.34
713.063	8961.8
713.407	8918.86
713.75	8872.76
714.094	8838.64
714.438	8806.32
714.782	8799.54
715.125	8809.03
715.469	8849.03
715.812	8764.06
716.156	8703.05
716.499	8755.48
716.843	8698.98
717.186	8704.4
717.53	8727
717.873	8655.59
718.216	8643.39
718.559	8710.96
718.902	8607.91
719.246	8613.11
719.589	8600
719.932	8626.89
720.275	8578.53
720.617	8649.49
720.96	8562.71
721.303	8624.63
721.646	8576.05
721.989	8502.15
722.331	8559.55
722.674	8567.46
723.016	8477.52
723.359	8451.3
723.701	8523.62
724.044	8419.44
724.386	8403.62
724.729	8520.68
725.071	8447.46
725.413	8451.08
725.755	8418.54
726.097	8427.35
726.439	8395.71
726.782	8362.94
727.124	8449.5
727.465	8429.83
727.807	8346.45
728.149	8421.93
728.491	8315.49
728.833	8381.47
729.175	8366.33
729.516	8397.29
729.858	8355.71
730.199	8328.14
730.541	8355.49
730.882	8293.12
731.224	8364.75
731.565	8299.89
731.906	8314.81
732.248	8338.31
732.589	8324.53
732.93	8300.57
733.271	8286.56
733.612	8336.96
733.953	8331.98
734.294	8236.39
734.635	8271.65
734.976	8249.27
735.317	8253.34
735.658	8320.91
735.999	8334.02
736.339	8266.9
736.68	8377.86
737.021	8326.33
737.361	8277.07
737.702	8332.44
738.042	8303.51
738.383	8385.77
738.723	8381.47
739.063	8282.95
739.404	8376.5
739.744	8362.72
740.084	8348.71
740.424	8394.81
740.764	8322.94
741.104	8354.58
741.444	8341.93
741.784	8378.76
742.124	8389.84
742.464	8409.95
742.804	8407.01
743.143	8448.37
743.483	8507.8
743.823	8447.46
744.162	8534.69
744.502	8527.46
744.841	8526.33
745.181	8642.94
745.52	8576.95
745.86	8709.38
746.199	8703.05
746.538	8731.52
746.877	8762.71
747.216	8827.34
747.556	8829.6
747.895	8876.15
748.234	8950.5
748.573	8955.92
748.911	8962.7
749.25	9099.87
749.589	9097.39
749.928	9172.64
750.267	9196.59
750.605	9334.9
750.944	9355.23
751.283	9471.84
751.621	9508.68
751.96	9533.76
752.298	9653.53
752.636	9779.18
752.975	9823.02
753.313	9908.21
753.651	10008.1
753.989	10082.22
754.327	10201.09
754.666	10244.93
755.004	10381.42
755.342	10552.72
755.679	10632.94
756.017	10683.11
756.355	10869.77
756.693	10871.58
757.031	11067.96
757.368	11183.43
757.706	11318.35
758.044	11424.33
758.381	11633.37
758.719	11718.79
759.056	11928.73
759.394	12055.95
759.731	12099.79
760.068	12266.34
