Data from hue_290_FLMS001491_00025.txt Node
Date: Tue Feb 07 15:52:31 GMT 2017
User: dcchb
Spectrometer: FLMS00149
Trigger mode: 0
Integration Time (sec): 2.000000E-2
Scans to average: 10
Electric dark correction enabled: true
Nonlinearity correction enabled: false
Boxcar width: 0
XAxis mode: Wavelengths
Number of Pixels in Spectrum: 2048
>>>>>Begin Spectral Data<<<<<
341.393	-3.8
341.776	-3.8
342.16	-3.8
342.543	-63.46
342.927	-58.04
343.31	-44.93
343.693	-69.11
344.077	-54.87
344.46	-59.39
344.843	-50.58
345.226	-44.25
345.61	-26.17
345.993	-26.85
346.376	-22.33
346.759	4.11
347.142	54.5
347.525	21.06
347.908	48.85
348.291	75.75
348.674	92.7
349.057	101.51
349.44	113.26
349.823	146.48
350.206	158.68
350.588	176.31
350.971	181.05
351.354	203.65
351.737	223.99
352.119	246.36
352.502	250.21
352.884	263.76
353.267	270.09
353.65	290.66
354.032	288.85
354.414	305.57
354.797	306.02
355.179	299.02
355.562	332.91
355.944	316.19
356.326	329.75
356.709	310.77
357.091	340.82
357.473	338.56
357.855	342.86
358.238	326.14
358.62	322.29
359.002	330.88
359.384	331.79
359.766	347.6
360.148	349.86
360.53	337.21
360.912	318
361.294	309.41
361.676	336.3
362.057	347.6
362.439	327.72
362.821	314.61
363.203	314.84
363.584	330.43
363.966	335.4
364.348	305.12
364.729	314.84
365.111	324.33
365.493	309.64
365.874	327.27
366.256	310.32
366.637	322.29
367.019	309.86
367.4	308.28
367.781	308.28
368.163	294.95
368.544	303.09
368.925	309.86
369.306	322.75
369.688	327.27
370.069	323.88
370.45	299.7
370.831	313.71
371.212	303.54
371.593	312.8
371.974	322.97
372.355	296.76
372.736	309.64
373.117	305.57
373.498	300.15
373.879	304.89
374.26	299.24
374.641	312.58
375.021	303.99
375.402	306.93
375.783	307.83
376.163	325.23
376.544	310.32
376.925	327.27
377.305	314.16
377.686	303.31
378.066	324.1
378.447	325.23
378.827	336.53
379.208	348.28
379.588	317.55
379.968	329.75
380.349	346.7
380.729	343.31
381.109	336.08
381.489	321.84
381.87	315.51
382.25	322.75
382.63	344.21
383.01	334.04
383.39	352.35
383.77	339.24
384.15	343.54
384.53	334.27
384.91	349.86
385.29	359.13
385.67	346.7
386.049	331.33
386.429	351.9
386.809	327.72
387.189	346.25
387.568	345.8
387.948	357.77
388.328	369.52
388.707	347.15
389.087	376.3
389.466	362.29
389.846	365.91
390.225	359.81
390.605	363.87
390.984	370.2
391.363	367.26
391.743	376.53
392.122	371.33
392.501	365
392.881	396.19
393.26	380.6
393.639	380.6
394.018	371.11
394.397	390.31
394.776	380.37
395.155	389.86
395.534	387.15
395.913	365.23
396.292	396.42
396.671	393.25
397.05	380.37
397.429	396.19
397.808	404.33
398.186	401.84
398.565	418.11
398.944	396.42
399.323	412.23
399.701	418.11
400.08	401.16
400.458	423.53
400.837	400.71
401.215	409.52
401.594	419.47
401.972	422.18
402.351	432.57
402.729	447.49
403.107	434.38
403.486	450.2
403.864	435.06
404.242	411.78
404.62	422.63
404.999	451.56
405.377	442.52
405.755	447.94
406.133	473.7
406.511	450.2
406.889	467.83
407.267	479.58
407.645	490.65
408.023	478
408.401	496.3
408.779	493.36
409.156	512.12
409.534	495.85
409.912	492.01
410.29	521.61
410.667	547.6
411.045	541.72
411.422	534.04
411.8	559.8
412.178	541.5
412.555	552.57
412.933	571.1
413.31	573.13
413.687	585.56
414.065	586.02
414.442	581.95
414.819	606.35
415.197	616.3
415.574	626.24
415.951	610.65
416.328	637.77
416.705	631.66
417.082	620.82
417.46	652.68
417.837	675.05
418.214	661.04
418.591	647.93
418.967	669.86
419.344	681.83
419.721	686.58
420.098	678.67
420.475	701.49
420.852	722.06
421.228	719.35
421.605	728.38
421.982	732.9
422.358	741.49
422.735	781.94
423.111	753.69
423.488	771.77
423.864	807.93
424.241	786.91
424.617	804.99
424.994	815.16
425.37	809.06
425.746	852.68
426.123	831.88
426.499	869.85
426.875	859.68
427.251	872.79
427.627	890.64
428.003	864.65
428.379	917.98
428.756	920.7
429.132	907.59
429.507	939.9
429.883	935.61
430.259	955.72
430.635	967.47
431.011	945.55
431.387	978.32
431.763	996.85
432.138	1005.21
432.514	1025.1
432.89	1016.06
433.265	1061.94
433.641	1050.18
434.016	1049.51
434.392	1082.27
434.767	1108.71
435.143	1105.1
435.518	1134.93
435.894	1159.56
436.269	1143.74
436.644	1155.94
437.02	1181.03
437.395	1192.55
437.77	1182.84
438.145	1195.27
438.52	1227.13
438.895	1231.42
439.271	1237.75
439.646	1251.76
440.021	1250.86
440.395	1249.05
440.77	1267.35
441.145	1284.08
441.52	1315.71
441.895	1298.09
442.27	1302.83
442.645	1291.08
443.019	1324.75
443.394	1349.84
443.769	1342.38
444.143	1346.9
444.518	1367.24
444.892	1370.85
445.267	1357.75
445.641	1393.23
446.016	1396.62
446.39	1418.31
446.764	1406.11
447.139	1405.2
447.513	1415.82
447.887	1434.58
448.262	1435.26
448.636	1437.52
449.01	1431.87
449.384	1473
449.758	1433.68
450.132	1478.65
450.506	1480.23
450.88	1501.02
451.254	1485.88
451.628	1484.07
452.002	1524.07
452.376	1520.23
452.75	1534.01
453.123	1527.01
453.497	1542.83
453.871	1545.76
454.244	1611.07
454.618	1567.68
454.992	1608.59
455.365	1628.25
455.739	1642.94
456.112	1634.58
456.486	1652.88
456.859	1677.06
457.232	1681.58
457.606	1679.55
457.979	1682.26
458.352	1731.07
458.725	1731.75
459.099	1734.01
459.472	1750.28
459.845	1765.87
460.218	1756.61
460.591	1783.27
460.964	1806.55
461.337	1844.06
461.71	1848.36
462.083	1881.8
462.456	1884.96
462.829	1888.13
463.201	1926.09
463.574	1943.72
463.947	1921.35
464.32	1944.85
464.692	1940.33
465.065	1971.06
465.438	2001.12
465.81	2031.4
466.183	2037.5
466.555	2056.94
466.928	2092.64
467.3	2076.82
467.672	2080.89
468.045	2138.29
468.417	2148.01
468.789	2147.1
469.161	2164.28
469.534	2205.63
469.906	2235.24
470.278	2233.66
470.65	2247.67
471.022	2293.54
471.394	2302.13
471.766	2341
472.138	2359.3
472.51	2419.41
472.882	2404.95
473.253	2416.02
473.625	2488.11
473.997	2469.58
474.369	2516.36
474.74	2500.32
475.112	2560.88
475.484	2561.1
475.855	2626.19
476.227	2603.59
476.598	2686.07
476.97	2683.81
477.341	2728.11
477.713	2767.43
478.084	2792.06
478.455	2837.03
478.827	2849.91
479.198	2895.11
479.569	2921.1
479.94	3005.61
480.311	3014.65
480.682	3022.79
481.053	3099.17
481.424	3130.36
481.795	3107.08
482.166	3200.64
482.537	3206.06
482.908	3250.35
483.279	3296
483.65	3304.14
484.021	3357.69
484.391	3342.78
484.762	3368.09
485.133	3463.45
485.503	3438.14
485.874	3589.33
486.244	3550.23
486.615	3618.25
486.985	3630.68
487.356	3663.9
487.726	3687.86
488.097	3756.78
488.467	3768.08
488.837	3783.22
489.207	3820.28
489.578	3915.65
489.948	3924.91
490.318	3949.77
490.688	3969.2
491.058	4020.95
491.428	4045.81
491.798	4086.04
492.168	4130.56
492.538	4140.95
492.908	4187.5
493.278	4266.37
493.648	4227.5
494.017	4285.58
494.387	4322.87
494.757	4291
495.126	4360.61
495.496	4382.3
495.866	4370.32
496.235	4383.88
496.605	4436.99
496.974	4473.82
497.344	4471.34
497.713	4513.82
498.082	4531.45
498.452	4569.41
498.821	4601.96
499.19	4583.88
499.559	4650.32
499.928	4677.89
500.298	4667.04
500.667	4742.06
501.036	4719.01
501.405	4752.91
501.774	4735.74
502.143	4773.48
502.512	4781.16
502.88	4818.45
503.249	4786.58
503.618	4846.47
503.987	4829.75
504.356	4841.05
504.724	4907.71
505.093	4895.51
505.462	4926.92
505.83	4900.93
506.199	4922.85
506.567	5025.67
506.936	5031.55
507.304	5028.38
507.672	5047.82
508.041	5081.26
508.409	5103.86
508.777	5128.27
509.145	5147.7
509.514	5140.02
509.882	5156.29
510.25	5164.65
510.618	5188.15
510.986	5208.27
511.354	5230.41
511.722	5234.26
512.09	5310.86
512.458	5276.29
512.826	5311.54
513.193	5318.32
513.561	5348.83
513.929	5372.78
514.297	5399.67
514.664	5439.45
515.032	5412.56
515.4	5412.33
515.767	5441.48
516.135	5464.53
516.502	5493.01
516.869	5489.39
517.237	5529.61
517.604	5479.45
517.972	5590.63
518.339	5578.2
518.706	5506.79
519.073	5519.22
519.44	5598.09
519.808	5680.12
520.175	5611.42
520.542	5646
520.909	5648.48
521.276	5662.27
521.643	5734.13
522.009	5802.38
522.376	5752.89
522.743	5828.59
523.11	5803.96
523.477	5891.19
523.843	5934.8
524.21	5917.4
524.577	5958.76
524.943	5966.21
525.31	6003.27
525.676	6051.18
526.043	6068.36
526.409	6058.64
526.776	6141.35
527.142	6143.38
527.508	6136.6
527.874	6215.02
528.241	6179.99
528.607	6234.68
528.973	6227.9
529.339	6231.29
529.705	6292.53
530.071	6317.16
530.437	6409.37
530.803	6361.23
531.169	6384.06
531.535	6373.89
531.901	6439.42
532.267	6441.68
532.632	6511.06
532.998	6520.55
533.364	6516.71
533.73	6562.58
534.095	6568.68
534.461	6664.27
534.826	6642.58
535.192	6631.96
535.557	6660.21
535.923	6669.02
536.288	6677.61
536.653	6756.25
537.019	6723.93
537.384	6752.86
537.749	6793.76
538.114	6709.92
538.479	6809.58
538.845	6829.47
539.21	6813.65
539.575	6881.22
539.94	6854.33
540.305	6878.05
540.67	6872.18
541.034	6927.77
541.399	6907.66
541.764	7007.09
542.129	6976.58
542.494	7053.42
542.858	7026.52
543.223	7028.78
543.587	7069.46
543.952	7010.03
544.316	7121.44
544.681	7139.29
545.045	7207.99
545.41	7179.51
545.774	7211.83
546.138	7215.45
546.503	7244.6
546.867	7198.72
547.231	7286.63
547.595	7342.67
547.959	7306.74
548.324	7278.04
548.688	7269.23
549.052	7325.95
549.416	7342.67
549.779	7375.67
550.143	7401.66
550.507	7484.59
550.871	7365.95
551.235	7463.8
551.599	7453.86
551.962	7457.93
552.326	7444.14
552.689	7524.36
553.053	7527.3
553.417	7510.81
553.78	7552.84
554.143	7586.74
554.507	7631.71
554.87	7574.76
555.234	7743.12
555.597	7659.28
555.96	7668.32
556.323	7676.9
556.686	7708.77
557.05	7803.68
557.413	7744.25
557.776	7780.18
558.139	7770.23
558.502	7814.3
558.865	7821.31
559.228	7805.49
559.59	7890.68
559.953	7921.19
560.316	7957.35
560.679	7981.08
561.041	7977.69
561.404	8014.29
561.767	8071.02
562.129	8033.28
562.492	8078.02
562.854	8065.82
563.217	8128.42
563.579	8155.53
563.941	8156.44
564.304	8195.53
564.666	8210
565.028	8279.15
565.39	8263.55
565.753	8283.44
566.115	8322.76
566.477	8384.68
566.839	8273.05
567.201	8407.28
567.563	8405.47
567.925	8400.95
568.287	8539.7
568.648	8515.3
569.01	8575.86
569.372	8587.16
569.734	8497.22
570.095	8616.54
570.457	8639.14
570.819	8664.67
571.18	8724.33
571.542	8710.32
571.903	8843.2
572.265	8813.37
572.626	8866.7
572.987	8874.84
573.349	8919.58
573.71	8958.45
574.071	8966.13
574.432	9049.52
574.794	9162.51
575.155	9102.4
575.516	9150.76
575.877	9137.2
576.238	9320.7
576.599	9312.57
576.96	9385.78
577.32	9407.93
577.681	9466.69
578.042	9514.14
578.403	9543.07
578.763	9569.96
579.124	9599.34
579.485	9771.54
579.845	9783.97
580.206	9815.15
580.566	9952.1
580.927	9958.88
581.287	10094.47
581.648	10130.62
582.008	10210.17
582.368	10308.92
582.728	10416.04
583.089	10420.56
583.449	10549.6
583.809	10673.89
584.169	10749.82
584.529	10755.69
584.889	10948.23
585.249	11035.91
585.609	11104.61
585.969	11228.9
586.329	11315.68
586.688	11444.71
587.048	11611.04
587.408	11716.8
587.768	11778.72
588.127	11903.91
588.487	12048.99
588.846	12188.42
589.206	12270.68
589.565	12495.31
589.925	12570.33
590.284	12713.83
590.643	12972.81
591.003	13009.87
591.362	13072.69
591.721	13254.84
592.08	13399.92
592.44	13486.02
592.799	13668.16
593.158	13798.32
593.517	13855.72
593.876	14069.5
594.235	14163.96
594.593	14346.33
594.952	14557.4
595.311	14547.46
595.67	14686.44
596.029	14904.74
596.387	15110.38
596.746	15178.4
597.104	15276.02
597.463	15409.35
597.822	15546.98
598.18	15605.96
598.538	15799.85
598.897	16084.59
599.255	16042.33
599.613	16260.63
599.972	16376.33
600.33	16440.74
600.688	16519.83
601.046	16701.07
601.404	16850.45
601.762	16922.76
602.12	17090.89
602.478	17300.83
602.836	17276.88
603.194	17258.35
603.552	17416.53
603.91	17499.7
604.268	17731.55
604.625	17611.33
604.983	17792.12
605.341	17882.51
605.698	18044.31
606.056	18275.04
606.413	18190.98
606.771	18342.16
607.128	18500.35
607.485	18437.98
607.843	18587.12
608.2	18641.81
608.557	18882.71
608.914	18810.85
609.272	18977.62
609.629	19132.65
609.986	19200.89
610.343	19178.75
610.7	19388.46
611.057	19395.24
611.414	19430.72
611.771	19547.78
612.127	19559.53
612.484	19688.34
612.841	19782.35
613.198	19778.28
613.554	19802.69
613.911	20032.51
614.267	20042
614.624	20059.4
614.98	20179.4
615.337	20365.61
615.693	20337.36
616.05	20307.98
616.406	20483.35
616.762	20495.55
617.118	20503.68
617.475	20638.37
617.831	20694.87
618.187	20706.62
618.543	20771.25
618.899	20942.99
619.255	20948.64
619.611	20783.68
619.967	21014.63
620.323	21019.83
620.678	20944.8
621.034	21080.39
621.39	21106.15
621.746	21093.73
622.101	21152.48
622.457	21230.44
622.812	21210.11
623.168	21392.7
623.523	21371.46
623.879	21392.93
624.234	21221.18
624.589	21414.85
624.945	21461.85
625.3	21476.77
625.655	21385.92
626.01	21511.12
626.365	21574.39
626.72	21503.88
627.075	21511.79
627.43	21567.38
627.785	21378.46
628.14	21679.02
628.495	21614.84
628.85	21562.41
629.205	21496.65
629.559	21688.51
629.914	21648.29
630.269	21580.72
630.623	21575.07
630.978	21458.91
631.332	21518.8
631.687	21593.15
632.041	21504.56
632.396	21617.33
632.75	21532.58
633.104	21489.65
633.459	21468.18
633.813	21440.61
634.167	21541.4
634.521	21490.32
634.875	21594.5
635.229	21519.93
635.583	21450.33
635.937	21441.06
636.291	21485.81
636.645	21304.57
636.999	21492.36
637.352	21545.92
637.706	21294.17
638.06	21411.68
638.413	21361.51
638.767	21331.68
639.121	21337.11
639.474	21288.75
639.828	21371.91
640.181	21295.53
640.534	21295.53
640.888	21272.48
641.241	21258.92
641.594	21179.15
641.947	21293.49
642.301	21281.97
642.654	21284.91
643.007	21276.77
643.36	21219.82
643.713	21191.35
644.066	21313.83
644.419	21172.37
644.771	21000.62
645.124	20842.66
645.477	20827.29
645.83	20665.71
646.182	20685.83
646.535	20535.32
646.888	20594.98
647.24	20486.96
647.593	20637.92
647.945	20623.45
648.298	20497.36
648.65	20566.51
649.002	20514.53
649.355	20575.32
649.707	20566.73
650.059	20621.2
650.411	20905.48
650.763	20962.43
651.115	21113.16
651.467	21010.79
651.819	21190.67
652.171	21078.13
652.523	20997.68
652.875	21111.8
653.227	21043.1
653.578	21080.84
653.93	21117
654.282	21022.54
654.633	20875.43
654.985	21042.43
655.337	21049.21
655.688	21120.62
656.039	21147.28
656.391	21003.11
656.742	21071.8
657.094	21013.73
657.445	21128.53
657.796	21044.69
658.147	20984.35
658.498	21021.86
658.849	20987.51
659.2	21021.18
659.551	20910.45
659.902	20997
660.253	20937.12
660.604	20997.46
660.955	20918.36
661.306	20985.03
661.656	21007.4
662.007	21100.96
662.358	21084.69
662.708	21034.29
663.059	21028.87
663.409	20984.35
663.76	21144.57
664.11	21144.57
664.461	21042.88
664.811	21114.97
665.161	21145.25
665.511	21093.95
665.862	21117
666.212	21132.37
666.562	21160.62
666.912	21091.47
667.262	21126.72
667.612	21159.03
667.962	21109.32
668.312	21158.81
668.662	21166.27
669.011	21068.19
669.361	21099.83
669.711	20990.45
670.06	20986.16
670.41	20998.81
670.76	21019.6
671.109	21067.29
671.459	20966.5
671.808	20987.74
672.157	20962.66
672.507	20911.13
672.856	20862.77
673.205	20946.61
673.554	20904.8
673.904	20876.78
674.253	20984.35
674.602	20876.33
674.951	20550.46
675.3	20554.53
675.649	20848.76
675.998	20834.97
676.346	20879.72
676.695	20919.94
677.044	20670.69
677.393	20787.07
677.741	20884.01
678.09	20799.95
678.438	20792.26
678.787	20800.4
679.135	20848.76
679.484	20628.65
679.832	20617.81
680.181	20534.19
680.529	20544.59
680.877	20591.59
681.225	20538.49
681.573	20576.9
681.922	20439.28
682.27	20425.04
682.618	20333.75
682.966	20339.62
683.314	20382.56
683.661	20291.03
684.009	20293.29
684.357	20230.02
684.705	20154.09
685.053	20230.24
685.4	20070.93
685.748	20070.25
686.095	19966.97
686.443	19899.86
686.79	19859.63
687.138	19963.59
687.485	19922.46
687.832	19841.55
688.18	19819.41
688.527	19759.75
688.874	19648.34
689.221	19637.94
689.568	19633.2
689.915	19566.76
690.262	19509.81
690.609	19429.59
690.956	19448.8
691.303	19457.16
691.65	19232.53
691.997	19310.27
692.344	19132.87
692.69	19151.63
693.037	19105.3
693.383	18928.36
693.73	19012.42
694.077	18883.16
694.423	18849.49
694.769	18890.39
695.116	18765.42
695.462	18738.31
695.808	18622.6
696.155	18660.57
696.501	18563.62
696.847	18506.67
697.193	18246.12
697.539	18367.92
697.885	18190.3
698.231	18179
698.577	18165.21
698.923	18163.18
699.269	17937.88
699.614	17917.76
699.96	17867.14
700.306	17916.18
700.651	17810.2
700.997	17752.34
701.342	17653.59
701.688	17651.56
702.033	17662.4
702.379	17561.84
702.724	17567.94
703.069	17512.58
703.415	17323.88
703.76	17320.94
704.105	17304.9
704.45	17294.05
704.795	17038.46
705.14	17125.24
705.485	17018.13
705.83	17012.02
706.175	17008.86
706.52	16939.48
706.865	16909.43
707.209	16826.72
707.554	16809.32
707.899	16834.18
708.243	16743.33
708.588	16725.7
708.932	16545.37
709.277	16536.78
709.621	16572.04
709.966	16493.39
710.31	16510.12
710.654	16323.68
710.998	16367.97
711.342	16279.84
711.687	16326.39
712.031	16243.01
712.375	16125.04
712.719	16189.45
713.063	16146.51
713.407	16190.8
713.75	16045.27
714.094	16100.18
714.438	15989
714.782	16069
715.125	15970.47
715.469	15943.58
715.812	15887.99
716.156	15801.89
716.499	15784.26
716.843	15786.97
717.186	15740.42
717.53	15765.28
717.873	15758.5
718.216	15759.63
718.559	15575.68
718.902	15541.33
719.246	15623.36
719.589	15594.66
719.932	15563.93
720.275	15510.37
720.617	15455.91
720.96	15464.04
721.303	15551.95
721.646	15530.03
721.989	15312.63
722.331	15467.66
722.674	15417.72
723.016	15438.73
723.359	15389.47
723.701	15384.27
724.044	15325.74
724.386	15291.39
724.729	15266.76
725.071	15196.25
725.413	15311.5
725.755	15322.13
726.097	15115.58
726.439	15129.59
726.782	15109.7
727.124	15193.54
727.465	15092.3
727.807	15113.54
728.149	15128.46
728.491	15070.61
728.833	15092.75
729.175	15043.94
729.516	15118.06
729.858	15012.08
730.199	15103.83
730.541	15088.69
730.882	14991.96
731.224	15041.68
731.565	14974.34
731.906	14963.49
732.248	14986.09
732.589	14871.52
732.93	14872.42
733.271	14995.81
733.612	14958.75
733.953	14935.69
734.294	14861.35
734.635	14879.65
734.976	14963.72
735.317	14829.48
735.658	14799.88
735.999	14862.25
736.339	14887.56
736.68	14889.37
737.021	14875.36
737.361	14783.38
737.702	14915.81
738.042	14848.69
738.383	14848.92
738.723	14996.26
739.063	14756.04
739.404	14893.89
739.744	14909.25
740.084	14918.07
740.424	14883.27
740.764	14839.43
741.104	14958.97
741.444	14859.54
741.784	14903.15
742.124	14891.63
742.464	15016.37
742.804	14867
743.143	14914
743.483	14985.86
743.823	14926.66
744.162	14970.27
744.502	15024.05
744.841	14918.07
745.181	15158.51
745.52	15048.91
745.86	15165.97
746.199	15276.25
746.538	15295.23
746.877	15349.24
747.216	15285.06
747.556	15300.43
747.895	15387.66
748.234	15395.34
748.573	15477.15
748.911	15472.18
749.25	15546.53
749.589	15550.59
749.928	15680.31
750.267	15770.25
750.605	15873.52
750.944	15944.03
751.283	15966.4
751.621	16080.07
751.96	16082.78
752.298	16175.66
752.636	16290.24
752.975	16301.31
753.313	16433.06
753.651	16507.63
753.989	16581.53
754.327	16699.26
754.666	16568.19
755.004	16956.88
755.342	17027.17
755.679	17099.93
756.017	17175.86
756.355	17329.53
756.693	17275.97
757.031	17437.78
757.368	17451.33
757.706	17595.74
758.044	17732.91
758.381	17936.29
758.719	17842.96
759.056	18068.04
759.394	18046.35
759.731	18160.24
