Data from hue_26_FLMS001491_00015.txt Node
Date: Tue Feb 07 17:13:37 GMT 2017
User: dcchb
Spectrometer: FLMS00149
Trigger mode: 0
Integration Time (sec): 2.000000E-2
Scans to average: 10
Electric dark correction enabled: true
Nonlinearity correction enabled: false
Boxcar width: 0
XAxis mode: Wavelengths
Number of Pixels in Spectrum: 2048
>>>>>Begin Spectral Data<<<<<
341.393	-18.43
341.776	-18.43
342.16	-18.43
342.543	-65.89
342.927	-61.59
343.31	-49.84
343.693	-81.93
344.077	-58.43
344.46	-87.58
344.843	-50.97
345.226	-50.75
345.61	-32.44
345.993	-25.44
346.376	12.08
346.759	15.24
347.142	36.48
347.525	45.52
347.908	62.47
348.291	74.67
348.674	99.76
349.057	91.17
349.44	140.89
349.823	148.57
350.206	170.26
350.588	178.4
350.971	194.67
351.354	239.64
351.737	247.55
352.119	251.84
352.502	278.28
352.884	267.21
353.267	255.01
353.65	287.32
354.032	291.84
354.414	316.93
354.797	337.04
355.179	310.15
355.562	319.86
355.944	325.74
356.326	324.61
356.709	309.7
357.091	337.04
357.473	336.36
357.855	329.58
358.238	362.35
358.62	338.85
359.002	356.47
359.384	336.59
359.766	353.99
360.148	331.62
360.53	344.04
360.912	327.32
361.294	333.2
361.676	350.6
362.057	327.1
362.439	338.62
362.821	331.62
363.203	335.23
363.584	327.77
363.966	328.23
364.348	312.63
364.729	330.26
365.111	331.84
365.493	324.38
365.874	335.23
366.256	301.79
366.637	307.21
367.019	318.73
367.4	317.38
367.781	320.32
368.163	303.82
368.544	325.29
368.925	324.16
369.306	315.34
369.688	320.09
370.069	315.57
370.45	321.9
370.831	320.32
371.212	312.18
371.593	332.97
371.974	347.43
372.355	312.41
372.736	317.6
373.117	326.42
373.498	312.63
373.879	333.42
374.26	303.14
374.641	320.09
375.021	315.34
375.402	332.75
375.783	316.93
376.163	348.34
376.544	333.88
376.925	319.19
377.305	332.75
377.686	328.23
378.066	325.51
378.447	329.36
378.827	345.4
379.208	344.04
379.588	358.96
379.968	345.85
380.349	344.27
380.729	335.91
381.109	356.93
381.489	343.59
381.87	345.85
382.25	345.17
382.63	333.65
383.01	343.14
383.39	337.04
383.77	350.37
384.15	339.75
384.53	351.5
384.91	357.15
385.29	363.71
385.67	356.7
386.049	356.7
386.429	356.93
386.809	358.51
387.189	348.79
387.568	353.76
387.948	356.7
388.328	377.72
388.707	360.77
389.087	367.77
389.466	372.07
389.846	369.35
390.225	360.54
390.605	370.94
390.984	373.65
391.363	353.31
391.743	370.48
392.122	375
392.501	387.43
392.881	379.07
393.26	372.74
393.639	388.11
394.018	389.69
394.397	393.53
394.776	401.22
395.155	396.7
395.534	418.17
395.913	392.63
396.292	394.89
396.671	394.44
397.05	387.43
397.429	358.06
397.808	404.16
398.186	393.99
398.565	407.55
398.944	389.69
399.323	397.83
399.701	420.2
400.08	410.26
400.458	397.6
400.837	412.29
401.215	415.68
401.594	436.02
401.972	405.51
402.351	411.84
402.729	408.45
403.107	416.13
403.486	406.87
403.864	425.4
404.242	406.64
404.62	423.82
404.999	429.47
405.377	413.2
405.755	430.37
406.133	418.62
406.511	423.59
406.889	440.31
407.267	446.87
407.645	438.96
408.023	442.35
408.401	444.83
408.779	434.89
409.156	451.61
409.534	464.95
409.912	472.63
410.29	459.97
410.667	482.35
411.045	459.07
411.422	465.62
411.8	465.4
412.178	481.89
412.555	494.32
412.933	461.56
413.31	501.55
413.687	473.31
414.065	495.45
414.442	502.46
414.819	491.61
415.197	491.61
415.574	506.75
415.951	531.38
416.328	494.1
416.705	507.66
417.082	486.19
417.46	507.66
417.837	522.12
418.214	538.39
418.591	521.22
418.967	523.93
419.344	538.16
419.721	539.29
420.098	527.54
420.475	542.01
420.852	544.27
421.228	556.92
421.605	547.43
421.982	545.17
422.358	569.35
422.735	560.76
423.111	564.15
423.488	566.86
423.864	576.81
424.241	582.91
424.617	574.55
424.994	564.83
425.37	574.77
425.746	594.66
426.123	555.79
426.499	579.52
426.875	598.28
427.251	613.19
427.627	624.26
428.003	614.09
428.379	610.03
428.756	635.56
429.132	610.03
429.507	623.59
429.883	649.8
430.259	667.88
430.635	649.12
431.011	638.27
431.387	672.4
431.763	631.04
432.138	655.45
432.514	666.75
432.89	666.52
433.265	670.36
433.641	697.26
434.016	719.18
434.392	705.84
434.767	682.11
435.143	709.91
435.518	685.5
435.894	712.62
436.269	741.55
436.644	745.16
437.02	746.97
437.395	767.31
437.77	745.16
438.145	759.4
438.52	753.3
438.895	753.98
439.271	767.08
439.646	768.21
440.021	767.31
440.395	783.13
440.77	773.41
441.145	800.53
441.52	794.88
441.895	799.63
442.27	797.82
442.645	763.92
443.019	810.02
443.394	797.37
443.769	803.92
444.143	819.96
444.518	833.75
444.892	860.87
445.267	850.92
445.641	840.53
446.016	853.64
446.39	868.78
446.764	827.42
447.139	844.82
447.513	854.99
447.887	882.11
448.262	887.31
448.636	861.55
449.01	900.41
449.384	891.37
449.758	897.93
450.132	893.86
450.506	920.53
450.88	899.06
451.254	919.17
451.628	908.78
452.002	920.75
452.376	947.64
452.75	951.03
453.123	959.4
453.497	991.71
453.871	964.37
454.244	979.28
454.618	989
454.992	983.35
455.365	1013.41
455.739	1019.73
456.112	1025.38
456.486	1029
456.859	1015.21
457.232	1050.92
457.606	1074.65
457.979	1065.38
458.352	1073.97
458.725	1116.45
459.099	1100.18
459.472	1112.61
459.845	1138.37
460.218	1103.57
460.591	1135.66
460.964	1134.08
461.337	1157.13
461.71	1193.29
462.083	1189.22
462.456	1204.81
462.829	1214.76
463.201	1207.52
463.574	1247.07
463.947	1222.44
464.32	1240.97
464.692	1274.64
465.065	1308.31
465.438	1326.17
465.81	1307.41
466.183	1325.04
466.555	1356.67
466.928	1346.96
467.3	1382.44
467.672	1408.42
468.045	1420.17
468.417	1414.3
468.789	1439.84
469.161	1445.03
469.534	1460.85
469.906	1511.02
470.278	1516.67
470.65	1529.55
471.022	1576.1
471.394	1589.66
471.766	1626.72
472.138	1624.69
472.51	1653.61
472.882	1673.05
473.253	1713.27
473.625	1739.26
473.997	1756.44
474.369	1780.62
474.74	1793.95
475.112	1851.8
475.484	1862.87
475.855	1897
476.227	1955.98
476.598	1959.37
476.97	1997.33
477.341	2016.54
477.713	2082.08
478.084	2084.56
478.455	2140.16
478.827	2165.69
479.198	2208.63
479.569	2249.98
479.94	2299.47
480.311	2315.07
480.682	2369.75
481.053	2423.09
481.424	2433.26
481.795	2516.19
482.166	2573.14
482.537	2609.97
482.908	2639.35
483.279	2670.99
483.65	2746.02
484.021	2775.39
484.391	2835.28
484.762	2892.23
485.133	2915.95
485.503	2983.3
485.874	3040.92
486.244	3084.99
486.615	3146.68
486.985	3206.12
487.356	3281.37
487.726	3271.2
488.097	3386.45
488.467	3387.13
488.837	3444.3
489.207	3526.33
489.578	3566.56
489.948	3618.31
490.318	3671.64
490.688	3717.29
491.058	3750.96
491.428	3873.9
491.798	3897.17
492.168	3981.69
492.538	3987.34
492.908	3985.53
493.278	4094.68
493.648	4101.23
494.017	4186.43
494.387	4185.07
494.757	4234.11
495.126	4274.34
495.496	4332.19
495.866	4348.91
496.235	4436.82
496.605	4459.87
496.974	4502.35
497.344	4587.55
497.713	4606.31
498.082	4626.19
498.452	4710.94
498.821	4707.77
499.19	4727.21
499.559	4747.09
499.928	4760.88
500.298	4822.57
500.667	4875.68
501.036	4905.73
501.405	4928.1
501.774	4914.55
502.143	4969.46
502.512	5026.18
502.88	5050.14
503.249	5093.75
503.618	5115.9
503.987	5115.22
504.356	5160.19
504.724	5239.74
505.093	5242.45
505.462	5251.49
505.83	5258.49
506.199	5381.43
506.567	5385.49
506.936	5371.71
507.304	5449.45
507.672	5488.09
508.041	5483.8
508.409	5546.85
508.777	5609.44
509.145	5600.4
509.514	5600.86
509.882	5658.93
510.25	5673.4
510.618	5734.86
510.986	5693.28
511.354	5785.48
511.722	5794.3
512.09	5829.32
512.458	5821.64
512.826	5874.07
513.193	5907.74
513.561	5922.43
513.929	5979.15
514.297	5990
514.664	6022.54
515.032	6056.44
515.4	6079.49
515.767	6111.8
516.135	6106.38
516.502	6089.43
516.869	6187.51
517.237	6177.34
517.604	6180.28
517.972	6270.22
518.339	6297.79
518.706	6357.45
519.073	6356.77
519.44	6389.76
519.808	6483.09
520.175	6406.03
520.542	6503.66
520.909	6489.87
521.276	6512.02
521.643	6594.5
522.009	6585.69
522.376	6595.86
522.743	6659.81
523.11	6706.59
523.477	6757.66
523.843	6761.95
524.21	6869.07
524.577	6907.71
524.943	6906.58
525.31	6989.97
525.676	7041.04
526.043	6985.45
526.409	7082.4
526.776	7146.35
527.142	7197.2
527.508	7228.84
527.874	7201.49
528.241	7300.02
528.607	7279.23
528.973	7328.49
529.339	7325.56
529.705	7399.45
530.071	7528.71
530.437	7574.59
530.803	7545.21
531.169	7558.77
531.535	7656.17
531.901	7568.04
532.267	7648.71
532.632	7725.32
532.998	7690.07
533.364	7763.51
533.73	7799.89
534.095	7848.48
534.461	7852.55
534.826	8010.06
535.192	7986.78
535.557	7984.3
535.923	8045.31
536.288	7992.21
536.653	8073.11
537.019	8094.12
537.384	8100.22
537.749	8143.84
538.114	8174.57
538.479	8209.37
538.845	8241.24
539.21	8250.73
539.575	8258.86
539.94	8272.88
540.305	8378.41
540.67	8387.45
541.034	8389.26
541.399	8528.46
541.764	8465.19
542.129	8530.95
542.494	8641
542.858	8626.09
543.223	8558.29
543.587	8651.62
543.952	8659.53
544.316	8662.24
544.681	8674.67
545.045	8832.63
545.41	8840.32
545.774	8864.05
546.138	8836.25
546.503	8920.09
546.867	8949.02
547.231	9006.42
547.595	9037.15
547.959	9045.06
548.324	9085.96
548.688	9104.49
549.052	9144.27
549.416	9120.54
549.779	9100.2
550.143	9231.49
550.507	9249.8
550.871	9320.31
551.235	9292.06
551.599	9399.17
551.962	9441.43
552.326	9410.25
552.689	9425.61
553.053	9444.6
553.417	9477.59
553.78	9593.74
554.143	9555.78
554.507	9648.21
554.87	9578.83
555.234	9760.75
555.597	9738.37
555.96	9681.2
556.323	9787.19
556.686	9712.16
557.05	9801.42
557.413	9815.89
557.776	9820.86
558.139	9975.66
558.502	9943.57
558.865	9994.64
559.228	10078.25
559.59	10028.76
559.953	10091.81
560.316	10165.71
560.679	10151.7
561.041	10246.38
561.404	10270.34
561.767	10355.31
562.129	10280.73
562.492	10411.12
562.854	10333.61
563.217	10413.38
563.579	10460.84
563.941	10479.82
564.304	10564.34
564.666	10494.51
565.028	10553.72
565.39	10550.33
565.753	10752.36
566.115	10710.78
566.477	10762.3
566.839	10784.9
567.201	10858.34
567.563	10871.68
567.925	10992.13
568.287	10869.42
568.648	11068.96
569.01	11062.63
569.372	11199.35
569.734	11122.97
570.095	11137.21
570.457	11202.97
570.819	11211.33
571.18	11230.54
571.542	11360.93
571.903	11386.47
572.265	11455.39
572.626	11560.47
572.987	11538.78
573.349	11651.09
573.71	11654.93
574.071	11703.29
574.432	11793.91
574.794	11894.25
575.155	11867.81
575.516	11954.36
575.877	12071.65
576.238	12105.54
576.599	12169.72
576.96	12323.62
577.32	12293.33
577.681	12515.93
578.042	12586.21
578.403	12660.33
578.763	12773.55
579.124	12822.36
579.485	12915.01
579.845	13056.03
580.206	13137.38
580.566	13259.86
580.927	13373.08
581.287	13464.83
581.648	13590.48
582.008	13857.59
582.368	13875.21
582.728	14030.01
583.089	14188.88
583.449	14319.04
583.809	14590
584.169	14757
584.529	14869.76
584.889	15153.6
585.249	15161.73
585.609	15296.19
585.969	15578.22
586.329	15759.01
586.688	16006.23
587.048	16170.97
587.408	16489.16
587.768	16686.89
588.127	16789.94
588.487	17057.96
588.846	17409.36
589.206	17569.35
589.565	17760.08
589.925	18204.14
590.284	18334.76
590.643	18581.31
591.003	18978.81
591.362	19226.49
591.721	19406.82
592.08	19735.85
592.44	20085.45
592.799	20319.34
593.158	20718.2
593.517	20810.85
593.876	21249.26
594.235	21431.85
594.593	21806.31
594.952	22003.59
595.311	22253.07
595.67	22642.89
596.029	22997.01
596.387	23458.92
596.746	23611.68
597.104	23886.48
597.463	24223.64
597.822	24576.63
598.18	24637.64
598.538	25060.46
598.897	25507.45
599.255	25644.85
599.613	26209.13
599.972	26230.14
600.33	26583.35
600.688	26833.52
601.046	27182.66
601.404	27661.07
601.762	27815.41
602.12	28173.6
602.478	28520.93
602.836	28808.61
603.194	28962.28
603.552	29280.91
603.91	29439.55
604.268	29877.05
604.625	29893.55
604.983	30307.32
605.341	30380.54
605.698	30855.11
606.056	31205.83
606.413	31293.29
606.771	31711.36
607.128	32124.45
607.485	32072.02
607.843	32293.26
608.2	32749.07
608.557	32994.49
608.914	32980.47
609.272	33518.31
609.629	33859.1
609.986	34138.41
610.343	34003.72
610.7	34549.7
611.057	34625.86
611.414	34858.39
611.771	35051.15
612.127	35402.33
612.484	35569.33
612.841	35755.32
613.198	35810
613.554	36082.77
613.911	36402.98
614.267	36448.86
614.624	36639.14
614.98	36963.19
615.337	37124.77
615.693	37331.55
616.05	37456.97
616.406	37644.08
616.762	37729.73
617.118	37827.58
617.475	38032.32
617.831	38241.58
618.187	38381.24
618.543	38544.4
618.899	38879.08
619.255	38845.41
619.611	38960.43
619.967	39213.31
620.323	39360.19
620.678	39258.95
621.034	39485.39
621.39	39500.76
621.746	39609.23
622.101	40140.96
622.457	39995.21
622.812	40054.19
623.168	40157.24
623.523	40353.16
623.879	40616.43
624.234	40293.5
624.589	40613.04
624.945	40660.95
625.3	40834.51
625.655	40898.01
626.01	40790.66
626.365	40957.89
626.72	40963.09
627.075	40939.36
627.43	41137.55
627.785	41123.09
628.14	41244.44
628.495	41386.58
628.85	41397.65
629.205	41358.79
629.559	41515.62
629.914	41464.32
630.269	41561.27
630.623	41412.34
630.978	41474.94
631.332	41712.22
631.687	41716.29
632.041	41712.9
632.396	41810.3
632.75	41609.4
633.104	41785.44
633.459	41725.1
633.813	41651.66
634.167	41887.13
634.521	41540.02
634.875	41728.04
635.229	41801.49
635.583	41554.94
635.937	41723.97
636.291	41649.85
636.645	41623.86
636.999	41668.38
637.352	41761.26
637.706	41736.4
638.06	41757.87
638.413	41683.07
638.767	41642.39
639.121	41717.65
639.474	41547.48
639.828	41619.34
640.181	41625.9
640.534	41781.15
640.888	41570.08
641.241	41586.35
641.594	41679
641.947	41720.81
642.301	41537.99
642.654	41700.02
643.007	41628.38
643.36	41601.49
643.713	41594.71
644.066	41641.94
644.419	41251.9
644.771	41152.24
645.124	40761.96
645.477	40712.02
645.83	40580.5
646.182	40538.92
646.535	40227.52
646.888	40496.89
647.24	40177.8
647.593	40392.94
647.945	40573.72
648.298	40215.31
648.65	40149.33
649.002	40210.12
649.355	40345.03
649.707	40184.35
650.059	40510.9
650.411	40888.52
650.763	40916.54
651.115	41373.93
651.467	41196.53
651.819	41210.54
652.171	41166.47
652.523	41232.24
652.875	40948.85
653.227	40971.22
653.578	41210.54
653.93	40944.11
654.282	40936.65
654.633	40926.25
654.985	41001.28
655.337	41053.71
655.688	40991.79
656.039	41027.95
656.391	40839.03
656.742	40953.6
657.094	40846.71
657.445	40990.66
657.796	40899.81
658.147	40734.4
658.498	40747.28
658.849	40872.7
659.2	40822.08
659.551	40617.34
659.902	40734.62
660.253	40778.46
660.604	40820.49
660.955	40616.21
661.306	40682.19
661.656	40764.22
662.007	40645.36
662.358	40645.13
662.708	40812.13
663.059	40716.54
663.409	40476.55
663.76	40700.72
664.11	40736.43
664.461	40862.3
664.811	40886.48
665.161	40785.02
665.511	40639.71
665.862	40712.7
666.212	40738.91
666.562	40800.16
666.912	40872.92
667.262	40658.46
667.612	40634.96
667.962	40703.66
668.312	40584.79
668.662	40702.98
669.011	40665.47
669.361	40540.5
669.711	40745.24
670.06	40550.67
670.41	40524.91
670.76	40351.13
671.109	40469.32
671.459	40559.48
671.808	40341.41
672.157	40489.43
672.507	40156.11
672.856	40310.45
673.205	40356.1
673.554	40455.98
673.904	40406.04
674.253	40559.26
674.602	40360.17
674.951	39889.9
675.3	39605.39
675.649	40239.49
675.998	40172.83
676.346	40378.7
676.695	40430.22
677.044	39997.92
677.393	40144.13
677.741	40247.85
678.09	40108.42
678.438	40050.8
678.787	40265.93
679.135	40043.79
679.484	39813.29
679.832	40050.57
680.181	39712.95
680.529	39870.69
680.877	39704.14
681.225	39626.63
681.573	39913.63
681.922	39518.16
682.27	39489.46
682.618	39650.81
682.966	39420.98
683.314	39545.05
683.661	39477.25
684.009	39157.26
684.357	39152.29
684.705	39292.85
685.053	39309.12
685.4	39256.92
685.748	38971.28
686.095	39053.54
686.443	38896.03
686.79	38883.37
687.138	38848.34
687.485	38842.47
687.832	38682.25
688.18	38690.38
688.527	38568.58
688.874	38377.62
689.221	38416.04
689.568	38527
689.915	38332.2
690.262	38316.38
690.609	38251.07
690.956	38012.88
691.303	38014.24
691.65	37877.07
691.997	37892.21
692.344	37692.89
692.69	37591.2
693.037	37467.14
693.383	37330.19
693.73	37473.92
694.077	37202.74
694.423	37073.93
694.769	37064.21
695.116	37018.79
695.462	37000.48
695.808	36830.77
696.155	36793.93
696.501	36646.14
696.847	36679.13
697.193	36361.4
697.539	36586.71
697.885	36347.17
698.231	36181.75
698.577	36282.99
698.923	36111.69
699.269	36032.15
699.614	35725.04
699.96	35700.18
700.306	35798.93
700.651	35573.4
700.997	35439.17
701.342	35518.71
701.688	35334.99
702.033	35412.73
702.379	35232.17
702.724	35194.43
703.069	35216.8
703.415	34867.43
703.76	34864.72
704.105	34916.02
704.45	34684.84
704.795	34576.59
705.14	34428.12
705.485	34525.29
705.83	34386.09
706.175	34249.37
706.52	34248.46
706.865	34097.06
707.209	34189.03
707.554	34049.37
707.899	33996.72
708.243	33781.81
708.588	33755.14
708.932	33576.84
709.277	33558.09
709.621	33673.79
709.966	33406
710.31	33443.51
710.654	33166.68
710.998	33316.96
711.342	33257.53
711.687	33239.9
712.031	33054.37
712.375	32827.26
712.719	33034.26
713.063	32891.21
713.407	32956.52
713.75	32847.6
714.094	32850.31
714.438	32578.23
714.782	32620.71
715.125	32382.98
715.469	32554.95
715.812	32256.65
716.156	32109.76
716.499	32256.2
716.843	32310.44
717.186	32046.49
717.53	32188.86
717.873	32007.39
718.216	32069.09
718.559	31853.5
718.902	31788.19
719.246	31792.48
719.589	31671.81
719.932	31613.5
720.275	31570.12
720.617	31619.83
720.96	31500.06
721.303	31431.81
721.646	31450.57
721.989	31322.89
722.331	31372.61
722.674	31321.08
723.016	31412.61
723.359	31178.94
723.701	31116.12
724.044	31161.09
724.386	30876.8
724.729	31162.9
725.071	30907.99
725.413	30837.25
725.755	30828.44
726.097	30777.82
726.439	30573.08
726.782	30639.52
727.124	30789.57
727.465	30577.37
727.807	30575.79
728.149	30452.86
728.491	30499.86
728.833	30417.6
729.175	30333.31
729.516	30277.49
729.858	30308.23
730.199	30263.26
730.541	30154.33
730.882	30228.91
731.224	30194.11
731.565	29996.6
731.906	30021.91
732.248	29986.2
732.589	29943.04
732.93	29748.02
733.271	29817.39
733.612	29831.86
733.953	29780.56
734.294	29626.21
734.635	29620.34
734.976	29645.87
735.317	29670.96
735.658	29514.13
735.999	29544.18
736.339	29510.51
736.68	29529.72
737.021	29360.46
737.361	29321.59
737.702	29471.64
738.042	29471.87
738.383	29305.09
738.723	29406.56
739.063	29266.9
739.404	29256.96
739.744	29196.85
740.084	29028.49
740.424	29079.33
740.764	29024.42
741.104	29129.05
741.444	28852.45
741.784	28889.51
742.124	28894.03
742.464	28837.98
742.804	28817.19
743.143	28765.22
743.483	28749.4
743.823	28546.47
744.162	28642.51
744.502	28640.25
744.841	28466.47
745.181	28608.61
745.52	28403.42
745.86	28490.65
746.199	28423.98
746.538	28242.97
746.877	28373.14
747.216	28323.2
747.556	28284.55
747.895	28255.4
748.234	28201.39
748.573	28180.15
748.911	28115.74
749.25	27994.39
749.589	27993.71
749.928	27980.61
750.267	28010.44
750.605	27908.74
750.944	27855.41
751.283	27726.6
751.621	27892.7
751.96	27698.81
752.298	27673.27
752.636	27665.13
752.975	27557.11
753.313	27417.23
753.651	27524.35
753.989	27415.2
754.327	27353.28
754.666	27229.44
755.004	27309.44
755.342	27340.4
755.679	27181.31
756.017	27043.23
756.355	27191.02
756.693	26993.51
757.031	26993.74
757.368	26771.15
757.706	26790.35
758.044	26704.26
758.381	26880.07
758.719	26673.52
759.056	26589.68
759.394	26565.28
