Data from hue_130_FLMS001491_00018.txt Node
Date: Tue Feb 07 16:57:15 GMT 2017
User: dcchb
Spectrometer: FLMS00149
Trigger mode: 0
Integration Time (sec): 2.000000E-2
Scans to average: 10
Electric dark correction enabled: true
Nonlinearity correction enabled: false
Boxcar width: 0
XAxis mode: Wavelengths
Number of Pixels in Spectrum: 2048
>>>>>Begin Spectral Data<<<<<
341.393	-18.95
341.776	-18.95
342.16	-18.95
342.543	-72.51
342.927	-80.2
343.31	-68.44
343.693	-64.38
344.077	-80.42
344.46	-72.74
344.843	-58.5
345.226	-39.52
345.61	-30.48
345.993	-33.64
346.376	-10.59
346.759	12.01
347.142	35.51
347.525	57.43
347.908	60.37
348.291	70.53
348.674	115.28
349.057	107.6
349.44	137.88
349.823	126.58
350.206	155.73
350.588	200.93
350.971	216.07
351.354	213.81
351.737	239.34
352.119	261.94
352.502	261.72
352.884	285.67
353.267	289.06
353.65	281.15
354.032	301.94
354.414	293.13
354.797	305.78
355.179	330.19
355.562	321.6
355.944	328.61
356.326	329.74
356.709	345.78
357.091	327.48
357.473	331.77
357.855	334.71
358.238	325.67
358.62	350.3
359.002	341.26
359.384	347.36
359.766	337.19
360.148	340.13
360.53	326.35
360.912	333.8
361.294	329.06
361.676	313.47
362.057	329.29
362.439	337.87
362.821	327.03
363.203	308.27
363.584	326.35
363.966	339.68
364.348	308.72
364.729	335.61
365.111	308.27
365.493	328.16
365.874	311.43
366.256	339.45
366.637	305.78
367.019	294.03
367.4	315.5
367.781	307.14
368.163	331.09
368.544	297.87
368.925	301.94
369.306	325.9
369.688	315.5
370.069	309.17
370.45	314.82
370.831	312.79
371.212	355.5
371.593	324.99
371.974	329.51
372.355	318.89
372.736	309.85
373.117	297.42
373.498	324.99
373.879	315.73
374.26	322.28
374.641	319.79
375.021	324.09
375.402	321.83
375.783	332
376.163	338.32
376.544	313.92
376.925	320.7
377.305	340.81
377.686	312.79
378.066	332.9
378.447	322.05
378.827	339
379.208	325.22
379.588	329.06
379.968	357.08
380.349	352.79
380.729	332.9
381.109	321.83
381.489	344.65
381.87	336.74
382.25	346.01
382.63	342.84
383.01	347.14
383.39	352.11
383.77	351.88
384.15	346.91
384.53	358.44
384.91	356.63
385.29	340.58
385.67	367.02
386.049	365.67
386.429	360.02
386.809	353.47
387.189	327.93
387.568	347.36
387.948	366.12
388.328	374.03
388.707	355.95
389.087	366.12
389.466	376.74
389.846	378.55
390.225	354.82
390.605	369.74
390.984	353.24
391.363	368.61
391.743	375.16
392.122	368.61
392.501	355.27
392.881	376.74
393.26	355.73
393.639	392.11
394.018	370.41
394.397	368.61
394.776	372.22
395.155	383.07
395.534	391.43
395.913	388.04
396.292	375.84
396.671	372.67
397.05	390.75
397.429	367.7
397.808	384.88
398.186	385.78
398.565	393.01
398.944	404.99
399.323	401.15
399.701	388.72
400.08	387.14
400.458	397.08
400.837	413.58
401.215	395.5
401.594	402.28
401.972	399.11
402.351	416.97
402.729	423.97
403.107	418.32
403.486	421.49
403.864	397.31
404.242	440.02
404.62	416.06
404.999	419
405.377	411.09
405.755	432.33
406.133	433.24
406.511	443.18
406.889	417.42
407.267	419
407.645	441.82
408.023	434.82
408.401	456.97
408.779	455.84
409.156	463.52
409.534	456.97
409.912	452.9
410.29	457.64
410.667	454.25
411.045	454.48
411.422	463.29
411.8	443.18
412.178	467.13
412.555	459
412.933	474.82
413.31	489.28
413.687	490.18
414.065	476.63
414.442	514.82
414.819	500.13
415.197	476.63
415.574	499.45
415.951	487.47
416.328	521.6
416.705	508.72
417.082	473.01
417.46	506.23
417.837	488.83
418.214	512.56
418.591	507.36
418.967	510.98
419.344	509.39
419.721	523.86
420.098	513.46
420.475	507.81
420.852	514.82
421.228	546.23
421.605	551.65
421.982	529.51
422.358	522.27
422.735	536.51
423.111	558.88
423.488	567.02
423.864	556.17
424.241	553.91
424.617	575.38
424.994	550.97
425.37	568.83
425.746	581.93
426.123	572.44
426.499	602.5
426.875	594.81
427.251	587.36
427.627	606.34
428.003	611.99
428.379	598.88
428.756	630.97
429.132	599.56
429.507	618.32
429.883	624.42
430.259	640.46
430.635	634.36
431.011	626
431.387	617.64
431.763	655.6
432.138	666.23
432.514	658.77
432.89	683.85
433.265	666.68
433.641	663.74
434.016	701.93
434.392	684.3
434.767	682.95
435.143	686.56
435.518	709.84
435.894	697.41
436.269	713
436.644	709.16
437.02	724.98
437.395	742.61
437.77	759.1
438.145	767.01
438.52	752.1
438.895	754.81
439.271	753
439.646	766.56
440.021	789.39
440.395	769.95
440.77	777.63
441.145	787.35
441.52	787.13
441.895	800.69
442.27	797.52
442.645	791.65
443.019	814.92
443.394	802.04
443.769	818.54
444.143	820.57
444.518	813.57
444.892	833
445.267	821.02
445.641	851.08
446.016	835.71
446.39	863.51
446.764	844.98
447.139	847.01
447.513	882.49
447.887	870.29
448.262	879.1
448.636	871.87
449.01	881.36
449.384	915.71
449.758	895.15
450.132	909.16
450.506	900.34
450.88	911.42
451.254	928.37
451.628	951.64
452.002	954.58
452.376	962.71
452.75	958.65
453.123	963.39
453.497	953.9
453.871	983.28
454.244	1001.36
454.618	997.29
454.992	1002.49
455.365	1014.46
455.739	1058.76
456.112	1061.47
456.486	1069.6
456.859	1054.01
457.232	1085.65
457.606	1103.5
457.979	1110.96
458.352	1118.64
458.725	1127.91
459.099	1154.57
459.472	1143.05
459.845	1169.26
460.218	1181.92
460.591	1174.01
460.964	1211.3
461.337	1209.94
461.71	1215.82
462.083	1207.68
462.456	1291.07
462.829	1250.84
463.201	1328.35
463.574	1283.38
463.947	1319.99
464.32	1333.33
464.692	1352.08
465.065	1382.14
465.438	1387.11
465.81	1380.56
466.183	1398.64
466.555	1450.61
466.928	1481.8
467.3	1485.19
467.672	1467.79
468.045	1529.93
468.417	1549.37
468.789	1580.55
469.161	1604.28
469.534	1659.42
469.906	1658.74
470.278	1690.15
470.65	1697.16
471.022	1764.95
471.394	1781.9
471.766	1785.97
472.138	1847.89
472.51	1879.98
472.882	1938.73
473.253	1957.94
473.625	1970.37
473.997	2035.45
474.369	2065.06
474.74	2108.45
475.112	2146.64
475.484	2213.76
475.855	2247.88
476.227	2305.96
476.598	2403.35
476.97	2424.82
477.341	2462.34
477.713	2559.96
478.084	2590.02
478.455	2696.23
478.827	2761.54
479.198	2810.58
479.569	2903.68
479.94	2997.46
480.311	3028.2
480.682	3143.67
481.053	3232.71
481.424	3305.7
481.795	3418.47
482.166	3467.28
482.537	3606.49
482.908	3655.07
483.279	3782.3
483.65	3871.79
484.021	4001.28
484.391	4077.66
484.762	4161.27
485.133	4252.12
485.503	4365.79
485.874	4513.36
486.244	4572.11
486.615	4696.4
486.985	4846.68
487.356	4975.49
487.726	5091.65
488.097	5285.09
488.467	5282.15
488.837	5461.81
489.207	5644.63
489.578	5732.08
489.948	5832.87
490.318	5992.87
490.688	6125.06
491.058	6248.45
491.428	6382.91
491.798	6503.13
492.168	6704.71
492.538	6793.52
492.908	7006.85
493.278	7085.27
493.648	7193.06
494.017	7340.63
494.387	7445.48
494.757	7557.8
495.126	7696.55
495.496	7798.69
495.866	7955.98
496.235	8152.36
496.605	8283.2
496.974	8298.34
497.344	8458.56
497.713	8528.62
498.082	8680.7
498.452	8822.85
498.821	8843.64
499.19	8977.42
499.559	9102.84
499.928	9221.03
500.298	9306.9
500.667	9483.62
501.036	9475.49
501.405	9576.05
501.774	9662.37
502.143	9795.93
502.512	9844.97
502.88	10017.17
503.249	10005.64
503.618	10195.92
503.987	10218.74
504.356	10292.19
504.724	10353.88
505.093	10433.2
505.462	10510.03
505.83	10619.18
506.199	10705.51
506.567	10854.66
506.936	10887.65
507.304	11024.82
507.672	11084.03
508.041	11173.29
508.409	11220.3
508.777	11351.14
509.145	11394.76
509.514	11390.46
509.882	11495.32
510.25	11487.41
510.618	11516.79
510.986	11611.25
511.354	11738.7
511.722	11810.79
512.09	11939.83
512.458	11913.16
512.826	11942.31
513.193	12000.16
513.561	12026.15
513.929	12115.19
514.297	12220.72
514.664	12312.47
515.032	12295.07
515.4	12402.41
515.767	12373.94
516.135	12516.08
516.502	12380.27
516.869	12515.63
517.237	12479.47
517.604	12511.34
517.972	12666.59
518.339	12641.73
518.706	12697.55
519.073	12665.46
519.44	12795.4
519.808	12851.67
520.175	12802.18
520.542	12991.1
520.909	13040.36
521.276	12932.12
521.643	13083.75
522.009	13050.08
522.376	13109.97
522.743	13172.11
523.11	13179.57
523.477	13223.86
523.843	13245.56
524.21	13306.12
524.577	13411.43
524.943	13414.36
525.31	13427.7
525.676	13586.34
526.043	13553.34
526.409	13535.27
526.776	13613.46
527.142	13632.21
527.508	13647.35
527.874	13683.06
528.241	13685.09
528.607	13634.25
528.973	13747.92
529.339	13725.77
529.705	13793.79
530.071	13780.91
530.437	13832.88
530.803	13774.13
531.169	13792.21
531.535	13717.86
531.901	13721.7
532.267	13764.86
532.632	13789.72
532.998	13781.81
533.364	13828.14
533.73	13796.05
534.095	13823.39
534.461	13791.98
534.826	13838.99
535.192	13843.73
535.557	13837.63
535.923	13755.82
536.288	13711.08
536.653	13756.73
537.019	13616.85
537.384	13667.69
537.749	13637.86
538.114	13658.2
538.479	13594.93
538.845	13539.11
539.21	13452.56
539.575	13515.61
539.94	13476.96
540.305	13473.12
540.67	13486.91
541.034	13412.78
541.399	13521.25
541.764	13403.29
542.129	13374.37
542.494	13384.76
542.858	13334.59
543.223	13300.24
543.587	13310.19
543.952	13274.03
544.316	13186.12
544.681	13132.11
545.045	13190.64
545.41	13160.13
545.774	13110.42
546.138	13050.53
546.503	13077.42
546.867	12925.79
547.231	13013.7
547.595	12966.02
547.959	13020.7
548.324	12915.85
548.688	12947.48
549.052	12907.49
549.416	12804.66
549.779	12855.06
550.143	12816.64
550.507	12788.17
550.871	12747.94
551.235	12701.84
551.599	12690.09
551.962	12688.28
552.326	12668.62
552.689	12709.07
553.053	12632.46
553.417	12501.85
553.78	12711.33
554.143	12504.78
554.507	12495.74
554.87	12536.65
555.234	12628.4
555.597	12534.84
555.96	12531
556.323	12539.36
556.686	12392.24
557.05	12533.94
557.413	12448.29
557.776	12459.81
558.139	12462.3
558.502	12470.66
558.865	12403.54
559.228	12401.28
559.59	12416.2
559.953	12432.92
560.316	12505.91
560.679	12388.18
561.041	12492.81
561.404	12483.99
561.767	12576.19
562.129	12398.35
562.492	12486.93
562.854	12447.61
563.217	12458.01
563.579	12451.68
563.941	12516.31
564.304	12597.89
564.666	12570.55
565.028	12513.15
565.39	12542.07
565.753	12604.89
566.115	12627.04
566.477	12656.42
566.839	12615.29
567.201	12703.65
567.563	12634.27
567.925	12639.92
568.287	12615.29
568.648	12664.33
569.01	12690.77
569.372	12786.13
569.734	12697.32
570.095	12794.49
570.457	12781.61
570.819	12694.84
571.18	12710.43
571.542	12803.08
571.903	12817.54
572.265	12831.33
572.626	12817.54
572.987	12850.09
573.349	12796.08
573.71	12923.3
574.071	12851.89
574.432	12895.28
574.794	13000.59
575.155	12941.61
575.516	12884.44
575.877	12918.56
576.238	12948.84
576.599	12967.37
576.96	12945.68
577.32	12997.43
577.681	12965.79
578.042	12917.2
578.403	12962.63
578.763	12981.83
579.124	12923.76
579.485	13041.95
579.845	13068.61
580.206	12894.15
580.566	12950.42
580.927	12949.52
581.287	12959.46
581.648	12947.26
582.008	12977.09
582.368	12981.83
582.728	12946.81
583.089	12992.23
583.449	12940.48
583.809	12952
584.169	12928.28
584.529	12880.14
584.889	12982.51
585.249	12888.28
585.609	12813.25
585.969	13018.67
586.329	12879.92
586.688	12929.86
587.048	12898.67
587.408	12849.86
587.768	12871.78
588.127	12833.59
588.487	12879.24
588.846	12977.77
589.206	12719.69
589.565	12713.14
589.925	12787.71
590.284	12768.51
590.643	12776.87
591.003	12885.11
591.362	12848.96
591.721	12786.13
592.08	12802.86
592.44	12870.65
592.799	12822.74
593.158	12759.01
593.517	12758.79
593.876	12818.45
594.235	12670.43
594.593	12671.11
594.952	12705.68
595.311	12712.46
595.67	12757.21
596.029	12770.99
596.387	12699.13
596.746	12804.21
597.104	12760.14
597.463	12720.6
597.822	12696.64
598.18	12710.88
598.538	12713.59
598.897	12756.3
599.255	12654.84
599.613	12825.91
599.972	12709.52
600.33	12764.21
600.688	12659.81
601.046	12703.2
601.404	12788.84
601.762	12669.53
602.12	12732.57
602.478	12710.43
602.836	12688.51
603.194	12687.38
603.552	12686.7
603.91	12682.63
604.268	12721.95
604.625	12683.76
604.983	12690.99
605.341	12641.05
605.698	12686.47
606.056	12729.86
606.413	12778.9
606.771	12693.25
607.128	12683.76
607.485	12683.08
607.843	12666.81
608.2	12795.85
608.557	12754.95
608.914	12758.79
609.272	12846.7
609.629	12786.13
609.986	12913.81
610.343	12758.56
610.7	12897.09
611.057	12868.16
611.414	12795.17
611.771	12849.63
612.127	12871.55
612.484	12890.99
612.841	12901.38
613.198	12775.96
613.554	12774.16
613.911	12944.55
614.267	12960.82
614.624	12881.27
614.98	12912.46
615.337	12969.86
615.693	13023.87
616.05	12985.22
616.406	13022.74
616.762	13016.18
617.118	13024.32
617.475	13034.49
617.831	13048.95
618.187	13048.95
618.543	12986.81
618.899	13161.94
619.255	13073.81
619.611	12978.44
619.967	13100.25
620.323	13056.18
620.678	13116.07
621.034	13010.76
621.39	13002.62
621.746	13052.79
622.101	13166.91
622.457	13090.08
622.812	13118.55
623.168	13151.55
623.523	13137.76
623.879	13162.39
624.234	13056.18
624.589	13146.12
624.945	13091.66
625.3	13141.6
625.655	13176.18
626.01	13039.69
626.365	13171.21
626.72	13090.98
627.075	13092.79
627.43	13134.6
627.785	12989.07
628.14	13125.78
628.495	13117.42
628.85	13055.28
629.205	13013.02
629.559	13092.79
629.914	13106.12
630.269	13016.64
630.623	13063.19
630.978	13065.67
631.332	13026.13
631.687	13045.79
632.041	12926.92
632.396	12950.2
632.75	12929.41
633.104	12960.82
633.459	12904.55
633.813	12867.71
634.167	12886.92
634.521	12842.18
634.875	12906.81
635.229	12819.8
635.583	12841.27
635.937	12821.16
636.291	12859.58
636.645	12816.87
636.999	12724.21
637.352	12768.96
637.706	12675.85
638.06	12692.8
638.413	12689.86
638.767	12679.02
639.121	12749.75
639.474	12658.68
639.828	12582.52
640.181	12687.38
640.534	12654.16
640.888	12610.09
641.241	12580.26
641.594	12567.38
641.947	12618.45
642.301	12673.37
642.654	12644.22
643.007	12585.46
643.36	12593.82
643.713	12476.99
644.066	12558.12
644.419	12522.86
644.771	12450.77
645.124	12420.04
645.477	12308.18
645.83	12273.6
646.182	12190.67
646.535	12125.13
646.888	12179.82
647.24	12081.74
647.593	12192.7
647.945	12159.93
648.298	12089.88
648.65	12047.4
649.002	12059.15
649.355	12141.4
649.707	12091.46
650.059	12143.21
650.411	12276.54
650.763	12295.52
651.115	12400.38
651.467	12346.14
651.819	12324.22
652.171	12465.92
652.523	12368.29
652.875	12321.96
653.227	12304.56
653.578	12366.93
653.93	12364
654.282	12371
654.633	12380.27
654.985	12308.63
655.337	12322.42
655.688	12413.49
656.039	12395.86
656.391	12314.28
656.742	12382.75
657.094	12351.12
657.445	12356.31
657.796	12419.81
658.147	12378.69
658.498	12297.56
658.849	12437.44
659.2	12369.19
659.551	12348.63
659.902	12404.9
660.253	12365.58
660.604	12391.34
660.955	12291.46
661.306	12391.34
661.656	12404
662.007	12405.35
662.358	12372.58
662.708	12408.74
663.059	12453.03
663.409	12321.51
663.76	12493.94
664.11	12441.96
664.461	12459.14
664.811	12419.36
665.161	12391.34
665.511	12391.34
665.862	12491.68
666.212	12490.32
666.562	12445.12
666.912	12414.39
667.262	12422.07
667.612	12463.2
667.962	12383.66
668.312	12469.3
668.662	12442.86
669.011	12391.34
669.361	12433.83
669.711	12360.61
670.06	12401.96
670.41	12350.44
670.76	12370.32
671.109	12360.61
671.459	12412.36
671.808	12282.64
672.157	12333.26
672.507	12291.91
672.856	12329.42
673.205	12358.8
673.554	12307.73
673.904	12288.29
674.253	12348.86
674.602	12300.04
674.951	12157.67
675.3	12094.85
675.649	12248.07
675.998	12272.25
676.346	12244
676.695	12313.15
677.044	12216.2
677.393	12165.36
677.741	12175.98
678.09	12249.65
678.438	12178.69
678.787	12153.38
679.135	12218.24
679.484	12054.17
679.832	12058.02
680.181	12003.78
680.529	12055.3
680.877	12057.11
681.225	12056.43
681.573	12027.51
681.922	11918.13
682.27	11960.62
682.618	11931.69
682.966	11877
683.314	11915.42
683.661	11825.25
684.009	11739.61
684.357	11718.82
684.705	11776.22
685.053	11794.29
685.4	11718.59
685.748	11647.86
686.095	11673.85
686.443	11651.02
686.79	11637.24
687.138	11663.9
687.485	11680.85
687.832	11579.38
688.18	11536.9
688.527	11484.7
688.874	11481.76
689.221	11498.93
689.568	11446.05
689.915	11455.32
690.262	11362.22
690.609	11403.34
690.956	11275.44
691.303	11245.83
691.65	11307.98
691.997	11212.16
692.344	11139.62
692.69	11160.64
693.037	11110.7
693.383	11064.37
693.73	10989.57
694.077	10951.15
694.423	10916.35
694.769	10877.26
695.116	10909.35
695.462	10893.08
695.808	10809.46
696.155	10894.88
696.501	10712.74
696.847	10741.67
697.193	10625.29
697.539	10690.37
697.885	10655.57
698.231	10602.24
698.577	10544.61
698.923	10483.82
699.269	10504.84
699.614	10404.05
699.96	10365.63
700.306	10491.28
700.651	10344.62
700.997	10308.46
701.342	10281.34
701.688	10207.44
702.033	10223.94
702.379	10207.67
702.724	10140.78
703.069	10138.07
703.415	10052.42
703.76	10119.31
704.105	10050.16
704.45	9976.04
704.795	9901.69
705.14	9950.5
705.485	9881.8
705.83	9846.77
706.175	9862.82
706.52	9792.09
706.865	9764.74
707.209	9797.51
707.554	9636.84
707.899	9753.67
708.243	9633.67
708.588	9625.99
708.932	9623.28
709.277	9557.74
709.621	9522.26
709.966	9536.27
710.31	9559.1
710.654	9430.97
710.998	9397.75
711.342	9450.63
711.687	9330.4
712.031	9338.31
712.375	9274.36
712.719	9324.53
713.063	9334.02
713.407	9273
713.75	9236.62
714.094	9235.94
714.438	9237.3
714.782	9224.64
715.125	9179
715.469	9179.9
715.812	9185.32
716.156	9067.59
716.499	9096.74
716.843	9109.62
717.186	9050.64
717.53	9111.2
717.873	9107.36
718.216	9090.18
718.559	9040.69
718.902	8965.44
719.246	9023.07
719.589	9013.58
719.932	8894.48
720.275	8952.79
720.617	8947.59
720.96	8932.9
721.303	8913.24
721.646	8888.61
721.989	8882.28
722.331	8929.96
722.674	8817.65
723.016	8866.91
723.359	8837.08
723.701	8909.62
724.044	8852.9
724.386	8816.07
724.729	8819.68
725.071	8803.19
725.413	8821.27
725.755	8752.79
726.097	8768.84
726.439	8715.05
726.782	8676.86
727.124	8808.61
727.465	8797.31
727.807	8746.46
728.149	8723.19
728.491	8744.43
728.833	8759.12
729.175	8699.91
729.516	8696.07
729.858	8726.35
730.199	8723.64
730.541	8655.39
730.882	8747.82
731.224	8681.83
731.565	8655.85
731.906	8688.61
732.248	8764.77
732.589	8603.42
732.93	8647.48
733.271	8579.01
733.612	8671.21
733.953	8615.62
734.294	8700.59
734.635	8661.72
734.976	8692.91
735.317	8604.32
735.658	8633.7
735.999	8592.12
736.339	8659.01
736.68	8687.26
737.021	8726.8
737.361	8658.33
737.702	8710.31
738.042	8684.77
738.383	8676.41
738.723	8608.16
739.063	8704.66
739.404	8732.68
739.744	8719.8
740.084	8669.4
740.424	8752.57
740.764	8725
741.104	8745.34
741.444	8721.15
741.784	8805.45
742.124	8825.33
742.464	8753.47
742.804	8774.26
743.143	8856.97
743.483	8846.12
743.823	8860.59
744.162	8827.82
744.502	8910.3
744.841	8890.64
745.181	8918.89
745.52	8982.62
745.86	9069.85
746.199	9051.32
746.538	9104.2
746.877	9155.95
747.216	9206.79
747.556	9219.45
747.895	9228.49
748.234	9364.75
748.573	9330.18
748.911	9471.42
749.25	9499.67
749.589	9510.06
749.928	9600.23
750.267	9606.78
750.605	9769.49
750.944	9740.56
751.283	9844.97
751.621	9920.67
751.96	10030.27
752.298	10133.1
752.636	10190.04
752.975	10286.99
753.313	10362.69
753.651	10495.35
753.989	10597.94
754.327	10630.71
754.666	10751.61
755.004	10941.44
755.342	11056.46
755.679	11050.59
756.017	11185.04
756.355	11398.15
756.693	11440.63
757.031	11613.51
757.368	11745.03
757.706	11913.16
758.044	12045.14
758.381	12185.02
758.719	12329.87
759.056	12606.25
759.394	12656.19
