Data from hue_130_FLMS001491_00099.txt Node
Date: Tue Feb 07 16:58:22 GMT 2017
User: dcchb
Spectrometer: FLMS00149
Trigger mode: 0
Integration Time (sec): 2.000000E-2
Scans to average: 10
Electric dark correction enabled: true
Nonlinearity correction enabled: false
Boxcar width: 0
XAxis mode: Wavelengths
Number of Pixels in Spectrum: 2048
>>>>>Begin Spectral Data<<<<<
341.393	-10.49
341.776	-10.49
342.16	-10.49
342.543	-57.95
342.927	-62.7
343.31	-63.15
343.693	-67.22
344.077	-70.38
344.46	-52.98
344.843	-61.11
345.226	-38.52
345.61	-26.31
345.993	-21.79
346.376	4.19
346.759	20.24
347.142	30.86
347.525	35.15
347.908	36.28
348.291	54.81
348.674	106.56
349.057	113.34
349.44	131.88
349.823	148.37
350.206	158.32
350.588	192.89
350.971	197.64
351.354	233.57
351.737	238.09
352.119	264.75
352.502	259.1
352.884	254.81
353.267	279.22
353.65	313.57
354.032	292.55
354.414	281.7
354.797	317.63
355.179	327.8
355.562	323.96
355.944	323.06
356.326	334.36
356.709	337.75
357.091	348.59
357.473	333.45
357.855	332.1
358.238	357.41
358.62	369.61
359.002	367.58
359.384	338.2
359.766	342.94
360.148	358.99
360.53	318.08
360.912	318.54
361.294	325.09
361.676	320.57
362.057	325.77
362.439	336.16
362.821	342.94
363.203	325.54
363.584	324.64
363.966	328.03
364.348	332.32
364.729	310.4
365.111	318.54
365.493	323.06
365.874	306.11
366.256	323.06
366.637	330.74
367.019	305.66
367.4	324.86
367.781	305.88
368.163	314.7
368.544	295.71
368.925	313.11
369.306	303.85
369.688	303.85
370.069	321.7
370.45	319.21
370.831	300.46
371.212	312.66
371.593	314.47
371.974	315.37
372.355	324.64
372.736	302.94
373.117	314.47
373.498	321.47
373.879	308.14
374.26	288.26
374.641	311.08
375.021	306.56
375.402	309.27
375.783	316.5
376.163	313.34
376.544	334.13
376.925	310.85
377.305	321.47
377.686	334.13
378.066	306.56
378.447	335.03
378.827	334.13
379.208	328.93
379.588	335.94
379.968	328.48
380.349	331.87
380.729	346.56
381.109	335.26
381.489	313.34
381.87	316.95
382.25	341.14
382.63	339.55
383.01	356.73
383.39	337.52
383.77	337.97
384.15	343.62
384.53	332.77
384.91	344.52
385.29	347.91
385.67	337.75
386.049	357.63
386.429	347.91
386.809	339.1
387.189	341.81
387.568	348.37
387.948	327.8
388.328	353.34
388.707	352.89
389.087	343.39
389.466	376.16
389.846	366.22
390.225	354.69
390.605	348.14
390.984	359.44
391.363	347.24
391.743	365.32
392.122	376.84
392.501	365.32
392.881	371.87
393.26	356.5
393.639	390.85
394.018	355.82
394.397	379.33
394.776	375.71
395.155	387.46
395.534	390.17
395.913	365.32
396.292	396.5
396.671	397.18
397.05	395.14
397.429	381.36
397.808	377.29
398.186	399.44
398.565	387.91
398.944	400.12
399.323	369.83
399.701	386.78
400.08	368.48
400.458	403.51
400.837	393.79
401.215	400.79
401.594	398.31
401.972	393.56
402.351	421.13
402.729	384.98
403.107	419.33
403.486	410.96
403.864	393.34
404.242	399.66
404.62	416.39
404.999	413.9
405.377	432.21
405.755	413.45
406.133	374.35
406.511	427.01
406.889	404.86
407.267	426.1
407.645	440.57
408.023	446.44
408.401	437.18
408.779	427.91
409.156	439.66
409.534	438.31
409.912	439.66
410.29	415.71
410.667	451.19
411.045	453.22
411.422	448.02
411.8	466.33
412.178	444.64
412.555	469.95
412.933	471.08
413.31	475.37
413.687	484.18
414.065	479.44
414.442	460.91
414.819	488.48
415.197	476.95
415.574	473.56
415.951	500.45
416.328	473.34
416.705	474.01
417.082	488.25
417.46	480.57
417.837	490.74
418.214	499.1
418.591	496.84
418.967	511.98
419.344	508.59
419.721	485.31
420.098	490.28
420.475	509.04
420.852	526.89
421.228	517.85
421.605	538.42
421.982	516.95
422.358	511.98
422.735	525.31
423.111	524.18
423.488	548.59
423.864	542.94
424.241	538.64
424.617	543.84
424.994	530.73
425.37	554.24
425.746	550.62
426.123	561.47
426.499	550.62
426.875	557.85
427.251	564.63
427.627	565.54
428.003	584.29
428.379	598.98
428.756	568.7
429.132	606.21
429.507	599.43
429.883	589.49
430.259	610.28
430.635	613.44
431.011	618.87
431.387	625.2
431.763	632.88
432.138	612.99
432.514	654.57
432.89	638.53
433.265	629.72
433.641	645.76
434.016	650.96
434.392	658.19
434.767	671.3
435.143	647.34
435.518	668.58
435.894	676.27
436.269	678.75
436.644	664.97
437.02	686.21
437.395	696.38
437.77	680.79
438.145	702.48
438.52	694.8
438.895	696.15
439.271	722.82
439.646	732.76
440.021	738.19
440.395	725.08
440.77	725.98
441.145	745.19
441.52	733.22
441.895	744.74
442.27	781.8
442.645	742.25
443.019	770.05
443.394	758.98
443.769	780.22
444.143	748.58
444.518	778.64
444.892	801.91
445.267	803.27
445.641	798.3
446.016	768.47
446.39	799.65
446.764	822.93
447.139	809.15
447.513	831.74
447.887	845.3
448.262	834.46
448.636	827.68
449.01	824.06
449.384	828.81
449.758	832.65
450.132	841.46
450.506	848.47
450.88	862.03
451.254	884.17
451.628	889.82
452.002	908.58
452.376	884.85
452.75	893.44
453.123	920.33
453.497	923.49
453.871	935.92
454.244	928.92
454.618	914.91
454.992	945.41
455.365	957.84
455.739	967.79
456.112	987.9
456.486	983.6
456.859	988.58
457.232	984.96
457.606	1027.67
457.979	1009.37
458.352	1037.61
458.725	1080.55
459.099	1058.18
459.472	1066.09
459.845	1078.74
460.218	1106.09
460.591	1109.93
460.964	1107.44
461.337	1147.67
461.71	1136.14
462.083	1168.46
462.456	1177.95
462.829	1188.8
463.201	1187.44
463.574	1200.1
463.947	1261.11
464.32	1265.63
464.692	1235.8
465.065	1270.15
465.438	1299.3
465.81	1326.42
466.183	1350.6
466.555	1330.94
466.928	1370.94
467.3	1380.88
467.672	1388.57
468.045	1449.58
468.417	1430.6
468.789	1441.45
469.161	1490.03
469.534	1513.76
469.906	1530.03
470.278	1532.74
470.65	1573.87
471.022	1588.11
471.394	1655.22
471.766	1671.04
472.138	1695.45
472.51	1715.34
472.882	1795.33
473.253	1822.9
473.625	1852.06
473.997	1915.33
474.369	1942.67
474.74	1965.27
475.112	2012.5
475.484	2055.67
475.855	2118.72
476.227	2148.77
476.598	2218.83
476.97	2280.29
477.341	2339.73
477.713	2380.63
478.084	2406.39
478.455	2519.61
478.827	2553.28
479.198	2633.5
479.569	2675.76
479.94	2777.91
480.311	2818.81
480.682	2949.65
481.053	3002.53
481.424	3091.57
481.795	3136.99
482.166	3231
482.537	3304.45
482.908	3414.95
483.279	3500.15
483.65	3601.39
484.021	3757.09
484.391	3784.21
484.762	3879.35
485.133	3989.85
485.503	4102.39
485.874	4219.68
486.244	4324.53
486.615	4439.78
486.985	4555.94
487.356	4681.81
487.726	4745.09
488.097	4884.97
488.467	4978.08
488.837	5169.26
489.207	5312.08
489.578	5447.89
489.948	5582.13
490.318	5682.46
490.688	5744.61
491.058	5868.45
491.428	6035.45
491.798	6164.03
492.168	6397.25
492.538	6438.15
492.908	6517.92
493.278	6747.07
493.648	6769.67
494.017	6975.31
494.387	7064.57
494.757	7199.26
495.126	7320.16
495.496	7405.36
495.866	7556.31
496.235	7671.79
496.605	7786.36
496.974	7888.96
497.344	8043.31
497.713	8170.53
498.082	8201.72
498.452	8406.46
498.821	8469.28
499.19	8525.78
499.559	8710.41
499.928	8787.24
500.298	8898.88
500.667	9018.65
501.036	9036.27
501.405	9168.7
501.774	9266.55
502.143	9353.55
502.512	9406.21
502.88	9538.63
503.249	9603.04
503.618	9719.65
503.987	9752.19
504.356	9831.73
504.724	9946.08
505.093	9988.11
505.462	10051.84
505.83	10201.44
506.199	10295.9
506.567	10369.35
506.936	10385.84
507.304	10539.51
507.672	10579.06
508.041	10646.85
508.409	10705.61
508.777	10814.31
509.145	10897.92
509.514	10885.26
509.882	11018.37
510.25	11075.09
510.618	11057.69
510.986	11158.25
511.354	11227.4
511.722	11296.78
512.09	11386.27
512.458	11364.8
512.826	11457
513.193	11456.55
513.561	11480.5
513.929	11637.79
514.297	11614.29
514.664	11716.66
515.032	11784.22
515.4	11788.29
515.767	11776.54
516.135	11889.31
516.502	11738.35
516.869	11961.17
517.237	11925.92
517.604	11944.9
517.972	12015.86
518.339	12068.51
518.706	12096.31
519.073	12137.89
519.44	12187.83
519.808	12293.14
520.175	12214.27
520.542	12364.1
520.909	12340.82
521.276	12308.73
521.643	12398.9
522.009	12490.65
522.376	12494.26
522.743	12469.18
523.11	12576.07
523.477	12608.16
523.843	12667.14
524.21	12766.57
524.577	12700.13
524.943	12731.77
525.31	12731.09
525.676	12774.48
526.043	12765.44
526.409	12880.01
526.776	12914.14
527.142	12878.43
527.508	12875.27
527.874	12882.27
528.241	12961.59
528.607	12804.76
528.973	12976.74
529.339	12937.64
529.705	13009.05
530.071	12973.57
530.437	13066.68
530.803	13046.79
531.169	13051.99
531.535	12993.23
531.901	12946.68
532.267	13054.02
532.632	13086.56
532.998	13000.92
533.364	12948.26
533.73	12971.31
534.095	13011.54
534.461	13016.96
534.826	13003.18
535.192	12916.4
535.557	12970.41
535.923	12953.68
536.288	12923.63
536.653	12924.08
537.019	12823.74
537.384	12807.93
537.749	12809.28
538.114	12837.76
538.479	12735.84
538.845	12765.67
539.21	12725.89
539.575	12694.26
539.94	12714.6
540.305	12637.31
540.67	12644.54
541.034	12609.06
541.399	12622.62
541.764	12534.94
542.129	12523.41
542.494	12509.63
542.858	12532.9
543.223	12420.37
543.587	12402.51
543.952	12372.91
544.316	12333.36
544.681	12290.2
545.045	12321.39
545.41	12322.51
545.774	12294.49
546.138	12182.86
546.503	12146.93
546.867	12064.67
547.231	12207.94
547.595	12181.5
547.959	12147.15
548.324	12040.94
548.688	12008.85
549.052	12022.18
549.416	11981.06
549.779	11915.97
550.143	11926.37
550.507	11958.23
550.871	11925.46
551.235	11818.57
551.599	11802.75
551.962	11821.74
552.326	11751
552.689	11868.06
553.053	11683.89
553.417	11649.54
553.78	11803.43
554.143	11688.63
554.507	11721.17
554.87	11635.75
555.234	11763.66
555.597	11602.76
555.96	11593.72
556.323	11627.17
556.686	11503.55
557.05	11517.79
557.413	11626.26
557.776	11511.91
558.139	11576.32
558.502	11475.76
558.865	11598.47
559.228	11581.07
559.59	11495.87
559.953	11531.35
560.316	11540.39
560.679	11529.99
561.041	11582.2
561.404	11490.22
561.767	11583.1
562.129	11507.85
562.492	11563.89
562.854	11494.51
563.217	11508.98
563.579	11526.6
563.941	11551.91
564.304	11579.48
564.666	11544
565.028	11572.7
565.39	11555.08
565.753	11555.76
566.115	11645.7
566.477	11632.36
566.839	11617.22
567.201	11722.53
567.563	11666.94
567.925	11736.54
568.287	11659.03
568.648	11657.9
569.01	11704.45
569.372	11702.87
569.734	11667.84
570.095	11736.54
570.457	11735.41
570.819	11764.79
571.18	11708.97
571.542	11777.67
571.903	11774.28
572.265	11803.66
572.626	11746.03
572.987	11799.59
573.349	11792.81
573.71	11824
574.071	11873.94
574.432	11865.58
574.794	11888.18
575.155	11918.01
575.516	11845.92
575.877	11856.09
576.238	11912.36
576.599	11894.05
576.96	11848.4
577.32	11979.47
577.681	11969.53
578.042	11993.03
578.403	11871
578.763	11926.82
579.124	11886.37
579.485	11947.61
579.845	12066.25
580.206	11874.39
580.566	11965.01
580.927	11919.36
581.287	11913.03
581.648	11926.82
582.008	11887.05
582.368	11941.51
582.728	11978.57
583.089	11848.63
583.449	11948.51
583.809	11950.55
584.169	11853.15
584.529	11879.36
584.889	11988.06
585.249	11831.91
585.609	11758.91
585.969	11881.85
586.329	11786.03
586.688	11861.74
587.048	11833.04
587.408	11748.74
587.768	11785.35
588.127	11838.69
588.487	11757.33
588.846	11822.19
589.206	11745.13
589.565	11675.98
589.925	11858.12
590.284	11715.53
590.643	11773.15
591.003	11754.85
591.362	11719.37
591.721	11782.42
592.08	11738.12
592.44	11763.89
592.799	11680.72
593.158	11706.49
593.517	11781.74
593.876	11681.18
594.235	11666.94
594.593	11712.14
594.952	11714.62
595.311	11597.34
595.67	11712.36
596.029	11657.45
596.387	11674.85
596.746	11753.72
597.104	11658.13
597.463	11653.61
597.822	11708.52
598.18	11634.4
598.538	11620.61
598.897	11679.59
599.255	11566.6
599.613	11795.75
599.972	11600.73
600.33	11579.71
600.688	11635.08
601.046	11628.75
601.404	11755.07
601.762	11684.79
602.12	11673.72
602.478	11691.57
602.836	11701.51
603.194	11647.28
603.552	11699.03
603.91	11608.18
604.268	11606.38
604.625	11546.72
604.983	11694.96
605.341	11582.2
605.698	11674.4
606.056	11726.6
606.413	11621.97
606.771	11598.01
607.128	11651.35
607.485	11665.58
607.843	11642.53
608.2	11683.89
608.557	11694.96
608.914	11654.96
609.272	11736.32
609.629	11741.29
609.986	11745.58
610.343	11727.95
610.7	11753.49
611.057	11795.3
611.414	11751.91
611.771	11726.6
612.127	11840.04
612.484	11816.77
612.841	11790.55
613.198	11831
613.554	11741.51
613.911	11866.93
614.267	11755.75
614.624	11810.89
614.98	11867.16
615.337	11848.63
615.693	11858.57
616.05	11805.92
616.406	11903.09
616.762	11821.96
617.118	11853.37
617.475	11853.6
617.831	11809.31
618.187	11924.56
618.543	11930.21
618.899	11955.07
619.255	11984.44
619.611	11899.7
619.967	11963.65
620.323	11961.62
620.678	11908.29
621.034	11906.25
621.39	11974.28
621.746	11937.89
622.101	12017.66
622.457	11959.36
622.812	11996.42
623.168	12018.12
623.523	11981.96
623.879	12004.56
624.234	11940.38
624.589	12012.01
624.945	11891.34
625.3	11967.95
625.655	11927.05
626.01	11956.65
626.365	11964.33
626.72	11942.64
627.075	12027.61
627.43	11938.57
627.785	11919.81
628.14	11864
628.495	11938.8
628.85	11911.68
629.205	11809.08
629.559	11900.15
629.914	11849.08
630.269	11871
630.623	11875.3
630.978	11873.26
631.332	11969.98
631.687	11896.76
632.041	11817.22
632.396	11774.96
632.75	11867.16
633.104	11801.85
633.459	11701.97
633.813	11770.44
634.167	11769.76
634.521	11731.57
634.875	11815.41
635.229	11731.8
635.583	11725.24
635.937	11636.88
636.291	11658.35
636.645	11656.32
636.999	11633.04
637.352	11667.39
637.706	11631.23
638.06	11642.76
638.413	11600.27
638.767	11582.42
639.121	11594.4
639.474	11483.44
639.828	11532.48
640.181	11626.71
640.534	11502.42
640.888	11533.84
641.241	11440.05
641.594	11472.82
641.947	11517.11
642.301	11489.32
642.654	11468.07
643.007	11513.04
643.36	11417.23
643.713	11460.62
644.066	11525.02
644.419	11472.14
644.771	11412.93
645.124	11285.25
645.477	11234.41
645.83	11217.69
646.182	11170.23
646.535	11122.55
646.888	11161.42
647.24	11074.86
647.593	11076.22
647.945	11160.29
648.298	11103.56
648.65	11056.56
649.002	10979.73
649.355	11061.76
649.707	11029.44
650.059	11107.18
650.411	11211.81
650.763	11229.21
651.115	11407.51
651.467	11312.6
651.819	11354.63
652.171	11286.84
652.523	11238.48
652.875	11236.67
653.227	11325.93
653.578	11323.67
653.93	11305.82
654.282	11255.65
654.633	11334.29
654.985	11358.92
655.337	11348.76
655.688	11285.48
656.039	11392.6
656.391	11244.35
656.742	11229.89
657.094	11383.56
657.445	11351.24
657.796	11350.79
658.147	11267.18
658.498	11350.34
658.849	11310.34
659.2	11294.29
659.551	11330.68
659.902	11400.51
660.253	11297.46
660.604	11409.09
660.955	11300.39
661.306	11389.88
661.656	11367.06
662.007	11348.3
662.358	11360.05
662.708	11344.69
663.059	11328.19
663.409	11309.66
663.76	11372.71
664.11	11411.8
664.461	11346.27
664.811	11449.77
665.161	11346.5
665.511	11271.02
665.862	11381.75
666.212	11427.62
666.562	11383.1
666.912	11349.89
667.262	11330.22
667.612	11355.99
667.962	11462.88
668.312	11320.73
668.662	11397.57
669.011	11462.2
669.361	11339.04
669.711	11340.39
670.06	11341.75
670.41	11384.91
670.76	11325.71
671.109	11335.2
671.459	11424.91
671.808	11350.34
672.157	11426.72
672.507	11240.28
672.856	11264.69
673.205	11355.99
673.554	11354.18
673.904	11264.69
674.253	11383.33
674.602	11296.78
674.951	11090.23
675.3	11118.03
675.649	11241.87
675.998	11212.04
676.346	11268.98
676.695	11216.33
677.044	11146.73
677.393	11115.54
677.741	11216.78
678.09	11164.35
678.438	11134.98
678.787	11186.05
679.135	11136.78
679.484	11017.92
679.832	11130
680.181	11089.33
680.529	11070.34
680.877	11055.88
681.225	11000.97
681.573	11068.76
681.922	10923.46
682.27	10959.84
682.618	10994.19
682.966	10958.48
683.314	10899.05
683.661	10924.81
684.009	10854.53
684.357	10799.62
684.705	10834.87
685.053	10807.3
685.4	10800.3
685.748	10735.66
686.095	10733.86
686.443	10701.31
686.79	10677.81
687.138	10708.09
687.485	10720.3
687.832	10610.47
688.18	10622.22
688.527	10599.62
688.874	10538.38
689.221	10589.45
689.568	10459.97
689.915	10449.12
690.262	10435.11
690.609	10360.76
690.956	10367.09
691.303	10384.26
691.65	10324.83
691.997	10277.82
692.344	10192.4
692.69	10250.48
693.037	10211.16
693.383	10178.62
693.73	10178.16
694.077	10035.12
694.423	10068.11
694.769	10006.64
695.116	9928.91
695.462	9929.36
695.808	9966.42
696.155	9953.76
696.501	9847.78
696.847	9899.75
697.193	9729.59
697.539	9789.93
697.885	9791.28
698.231	9723.49
698.577	9733.43
698.923	9691.4
699.269	9620.89
699.614	9565.75
699.96	9501.12
700.306	9570.27
700.651	9493.44
700.997	9450.5
701.342	9410.05
701.688	9390.84
702.033	9379.09
702.379	9355.59
702.724	9334.12
703.069	9276.72
703.415	9174.12
703.76	9239.21
704.105	9121.92
704.45	9160.34
704.795	9117.18
705.14	9052.54
705.485	9094.58
705.83	9007.12
706.175	9047.12
706.52	8933.23
706.865	8955.82
707.209	8927.35
707.554	8881.7
707.899	8936.39
708.243	8887.58
708.588	8855.94
708.932	8808.26
709.277	8784.53
709.621	8770.07
709.966	8749.5
710.31	8719.22
710.654	8620.24
710.998	8675.83
711.342	8644.42
711.687	8598.55
712.031	8613.01
712.375	8501.15
712.719	8556.96
713.063	8578.66
713.407	8562.39
713.75	8521.94
714.094	8553.12
714.438	8477.42
714.782	8455.05
715.125	8425.67
715.469	8397.65
715.812	8365.1
716.156	8367.82
716.499	8416.4
716.843	8386.8
717.186	8331.21
717.53	8313.58
717.873	8296.18
718.216	8346.8
718.559	8261.6
718.902	8241.04
719.246	8253.02
719.589	8263.41
719.932	8273.36
720.275	8195.17
720.617	8187.48
720.96	8176.41
721.303	8240.14
721.646	8207.14
721.989	8115.62
722.331	8173.47
722.674	8100.71
723.016	8094.6
723.359	8177.09
723.701	8112.46
724.044	8097.77
724.386	8092.57
724.729	8100.25
725.071	8090.99
725.413	8123.53
725.755	8019.13
726.097	8046.02
726.439	8040.14
726.782	8001.95
727.124	8059.58
727.465	8047.6
727.807	8035.17
728.149	8008.96
728.491	7973.02
728.833	8030.42
729.175	8007.37
729.516	8050.31
729.858	7942.74
730.199	7983.87
730.541	8005.57
730.882	7951.56
731.224	8029.29
731.565	7965.12
731.906	8003.08
732.248	8011.22
732.589	7988.17
732.93	7906.59
733.271	7930.54
733.612	8009.18
733.953	7988.84
734.294	8003.98
734.635	7976.41
734.976	8001.5
735.317	7936.42
735.658	7987.26
735.999	8022.97
736.339	7951.78
736.68	8021.39
737.021	8040.14
737.361	7952.01
737.702	7983.19
738.042	7936.64
738.383	7997.43
738.723	8045.79
739.063	8015.06
739.404	8013.02
739.744	8037.88
740.084	8035.17
740.424	8065.23
740.764	8024.1
741.104	8037.2
741.444	8055.51
741.784	8078.78
742.124	8081.95
742.464	8139.57
742.804	8124.89
743.143	8144.09
743.483	8114.94
743.823	8182.51
744.162	8201.72
744.502	8282.4
744.841	8255.05
745.181	8267.25
745.52	8343.41
745.86	8377.53
746.199	8413.69
746.538	8432.67
746.877	8481.49
747.216	8542.5
747.556	8552.44
747.895	8619.79
748.234	8634.7
748.573	8679.9
748.911	8733.23
749.25	8775.49
749.589	8846
749.928	8863.62
750.267	8976.16
750.605	9069.49
750.944	9126.44
751.283	9164.86
751.621	9236.72
751.96	9295.48
752.298	9370.95
752.636	9489.14
752.975	9535.7
753.313	9661.79
753.651	9796.48
753.989	9864.05
754.327	9989.47
754.666	10066.76
755.004	10204.15
755.342	10310.82
755.679	10500.64
756.017	10504.71
756.355	10667.87
756.693	10831.71
757.031	10964.13
757.368	11100.17
757.706	11221.98
758.044	11334.29
758.381	11449.09
758.719	11618.58
759.056	11770.67
759.394	11957.78
759.731	11993.48
760.068	12221.5
