Data from hue_40_FLMS001491_96.txt Node
Date: Mon Feb 06 15:08:51 GMT 2017
User: dcchb
Spectrometer: FLMS00149
Trigger mode: 0
Integration Time (sec): 2.000000E-2
Scans to average: 10
Electric dark correction enabled: true
Nonlinearity correction enabled: false
Boxcar width: 0
XAxis mode: Wavelengths
Number of Pixels in Spectrum: 2048
>>>>>Begin Spectral Data<<<<<
341.393	-15.8
341.776	-15.8
342.16	-15.8
342.543	-58.74
342.927	-59.19
343.31	-73.43
343.693	-96.71
344.077	-62.13
344.46	-47.89
344.843	-47.44
345.226	-46.76
345.61	-11.51
345.993	-15.13
346.376	-1.79
346.759	3.4
347.142	10.18
347.525	52.89
347.908	48.15
348.291	88.37
348.674	82.05
349.057	117.75
349.44	135.38
349.823	130.41
350.206	166.11
350.588	192.55
350.971	226.67
351.354	237.97
351.737	246.11
352.119	224.87
352.502	284.75
352.884	275.71
353.267	275.04
353.65	298.54
354.032	297.41
354.414	309.61
354.797	328.59
355.179	324.3
355.562	323.4
355.944	330.63
356.326	323.4
356.709	357.29
357.091	350.29
357.473	336.05
357.855	360
358.238	366.78
358.62	348.71
359.002	358.87
359.384	341.47
359.766	349.16
360.148	346.22
360.53	327.01
360.912	334.47
361.294	348.48
361.676	332.89
362.057	343.96
362.439	328.82
362.821	317.75
363.203	341.25
363.584	352.55
363.966	339.44
364.348	338.99
364.729	316.62
365.111	312.55
365.493	340.8
365.874	341.02
366.256	316.16
366.637	324.98
367.019	328.37
367.4	322.27
367.781	317.97
368.163	315.71
368.544	325.2
368.925	328.37
369.306	301.93
369.688	315.26
370.069	321.59
370.45	319.78
370.831	323.17
371.212	313.68
371.593	320.23
371.974	320.91
372.355	313.9
372.736	319.78
373.117	312.77
373.498	320.91
373.879	313.45
374.26	325.66
374.641	340.57
375.021	307.12
375.402	335.15
375.783	332.21
376.163	343.06
376.544	328.37
376.925	334.02
377.305	337.86
377.686	331.3
378.066	337.41
378.447	341.47
378.827	331.3
379.208	337.63
379.588	322.72
379.968	333.34
380.349	341.93
380.729	338.54
381.109	345.54
381.489	357.74
381.87	343.06
382.25	347.35
382.63	341.7
383.01	368.82
383.39	350.97
383.77	345.54
384.15	355.71
384.53	359.33
384.91	355.49
385.29	352.32
385.67	345.32
386.049	348.93
386.429	356.61
386.809	341.93
387.189	353.23
387.568	358.42
387.948	380.12
388.328	370.63
388.707	380.57
389.087	360.46
389.466	378.08
389.846	366.78
390.225	374.92
390.605	378.54
390.984	381.47
391.363	364.52
391.743	370.85
392.122	350.74
392.501	378.54
392.881	362.49
393.26	386.67
393.639	379.67
394.018	367.69
394.397	390.96
394.776	372.43
395.155	384.18
395.534	383.73
395.913	381.7
396.292	390.96
396.671	383.28
397.05	387.12
397.429	412.66
397.808	390.51
398.186	404.52
398.565	408.36
398.944	400.23
399.323	406.33
399.701	414.69
400.08	425.54
400.458	416.95
400.837	421.47
401.215	426.67
401.594	408.14
401.972	413.11
402.351	416.73
402.729	406.33
403.107	437.29
403.486	428.93
403.864	442.26
404.242	416.27
404.62	442.26
404.999	453.11
405.377	423.73
405.755	419.66
406.133	451.3
406.511	445.2
406.889	451.53
407.267	449.72
407.645	434.13
408.023	450.85
408.401	462.6
408.779	480.45
409.156	455.37
409.534	461.92
409.912	472.77
410.29	467.8
410.667	459.89
411.045	466.67
411.422	481.81
411.8	489.72
412.178	483.17
412.555	486.78
412.933	480
413.31	491.53
413.687	491.75
414.065	502.37
414.442	522.26
414.819	517.51
415.197	516.16
415.574	518.87
415.951	512.99
416.328	523.39
416.705	536.05
417.082	523.39
417.46	530.85
417.837	537.4
418.214	534.01
418.591	514.35
418.967	523.39
419.344	543.73
419.721	540.79
420.098	534.92
420.475	544.18
420.852	557.97
421.228	553.67
421.605	550.96
421.982	571.52
422.358	567.23
422.735	565.65
423.111	567
423.488	586.67
423.864	569.94
424.241	611.75
424.617	592.77
424.994	609.94
425.37	580.56
425.746	587.57
426.123	595.93
426.499	576.72
426.875	616.5
427.251	616.72
427.627	610.17
428.003	620.56
428.379	636.83
428.756	649.26
429.132	647.45
429.507	655.36
429.883	654.23
430.259	658.3
430.635	661.47
431.011	681.58
431.387	668.25
431.763	683.61
432.138	683.39
432.514	689.94
432.89	698.75
433.265	698.3
433.641	717.96
434.016	726.32
434.392	727.45
434.767	751.18
435.143	722.03
435.518	742.82
435.894	749.6
436.269	747.79
436.644	759.32
437.02	743.5
437.395	749.82
437.77	783.04
438.145	770.84
438.52	785.3
438.895	801.35
439.271	786.43
439.646	801.57
440.021	788.47
440.395	802.48
440.77	840.44
441.145	823.95
441.52	826.43
441.895	826.43
442.27	829.14
442.645	823.95
443.019	864.17
443.394	842.93
443.769	848.58
444.143	848.81
444.518	871.63
444.892	875.02
445.267	865.98
445.641	879.54
446.016	871.4
446.39	909.82
446.764	923.83
447.139	905.3
447.513	912.53
447.887	902.36
448.262	917.5
448.636	898.97
449.01	880.67
449.384	939.65
449.758	921.8
450.132	957.96
450.506	962.25
450.88	946.88
451.254	964.51
451.628	955.47
452.002	974.45
452.376	983.27
452.75	983.94
453.123	992.53
453.497	1011.29
453.871	1015.13
454.244	1056.94
454.618	1063.26
454.992	1050.61
455.365	1040.66
455.739	1090.38
456.112	1075.69
456.486	1105.75
456.859	1104.39
457.232	1144.16
457.606	1119.76
457.979	1137.61
458.352	1156.82
458.725	1175.8
459.099	1174.22
459.472	1199.98
459.845	1190.72
460.218	1199.76
460.591	1217.61
460.964	1226.42
461.337	1258.96
461.71	1240.89
462.083	1292.86
462.456	1261.9
462.829	1303.71
463.201	1321.56
463.574	1342.58
463.947	1366.98
464.32	1343.26
464.692	1376.93
465.065	1380.54
465.438	1392.97
465.81	1431.16
466.183	1429.13
466.555	1477.72
466.928	1481.33
467.3	1486.3
467.672	1533.53
468.045	1570.82
468.417	1550.71
468.789	1603.36
469.161	1592.97
469.534	1622.34
469.906	1630.25
470.278	1699.18
470.65	1699.86
471.022	1742.57
471.394	1780.31
471.766	1810.14
472.138	1792.74
472.51	1837.03
472.882	1883.13
473.253	1900.3
473.625	1947.76
473.997	1970.36
474.369	1999.06
474.74	2064.59
475.112	2100.07
475.484	2112.05
475.855	2189.34
476.227	2203.12
476.598	2272.04
476.97	2319.95
477.341	2377.13
477.713	2426.17
478.084	2455.54
478.455	2566.95
478.827	2573.05
479.198	2701.41
479.569	2742.54
479.94	2806.95
480.311	2812.37
480.682	2885.81
481.053	3011.91
481.424	3110.21
481.795	3157.22
482.166	3220.95
482.537	3269.53
482.908	3369.42
483.279	3407.61
483.65	3557.21
484.021	3625.46
484.391	3688.73
484.762	3792.23
485.133	3851.89
485.503	3927.37
485.874	4073.81
486.244	4152.45
486.615	4227.47
486.985	4334.14
487.356	4508.6
487.726	4530.06
488.097	4630.4
488.467	4730.29
488.837	4908.59
489.207	4935.03
489.578	5020.22
489.948	5138.41
490.318	5301.57
490.688	5346.77
491.058	5515.8
491.428	5572.52
491.798	5691.16
492.168	5875.57
492.538	5911.95
492.908	6049.8
493.278	6141.1
493.648	6205.73
494.017	6337.7
494.387	6446.62
494.757	6589.45
495.126	6702.44
495.496	6769.78
495.866	6857.23
496.235	6953.96
496.605	7038.02
496.974	7132.03
497.344	7240.73
497.713	7373.83
498.082	7373.38
498.452	7534.96
498.821	7691.11
499.19	7704.44
499.559	7811.33
499.928	7931.33
500.298	8052.91
500.667	8147.37
501.036	8196.41
501.405	8299.91
501.774	8342.62
502.143	8462.39
502.512	8498.55
502.88	8677.07
503.249	8668.03
503.618	8804.98
503.987	8870.74
504.356	8905.99
504.724	9059.21
505.093	9112.32
505.462	9166.78
505.83	9234.8
506.199	9383.04
506.567	9524.06
506.936	9506.88
507.304	9611.06
507.672	9656.26
508.041	9753.43
508.409	9761.79
508.777	9948.68
509.145	10038.17
509.514	10061.22
509.882	10190.25
510.25	10224.38
510.618	10268.67
510.986	10393.64
511.354	10458.27
511.722	10592.05
512.09	10615.33
512.458	10637.02
512.826	10742.78
513.193	10775.32
513.561	10899.39
513.929	10969.22
514.297	11046.28
514.664	11107.07
515.032	11204.92
515.4	11333.5
515.767	11303.22
516.135	11406.27
516.502	11325.82
516.869	11571.01
517.237	11571.01
517.604	11637.67
517.972	11832.92
518.339	11762.64
518.706	11847.16
519.073	11889.19
519.44	11948.17
519.808	12032.69
520.175	12088.74
520.542	12263.65
520.909	12306.58
521.276	12358.79
521.643	12493.7
522.009	12588.84
522.376	12555.62
522.743	12683.07
523.11	12774.82
523.477	12880.58
523.843	12988.37
524.21	13093.46
524.577	13204.86
524.943	13293.68
525.31	13386.78
525.676	13423.62
526.043	13510.62
526.409	13514.46
526.776	13735.25
527.142	13806.66
527.508	13836.03
527.874	13860.44
528.241	14013.66
528.607	14070.83
528.973	14172.52
529.339	14168.23
529.705	14370.03
530.071	14341.78
530.437	14505.85
530.803	14579.74
531.169	14672.17
531.535	14678.27
531.901	14608.9
532.267	14809.79
532.632	14843.01
532.998	15012.05
533.364	15123.01
533.73	15120.29
534.095	15239.61
534.461	15238.03
534.826	15260.63
535.192	15359.38
535.557	15454.07
535.923	15510.79
536.288	15593.95
536.653	15643.44
537.019	15662.43
537.384	15775.64
537.749	15842.08
538.114	15941.29
538.479	15837.11
538.845	15970.44
539.21	15999.37
539.575	16097.22
539.94	16122.53
540.305	16287.04
540.67	16242.75
541.034	16369.08
541.399	16430.09
541.764	16401.39
542.129	16485
542.494	16570.43
542.858	16611.1
543.223	16599.58
543.587	16743.3
543.952	16749.86
544.316	16870.31
544.681	16904.2
545.045	17039.57
545.41	17145.1
545.774	17059.45
546.138	17164.99
546.503	17205.21
546.867	17226.45
547.231	17336.96
547.595	17451.76
547.959	17596.84
548.324	17457.63
548.688	17600.23
549.052	17691.3
549.416	17672.77
549.779	17735.82
550.143	17843.16
550.507	17937.62
550.871	17916.61
551.235	17943.95
551.599	18036.6
551.962	18084.74
552.326	18216.71
552.689	18366.31
553.053	18262.81
553.417	18333.32
553.78	18518.85
554.143	18520.21
554.507	18568.34
554.87	18583.48
555.234	18854.21
555.597	18727.21
555.96	18783.25
556.323	18870.7
556.686	18791.38
557.05	19018.5
557.413	19089.46
557.776	19074.54
558.139	19231.82
558.502	19225.95
558.865	19278.83
559.228	19387.75
559.59	19534.19
559.953	19571.25
560.316	19702.55
560.679	19647.41
561.041	19772.83
561.404	19910.68
561.767	20024.35
562.129	19987.74
562.492	20218.01
562.854	20133.95
563.217	20246.04
563.579	20347.5
563.941	20444.9
564.304	20504.33
564.666	20618.91
565.028	20652.58
565.39	20727.38
565.753	20779.13
566.115	20946.58
566.477	20992.23
566.839	21061.38
567.201	21104.32
567.563	21137.31
567.925	21295.5
568.287	21264.09
568.648	21349.06
569.01	21447.36
569.372	21572.78
569.734	21618.65
570.095	21766.67
570.457	21902.04
570.819	22012.54
571.18	21991.75
571.542	22036.5
571.903	22152.88
572.265	22295.02
572.626	22362.82
572.987	22445.53
573.349	22541.79
573.71	22520.1
574.071	22667.44
574.432	22733.2
574.794	23005.06
575.155	23031.05
575.516	23033.31
575.877	23154.43
576.238	23285.73
576.599	23482.33
576.96	23411.15
577.32	23651.14
577.681	23828.54
578.042	23885.04
578.403	24032.38
578.763	24018.37
579.124	24322.31
579.485	24570.22
579.845	24645.69
580.206	24635.98
580.566	24836.65
580.927	24986.02
581.287	25222.18
581.648	25260.14
582.008	25473.92
582.368	25638.21
582.728	25831.43
583.089	25982.61
583.449	26091.76
583.809	26327.01
584.169	26635.7
584.529	26520.45
584.889	26997.5
585.249	27016.7
585.609	27193.65
585.969	27491.27
586.329	27672.96
586.688	27909.56
587.048	27897.59
587.408	28188.43
587.768	28356.56
588.127	28523.78
588.487	28703.44
588.846	29138.46
589.206	29077.44
589.565	29420.94
589.925	29615.51
590.284	29786.35
590.643	30002.16
591.003	30206.23
591.362	30600.34
591.721	30704.74
592.08	30916.49
592.44	31130.04
592.799	31288.68
593.158	31432.63
593.517	31746.98
593.876	31935.9
594.235	32096.57
594.593	32356
594.952	32529.1
595.311	32640.96
595.67	32920.96
596.029	33326.14
596.387	33487.5
596.746	33563.65
597.104	33650.43
597.463	33793.02
597.822	34187.14
598.18	34086.35
598.538	34372.67
598.897	34670.06
599.255	34665.09
599.613	35197.73
599.972	35200.44
600.33	35412.19
600.688	35344.85
601.046	35779.19
601.404	36023.7
601.762	36082.91
602.12	36397.02
602.478	36420.3
602.836	36652.61
603.194	36590.24
603.552	36787.97
603.91	36802.66
604.268	37192.48
604.625	37241.75
604.983	37417.79
605.341	37343.89
605.698	37835.86
606.056	37918.11
606.413	37974.61
606.771	38120.59
607.128	38381.38
607.485	38276.52
607.843	38353.36
608.2	38820.01
608.557	38775.49
608.914	38902.04
609.272	39262.94
609.629	39285.53
609.986	39479.43
610.343	39412.76
610.7	39792.87
611.057	39811.85
611.414	39861.11
611.771	39967.55
612.127	40177.49
612.484	40235.57
612.841	40476.46
613.198	40301.55
613.554	40564.37
613.911	40762.11
614.267	40738.38
614.624	40871.03
614.98	41072.15
615.337	41205.48
615.693	41252.94
616.05	41275.31
616.406	41699.48
616.762	41325.26
617.118	41486.15
617.475	41652.25
617.831	41718.24
618.187	41822.19
618.543	42026.93
618.899	42228.96
619.255	42090.43
619.611	42234.38
619.967	42379.24
620.323	42473.47
620.678	42316.87
621.034	42325.23
621.39	42376.75
621.746	42433.02
622.101	42874.82
622.457	42586.46
622.812	42687.93
623.168	42792.11
623.523	42783.3
623.879	42980.13
624.234	42818.55
624.589	42947.81
624.945	43039.79
625.3	43193
625.655	43071.88
626.01	43361.59
626.365	43259.67
626.72	43120.01
627.075	43248.14
627.43	43318.88
627.785	43168.6
628.14	43351.19
628.495	43301.93
628.85	43303.73
629.205	43148.03
629.559	43538.08
629.914	43434.58
630.269	43497.4
630.623	43358.65
630.978	43164.75
631.332	43505.76
631.687	43410.85
632.041	43428.02
632.396	43553.9
632.75	43305.77
633.104	43468.25
633.459	43286.11
633.813	43253.34
634.167	43311.42
634.521	43254.02
634.875	43434.13
635.229	43304.86
635.583	43097.19
635.937	43304.41
636.291	43040.69
636.645	43266.45
636.999	43075.49
637.352	43372.88
637.706	43007.7
638.06	43243.4
638.413	43027.36
638.767	43076.17
639.121	43022.16
639.474	42958.43
639.828	42842.28
640.181	43070.07
640.534	43028.04
640.888	42907.59
641.241	42735.16
641.594	42862.39
641.947	42883.18
642.301	42790.98
642.654	42781.04
643.007	42803.86
643.36	42617.88
643.713	42616.07
644.066	42904.65
644.419	42565.67
644.771	42374.95
645.124	41924.56
645.477	41852.47
645.83	41759.82
646.182	41464.23
646.535	41450.22
646.888	41523.89
647.24	41341.3
647.593	41584.01
647.945	41341.53
648.298	41296.33
648.65	41351.24
649.002	41120.51
649.355	41340.85
649.707	41255.2
650.059	41518.92
650.411	41929.99
650.763	41946.93
651.115	42350.31
651.467	42186.25
651.819	42176.76
652.171	42135.4
652.523	42003.88
652.875	41966.37
653.227	41890.21
653.578	42172.69
653.93	42010.21
654.282	41896.99
654.633	41833.72
654.985	41871.68
655.337	41831.91
655.688	41922.53
656.039	41966.82
656.391	41609.54
656.742	41734.74
657.094	41706.94
657.445	41868.29
657.796	41759.82
658.147	41703.78
658.498	41725.02
658.849	41910.32
659.2	41727.96
659.551	41616.55
659.902	41756.66
660.253	41729.54
660.604	41721.85
660.955	41501.3
661.306	41678.01
661.656	41611.8
662.007	41483.44
662.358	41617.68
662.708	41560.5
663.059	41611.8
663.409	41421.75
663.76	41539.71
664.11	41522.76
664.461	41678.01
664.811	41544.91
665.161	41571.8
665.511	41486.83
665.862	41391.24
666.212	41661.07
666.562	41594.63
666.912	41637.34
667.262	41423.78
667.612	41549.43
667.962	41560.96
668.312	41469.88
668.662	41633.04
669.011	41506.04
669.361	41421.75
669.711	41330
670.06	41370.68
670.41	41218.37
670.76	41197.35
671.109	41494.97
671.459	41281.41
671.808	41245.71
672.157	41253.39
672.507	41076.45
672.856	41143.79
673.205	41198.7
673.554	41167.52
673.904	41113.96
674.253	41250.45
674.602	41206.61
674.951	40580.42
675.3	40468.78
675.649	41003
675.998	40947.41
676.346	41030.57
676.695	41067.41
677.044	40875.32
677.393	40938.6
677.741	40914.19
678.09	40986.28
678.438	40884.81
678.787	40903.12
679.135	40789.45
679.484	40488.67
679.832	40690.02
680.181	40543.13
680.529	40688.66
680.877	40516.69
681.225	40403.02
681.573	40678.04
681.922	40456.35
682.27	40164.83
682.618	40266.98
682.966	40120.99
683.314	40216.36
683.661	40059.75
684.009	40028.57
684.357	39996.25
684.705	39845.29
685.053	40031.96
685.4	39893.43
685.748	39603.94
686.095	39687.78
686.443	39534.34
686.79	39447.11
687.138	39627.45
687.485	39484.63
687.832	39338.41
688.18	39475.59
688.527	39282.6
688.874	39232.2
689.221	39135.26
689.568	38986.56
689.915	38961.93
690.262	38894.36
690.609	38763.97
690.956	38683.06
691.303	38648.94
691.65	38427.03
691.997	38430.87
692.344	38278.78
692.69	38238.56
693.037	38309.52
693.383	37996.53
693.73	38020.71
694.077	37843.99
694.423	37785.46
694.769	37875.63
695.116	37586.14
695.462	37488.29
695.808	37507.95
696.155	37629.08
696.501	37199.26
696.847	37144.12
697.193	37052.37
697.539	37153.61
697.885	36862.55
698.231	36829.78
698.577	36797.92
698.923	36588.2
699.269	36519.73
699.614	36348.21
699.96	36237.93
700.306	36201.77
700.651	36182.57
700.997	36053.76
701.342	36020.99
701.688	36016.92
702.033	35951.84
702.379	35888.11
702.724	35814.67
703.069	35801.11
703.415	35286.32
703.76	35252.65
704.105	35411.96
704.45	35300.55
704.795	35077.74
705.14	35111.63
705.485	35081.8
705.83	34937.85
706.175	34769.5
706.52	34717.97
706.865	34715.71
707.209	34644.3
707.554	34482.5
707.899	34660.8
708.243	34383.74
708.588	34399.56
708.932	34132.22
709.277	34089.97
709.621	34183.97
709.966	33934.26
710.31	34007.71
710.654	33747.38
710.998	33794.38
711.342	33721.61
711.687	33664.89
712.031	33687.26
712.375	33475.97
712.719	33431.45
713.063	33439.36
713.407	33588.28
713.75	33232.36
714.094	33386.48
714.438	33147.17
714.782	33086.83
715.125	32956.21
715.469	33095.64
715.812	32766.16
716.156	32682.54
716.499	32687.52
716.843	32603.22
717.186	32386.73
717.53	32804.8
717.873	32626.27
718.216	32477.58
718.559	32376.11
718.902	32286.85
719.246	32334.08
719.589	32088.44
719.932	32095.89
720.275	32157.81
720.617	31937.71
720.96	31925.95
721.303	31906.52
721.646	32005.73
721.989	31749.01
722.331	31810.03
722.674	31559.64
723.016	31686.19
723.359	31718.05
723.701	31767.31
724.044	31408.23
724.386	31318.51
724.729	31433.76
725.071	31384.95
725.413	31354.9
725.755	31319.19
726.097	31201.45
726.439	31136.14
726.782	31020.67
727.124	31190.61
727.465	30932.99
727.807	30930.95
728.149	30801.92
728.491	30766.44
728.833	30962.59
729.175	30639.21
729.516	30653.67
729.858	30551.53
730.199	30700
730.541	30680.11
730.882	30625.2
731.224	30633.33
731.565	30347.46
731.906	30450.96
732.248	30493.45
732.589	30300.23
732.93	30314.7
733.271	30181.37
733.612	30242.61
733.953	30186.57
734.294	30061.6
734.635	29977.31
734.976	30260.46
735.317	29850.08
735.658	29938.44
735.999	29816.18
736.339	29886.91
736.68	29910.41
737.021	29801.72
737.361	29696.41
737.702	29844.2
738.042	29668.84
738.383	29633.36
738.723	29614.15
739.063	29523.53
739.404	29691.44
739.744	29528.73
740.084	29364.21
740.424	29436.98
740.764	29350.65
741.104	29380.94
741.444	29194.73
741.784	29175.07
742.124	29146.59
742.464	29063.2
742.804	29128.97
743.143	28959.93
743.483	29002.42
743.823	28893.72
744.162	28821.63
744.502	28992.02
744.841	28806.49
745.181	28778.92
745.52	28744.34
745.86	28770.33
746.199	28635.42
746.538	28727.85
746.877	28677.68
747.216	28593.39
747.556	28627.96
747.895	28518.81
748.234	28396.33
748.573	28370.57
748.911	28358.36
749.25	28387.06
749.589	28163.79
749.928	28179.39
750.267	28296.45
750.605	28130.57
750.944	28120.86
751.283	27921.99
751.621	27955.21
751.96	27927.19
752.298	27850.36
752.636	27855.55
752.975	27778.49
753.313	27582.34
753.651	27755.67
753.989	27547.31
754.327	27576.46
754.666	27437.71
755.004	27506.41
755.342	27446.07
755.679	27510.48
756.017	27152.75
756.355	27384.83
756.693	27133.76
