Data from hue_00_FLMS001491_61.txt Node
Date: Mon Feb 06 15:30:03 GMT 2017
User: dcchb
Spectrometer: FLMS00149
Trigger mode: 0
Integration Time (sec): 2.000000E-2
Scans to average: 10
Electric dark correction enabled: true
Nonlinearity correction enabled: false
Boxcar width: 0
XAxis mode: Wavelengths
Number of Pixels in Spectrum: 2048
>>>>>Begin Spectral Data<<<<<
341.393	-1.98
341.776	-1.98
342.16	-1.98
342.543	-37.23
342.927	-48.76
343.31	-67.51
343.693	-75.2
344.077	-59.15
344.46	-51.24
344.843	-41.52
345.226	-29.1
345.61	-33.39
345.993	-25.03
346.376	-17.12
346.759	-5.37
347.142	7.74
347.525	40.96
347.908	73.73
348.291	75.31
348.674	79.83
349.057	127.06
349.44	134.29
349.823	125.02
350.206	172.26
350.588	202.54
350.971	216.55
351.354	224.46
351.737	217.68
352.119	226.49
352.502	244.12
352.884	269.43
353.267	289.99
353.65	299.03
354.032	287.28
354.414	330.22
354.797	320.73
355.179	319.14
355.562	353.27
355.944	332.03
356.326	320.05
356.709	320.73
357.091	334.96
357.473	344.91
357.855	346.49
358.238	328.64
358.62	341.29
359.002	334.96
359.384	338.35
359.766	351.01
360.148	332.93
360.53	343.1
360.912	318.92
361.294	328.86
361.676	338.35
362.057	309.88
362.439	321.63
362.821	330.44
363.203	315.98
363.584	313.49
363.966	313.27
364.348	326.38
364.729	317.79
365.111	311.01
365.493	313.04
365.874	306.94
366.256	306.49
366.637	298.81
367.019	325.02
367.4	311.23
367.781	301.29
368.163	312.14
368.544	309.88
368.925	324.34
369.306	307.39
369.688	309.2
370.069	295.42
370.45	306.94
370.831	310.56
371.212	286.83
371.593	317.11
371.974	295.64
372.355	303.33
372.736	313.27
373.117	330.67
373.498	319.6
373.879	315.3
374.26	305.59
374.641	311.91
375.021	322.08
375.402	309.65
375.783	306.26
376.163	332.93
376.544	321.63
376.925	313.72
377.305	341.29
377.686	323.89
378.066	296.32
378.447	322.31
378.827	316.43
379.208	338.58
379.588	341.74
379.968	341.06
380.349	323.66
380.729	324.34
381.109	341.97
381.489	324.79
381.87	341.74
382.25	332.03
382.63	338.35
383.01	323.66
383.39	346.71
383.77	343.1
384.15	322.53
384.53	333.61
384.91	318.92
385.29	343.78
385.67	327.51
386.049	348.07
386.429	332.93
386.809	331.8
387.189	331.57
387.568	348.75
387.948	342.19
388.328	337.45
388.707	344
389.087	346.94
389.466	358.92
389.846	360.5
390.225	366.37
390.605	362.53
390.984	363.44
391.363	340.84
391.743	369.99
392.122	353.72
392.501	354.62
392.881	365.7
393.26	345.58
393.639	355.75
394.018	382.19
394.397	362.76
394.776	367.96
395.155	367.28
395.534	374.96
395.913	350.78
396.292	389.2
396.671	372.02
397.05	371.35
397.429	370.44
397.808	393.04
398.186	374.06
398.565	371.57
398.944	380.61
399.323	358.24
399.701	379.48
400.08	388.07
400.458	384
400.837	399.82
401.215	375.41
401.594	377.45
401.972	396.2
402.351	395.75
402.729	365.24
403.107	377
403.486	379.71
403.864	407.73
404.242	404.57
404.62	398.01
404.999	384
405.377	397.56
405.755	401.18
406.133	418.35
406.511	405.92
406.889	407.5
407.267	418.8
407.645	401.85
408.023	402.08
408.401	401.63
408.779	429.88
409.156	438.46
409.534	442.53
409.912	419.25
410.29	437.11
410.667	436.2
411.045	442.08
411.422	448.63
411.8	453.15
412.178	447.5
412.555	447.05
412.933	454.06
413.31	451.34
413.687	450.44
414.065	454.28
414.442	456.54
414.819	455.86
415.197	459.25
415.574	458.35
415.951	466.48
416.328	468.29
416.705	452.02
417.082	465.13
417.46	482.53
417.837	496.54
418.214	474.85
418.591	459.71
418.967	510.33
419.344	490.21
419.721	483.89
420.098	498.8
420.475	504.9
420.852	491.57
421.228	515.3
421.605	480.72
421.982	511.46
422.358	525.92
422.735	507.84
423.111	519.82
423.488	525.69
423.864	518.46
424.241	529.99
424.617	564.11
424.994	531.57
425.37	538.8
425.746	551.68
426.123	534.96
426.499	572.92
426.875	562.08
427.251	564.79
427.627	557.78
428.003	564.34
428.379	574.28
428.756	578.35
429.132	566.82
429.507	600.04
429.883	595.97
430.259	593.94
430.635	595.52
431.011	574.5
431.387	614.05
431.763	628.06
432.138	633.49
432.514	616.31
432.89	622.86
433.265	626.93
433.641	619.48
434.016	641.17
434.392	643.43
434.767	654.73
435.143	664.45
435.518	652.69
435.894	652.02
436.269	657.67
436.644	679.81
437.02	660.6
437.395	675.52
437.77	674.84
438.145	680.72
438.52	709.64
438.895	681.17
439.271	699.93
439.646	686.82
440.021	713.26
440.395	703.09
440.77	692.92
441.145	701.28
441.52	735.63
441.895	731.79
442.27	732.47
442.645	747.38
443.019	728.17
443.394	736.99
443.769	736.08
444.143	758.45
444.518	767.95
444.892	758.45
445.267	769.3
445.641	759.58
446.016	729.08
446.39	788.96
446.764	779.92
447.139	762.52
447.513	773.6
447.887	765.46
448.262	782.86
448.636	789.19
449.01	785.8
449.384	801.17
449.758	806.36
450.132	801.84
450.506	816.76
450.88	823.54
451.254	796.87
451.628	817.21
452.002	818.11
452.376	829.87
452.75	854.5
453.123	834.61
453.497	851.56
453.871	857.21
454.244	846.14
454.618	878
454.992	890.43
455.365	881.84
455.739	903.54
456.112	902.63
456.486	915.29
456.859	939.47
457.232	946.92
457.606	934.95
457.979	936.98
458.352	949.41
458.725	962.52
459.099	971.78
459.472	977.66
459.845	1019.24
460.218	990.31
460.591	995.74
460.964	1013.14
461.337	1033.02
461.71	1022.85
462.083	1062.18
462.456	1056.53
462.829	1042.06
463.201	1062.85
463.574	1092.91
463.947	1095.39
464.32	1099.69
464.692	1132.23
465.065	1111.21
465.438	1160.25
465.81	1110.76
466.183	1172.68
466.555	1158.22
466.928	1181.95
467.3	1194.6
467.672	1198.9
468.045	1214.26
468.417	1218.56
468.789	1227.14
469.161	1272.11
469.534	1259.46
469.906	1293.58
470.278	1295.62
470.65	1321.6
471.022	1328.16
471.394	1360.25
471.766	1356.18
472.138	1408.38
472.51	1406.8
472.882	1430.98
473.253	1461.26
473.625	1501.94
473.997	1501.71
474.369	1482.96
474.74	1521.15
475.112	1542.84
475.484	1579.45
475.855	1590.52
476.227	1617.42
476.598	1637.08
476.97	1666.68
477.341	1716.62
477.713	1734.02
478.084	1743.29
478.455	1772.67
478.827	1814.47
479.198	1881.81
479.569	1858.99
479.94	1897.18
480.311	1968.14
480.682	1982.38
481.053	2025.99
481.424	2053.79
481.795	2104.18
482.166	2115.48
482.537	2153.67
482.908	2191.41
483.279	2200.22
483.65	2227.57
484.021	2295.82
484.391	2318.19
484.762	2404.74
485.133	2363.61
485.503	2390.73
485.874	2488.8
486.244	2488.35
486.615	2579.88
486.985	2597.95
487.356	2633.43
487.726	2632.76
488.097	2700.1
488.467	2696.03
488.837	2759.76
489.207	2804.95
489.578	2808.34
489.948	2873.43
490.318	2916.59
490.688	2942.35
491.058	2978.96
491.428	3054.21
491.798	3052.86
492.168	3135.79
492.538	3129.47
492.908	3162.01
493.278	3281.78
493.648	3236.36
494.017	3272.29
494.387	3317.48
494.757	3346.64
495.126	3346.18
495.496	3414.2
495.866	3414.2
496.235	3456.69
496.605	3489.91
496.974	3527.65
497.344	3522.22
497.713	3515.22
498.082	3524.71
498.452	3625.72
498.821	3657.59
499.19	3656.23
499.559	3649.45
499.928	3686.51
500.298	3736.46
500.667	3781.43
501.036	3784.59
501.405	3792.5
501.774	3772.84
502.143	3834.08
502.512	3898.26
502.88	3898.71
503.249	3891.71
503.618	3889.67
503.987	3951.37
504.356	3999.27
504.724	3997.47
505.093	3965.6
505.462	4027.07
505.83	4013.96
506.199	4072.94
506.567	4095.32
506.936	4098.03
507.304	4168.08
507.672	4133.06
508.041	4161.75
508.409	4178.25
508.777	4185.71
509.145	4225.93
509.514	4235.43
509.882	4225.93
510.25	4246.5
510.618	4299.15
510.986	4321.52
511.354	4338.25
511.722	4337.12
512.09	4402.88
512.458	4366.5
512.826	4431.35
513.193	4430.45
513.561	4412.82
513.929	4465.7
514.297	4488.3
514.664	4513.84
515.032	4553.61
515.4	4533.95
515.767	4589.09
516.135	4587.96
516.502	4557
516.869	4577.34
517.237	4602.42
517.604	4641.06
517.972	4610.56
518.339	4672.7
518.706	4647.62
519.073	4685.81
519.44	4721.74
519.808	4751.57
520.175	4712.7
520.542	4782.98
520.909	4754.96
521.276	4789.08
521.643	4837.22
522.009	4833.83
522.376	4803.55
522.743	4879.25
523.11	4914.5
523.477	4971.68
523.843	4973.71
524.21	4990.66
524.577	5062.52
524.943	5039.47
525.31	5048.06
525.676	5126.7
526.043	5130.09
526.409	5163.99
526.776	5211.9
527.142	5190.65
527.508	5154.95
527.874	5246.92
528.241	5248.96
528.607	5282.4
528.973	5375.51
529.339	5346.81
529.705	5387.49
530.071	5351.1
530.437	5440.82
530.803	5415.96
531.169	5498.44
531.535	5476.97
531.901	5505.45
532.267	5516.52
532.632	5558.33
532.998	5580.7
533.364	5649.17
533.73	5669.51
534.095	5661.15
534.461	5644.88
534.826	5686.91
535.192	5754.93
535.557	5760.36
535.923	5740.24
536.288	5798.32
536.653	5846.68
537.019	5815.72
537.384	5882.61
537.749	5830.64
538.114	5871.99
538.479	5973.23
538.845	5941.14
539.21	5973.68
539.575	6026.11
539.94	6011.2
540.305	6044.19
540.67	6049.16
541.034	6046.23
541.399	6131.19
541.764	6122.38
542.129	6129.61
542.494	6146.11
542.858	6170.06
543.223	6218.42
543.587	6258.65
543.952	6285.54
544.316	6281.47
544.681	6302.72
545.045	6375.48
545.41	6410.06
545.774	6384.3
546.138	6407.35
546.503	6443.05
546.867	6410.96
547.231	6528.7
547.595	6521.92
547.959	6525.08
548.324	6572.09
548.688	6530.51
549.052	6616.61
549.416	6619.32
549.779	6568.47
550.143	6601.24
550.507	6675.59
550.871	6739.99
551.235	6716.04
551.599	6793.1
551.962	6836.26
552.326	6776.6
552.689	6830.39
553.053	6828.35
553.417	6817.28
553.78	6936.15
554.143	6863.83
554.507	6944.51
554.87	6949.93
555.234	7002.13
555.597	6890.5
555.96	6936.15
556.323	7001
556.686	6994.67
557.05	7060.44
557.413	7055.46
557.776	7106.76
558.139	7129.36
558.502	7146.31
558.865	7166.65
559.228	7193.09
559.59	7234.22
559.953	7228.34
560.316	7330.94
560.679	7238.96
561.041	7316.25
561.404	7359.41
561.767	7430.37
562.129	7447.77
562.492	7465.4
562.854	7422.01
563.217	7435.34
563.579	7497.49
563.941	7513.76
564.304	7496.13
564.666	7616.35
565.028	7584.49
565.39	7658.39
565.753	7676.69
566.115	7679.63
566.477	7666.75
566.839	7693.19
567.201	7845.27
567.563	7781.77
567.925	7845.5
568.287	7828.1
568.648	7906.06
569.01	7938.15
569.372	7958.27
569.734	7960.75
570.095	8011.6
570.457	8098.15
570.819	8081.43
571.18	8113.52
571.542	8144.48
571.903	8215.89
572.265	8298.37
572.626	8231.7
572.987	8304.7
573.349	8356.45
573.71	8391.93
574.071	8440.29
574.432	8465.14
574.794	8543.33
575.155	8629.66
575.516	8635.08
575.877	8694.52
576.238	8740.62
576.599	8787.17
576.96	8921.4
577.32	8973.38
577.681	8954.4
578.042	9121.4
578.403	9197.78
578.763	9215.63
579.124	9351
579.485	9474.84
579.845	9578.34
580.206	9660.82
580.566	9715.51
580.927	9859.01
581.287	10019.91
581.648	10080.02
582.008	10226.68
582.368	10390.97
582.728	10526.79
583.089	10571.98
583.449	10733.79
583.809	10937.85
584.169	10992.99
584.529	11186.88
584.889	11488.57
585.249	11507.55
585.609	11719.97
585.969	12015.79
586.329	12123.35
586.688	12300.75
587.048	12590.01
587.408	12764.47
587.768	12938.7
588.127	13107.28
588.487	13373.04
588.846	13672.47
589.206	13802.41
589.565	14000.37
589.925	14361.94
590.284	14595.38
590.643	14909.27
591.003	15110.17
591.362	15430.39
591.721	15615.24
592.08	15845.29
592.44	16167.09
592.799	16452.73
593.158	16562.11
593.517	16878.48
593.876	17176.33
594.235	17532.93
594.593	17761.4
594.952	18127.26
595.311	18231.67
595.67	18570.19
596.029	19018.09
596.387	19213.79
596.746	19466.44
597.104	19752.76
597.463	19979.64
597.822	20325.62
598.18	20573.75
598.538	20803.58
598.897	21232.72
599.255	21296.9
599.613	21921.74
599.972	22062.98
600.33	22360.6
600.688	22540.03
601.046	22823.86
601.404	23232.89
601.762	23443.51
602.12	23763.5
602.478	23888.92
602.836	24233.54
603.194	24338.85
603.552	24676.7
603.91	24786.75
604.268	25200.3
604.625	25361.65
604.983	25703.56
605.341	25906.04
605.698	26207.73
606.056	26457.44
606.413	26588.74
606.771	26967.03
607.128	27225.1
607.485	27255.84
607.843	27549.61
608.2	27863.96
608.557	28132.65
608.914	28161.8
609.272	28695.35
609.629	28917.26
609.986	28988.67
610.343	29116.81
610.7	29483.58
611.057	29692.38
611.414	29659.84
611.771	30001.08
612.127	30177.34
612.484	30313.61
612.841	30625.47
613.198	30730.77
613.554	30808.29
613.911	31203.3
614.267	31332.79
614.624	31439.23
614.98	31567.36
615.337	31881.25
615.693	31997.41
616.05	32122.38
616.406	32390.17
616.762	32423.38
617.118	32531.4
617.475	32648.69
617.831	32906.99
618.187	33080.99
618.543	33078.06
618.899	33566.63
619.255	33545.16
619.611	33707.19
619.967	33658.38
620.323	33911.71
620.678	33873.29
621.034	33910.8
621.39	34064.47
621.746	34091.14
622.101	34642.76
622.457	34275.31
622.812	34524.57
623.168	34657.9
623.523	34729.99
623.879	34786.03
624.234	34772.93
624.589	35038.46
624.945	35096.53
625.3	35218.57
625.655	35135.4
626.01	35280.48
626.365	35407.94
626.72	35457.43
627.075	35418.79
627.43	35478.45
627.785	35491.55
628.14	35780.36
628.495	35703.3
628.85	35864.2
629.205	35589.18
629.559	35872.11
629.914	35819.45
630.269	35999.79
630.623	35871.66
630.978	35951.43
631.332	35964.76
631.687	36233
632.041	35994.36
632.396	35967.7
632.75	36027.13
633.104	36076.85
633.459	35849.74
633.813	36042.5
634.167	35951.2
634.521	35889.51
634.875	36102.16
635.229	36027.13
635.583	35974.93
635.937	36044.31
636.291	36040.46
636.645	35997.08
636.999	36059.67
637.352	36058.54
637.706	35991.43
638.06	36131.76
638.413	36110.29
638.767	36130.18
639.121	35998.43
639.474	35931.99
639.828	36098.09
640.181	36052.67
640.534	36127.69
640.888	35999.79
641.241	35784.43
641.594	36043.4
641.947	35971.54
642.301	35878.89
642.654	36074.59
643.007	35924.99
643.36	35932.67
643.713	35818.32
644.066	36134.47
644.419	35759.12
644.771	35636.18
645.124	35332.46
645.477	35134.73
645.83	34993.71
646.182	34990.1
646.535	34853.38
646.888	34890.44
647.24	34699.03
647.593	34973.15
647.945	34889.53
648.298	34779.71
648.65	34782.64
649.002	34663.33
649.355	34905.58
649.707	34685.02
650.059	34984
650.411	35230.32
650.763	35275.51
651.115	35571.55
651.467	35523.19
651.819	35536.98
652.171	35445
652.523	35515.05
652.875	35487.26
653.227	35278
653.578	35527.48
653.93	35385.11
654.282	35349.41
654.633	35300.6
654.985	35265.12
655.337	35311.22
655.688	35246.59
656.039	35456.98
656.391	35160.94
656.742	35279.81
657.094	35146.03
657.445	35327.04
657.796	35347.15
658.147	35224.67
658.498	35191.22
658.849	35127.72
659.2	35189.64
659.551	35249.53
659.902	35294.95
660.253	35201.84
660.604	35149.41
660.955	34928.18
661.306	35226.02
661.656	35153.03
662.007	35193.26
662.358	35238.9
662.708	35071.9
663.059	35106.25
663.409	34955.75
663.76	35276.19
664.11	35087.27
664.461	35132.92
664.811	35172.47
665.161	35094.95
665.511	35014.28
665.862	35066.25
666.212	35166.82
666.562	35160.04
666.912	34984.67
667.262	34993.94
667.612	35093.37
667.962	35086.59
668.312	35098.12
668.662	35145.57
669.011	35091.79
669.361	34966.82
669.711	34972.92
670.06	34885.24
670.41	34801.18
670.76	34772.7
671.109	35099.47
671.459	34815.86
671.808	34937.44
672.157	35009.31
672.507	34764.11
672.856	34715.53
673.205	34816.99
673.554	34846.6
673.904	34739.93
674.253	34890.66
674.602	34752.36
674.951	34310.79
675.3	34186.05
675.649	34641.63
675.998	34755.98
676.346	34743.78
676.695	34765.02
677.044	34514.18
677.393	34602.99
677.741	34592.59
678.09	34708.07
678.438	34390.11
678.787	34477.34
679.135	34546.72
679.484	34415.65
679.832	34548.07
680.181	34422.43
680.529	34427.63
680.877	34298.14
681.225	34223.56
681.573	34367.97
681.922	34083.68
682.27	34019.73
682.618	34246.16
682.966	34071.03
683.314	34128.88
683.661	33929.56
684.009	33746.06
684.357	33876.68
684.705	33671.04
685.053	33738.6
685.4	33628.32
685.748	33494.77
686.095	33549.46
686.443	33381.33
686.79	33363.7
687.138	33434.88
687.485	33349.46
687.832	33315.79
688.18	33341.78
688.527	33148.11
688.874	33094.33
689.221	33047.32
689.568	33078.73
689.915	33019.75
690.262	32819.76
690.609	32816.37
690.956	32723.49
691.303	32693.21
691.65	32572.31
691.997	32469.71
692.344	32382.03
692.69	32287.34
693.037	32416.15
693.383	32048.48
693.73	32233.11
694.077	32028.82
694.423	32096.39
694.769	31909.05
695.116	31864.3
695.462	31724.42
695.808	31639
696.155	31779.33
696.501	31485.33
696.847	31529.85
697.193	31282.62
697.539	31500.7
697.885	31141.61
698.231	31057.54
698.577	30980.71
698.923	30989.98
699.269	30938
699.614	30720.83
699.96	30637.67
700.306	30829.3
700.651	30706.82
700.997	30507.28
701.342	30444
701.688	30349.09
702.033	30179.15
702.379	30266.38
702.724	30232.48
703.069	30216.66
703.415	29911.36
703.76	29881.76
704.105	29900.29
704.45	29881.08
704.795	29747.97
705.14	29675.66
705.485	29715.89
705.83	29423.92
706.175	29611.26
706.52	29584.59
706.865	29328.32
707.209	29269.34
707.554	29220.31
707.899	29171.04
708.243	29088.11
708.588	29094.66
708.932	28943.7
709.277	28833.42
709.621	28924.95
709.966	28609.02
710.31	28745.06
710.654	28409.25
710.998	28566.76
711.342	28470.27
711.687	28510.04
712.031	28328.8
712.375	28210.84
712.719	28311.63
713.063	28169.49
713.407	28251.97
713.75	28091.75
714.094	28058.75
714.438	28016.27
714.782	27952.54
715.125	27721.81
715.469	27903.5
715.812	27744.41
716.156	27639.56
716.499	27603.85
716.843	27617.18
717.186	27483.85
717.53	27569.73
717.873	27579.67
718.216	27496.28
718.559	27316.17
718.902	27259.9
719.246	27323.18
719.589	27227.59
719.932	27071.44
720.275	27111.66
720.617	27093.36
720.96	27061.94
721.303	27087.48
721.646	26960.7
721.989	26860.59
722.331	27006.8
722.674	26870.08
723.016	26862.85
723.359	26786.92
723.701	26763.65
724.044	26582.86
724.386	26476.87
724.729	26666.7
725.071	26580.83
725.413	26542.64
725.755	26462.86
726.097	26248.86
726.439	26201.18
726.782	26191.01
727.124	26319.82
727.465	26191.91
727.807	26258.35
728.149	26136.32
728.491	26031.91
728.833	26131.57
729.175	25996.44
729.516	26067.39
729.858	25872.14
730.199	26102.65
730.541	25916.66
730.882	25747.85
731.224	25899.26
731.565	25794.41
731.906	25645.48
732.248	25816.1
732.589	25667.86
732.93	25435.55
733.271	25569.55
733.612	25497.01
733.953	25522.78
734.294	25419.28
734.635	25400.97
734.976	25486.62
735.317	25315.55
735.658	25330.01
735.999	25257.7
736.339	25233.97
736.68	25272.39
737.021	25194.65
737.361	25044.37
737.702	25234.65
738.042	25242.56
738.383	25076.46
738.723	25005.5
739.063	24993.52
739.404	25040.08
739.744	24997.37
740.084	24859.06
740.424	24776.58
740.764	24848.89
741.104	24911.04
741.444	24691.38
741.784	24661.78
742.124	24648.22
742.464	24769.57
742.804	24568.68
743.143	24502.92
743.483	24549.69
743.823	24502.24
744.162	24518.96
744.502	24483.25
744.841	24462.92
745.181	24573.65
745.52	24299.53
745.86	24334.78
746.199	24268.34
746.538	24168.01
746.877	24250.94
747.216	24380.88
747.556	24113.09
747.895	24080.33
748.234	24050.27
748.573	23997.62
748.911	24057.05
749.25	23862.48
749.589	23891.63
749.928	23836.27
750.267	23949.26
750.605	23724.86
750.944	23782.71
751.283	23589.49
751.621	23679.66
751.96	23549.72
752.298	23608.02
752.636	23652.77
752.975	23496.61
753.313	23376.39
753.651	23338.43
753.989	23295.72
754.327	23391.76
754.666	23139.79
755.004	23243.51
755.342	23220.91
755.679	23173.91
756.017	23028.38
756.355	23167.13
756.693	23050.07
757.031	23097.98
757.368	22888.72
757.706	22892.11
758.044	22804.43
758.381	22814.15
758.719	22752
759.056	22803.07
759.394	22652.34
759.731	22500.26
760.068	22434.49
760.405	22370.32
760.743	22252.35
761.08	22321.96
761.417	22145.24
