Data from hue_34_FLMS001491_00092.txt Node
Date: Tue Feb 07 17:26:28 GMT 2017
User: dcchb
Spectrometer: FLMS00149
Trigger mode: 0
Integration Time (sec): 2.000000E-2
Scans to average: 10
Electric dark correction enabled: true
Nonlinearity correction enabled: false
Boxcar width: 0
XAxis mode: Wavelengths
Number of Pixels in Spectrum: 2048
>>>>>Begin Spectral Data<<<<<
341.393	-33.22
341.776	-33.22
342.16	-33.22
342.543	-62.37
342.927	-55.82
343.31	-72.31
343.693	-48.36
344.077	-71.18
344.46	-54.24
344.843	-71.18
345.226	-42.03
345.61	-38.19
345.993	-15.37
346.376	1.81
346.759	-2.03
347.142	24.86
347.525	40
347.908	74.12
348.291	79.77
348.674	90.85
349.057	103.5
349.44	123.16
349.823	131.97
350.206	179.2
350.588	221.24
350.971	216.49
351.354	217.62
351.737	240.22
352.119	264.63
352.502	272.76
352.884	276.38
353.267	271.18
353.65	297.85
354.032	312.76
354.414	301.91
354.797	305.3
355.179	313.89
355.562	323.38
355.944	301.01
356.326	320.44
356.709	325.42
357.091	324.06
357.473	334.23
357.855	336.04
358.238	336.04
358.62	340.33
359.002	345.98
359.384	356.37
359.766	331.52
360.148	327.9
360.53	334
360.912	348.69
361.294	331.06
361.676	315.92
362.057	341.23
362.439	317.73
362.821	327
363.203	324.96
363.584	345.75
363.966	324.06
364.348	320.44
364.729	327.67
365.111	304.62
365.493	334.68
365.874	303.72
366.256	328.58
366.637	308.24
367.019	320.9
367.4	310.27
367.781	324.74
368.163	315.92
368.544	311.63
368.925	309.6
369.306	333.32
369.688	296.72
370.069	335.13
370.45	324.06
370.831	296.94
371.212	297.85
371.593	322.93
371.974	319.77
372.355	296.49
372.736	325.19
373.117	321.12
373.498	305.3
373.879	297.39
374.26	328.8
374.641	321.12
375.021	298.75
375.402	330.16
375.783	321.8
376.163	348.47
376.544	316.6
376.925	331.97
377.305	320.9
377.686	312.76
378.066	316.15
378.447	329.48
378.827	337.62
379.208	328.13
379.588	345.75
379.968	322.7
380.349	327.22
380.729	317.96
381.109	322.93
381.489	349.14
381.87	326.32
382.25	338.07
382.63	333.78
383.01	348.69
383.39	331.97
383.77	343.27
384.15	348.01
384.53	339.65
384.91	354.11
385.29	339.88
385.67	347.79
386.049	345.75
386.429	341.91
386.809	335.58
387.189	314.79
387.568	353.44
387.948	351.86
388.328	348.24
388.707	343.72
389.087	356.15
389.466	345.3
389.846	367
390.225	359.31
390.605	371.06
390.984	351.4
391.363	361.12
391.743	347.56
392.122	345.98
392.501	381.01
392.881	365.41
393.26	381.68
393.639	383.49
394.018	363.15
394.397	352.53
394.776	386.88
395.155	377.62
395.534	382.36
395.913	373.78
396.292	358.18
396.671	354.11
397.05	382.36
397.429	381.91
397.808	379.2
398.186	381.46
398.565	385.3
398.944	380.33
399.323	399.54
399.701	381.23
400.08	357.73
400.458	388.01
400.837	397.05
401.215	394.57
401.594	391.63
401.972	401.8
402.351	410.16
402.729	402.7
403.107	391.4
403.486	391.18
403.864	410.61
404.242	406.09
404.62	412.42
404.999	407.22
405.377	408.8
405.755	409.48
406.133	419.42
406.511	403.83
406.889	446.99
407.267	425.75
407.645	404.74
408.023	427.33
408.401	445.86
408.779	434.34
409.156	439.08
409.534	417.62
409.912	443.6
410.29	430.27
410.667	431.18
411.045	456.94
411.422	439.08
411.8	457.62
412.178	455.13
412.555	448.8
412.933	461.23
413.31	475.02
413.687	465.75
414.065	448.35
414.442	456.71
414.819	459.87
415.197	484.73
415.574	470.72
415.951	474.34
416.328	487.67
416.705	464.17
417.082	489.48
417.46	496.48
417.837	500.33
418.214	477.73
418.591	498.97
418.967	497.39
419.344	522.92
419.721	496.26
420.098	501.68
420.475	511.4
420.852	517.5
421.228	523.15
421.605	510.04
421.982	506.2
422.358	503.94
422.735	545.52
423.111	529.93
423.488	548.23
423.864	534
424.241	510.04
424.617	537.39
424.994	531.06
425.37	533.32
425.746	561.34
426.123	544.84
426.499	551.17
426.875	557.73
427.251	576.26
427.627	555.24
428.003	568.8
428.379	588.46
428.756	578.97
429.132	572.87
429.507	580.32
429.883	590.94
430.259	608.12
430.635	602.02
431.011	627.33
431.387	604.28
431.763	600.89
432.138	615.13
432.514	618.97
432.89	623.49
433.265	644.05
433.641	654.9
434.016	626.2
434.392	622.81
434.767	669.36
435.143	643.82
435.518	669.36
435.894	673.65
436.269	659.87
436.644	687.21
437.02	706.42
437.395	685.86
437.77	664.62
438.145	702.81
438.52	691.28
438.895	683.15
439.271	693.32
439.646	691.06
440.021	721.79
440.395	707.1
440.77	729.02
441.145	726.99
441.52	728.79
441.895	747.1
442.27	745.52
442.645	746.42
443.019	758.17
443.394	746.87
443.769	738.29
444.143	740.77
444.518	749.36
444.892	758.4
445.267	766.99
445.641	761.56
446.016	757.72
446.39	798.85
446.764	773.09
447.139	804.72
447.513	803.37
447.887	809.92
448.262	781.45
448.636	802.69
449.01	793.88
449.384	807.21
449.758	839.07
450.132	813.31
450.506	811.96
450.88	837.27
451.254	823.93
451.628	853.54
452.002	863.48
452.376	865.51
452.75	855.57
453.123	857.38
453.497	873.42
453.871	877.94
454.244	892.63
454.618	915.68
454.992	920.2
455.365	902.8
455.739	937.15
456.112	929.69
456.486	922.91
456.859	963.14
457.232	958.17
457.606	973.76
457.979	993.42
458.352	991.39
458.725	1011.05
459.099	986.87
459.472	1042.68
459.845	1047.88
460.218	1062.8
460.591	1045.62
460.964	1057.15
461.337	1117.26
461.71	1085.17
462.083	1087.43
462.456	1109.8
462.829	1101.89
463.201	1119.97
463.574	1120.42
463.947	1156.13
464.32	1173.98
464.692	1176.47
465.065	1176.92
465.438	1195.22
465.81	1236.58
466.183	1235.9
466.555	1254.66
466.928	1252.4
467.3	1292.62
467.672	1297.59
468.045	1309.8
468.417	1337.14
468.789	1334.2
469.161	1365.39
469.534	1373.52
469.906	1403.8
470.278	1450.13
470.65	1434.99
471.022	1467.31
471.394	1511.15
471.766	1514.54
472.138	1535.1
472.51	1572.84
472.882	1589.79
473.253	1624.14
473.625	1633.18
473.997	1698.71
474.369	1690.35
474.74	1742.33
475.112	1785.04
475.484	1797.92
475.855	1883.57
476.227	1871.36
476.598	1909.1
476.97	1958.59
477.341	2018.7
477.713	2059.61
478.084	2090.57
478.455	2155.88
478.827	2202.65
479.198	2272.93
479.569	2279.94
479.94	2383.44
480.311	2409.2
480.682	2482.65
481.053	2543.21
481.424	2594.96
481.795	2672.92
482.166	2650.1
482.537	2796.31
482.908	2858.68
483.279	2912.24
483.65	2994.05
484.021	3040.37
484.391	3145
484.762	3192.46
485.133	3246.69
485.503	3331.21
485.874	3393.13
486.244	3491.66
486.615	3556.97
486.985	3653.69
487.356	3748.15
487.726	3831.31
488.097	3930.52
488.467	3968.26
488.837	4110.17
489.207	4216.84
489.578	4264.97
489.948	4341.81
490.318	4483.5
490.688	4513.78
491.058	4577.28
491.428	4689.82
491.798	4756.49
492.168	4882.36
492.538	4958.74
492.908	5059.98
493.278	5132.07
493.648	5196.02
494.017	5252.07
494.387	5369.58
494.757	5444.83
495.126	5530.7
495.496	5597.59
495.866	5753.75
496.235	5759.4
496.605	5845.5
496.974	5877.13
497.344	6043.23
497.713	6081.2
498.082	6177.92
498.452	6251.36
498.821	6306.27
499.19	6370.23
499.559	6394.41
499.928	6500.85
500.298	6552.82
500.667	6632.82
501.036	6652.93
501.405	6760.95
501.774	6802.31
502.143	6907.61
502.512	6962.98
502.88	6989.19
503.249	7038.46
503.618	7149.19
503.987	7202.97
504.356	7246.59
504.724	7339.02
505.093	7389.86
505.462	7397.55
505.83	7414.49
506.199	7596.64
506.567	7670.31
506.936	7610.42
507.304	7747.59
507.672	7743.07
508.041	7851.54
508.409	7906.46
508.777	7962.73
509.145	8072.56
509.514	8101.93
509.882	8113.01
510.25	8101.93
510.618	8244.08
510.986	8240.24
511.354	8337.41
511.722	8411.76
512.09	8503.96
512.458	8529.49
512.826	8551.87
513.193	8601.36
513.561	8605.65
513.929	8648.13
514.297	8769.03
514.664	8823.72
515.032	8867.11
515.4	8936.49
515.767	8965.41
516.135	9039.76
516.502	8970.61
516.869	9095.58
517.237	9155.69
517.604	9168.12
517.972	9260.77
518.339	9248.8
518.706	9305.97
519.073	9378.28
519.44	9389.36
519.808	9479.75
520.175	9448.34
520.542	9606.3
520.909	9646.07
521.276	9611.95
521.643	9740.76
522.009	9828.22
522.376	9830.93
522.743	9897.59
523.11	10031.83
523.477	10107.3
523.843	10154.76
524.21	10190.24
524.577	10220.75
524.943	10368.77
525.31	10288.09
525.676	10465.04
526.043	10516.79
526.409	10565.82
526.776	10670.23
527.142	10672.49
527.508	10689.66
527.874	10690.79
528.241	10839.26
528.607	10794.52
528.973	11024.57
529.339	10982.99
529.705	11018.92
530.071	11217.56
530.437	11197.9
530.803	11285.8
531.169	11333.94
531.535	11318.57
531.901	11320.15
532.267	11356.99
532.632	11403.32
532.998	11503.43
533.364	11626.36
533.73	11672.91
534.095	11770.09
534.461	11777.77
534.826	11842.17
535.192	11816.19
535.557	11975.96
535.923	11989.74
536.288	11944.77
536.653	12035.62
537.019	12066.12
537.384	12067.25
537.749	12126.69
538.114	12257.53
538.479	12211.66
538.845	12357.19
539.21	12275.38
539.575	12346.12
539.94	12407.13
540.305	12476.73
540.67	12537.07
541.034	12547.92
541.399	12738.42
541.764	12705.65
542.129	12684.19
542.494	12817.06
542.858	12853.45
543.223	12857.29
543.587	12992.65
543.952	12927.12
544.316	13066.32
544.681	13046.21
545.045	13104.06
545.41	13118.07
545.774	13199.65
546.138	13258.86
546.503	13217.73
546.867	13189.03
547.231	13435.13
547.595	13412.98
547.959	13540.89
548.324	13486.2
548.688	13539.08
549.052	13622.24
549.416	13606.65
549.779	13725.51
550.143	13757.83
550.507	13890.48
550.871	13910.82
551.235	13872.4
551.599	13956.7
551.962	13950.14
552.326	13994.66
552.689	14113.53
553.053	14043.02
553.417	14065.17
553.78	14348.1
554.143	14257.7
554.507	14352.16
554.87	14406.85
555.234	14493.4
555.597	14450.47
555.96	14518.49
556.323	14597.36
556.686	14523.69
557.05	14638.03
557.413	14733.62
557.776	14796
558.139	14860.4
558.502	14793.96
558.865	14850.01
559.228	14952.83
559.59	14908.53
559.953	14950.34
560.316	15229.88
560.679	15153.73
561.041	15251.58
561.404	15315.98
561.767	15371.57
562.129	15240.96
562.492	15496.32
562.854	15489.54
563.217	15550.33
563.579	15585.13
563.941	15698.8
564.304	15671.68
564.666	15849.3
565.028	15732.47
565.39	15882.07
565.753	16016.75
566.115	16008.39
566.477	16040.26
566.839	16181.27
567.201	16185.79
567.563	16277.99
567.925	16438.21
568.287	16388.5
568.648	16379.68
569.01	16512.56
569.372	16586.68
569.734	16555.27
570.095	16694.7
570.457	16792.1
570.819	16827.81
571.18	16867.81
571.542	16967.24
571.903	17041.59
572.265	17044.52
572.626	17170.62
572.987	17231.19
573.349	17278.19
573.71	17406.1
574.071	17473.89
574.432	17564.51
574.794	17701.46
575.155	17768.12
575.516	17751.62
575.877	17971.5
576.238	18137.83
576.599	18204.49
576.96	18221.44
577.32	18320.42
577.681	18578.04
578.042	18596.8
578.403	18730.35
578.763	18878.37
579.124	19023.91
579.485	19188.65
579.845	19382.32
580.206	19482.2
580.566	19588.41
580.927	19746.37
581.287	19895.75
581.648	20011.45
582.008	20230.65
582.368	20545
582.728	20636.75
583.089	20784.31
583.449	20964.19
583.809	21168.71
584.169	21318.54
584.529	21506.1
584.889	21872.19
585.249	21907.9
585.609	22074
585.969	22364.61
586.329	22521.22
586.688	22810.7
587.048	23015.67
587.408	23125.49
587.768	23486.16
588.127	23599.15
588.487	23858.36
588.846	24238.46
589.206	24376.53
589.565	24598.9
589.925	24946.24
590.284	25090.41
590.643	25375.15
591.003	25736.95
591.362	26022.37
591.721	26141.46
592.08	26433.43
592.44	26842.91
592.799	26893.76
593.158	27185.5
593.517	27361.99
593.876	27718.14
594.235	27839.95
594.593	28107.96
594.952	28430.89
595.311	28639.47
595.67	28933.02
596.029	29341.38
596.387	29567.58
596.746	29821.59
597.104	29843.51
597.463	30150.17
597.822	30511.51
598.18	30607.1
598.538	30905.85
598.897	31267.43
599.255	31264.94
599.613	31761.88
599.972	31839.39
600.33	32198.93
600.688	32230.56
601.046	32639.37
601.404	33007.95
601.762	32944.9
602.12	33426.69
602.478	33595.95
602.836	33734.48
603.194	33704.2
603.552	33938.54
603.91	33987.35
604.268	34438.42
604.625	34453.56
604.983	34874.34
605.341	34778.07
605.698	35249.24
606.056	35295.8
606.413	35368.34
606.771	35658.27
607.128	35896.01
607.485	36037.7
607.843	36037.47
608.2	36390.91
608.557	36527.18
608.914	36509.55
609.272	36994.06
609.629	37119.93
609.986	37341.17
610.343	37356.08
610.7	37742.06
611.057	37730.31
611.414	37713.13
611.771	37985.44
612.127	38137.3
612.484	38325.32
612.841	38576.16
613.198	38525.54
613.554	38563.05
613.911	38911.97
614.267	39090.72
614.624	39201.91
614.98	39245.3
615.337	39467.66
615.693	39442.8
616.05	39636.25
616.406	39845.05
616.762	39805.51
617.118	39931.15
617.475	40034.2
617.831	40115.33
618.187	40351.71
618.543	40450.01
618.899	40782.88
619.255	40589.44
619.611	40646.61
619.967	40854.07
620.323	41066.49
620.678	40955.08
621.034	40917.12
621.39	40847.97
621.746	41084.34
622.101	41473.26
622.457	41282.53
622.812	41363.88
623.168	41493.37
623.523	41397.1
623.879	41790.77
624.234	41505.12
624.589	41684.78
624.945	41718.68
625.3	41971.78
625.655	41965
626.01	41989.4
626.365	42024.88
626.72	41922.74
627.075	42150.08
627.43	41964.77
627.785	42008.84
628.14	42165.67
628.495	42247.02
628.85	42220.36
629.205	41975.39
629.559	42341.71
629.914	42184.65
630.269	42261.94
630.623	42204.54
630.978	42122.28
631.332	42219
631.687	42538.09
632.041	42195.73
632.396	42355.95
632.75	42141.26
633.104	42208.16
633.459	42192.11
633.813	42132.45
634.167	42177.87
634.521	42136.75
634.875	42336.51
635.229	42239.57
635.583	42099.23
635.937	42290.87
636.291	42132.23
636.645	42249.06
636.999	42237.31
637.352	42405.21
637.706	42009.52
638.06	42190.76
638.413	42175.16
638.767	42151.43
639.121	42197.08
639.474	41940.37
639.828	41922.97
640.181	41975.62
640.534	41983.75
640.888	41900.37
641.241	41802.29
641.594	41907.6
641.947	41982.4
642.301	41827.15
642.654	41986.69
643.007	41921.16
643.36	41881.16
643.713	41812.46
644.066	41993.47
644.419	41665.35
644.771	41400.49
645.124	41134.51
645.477	41051.35
645.83	40875.99
646.182	40579.95
646.535	40662.21
646.888	40687.07
647.24	40331.59
647.593	40671.47
647.945	40635.09
648.298	40439.39
648.65	40276.68
649.002	40293.18
649.355	40433.74
649.707	40553.06
650.059	40740.4
650.411	41070.78
650.763	41095.42
651.115	41477.78
651.467	41386.48
651.819	41349.65
652.171	41320.04
652.523	41181.74
652.875	41333.15
653.227	41019.49
653.578	41384.67
653.93	41236.2
654.282	41145.81
654.633	40984.91
654.985	41100.84
655.337	41030.79
655.688	41128.64
656.039	41178.58
656.391	41007.28
656.742	40994.18
657.094	41004.12
657.445	41154.62
657.796	41153.72
658.147	41003.67
658.498	41090.22
658.849	41027.62
659.2	40895.2
659.551	41014.97
659.902	41084.8
660.253	41026.94
660.604	40971.58
660.955	40805.48
661.306	40892.71
661.656	40827.4
662.007	40934.52
662.358	40934.97
662.708	40884.8
663.059	40781.75
663.409	40636.9
663.76	40953.73
664.11	40881.41
664.461	40873.5
664.811	40890
665.161	40843.45
665.511	40719.16
665.862	40818.14
666.212	41112.14
666.562	40813.62
666.912	40710.57
667.262	40676.44
667.612	40710.34
667.962	40790.34
668.312	40690.23
668.662	40913.95
669.011	40690.23
669.361	40616.56
669.711	40706.73
670.06	40520.52
670.41	40594.86
670.76	40529.78
671.109	40730.23
671.459	40643.45
671.808	40622.21
672.157	40577.01
672.507	40328.21
672.856	40483.68
673.205	40469.44
673.554	40509.44
673.904	40467.64
674.253	40612.04
674.602	40436.22
674.951	39984.71
675.3	39797.82
675.649	40384.47
675.998	40274.65
676.346	40310.8
676.695	40468.09
677.044	40227.87
677.393	40276.46
677.741	40327.08
678.09	40263.12
678.438	40166.18
678.787	40169.57
679.135	40184.71
679.484	39888.22
679.832	40235.1
680.181	40020.19
680.529	39985.39
680.877	39864.04
681.225	39860.42
681.573	40054.99
681.922	39702.46
682.27	39578.85
682.618	39746.3
682.966	39567.77
683.314	39748.56
683.661	39587.21
684.009	39352.41
684.357	39298.63
684.705	39243.71
685.053	39308.12
685.4	39320.32
685.748	39010.27
686.095	38950.16
686.443	38949.03
686.79	38817.51
687.138	38867
687.485	38981.8
687.832	38796.49
688.18	38777.06
688.527	38631.98
688.874	38762.37
689.221	38434.47
689.568	38478.99
689.915	38362.61
690.262	38423.62
690.609	38259.56
690.956	38107.92
691.303	38167.36
691.65	38063.63
691.997	37877.87
692.344	37802.17
692.69	37649.86
693.037	37741.15
693.383	37421.84
693.73	37544.55
694.077	37295.74
694.423	37387.49
694.769	37293.71
695.116	37109.53
695.462	37096.43
695.808	36947.05
696.155	37087.61
696.501	36818.01
696.847	36823.66
697.193	36575.76
697.539	36681.07
697.885	36401.98
698.231	36402.66
698.577	36398.14
698.923	36251.48
699.269	36056.45
699.614	35929.22
699.96	35834.31
700.306	35921.32
700.651	35800.64
700.997	35558.39
701.342	35557.26
701.688	35443.59
702.033	35338.96
702.379	35442.46
702.724	35286.98
703.069	35371.95
703.415	34919.99
703.76	34929.25
704.105	34966.54
704.45	34886.99
704.795	34663.5
705.14	34548.92
705.485	34684.51
705.83	34575.59
706.175	34461.24
706.52	34396.16
706.865	34244.75
707.209	34200.68
707.554	34077.07
707.899	34198.65
708.243	34062.83
708.588	33959.79
708.932	33725.67
709.277	33733.58
709.621	33752.78
709.966	33536.97
710.31	33661.04
710.654	33175.4
710.998	33329.07
711.342	33399.8
711.687	33252.23
712.031	33135.17
712.375	33108.96
712.719	33042.97
713.063	32956.65
713.407	33089.3
713.75	32925.01
714.094	32860.83
714.438	32652.93
714.782	32819.48
715.125	32662.42
715.469	32681.4
715.812	32462.2
716.156	32229.21
716.499	32382.43
716.843	32409.54
717.186	32280.96
717.53	32396.89
717.873	32288.87
718.216	32257.23
718.559	31999.84
718.902	31815.89
719.246	31933.4
719.589	31776.11
719.932	31742.44
720.275	31832.61
720.617	31626.06
720.96	31588.77
721.303	31651.82
721.646	31622.9
721.989	31366.41
722.331	31502.9
722.674	31414.99
723.016	31388.33
723.359	31420.64
723.701	31204.6
724.044	31100.65
724.386	31068.11
724.729	31171.61
725.071	31187.65
725.413	31150.14
725.755	31036.02
726.097	30859.75
726.439	30736.82
726.782	30855.69
727.124	30897.04
727.465	30746.31
727.807	30736.59
728.149	30619.53
728.491	30521.91
728.833	30699.98
729.175	30410.73
729.516	30492.53
729.858	30387.9
730.199	30337.51
730.541	30371.18
730.882	30200.11
731.224	30420.9
731.565	30133.9
731.906	30118.76
732.248	30234.01
732.589	30017.29
732.93	29963.96
733.271	29911.3
733.612	29979.78
733.953	30029.49
734.294	29883.28
734.635	29793.57
734.976	29855.26
735.317	29539.11
735.658	29723.29
735.999	29748.82
736.339	29511.77
736.68	29626.11
737.021	29563.29
737.361	29378.21
737.702	29563.74
738.042	29449.62
738.383	29456.85
738.723	29502.95
739.063	29270.87
739.404	29324.2
739.744	29286.01
740.084	29217.54
740.424	29300.47
740.764	29197.65
741.104	29096.41
741.444	29019.12
741.784	28928.73
742.124	29047.6
742.464	28945.23
742.804	28861.61
743.143	28787.94
743.483	28777.55
743.823	28718.34
744.162	28702.75
744.502	28690.32
744.841	28490.1
745.181	28602.86
745.52	28407.39
745.86	28432.47
746.199	28401.97
746.538	28465.69
746.877	28475.18
747.216	28369.65
747.556	28239.48
747.895	28321.06
748.234	28188.19
748.573	28075.87
748.911	28110.45
749.25	28151.8
749.589	27876.56
749.928	27889.44
750.267	28100.05
750.605	27877.23
750.944	27869.32
751.283	27777.57
751.621	27837.01
751.96	27684.02
752.298	27614.87
752.636	27625.26
752.975	27593.62
753.313	27469.56
753.651	27503.01
753.989	27295.78
754.327	27421.65
754.666	27169.91
755.004	27166.74
755.342	27262.33
755.679	27137.82
756.017	27104.6
756.355	27043.58
756.693	26916.81
757.031	27005.17
757.368	26874.55
757.706	26766.3
758.044	26638.4
758.381	26805.62
