Data from hue_110_FLMS001491_00029.txt Node
Date: Tue Feb 07 17:01:06 GMT 2017
User: dcchb
Spectrometer: FLMS00149
Trigger mode: 0
Integration Time (sec): 2.000000E-2
Scans to average: 10
Electric dark correction enabled: true
Nonlinearity correction enabled: false
Boxcar width: 0
XAxis mode: Wavelengths
Number of Pixels in Spectrum: 2048
>>>>>Begin Spectral Data<<<<<
341.393	-9.18
341.776	-9.18
342.16	-9.18
342.543	-56.86
342.927	-60.7
343.31	-67.48
343.693	-72.46
344.077	-66.58
344.46	-62.29
344.843	-62.51
345.226	-47.37
345.61	-30.2
345.993	-8.5
346.376	-10.08
346.759	9.12
347.142	16.13
347.525	43.02
347.908	64.72
348.291	71.04
348.674	99.97
349.057	123.47
349.44	132.74
349.823	157.59
350.206	173.64
350.588	200.08
350.971	202.57
351.354	232.62
351.737	215.22
352.119	244.15
352.502	259.74
352.884	269.46
353.267	285.5
353.65	309.68
354.032	303.13
354.414	312.84
354.797	341.32
355.179	320.75
355.562	330.02
355.944	317.36
356.326	321.21
356.709	312.39
357.091	322.56
357.473	352.84
357.855	339.51
358.238	343.58
358.62	357.82
359.002	335.67
359.384	334.99
359.766	342.67
360.148	344.48
360.53	351.04
360.912	345.61
361.294	329.34
361.676	325.05
362.057	312.39
362.439	342.22
362.821	313.75
363.203	340.64
363.584	338.38
363.966	332.51
364.348	332.51
364.729	309.91
365.111	315.33
365.493	320.98
365.874	313.07
366.256	313.52
366.637	333.64
367.019	315.78
367.4	292.96
367.781	298.61
368.163	307.42
368.544	319.17
368.925	317.36
369.306	310.13
369.688	317.82
370.069	327.76
370.45	334.54
370.831	325.05
371.212	315.33
371.593	320.53
371.974	311.94
372.355	311.94
372.736	327.08
373.117	323.47
373.498	337.93
373.879	335.44
374.26	326.18
374.641	312.17
375.021	325.27
375.402	321.21
375.783	328.66
376.163	323.24
376.544	324.14
376.925	314.88
377.305	318.27
377.686	322.56
378.066	346.06
378.447	340.64
378.827	351.04
379.208	317.14
379.588	330.92
379.968	325.73
380.349	328.89
380.729	338.15
381.109	346.74
381.489	333.64
381.87	347.65
382.25	336.8
382.63	330.7
383.01	331.6
383.39	320.08
383.77	337.93
384.15	343.13
384.53	355.33
384.91	331.83
385.29	361.21
385.67	353.75
386.049	380.19
386.429	332.96
386.809	362.11
387.189	339.74
387.568	369.11
387.948	357.14
388.328	365.5
388.707	346.52
389.087	351.94
389.466	353.52
389.846	361.21
390.225	356.91
390.605	351.49
390.984	352.62
391.363	379.28
391.743	351.04
392.122	351.49
392.501	363.92
392.881	368.66
393.26	349
393.639	384.03
394.018	386.06
394.397	377.7
394.776	378.38
395.155	368.44
395.534	379.74
395.913	367.31
396.292	385.39
396.671	397.14
397.05	371.37
397.429	405.5
397.808	375.67
398.186	389.68
398.565	389
398.944	382.9
399.323	390.36
399.701	410.92
400.08	387.19
400.458	427.19
400.837	396.68
401.215	398.49
401.594	410.92
401.972	390.58
402.351	386.97
402.729	421.77
403.107	418.6
403.486	414.76
403.864	407.31
404.242	414.54
404.62	411.37
404.999	410.02
405.377	416.57
405.755	416.34
406.133	414.54
406.511	419.06
406.889	422.22
407.267	414.76
407.645	412.28
408.023	434.88
408.401	427.19
408.779	458.38
409.156	435.33
409.534	456.34
409.912	425.16
410.29	439.4
410.667	462.45
411.045	443.69
411.422	428.32
411.8	476
412.178	449.11
412.555	456.8
412.933	476
413.31	471.26
413.687	468.32
414.065	475.78
414.442	473.07
414.819	478.72
415.197	497.47
415.574	484.59
415.951	470.35
416.328	495.21
416.705	487.76
417.082	507.42
417.46	501.99
417.837	506.74
418.214	513.52
418.591	504.25
418.967	493.63
419.344	518.72
419.721	507.64
420.098	506.96
420.475	517.81
420.852	506.06
421.228	520.52
421.605	516.46
421.982	538.38
422.358	501.31
422.735	543.57
423.111	551.71
423.488	520.98
423.864	570.01
424.241	551.48
424.617	540.41
424.994	542.22
425.37	562.1
425.746	543.12
426.123	582.44
426.499	562.78
426.875	564.82
427.251	575.21
427.627	570.01
428.003	581.31
428.379	591.71
428.756	617.24
429.132	597.58
429.507	611.37
429.883	608.2
430.259	616.57
430.635	598.49
431.011	619.96
431.387	628.77
431.763	642.78
432.138	632.84
432.514	644.14
432.89	625.38
433.265	651.82
433.641	651.37
434.016	643.01
434.392	658.37
434.767	662.67
435.143	672.84
435.518	702.67
435.894	679.16
436.269	701.99
436.644	701.08
437.02	696.56
437.395	698.6
437.77	705.15
438.145	707.18
438.52	721.65
438.895	726.85
439.271	735.21
439.646	747.86
440.021	744.25
440.395	763.45
440.77	734.3
441.145	751.7
441.52	746.96
441.895	760.52
442.27	784.92
442.645	772.04
443.019	801.65
443.394	811.14
443.769	765.04
444.143	794.64
444.518	804.13
444.892	804.13
445.267	791.93
445.641	805.94
446.016	828.31
446.39	829.44
446.764	840.51
447.139	838.71
447.513	819.72
447.887	854.53
448.262	858.82
448.636	840.29
449.01	853.62
449.384	860.18
449.758	856.11
450.132	873.51
450.506	874.64
450.88	890.46
451.254	870.34
451.628	909.21
452.002	917.12
452.376	927.97
452.75	913.06
453.123	914.41
453.497	950.34
453.871	926.84
454.244	965.03
454.618	971.13
454.992	970
455.365	974.3
455.739	1005.26
456.112	1002.77
456.486	1039.15
456.859	1044.13
457.232	1034.86
457.606	1042.54
457.979	1055.2
458.352	1089.1
458.725	1074.18
459.099	1097.68
459.472	1093.62
459.845	1141.75
460.218	1112.15
460.591	1136.33
460.964	1149.43
461.337	1159.6
461.71	1172.03
462.083	1202.76
462.456	1232.82
462.829	1212.03
463.201	1256.55
463.574	1245.7
463.947	1228.98
464.32	1274.18
464.692	1323.89
465.065	1321.86
465.438	1326.83
465.81	1347.39
466.183	1409.31
466.555	1432.14
466.928	1398.24
467.3	1428.07
467.672	1455.64
468.045	1480.27
468.417	1514.85
468.789	1514.62
469.161	1531.57
469.534	1555.07
469.906	1605.69
470.278	1647.27
470.65	1651.34
471.022	1676.42
471.394	1727.27
471.766	1729.3
472.138	1774.05
472.51	1842.07
472.882	1870.09
473.253	1911.45
473.625	1971.56
473.997	1967.72
474.369	2007.26
474.74	2037.77
475.112	2104.44
475.484	2132.91
475.855	2190.08
476.227	2269.86
476.598	2312.57
476.97	2387.82
477.341	2431.66
477.713	2471.21
478.084	2555.95
478.455	2617.19
478.827	2662.39
479.198	2781.93
479.569	2791.65
479.94	2911.19
480.311	2999.55
480.682	3091.3
481.053	3210.4
481.424	3256.72
481.795	3340.11
482.166	3426.21
482.537	3517.96
482.908	3639.31
483.279	3708.46
483.65	3824.84
484.021	3963.6
484.391	4006.53
484.762	4118.85
485.133	4227.32
485.503	4354.55
485.874	4502.79
486.244	4605.84
486.615	4705.95
486.985	4811.03
487.356	4956.56
487.726	5148.2
488.097	5190.46
488.467	5318.36
488.837	5480.84
489.207	5634.06
489.578	5749.76
489.948	5860.27
490.318	6017.1
490.688	6128.51
491.058	6285.8
491.428	6380.48
491.798	6580.48
492.168	6758.33
492.538	6773.69
492.908	7026.34
493.278	7180.91
493.648	7173.46
494.017	7434.92
494.387	7483.28
494.757	7626.55
495.126	7803.04
495.496	7902.48
495.866	8062.7
496.235	8153.09
496.605	8332.07
496.974	8398.73
497.344	8599.63
497.713	8678.73
498.082	8731.61
498.452	9000.07
498.821	9005.27
499.19	9071.48
499.559	9301.76
499.928	9329.78
500.298	9485.94
500.667	9599.61
501.036	9610.23
501.405	9820.62
501.774	9780.62
502.143	9994.62
502.512	10106.26
502.88	10144
503.249	10211.79
503.618	10326.14
503.987	10407.27
504.356	10469.87
504.724	10644.78
505.093	10658.34
505.462	10699.69
505.83	10861.95
506.199	10990.53
506.567	11155.72
506.936	11112.56
507.304	11219.45
507.672	11285.21
508.041	11353.68
508.409	11521.36
508.777	11546.67
509.145	11634.13
509.514	11626.9
509.882	11649.95
510.25	11822.15
510.618	11845.87
510.986	11887.91
511.354	12017.4
511.722	12080.22
512.09	12123.16
512.458	12064.17
512.826	12253.55
513.193	12301.68
513.561	12276.37
513.929	12373.54
514.297	12519.3
514.664	12572.18
515.032	12548.91
515.4	12674.55
515.767	12690.37
516.135	12670.03
516.502	12635.01
516.869	12794.78
517.237	12864.83
517.604	12836.81
517.972	12877.03
518.339	12988.9
518.706	12900.99
519.073	12953.87
519.44	13024.15
519.808	13115.22
520.175	13130.13
520.542	13229.12
520.909	13226.4
521.276	13199.96
521.643	13306.85
522.009	13380.98
522.376	13384.59
522.743	13402.67
523.11	13582.78
523.477	13590.24
523.843	13569.9
524.21	13608.09
524.577	13732.15
524.943	13746.84
525.31	13717.46
525.676	13840.62
526.043	13830.91
526.409	13847.86
526.776	13923.11
527.142	13936.22
527.508	13936.22
527.874	13948.87
528.241	13972.37
528.607	13988.42
528.973	14004.01
529.339	14000.17
529.705	14070.45
530.071	14148.64
530.437	14086.49
530.803	14109.32
531.169	14134.85
531.535	14048.75
531.901	14032.03
532.267	14052.37
532.632	13934.86
532.998	14048.98
533.364	14084.91
533.73	14030.68
534.095	14105.25
534.461	14051.69
534.826	14091.92
535.192	13986.84
535.557	14032.26
535.923	13978.25
536.288	13971.47
536.653	13942.32
537.019	13971.92
537.384	13940.96
537.749	13900.74
538.114	13905.93
538.479	13906.84
538.845	13844.47
539.21	13817.57
539.575	13813.96
539.94	13827.74
540.305	13747.97
540.67	13737.8
541.034	13767.86
541.399	13764.02
541.764	13608.54
542.129	13695.09
542.494	13540.07
542.858	13604.7
543.223	13512.72
543.587	13618.03
543.952	13533.29
544.316	13486.51
544.681	13473.85
545.045	13513.18
545.41	13432.95
545.774	13425.49
546.138	13316.12
546.503	13319.96
546.867	13300.53
547.231	13361.09
547.595	13294.65
547.959	13251.49
548.324	13259.17
548.688	13072.28
549.052	13169.46
549.416	13084.03
549.779	13063.47
550.143	13025.5
550.507	13034.77
550.871	13052.4
551.235	13011.72
551.599	13024.38
551.962	12937.37
552.326	12919.29
552.689	12958.16
553.053	12813.76
553.417	12789.35
553.78	12863.25
554.143	12794.1
554.507	12863.25
554.87	12813.76
555.234	12849.01
555.597	12782.8
555.96	12748.68
556.323	12731.05
556.686	12688.79
557.05	12770.82
557.413	12728.79
557.776	12673.65
558.139	12754.55
558.502	12746.64
558.865	12644.72
559.228	12652.41
559.59	12644.5
559.953	12798.39
560.316	12768.11
560.679	12727.89
561.041	12745.51
561.404	12761.33
561.767	12795.45
562.129	12703.93
562.492	12851.27
562.854	12790.71
563.217	12695.34
563.579	12742.12
563.941	12746.19
564.304	12767.88
564.666	12887.2
565.028	12836.13
565.39	12827.09
565.753	12857.15
566.115	12852.85
566.477	13001.78
566.839	12891.27
567.201	12978.05
567.563	12944.15
567.925	12947.31
568.287	12860.54
568.648	12921.78
569.01	12973.53
569.372	13016.47
569.734	12938.5
570.095	12995.68
570.457	13045.39
570.819	13028.44
571.18	13007.43
571.542	13065.96
571.903	13033.87
572.265	13038.39
572.626	13104.6
572.987	13046.75
573.349	13087.42
573.71	13102.11
574.071	13165.16
574.432	13125.62
574.794	13132.85
575.155	13165.16
575.516	13142.79
575.877	13201.77
576.238	13112.73
576.599	13229.57
576.96	13130.36
577.32	13142.11
577.681	13260.53
578.042	13264.14
578.403	13246.52
578.763	13161.55
579.124	13220.3
579.485	13274.31
579.845	13235.67
580.206	13178.95
580.566	13241.32
580.927	13283.35
581.287	13267.53
581.648	13230.92
582.008	13238.38
582.368	13243.13
582.728	13182.34
583.089	13210.36
583.449	13240.19
583.809	13208.33
584.169	13246.97
584.529	13167.87
584.889	13213.07
585.249	13136.69
585.609	13020.76
585.969	13144.37
586.329	13070.7
586.688	13175.56
587.048	13072.51
587.408	13094.43
587.768	13109.12
588.127	13044.26
588.487	13041.78
588.846	13137.82
589.206	13031.38
589.565	13036.8
589.925	13093.53
590.284	13033.64
590.643	13004.04
591.003	13049.91
591.362	13046.07
591.721	13082.23
592.08	13031.83
592.44	13095.56
592.799	13067.76
593.158	13073.87
593.517	13023.02
593.876	13000.65
594.235	12978.5
594.593	12932.17
594.952	12952.29
595.311	12876.58
595.67	12948.22
596.029	13108.44
596.387	12995
596.746	12897.37
597.104	12899.18
597.463	12945.06
597.822	12976.69
598.18	12916.58
598.538	12902.34
598.897	12984.15
599.255	12873.42
599.613	13010.59
599.972	12935.56
600.33	12918.16
600.688	12853.31
601.046	12967.65
601.404	12976.01
601.762	12907.32
602.12	12893.53
602.478	12999.74
602.836	12936.02
603.194	12886.98
603.552	12946.64
603.91	12902.8
604.268	13005.17
604.625	12889.24
604.983	12930.59
605.341	12893.76
605.698	12939.41
606.056	12933.98
606.413	12967.88
606.771	13057.82
607.128	12979.18
607.485	12924.49
607.843	12990.03
608.2	12964.94
608.557	12991.61
608.914	13002
609.272	13076.58
609.629	13064.15
609.986	13099.63
610.343	13022.57
610.7	13061.89
611.057	13085.84
611.414	13077.26
611.771	13055.11
612.127	13136.91
612.484	13133.07
612.841	13090.36
613.198	13062.79
613.554	13130.81
613.911	13159.96
614.267	13182.79
614.624	13143.47
614.98	13180.53
615.337	13209.91
615.693	13163.35
616.05	13143.69
616.406	13220.08
616.762	13152.73
617.118	13189.12
617.475	13238.61
617.831	13243.35
618.187	13291.49
618.543	13260.53
618.899	13390.47
619.255	13339.17
619.611	13285.39
619.967	13368.09
620.323	13365.16
620.678	13242.45
621.034	13239.74
621.39	13141.21
621.746	13347.3
622.101	13383.24
622.457	13287.64
622.812	13371.03
623.168	13361.77
623.523	13332.84
623.879	13401.77
624.234	13339.4
624.589	13430.24
624.945	13396.34
625.3	13373.07
625.655	13333.97
626.01	13371.94
626.365	13333.97
626.72	13346.63
627.075	13357.02
627.43	13378.49
627.785	13283.35
628.14	13381.43
628.495	13413.74
628.85	13270.92
629.205	13330.36
629.559	13301.2
629.914	13216.91
630.269	13251.04
630.623	13225.05
630.978	13189.79
631.332	13167.87
631.687	13242.9
632.041	13256.23
632.396	13255.33
632.75	13180.53
633.104	13151.38
633.459	13148.44
633.813	13139.4
634.167	13123.36
634.521	13101.44
634.875	13099.18
635.229	13074.54
635.583	12963.59
635.937	13063.02
636.291	13026.41
636.645	13081.32
636.999	13074.32
637.352	13081.1
637.706	12953.42
638.06	12971.04
638.413	12952.06
638.767	12986.64
639.121	12954.09
639.474	12845.85
639.828	12852.4
640.181	12857.6
640.534	12817.15
640.888	12790.93
641.241	12814.21
641.594	12747.09
641.947	12876.36
642.301	12812.18
642.654	12912.06
643.007	12839.75
643.36	12795.91
643.713	12754.78
644.066	12792.52
644.419	12720.65
644.771	12671.16
645.124	12562.24
645.477	12487.21
645.83	12440.89
646.182	12404.28
646.535	12335.13
646.888	12444.5
647.24	12360.66
647.593	12404.05
647.945	12388.46
648.298	12318.4
648.65	12308.69
649.002	12317.73
649.355	12389.14
649.707	12306.88
650.059	12438.18
650.411	12588
650.763	12629.13
651.115	12604.27
651.467	12649.02
651.819	12547.55
652.171	12632.07
652.523	12535.12
652.875	12631.62
653.227	12504.61
653.578	12676.36
653.93	12622.13
654.282	12569.7
654.633	12584.39
654.985	12571.05
655.337	12667.77
655.688	12650.83
656.039	12664.16
656.391	12526.99
656.742	12674.1
657.094	12541.68
657.445	12720.88
657.796	12655.12
658.147	12673.88
658.498	12639.53
658.849	12632.52
659.2	12655.8
659.551	12550.72
659.902	12743.25
660.253	12665.74
660.604	12667.55
660.955	12580.32
661.306	12638.85
661.656	12679.3
662.007	12734.44
662.358	12663.25
662.708	12726.3
663.059	12705.06
663.409	12633.65
663.76	12726.76
664.11	12750.94
664.461	12730.6
664.811	12741.67
665.161	12739.41
665.511	12718.17
665.862	12719.75
666.212	12758.39
666.562	12719.07
666.912	12732.18
667.262	12683.14
667.612	12646.76
667.962	12756.59
668.312	12727.89
668.662	12807.43
669.011	12660.99
669.361	12787.32
669.711	12655.35
670.06	12643.14
670.41	12639.53
670.76	12662.58
671.109	12679.98
671.459	12672.07
671.808	12642.92
672.157	12675.91
672.507	12426.65
672.856	12618.06
673.205	12663.71
673.554	12670.94
673.904	12611.96
674.253	12621.45
674.602	12557.04
674.951	12373.54
675.3	12316.37
675.649	12551.85
675.998	12535.12
676.346	12545.29
676.695	12512.3
677.044	12451.28
677.393	12482.47
677.741	12519.98
678.09	12466.88
678.438	12416.71
678.787	12411.51
679.135	12457.38
679.484	12235.7
679.832	12409.93
680.181	12327.22
680.529	12343.04
680.877	12235.92
681.225	12268.69
681.573	12314.34
681.922	12258.75
682.27	12218.29
682.618	12156.15
682.966	12211.97
683.314	12179.2
683.661	12205.87
684.009	12062.14
684.357	12060.33
684.705	12035.02
685.053	12085.87
685.4	11965.65
685.748	12002.03
686.095	11933.33
686.443	11898.75
686.79	11913.22
687.138	11860.11
687.485	11946.44
687.832	11862.6
688.18	11886.33
688.527	11769.94
688.874	11782.83
689.221	11763.84
689.568	11664.41
689.915	11692.43
690.262	11599.55
690.609	11648.59
690.956	11523.85
691.303	11581.48
691.65	11554.13
691.997	11478.43
692.344	11374.47
692.69	11461.48
693.037	11359.79
693.383	11247.02
693.73	11362.05
694.077	11285.44
694.423	11197.98
694.769	11149.4
695.116	11154.59
695.462	11161.6
695.808	11025.11
696.155	11120.7
696.501	10933.13
696.847	11004.77
697.193	10881.15
697.539	10951.89
697.885	10801.61
698.231	10819.46
698.577	10866.92
698.923	10801.83
699.269	10755.28
699.614	10635.29
699.96	10637.77
700.306	10599.35
700.651	10548.06
700.997	10496.76
701.342	10476.42
701.688	10513.25
702.033	10367.27
702.379	10443.65
702.724	10311.23
703.069	10348.74
703.415	10269.87
703.76	10253.6
704.105	10269.65
704.45	10238.69
704.795	10133.83
705.14	10102.42
705.485	10111.01
705.83	10046.83
706.175	9993.27
706.52	10042.76
706.865	9992.36
707.209	9951.46
707.554	9897
707.899	9878.47
708.243	9845.48
708.588	9845.02
708.932	9774.07
709.277	9747.85
709.621	9733.61
709.966	9683.9
710.31	9701.75
710.654	9657.91
710.998	9617.91
711.342	9579.04
711.687	9590.12
712.031	9581.53
712.375	9537.69
712.719	9501.98
713.063	9471.47
713.407	9563.22
713.75	9480.97
714.094	9505.15
714.438	9402.78
714.782	9468.76
715.125	9347.18
715.469	9379.5
715.812	9271.71
716.156	9348.77
716.499	9314.87
716.843	9287.75
717.186	9294.76
717.53	9311.03
717.873	9228.99
718.216	9287.98
718.559	9228.09
718.902	9199.39
719.246	9183.8
719.589	9172.27
719.932	9123.91
720.275	9124.59
720.617	9134.76
720.96	9093.63
721.303	9171.37
721.646	9128.43
721.989	9046.85
722.331	9087.53
722.674	9127.08
723.016	9102.22
723.359	9088.43
723.701	9086.85
724.044	9039.17
724.386	9039.85
724.729	9021.32
725.071	9107.19
725.413	8965.95
725.755	8982.22
726.097	9004.59
726.439	8937.7
726.782	8957.59
727.124	8978.38
727.465	8926.63
727.807	8912.62
728.149	8937.93
728.491	8909
728.833	8921.43
729.175	8925.27
729.516	8883.92
729.858	8847.76
730.199	8901.77
730.541	8913.75
730.882	8899.96
731.224	8853.41
731.565	8811.15
731.906	8899.74
732.248	8843.47
732.589	8796.24
732.93	8802.57
733.271	8821.1
733.612	8898.61
733.953	8843.69
734.294	8806.18
734.635	8866.07
734.976	8928.66
735.317	8855.9
735.658	8838.72
735.999	8823.13
736.339	8837.82
736.68	8931.6
737.021	8859.51
737.361	8890.47
737.702	8883.24
738.042	8852.51
738.383	8854.54
738.723	8923.01
739.063	8924.37
739.404	8903.35
739.744	8876.91
740.084	9010.24
740.424	8960.98
740.764	8971.6
741.104	8977.93
741.444	8896.35
741.784	8987.65
742.124	9016.12
742.464	9019.73
742.804	9018.83
743.143	9067.87
743.483	9109
743.823	9088.43
744.162	9126.62
744.502	9184.93
744.841	9244.59
745.181	9299.5
745.52	9215.66
745.86	9283.46
746.199	9321.65
746.538	9350.12
746.877	9413.85
747.216	9506.05
747.556	9447.75
747.895	9579.49
748.234	9580.85
748.573	9659.94
748.911	9715.31
749.25	9763.9
749.589	9742.65
749.928	9889.77
750.267	9980.16
750.605	10057.67
750.944	10097.45
751.283	10146.03
751.621	10221.51
751.96	10339.93
752.298	10427.83
752.636	10574.27
752.975	10631.44
753.313	10701.5
753.651	10879.57
753.989	10886.58
754.327	11062.84
754.666	11095.16
755.004	11234.82
755.342	11391.42
755.679	11537.86
756.017	11590.74
756.355	11831.64
756.693	11880.68
757.031	11984.63
757.368	12053.78
757.706	12284.06
758.044	12437.05
758.381	12620.32
758.719	12706.87
