Data from hue_170_FLMS001491_00085.txt Node
Date: Tue Feb 07 16:49:19 GMT 2017
User: dcchb
Spectrometer: FLMS00149
Trigger mode: 0
Integration Time (sec): 2.000000E-2
Scans to average: 10
Electric dark correction enabled: true
Nonlinearity correction enabled: false
Boxcar width: 0
XAxis mode: Wavelengths
Number of Pixels in Spectrum: 2048
>>>>>Begin Spectral Data<<<<<
341.393	-26.68
341.776	-26.68
342.16	-26.68
342.543	-74.14
342.927	-48.37
343.31	-65.32
343.693	-66.45
344.077	-58.32
344.46	-45.21
344.843	-70.75
345.226	-35.27
345.61	-58.09
345.993	-12.67
346.376	-1.6
346.759	5.64
347.142	28.01
347.525	33.88
347.908	48.35
348.291	77.72
348.674	95.12
349.057	124.95
349.44	115.01
349.823	134.67
350.206	179.64
350.588	189.36
350.971	225.06
351.354	220.32
351.737	257.38
352.119	253.54
352.502	275.23
352.884	265.97
353.267	289.02
353.65	283.37
354.032	297.15
354.414	316.14
354.797	325.63
355.179	317.27
355.562	331.73
355.944	338.73
356.326	343.71
356.709	339.41
357.091	344.16
357.473	331.05
357.855	352.74
358.238	345.97
358.62	351.62
359.002	332.41
359.384	338.06
359.766	330.82
360.148	326.53
360.53	349.36
360.912	339.64
361.294	320.88
361.676	345.97
362.057	324.05
362.439	329.92
362.821	331.73
363.203	321.56
363.584	333.31
363.966	347.32
364.348	311.84
364.729	320.66
365.111	325.4
365.493	305.97
365.874	307.77
366.256	308
366.637	350.71
367.019	296.25
367.4	305.06
367.781	327.43
368.163	326.76
368.544	319.53
368.925	323.14
369.306	317.49
369.688	308.45
370.069	347.32
370.45	315.68
370.831	314.55
371.212	310.26
371.593	317.04
371.974	299.41
372.355	326.08
372.736	339.64
373.117	315.46
373.498	331.05
373.879	320.43
374.26	325.63
374.641	321.56
375.021	318.17
375.402	326.98
375.783	305.29
376.163	325.63
376.544	347.32
376.925	350.26
377.305	337.38
377.686	317.04
378.066	321.11
378.447	325.18
378.827	321.33
379.208	334.21
379.588	354.33
379.968	337.6
380.349	325.18
380.729	353.87
381.109	366.08
381.489	318.85
381.87	345.74
382.25	357.26
382.63	334.21
383.01	353.42
383.39	354.33
383.77	330.82
384.15	356.59
384.53	361.33
384.91	348
385.29	363.14
385.67	347.1
386.049	360.2
386.429	350.94
386.809	355.23
387.189	382.57
387.568	360.65
387.948	339.64
388.328	351.16
388.707	359.3
389.087	375.57
389.466	371.05
389.846	355.68
390.225	369.69
390.605	366.3
390.984	365.17
391.363	383.7
391.743	345.06
392.122	382.57
392.501	391.84
392.881	388
393.26	390.48
393.639	394.78
394.018	379.86
394.397	371.95
394.776	385.51
395.155	399.52
395.534	402.91
395.913	387.09
396.292	406.08
396.671	404.72
397.05	413.08
397.429	383.93
397.808	420.31
398.186	401.33
398.565	417.15
398.944	406.98
399.323	409.01
399.701	410.37
400.08	426.64
400.458	409.24
400.837	439.3
401.215	406.75
401.594	423.7
401.972	411.05
402.351	441.1
402.729	421.67
403.107	434.1
403.486	437.71
403.864	438.62
404.242	437.26
404.62	426.87
404.999	442.01
405.377	452.63
405.755	433.42
406.133	462.12
406.511	452.86
406.889	468.45
407.267	496.92
407.645	470.48
408.023	456.02
408.401	476.13
408.779	481.1
409.156	474.1
409.534	478.17
409.912	490.37
410.29	499.63
410.667	508
411.045	492.85
411.422	518.84
411.8	494.21
412.178	532.18
412.555	527.88
412.933	528.79
413.31	542.12
413.687	526.07
414.065	557.94
414.442	560.2
414.819	546.64
415.197	544.38
415.574	550.03
415.951	561.78
416.328	578.28
416.705	562.68
417.082	571.5
417.46	601.1
417.837	604.04
418.214	614.88
418.591	589.12
418.967	609.69
419.344	619.86
419.721	607.65
420.098	631.61
420.475	642.68
420.852	636.81
421.228	635.68
421.605	648.1
421.982	677.48
422.358	671.83
422.735	673.41
423.111	704.83
423.488	692.85
423.864	678.61
424.241	695.79
424.617	730.81
424.994	717.71
425.37	722.45
425.746	715.67
426.123	754.99
426.499	705.05
426.875	745.95
427.251	740.08
427.627	772.39
428.003	790.47
428.379	797.03
428.756	788.44
429.132	814.2
429.507	809
429.883	818.95
430.259	827.99
430.635	812.17
431.011	819.85
431.387	844.03
431.763	858.04
432.138	870.25
432.514	857.82
432.89	893.07
433.265	882.9
433.641	890.36
434.016	920.41
434.392	924.03
434.767	943.92
435.143	948.21
435.518	966.29
435.894	980.3
436.269	978.72
436.644	1003.35
437.02	989.11
437.395	1024.37
437.77	1017.13
438.145	1036.57
438.52	1079.96
438.895	1074.31
439.271	1037.7
439.646	1111.14
440.021	1087.19
440.395	1081.31
440.77	1082.67
441.145	1105.27
441.52	1152.5
441.895	1138.49
442.27	1165.83
442.645	1166.06
443.019	1194.76
443.394	1188.43
443.769	1195.66
444.143	1177.58
444.518	1211.93
444.892	1224.81
445.267	1230.91
445.641	1230.69
446.016	1239.5
446.39	1253.74
446.764	1262.78
447.139	1252.61
447.513	1287.41
447.887	1266.85
448.262	1279.27
448.636	1306.84
449.01	1318.37
449.384	1316.11
449.758	1347.97
450.132	1345.71
450.506	1342.78
450.88	1381.64
451.254	1393.62
451.628	1405.15
452.002	1397.24
452.376	1437.69
452.75	1444.47
453.123	1469.1
453.497	1467.52
453.871	1502.55
454.244	1516.1
454.618	1540.51
454.992	1526.27
455.365	1559.72
455.739	1566.72
456.112	1619.38
456.486	1614.41
456.859	1608.53
457.232	1665.48
457.606	1655.76
457.979	1699.83
458.352	1732.14
458.725	1753.61
459.099	1719.49
459.472	1776.21
459.845	1819.15
460.218	1827.06
460.591	1852.37
460.964	1825.93
461.337	1888.3
461.71	1933.95
462.083	1985.24
462.456	1953.83
462.829	1967.62
463.201	2013.72
463.574	2049.88
463.947	2087.16
464.32	2160.38
464.692	2137.33
465.065	2157.9
465.438	2198.35
465.81	2227.95
466.183	2251.68
466.555	2281.28
466.928	2314.28
467.3	2316.08
467.672	2355.86
468.045	2438.34
468.417	2485.8
468.789	2489.64
469.161	2554.04
469.534	2607.6
469.906	2595.85
470.278	2632.46
470.65	2733.93
471.022	2775.73
471.394	2811.66
471.766	2837.2
472.138	2909.51
472.51	2963.75
472.882	3050.53
473.253	3075.39
473.625	3119
473.997	3220.92
474.369	3246.68
474.74	3323.06
475.112	3380.24
475.484	3419.78
475.855	3538.88
476.227	3615.48
476.598	3706.78
476.97	3798.3
477.341	3851.64
477.713	3940
478.084	3970.5
478.455	4077.84
478.827	4178.63
479.198	4326.65
479.569	4347.67
479.94	4495.01
480.311	4597.83
480.682	4702.91
481.053	4854.55
481.424	4928.67
481.795	5033.75
482.166	5161.88
482.537	5199.4
482.908	5371.37
483.279	5425.61
483.65	5622.89
484.021	5725.26
484.391	5856.33
484.762	5927.51
485.133	6025.14
485.503	6174.96
485.874	6317.11
486.244	6392.59
486.615	6614.28
486.985	6645.23
487.356	6888.39
487.726	7021.27
488.097	7120.7
488.467	7184.88
488.837	7394.14
489.207	7508.71
489.578	7630.97
489.948	7841.59
490.318	7950.06
490.688	8018.76
491.058	8159.77
491.428	8353.44
491.798	8481.12
492.168	8660.1
492.538	8691.73
492.908	8842.24
493.278	9019.64
493.648	9045.62
494.017	9147.32
494.387	9378.27
494.757	9442
495.126	9536.46
495.496	9572.16
495.866	9722.89
496.235	9838.37
496.605	9931.02
496.974	10054.41
497.344	10209.66
497.713	10287.17
498.082	10345.48
498.452	10436.1
498.821	10472.93
499.19	10553.38
499.559	10741.62
499.928	10819.59
500.298	10803.32
500.667	10930.09
501.036	10966.93
501.405	11077.89
501.774	11217.32
502.143	11262.06
502.512	11289.86
502.88	11411.66
503.249	11483.07
503.618	11507.03
503.987	11609.4
504.356	11587.48
504.724	11704.54
505.093	11734.59
505.462	11795.16
505.83	11868.6
506.199	11946.34
506.567	12168.25
506.936	12122.6
507.304	12242.83
507.672	12286.67
508.041	12276.73
508.409	12377.06
508.777	12358.08
509.145	12478.3
509.514	12534.57
509.882	12604.63
510.25	12579.09
510.618	12580.9
510.986	12650.5
511.354	12774.79
511.722	12836.48
512.09	12909.7
512.458	12945.18
512.826	12976.37
513.193	12998.97
513.561	13070.6
513.929	13082.58
514.297	13167.78
514.664	13214.33
515.032	13268.34
515.4	13332.52
515.767	13349.24
516.135	13383.59
516.502	13215.91
516.869	13398.5
517.237	13453.64
517.604	13426.75
517.972	13478.28
518.339	13551.27
518.706	13514.88
519.073	13566.86
519.44	13560.31
519.808	13669.91
520.175	13710.59
520.542	13802.11
520.909	13706.97
521.276	13732.73
521.643	13890.92
522.009	13907.87
522.376	13915.78
522.743	13904.25
523.11	13998.26
523.477	14038.26
523.843	14057.7
524.21	14101.76
524.577	14078.26
524.943	14172.72
525.31	14214.75
525.676	14308.99
526.043	14304.47
526.409	14202.55
526.776	14363
527.142	14310.12
527.508	14256.79
527.874	14346.73
528.241	14361.64
528.607	14463.33
528.973	14435.31
529.339	14370.68
529.705	14395.77
530.071	14396.22
530.437	14515.76
530.803	14474.86
531.169	14465.14
531.535	14429.89
531.901	14371.36
532.267	14505.37
532.632	14442.77
532.998	14365.48
533.364	14390.57
533.73	14440.51
534.095	14445.93
534.461	14414.52
534.826	14340.17
535.192	14370
535.557	14419.04
535.923	14351.7
536.288	14280.74
536.653	14357.57
537.019	14366.61
537.384	14293.85
537.749	14260.18
538.114	14266.05
538.479	14208.43
538.845	14085.04
539.21	14091.59
539.575	14060.18
539.94	13947.19
540.305	14103.12
540.67	13948.32
541.034	13991.48
541.399	13942.22
541.764	13812.05
542.129	13806.63
542.494	13754.2
542.858	13789
543.223	13733.86
543.587	13731.15
543.952	13671.72
544.316	13714.2
544.681	13614.09
545.045	13586.97
545.41	13602.34
545.774	13547.43
546.138	13447.09
546.503	13425.17
546.867	13441.21
547.231	13380.88
547.595	13360.09
547.959	13341.56
548.324	13215.23
548.688	13225.63
549.052	13224.04
549.416	13229.02
549.779	13117.61
550.143	13083.03
550.507	13128.23
550.871	13122.8
551.235	13011.17
551.599	13085.29
551.962	13051.62
552.326	13009.59
552.689	12904.51
553.053	12832.42
553.417	12864.96
553.78	12955.8
554.143	12802.14
554.507	12800.55
554.87	12783.83
555.234	12806.65
555.597	12747.67
555.96	12737.96
556.323	12712.65
556.686	12681.46
557.05	12661.35
557.413	12722.14
557.776	12734.57
558.139	12784.73
558.502	12655.92
558.865	12639.43
559.228	12710.16
559.59	12670.84
559.953	12608.24
560.316	12813.89
560.679	12686.66
561.041	12692.99
561.404	12712.87
561.767	12752.87
562.129	12715.13
562.492	12724.4
562.854	12637.62
563.217	12668.13
563.579	12685.75
563.941	12698.18
564.304	12721.46
564.666	12788.58
565.028	12672.42
565.39	12678.52
565.753	12772.31
566.115	12706.09
566.477	12771.85
566.839	12813.43
567.201	12780.67
567.563	12775.7
567.925	12888.23
568.287	12789.93
568.648	12878.29
569.01	12815.24
569.372	12892.98
569.734	12885.3
570.095	12947.89
570.457	12896.6
570.819	12910.38
571.18	12945.18
571.542	12973.43
571.903	12937.5
572.265	12923.49
572.626	12954
572.987	12946.54
573.349	12899.08
573.71	12992.64
574.071	12923.26
574.432	13020.43
574.794	13131.39
575.155	13031.96
575.516	12923.71
575.877	13038.51
576.238	13109.92
576.599	13035.12
576.96	13045.74
577.32	13009.36
577.681	13036.71
578.042	13026.31
578.403	13009.36
578.763	13024.05
579.124	13046.42
579.485	13061.34
579.845	13123.26
580.206	13064.95
580.566	13036.48
580.927	13003.03
581.287	13086.65
581.648	12951.74
582.008	13175.01
582.368	13133.88
582.728	13026.99
583.089	13033.99
583.449	13015.24
583.809	13019.98
584.169	13036.25
584.529	12942.7
584.889	13008.91
585.249	12977.95
585.609	12948.12
585.969	12961
586.329	12969.14
586.688	12987.67
587.048	12935.01
587.408	12909.48
587.768	12895.24
588.127	12879.65
588.487	12793.77
588.846	12940.66
589.206	12825.41
589.565	12881.68
589.925	12970.72
590.284	12887.1
590.643	12848.69
591.003	12832.64
591.362	12901.12
591.721	12801.68
592.08	12825.41
592.44	12872.19
592.799	12926.88
593.158	12853.43
593.517	12810.95
593.876	12791.51
594.235	12777.73
594.593	12804.39
594.952	12831.96
595.311	12799.2
595.67	12766.88
596.029	12808.91
596.387	12899.08
596.746	12831.96
597.104	12801.91
597.463	12742.93
597.822	12769.59
598.18	12751.51
598.538	12723.27
598.897	12772.76
599.255	12649.6
599.613	12806.88
599.972	12689.82
600.33	12821.8
600.688	12728.69
601.046	12801.01
601.404	12714.45
601.762	12766.43
602.12	12772.76
602.478	12757.84
602.836	12741.12
603.194	12657.05
603.552	12769.37
603.91	12661.35
604.268	12786.54
604.625	12755.36
604.983	12794.9
605.341	12718.97
605.698	12748.13
606.056	12809.82
606.413	12671.97
606.771	12787.9
607.128	12808.91
607.485	12707
607.843	12700.44
608.2	12738.18
608.557	12809.14
608.914	12716.49
609.272	12767.79
609.629	12811.63
609.986	12880.78
610.343	12857.95
610.7	12956.93
611.057	12928.46
611.414	12836.94
611.771	12780.44
612.127	12876.71
612.484	12887.33
612.841	12876.71
613.198	12824.73
613.554	12949.25
613.911	12913.09
614.267	12883.26
614.624	12848.46
614.98	12994.45
615.337	12964.84
615.693	12948.12
616.05	12959.42
616.406	13021.11
616.762	12928.23
617.118	13006.42
617.475	12965.75
617.831	12999.19
618.187	12917.39
618.543	13019.08
618.899	13059.76
619.255	13030.38
619.611	13026.31
619.967	13034.45
620.323	13142.92
620.678	13069.92
621.034	13002.58
621.39	13054.11
621.746	12993.77
622.101	13126.65
622.457	13066.31
622.812	13003.03
623.168	13057.04
623.523	13110.83
623.879	13132.52
624.234	13049.81
624.589	13140.43
624.945	13135.01
625.3	13102.24
625.655	13077.61
626.01	13124.16
626.365	13067.21
626.72	13052.3
627.075	13031.51
627.43	13022.92
627.785	13001.23
628.14	13061.34
628.495	13000.55
628.85	12965.29
629.205	12963.94
629.559	13038.51
629.914	12991.51
630.269	13043.26
630.623	12962.13
630.978	12918.97
631.332	13030.83
631.687	13052.52
632.041	12872.87
632.396	13001
632.75	12836.48
633.104	12966.88
633.459	12828.58
633.813	12822.25
634.167	12819.76
634.521	12809.59
634.875	12787.9
635.229	12831.74
635.583	12759.42
635.937	12814.56
636.291	12820.21
636.645	12722.59
636.999	12756.94
637.352	12805.52
637.706	12648.69
638.06	12732.08
638.413	12696.6
638.767	12610.05
639.121	12625.42
639.474	12541.58
639.828	12577.73
640.181	12612.08
640.534	12585.87
640.888	12578.64
641.241	12497.06
641.594	12499.77
641.947	12472.2
642.301	12535.25
642.654	12525.31
643.007	12491.18
643.36	12414.12
643.713	12403.28
644.066	12516.94
644.419	12474.91
644.771	12361.92
645.124	12257.52
645.477	12249.38
645.83	12158.31
646.182	12106.79
646.535	12017.97
646.888	12139.78
647.24	12040.8
647.593	12113.34
647.945	12097.07
648.298	11986.56
648.65	11995.6
649.002	11963.74
649.355	12017.07
649.707	12010.74
650.059	12095.26
650.411	12231.3
650.763	12241.92
651.115	12344.52
651.467	12285.31
651.819	12230.62
652.171	12375.48
652.523	12305.43
652.875	12231.98
653.227	12195.37
653.578	12315.37
653.93	12325.31
654.282	12227.01
654.633	12176.39
654.985	12289.38
655.337	12246.9
655.688	12330.28
656.039	12374.8
656.391	12251.19
656.742	12292.09
657.094	12303.62
657.445	12330.28
657.796	12246.9
658.147	12257.74
658.498	12404.86
658.849	12276.95
659.2	12316.72
659.551	12265.43
659.902	12386.78
660.253	12320.34
660.604	12306.1
660.955	12234.47
661.306	12311.98
661.656	12289.61
662.007	12299.32
662.358	12304.07
662.708	12279.66
663.059	12354.92
663.409	12289.15
663.76	12290.74
664.11	12347.91
664.461	12272.43
664.811	12431.07
665.161	12303.39
665.511	12302.94
665.862	12399.43
666.212	12465.19
666.562	12447.79
666.912	12342.94
667.262	12404.41
667.612	12370.73
667.962	12483.27
668.312	12375.71
668.662	12408.25
669.011	12328.48
669.361	12367.34
669.711	12243.05
670.06	12392.2
670.41	12297.97
670.76	12349.94
671.109	12304.75
671.459	12278.76
671.808	12284.18
672.157	12345.88
672.507	12322.15
672.856	12193.34
673.205	12282.37
673.554	12286.22
673.904	12249.16
674.253	12245.31
674.602	12264.97
674.951	12060.91
675.3	12049.16
675.649	12157.18
675.998	12142.27
676.346	12177.29
676.695	12210.06
677.044	12140.91
677.393	12118.31
677.741	12204.41
678.09	12046.9
678.438	12088.48
678.787	12146.33
679.135	12118.76
679.484	12024.3
679.832	12019.1
680.181	12013.23
680.529	12007.35
680.877	11932.55
681.225	11939.33
681.573	11916.28
681.922	11871.76
682.27	11847.81
682.618	11794.7
682.966	11789.96
683.314	11883.74
683.661	11785.89
684.009	11679.45
684.357	11702.28
684.705	11686.46
685.053	11684.88
685.4	11696.63
685.748	11643.97
686.095	11619.57
686.443	11456.18
686.79	11577.99
687.138	11544.99
687.485	11514.03
687.832	11494.6
688.18	11485.11
688.527	11451.66
688.874	11438.1
689.221	11413.25
689.568	11308.84
689.915	11303.87
690.262	11309.07
690.609	11242.18
690.956	11235.17
691.303	11226.58
691.65	11187.71
691.997	11076.98
692.344	11159.47
692.69	11095.74
693.037	11041.73
693.383	10902.3
693.73	11007.83
694.077	10896.42
694.423	10837.67
694.769	10837.67
695.116	10768.52
695.462	10791.34
695.808	10801.74
696.155	10853.03
696.501	10627.96
696.847	10693.49
697.193	10598.58
697.539	10549.31
697.885	10492.14
698.231	10504.79
698.577	10445.36
698.923	10400.84
699.269	10398.13
699.614	10306.16
699.96	10216.44
700.306	10225.03
700.651	10271.35
700.997	10232.03
701.342	10150.45
701.688	10142.77
702.033	10039.04
702.379	10034.3
702.724	10010.57
703.069	10056.44
703.415	9923.57
703.76	9918.37
704.105	9890.12
704.45	9938.93
704.795	9838.82
705.14	9794.53
705.485	9792.04
705.83	9725.15
706.175	9662.56
706.52	9618.72
706.865	9648.09
707.209	9672.95
707.554	9608.32
707.899	9621.88
708.243	9585.27
708.588	9535.33
708.932	9413.07
709.277	9435.44
709.621	9478.15
709.966	9417.59
710.31	9484.26
710.654	9305.28
710.998	9409.46
711.342	9315.45
711.687	9344.82
712.031	9240.87
712.375	9214.21
712.719	9168.78
713.063	9219.63
713.407	9223.02
713.75	9220.53
714.094	9212.17
714.438	9139.41
714.782	9153.19
715.125	9098.5
715.469	9115.23
715.812	9033.87
716.156	8983.03
716.499	9018.51
716.843	8983.93
717.186	8962.24
717.53	8971.95
717.873	9023.93
718.216	8942.35
718.559	8927.21
718.902	8890.37
719.246	8927.43
719.589	8907.77
719.932	8844.05
720.275	8776.03
720.617	8799.75
720.96	8854.67
721.303	8854.67
721.646	8810.38
721.989	8699.42
722.331	8864.84
722.674	8797.27
723.016	8774.67
723.359	8744.16
723.701	8718.63
724.044	8758.63
724.386	8707.78
724.729	8756.82
725.071	8739.19
725.413	8694.22
725.755	8734.22
726.097	8620.32
726.439	8671.62
726.782	8651.51
727.124	8676.37
727.465	8589.36
727.807	8623.04
728.149	8628.46
728.491	8588.01
728.833	8647.44
729.175	8626.88
729.516	8580.33
729.858	8565.86
730.199	8632.98
730.541	8578.97
730.882	8600.89
731.224	8643.37
731.565	8583.49
731.906	8591.17
732.248	8599.31
732.589	8506.88
732.93	8509.14
733.271	8535.81
733.612	8583.26
733.953	8562.92
734.294	8533.09
734.635	8519.08
734.976	8567.44
735.317	8551.63
735.658	8527.67
735.999	8615.35
736.339	8574.22
736.68	8601.12
737.021	8559.76
737.361	8530.16
737.702	8633.21
738.042	8557.05
738.383	8578.07
738.723	8671.85
739.063	8622.58
739.404	8649.48
739.744	8572.64
740.084	8588.46
740.424	8672.53
740.764	8595.69
741.104	8726.08
741.444	8655.58
741.784	8686.76
742.124	8701.23
742.464	8693.54
742.804	8735.12
743.143	8767.66
743.483	8803.37
743.823	8771.28
744.162	8779.19
744.502	8810.15
744.841	8772.86
745.181	8919.53
745.52	8897.83
745.86	8892.41
746.199	8993.42
746.538	9031.61
746.877	9082.23
747.216	9156.58
747.556	9118.16
747.895	9242.23
748.234	9227.31
748.573	9275.9
748.911	9338.27
749.25	9400.64
749.589	9470.92
749.928	9534.2
750.267	9582.56
750.605	9658.49
750.944	9738.03
751.283	9739.39
751.621	9915.43
751.96	9967.63
752.298	10065.94
752.636	10193.84
752.975	10231.13
753.313	10253.05
753.651	10465.02
753.989	10556.54
754.327	10679.03
754.666	10721.51
755.004	10914.73
755.342	11040.6
755.679	11201.27
756.017	11227.71
756.355	11412.34
756.693	11443.98
757.031	11676.29
757.368	11806.46
757.706	11933.46
758.044	12098.2
