Data from hue_20_FLMS001491_80.txt Node
Date: Mon Feb 06 15:34:39 GMT 2017
User: dcchb
Spectrometer: FLMS00149
Trigger mode: 0
Integration Time (sec): 2.000000E-2
Scans to average: 10
Electric dark correction enabled: true
Nonlinearity correction enabled: false
Boxcar width: 0
XAxis mode: Wavelengths
Number of Pixels in Spectrum: 2048
>>>>>Begin Spectral Data<<<<<
341.393	-3.22
341.776	-3.22
342.16	-3.22
342.543	-33.73
342.927	-65.37
343.31	-60.62
343.693	-88.64
344.077	-77.57
344.46	-65.37
344.843	-45.48
345.226	-38.25
345.61	-40.51
345.993	-7.97
346.376	5.14
346.759	8.76
347.142	15.08
347.525	36.78
347.908	63.44
348.291	91.69
348.674	92.82
349.057	110.68
349.44	129.21
349.823	144.35
350.206	176.66
350.588	185.7
350.971	225.7
351.354	221.86
351.737	252.37
352.119	259.6
352.502	254.85
352.884	291.24
353.267	288.07
353.65	290.56
354.032	310.9
354.414	284.68
354.797	316.77
355.179	337.56
355.562	323.55
355.944	328.97
356.326	336.66
356.709	346.83
357.091	334.4
357.473	347.73
357.855	361.52
358.238	336.66
358.62	344.34
359.002	333.49
359.384	344.34
359.766	356.54
360.148	342.76
360.53	360.61
360.912	328.52
361.294	337.11
361.676	348.86
362.057	324.45
362.439	331.46
362.821	355.87
363.203	314.96
363.584	342.08
363.966	331.69
364.348	319.94
364.729	323.55
365.111	324.68
365.493	315.42
365.874	334.17
366.256	343.21
366.637	333.04
367.019	332.36
367.4	314.06
367.781	323.1
368.163	303.66
368.544	296.66
368.925	320.39
369.306	312.25
369.688	321.07
370.069	308.18
370.45	309.54
370.831	313.83
371.212	312.93
371.593	322.19
371.974	319.71
372.355	329.2
372.736	345.25
373.117	336.21
373.498	325.58
373.879	334.4
374.26	318.35
374.641	328.52
375.021	339.82
375.402	325.81
375.783	331.01
376.163	316.77
376.544	335.53
376.925	326.04
377.305	337.56
377.686	341.18
378.066	333.49
378.447	343.89
378.827	333.04
379.208	343.89
379.588	358.58
379.968	358.35
380.349	340.27
380.729	341.18
381.109	319.94
381.489	343.21
381.87	360.16
382.25	342.53
382.63	364.91
383.01	357.67
383.39	352.93
383.77	349.54
384.15	358.13
384.53	370.1
384.91	359.03
385.29	339.37
385.67	364.23
386.049	361.29
386.429	357.67
386.809	374.17
387.189	357.9
387.568	386.83
387.948	368.07
388.328	347.05
388.707	355.19
389.087	365.36
389.466	363.78
389.846	369.43
390.225	390.44
390.605	384.57
390.984	387.73
391.363	364.91
391.743	396.77
392.122	377.79
392.501	387.73
392.881	412.59
393.26	401.29
393.639	386.15
394.018	394.96
394.397	383.21
394.776	408.29
395.155	417.11
395.534	410.1
395.913	369.43
396.292	409.65
396.671	393.61
397.05	412.59
397.429	415.75
397.808	398.13
398.186	386.6
398.565	400.16
398.944	399.03
399.323	405.58
399.701	403.77
400.08	399.48
400.458	403.55
400.837	407.39
401.215	407.62
401.594	398.58
401.972	397
402.351	405.36
402.729	422.98
403.107	415.3
403.486	425.24
403.864	428.18
404.242	434.73
404.62	439.93
404.999	425.47
405.377	441.29
405.755	444
406.133	430.21
406.511	437.22
406.889	442.19
407.267	456.88
407.645	468.63
408.023	459.14
408.401	447.84
408.779	448.07
409.156	455.07
409.534	437.45
409.912	451.46
410.29	474.06
410.667	451.01
411.045	487.61
411.422	506.37
411.8	466.82
412.178	481.06
412.555	492.13
412.933	520.83
413.31	497.56
413.687	502.3
414.065	492.13
414.442	495.07
414.819	506.14
415.197	486.26
415.574	500.27
415.951	518.57
416.328	501.85
416.705	521.51
417.082	527.16
417.46	559.93
417.837	537.33
418.214	542.98
418.591	540.49
418.967	537.33
419.344	544.11
419.721	528.97
420.098	548.63
420.475	540.27
420.852	557.89
421.228	577.33
421.605	563.77
421.982	562.87
422.358	562.87
422.735	571
423.111	554.28
423.488	591.11
423.864	587.27
424.241	575.52
424.617	609.42
424.994	590.66
425.37	598.35
425.746	598.12
426.123	597.89
426.499	596.09
426.875	624.56
427.251	600.61
427.627	620.27
428.003	612.58
428.379	607.39
428.756	626.59
429.132	619.14
429.507	661.4
429.883	645.35
430.259	666.14
430.635	655.29
431.011	668.85
431.387	655.75
431.763	654.62
432.138	681.96
432.514	684.22
432.89	696.2
433.265	699.36
433.641	701.17
434.016	698.23
434.392	703.65
434.767	725.8
435.143	716.53
435.518	733.48
435.894	753.6
436.269	746.36
436.644	786.82
437.02	760.6
437.395	755.86
437.77	779.81
438.145	779.36
438.52	753.82
438.895	796.08
439.271	794.05
439.646	812.13
440.021	798.34
440.395	822.97
440.77	827.04
441.145	825.23
441.52	824.1
441.895	835.4
442.27	828.17
442.645	845.8
443.019	828.62
443.394	846.25
443.769	859.13
444.143	855.29
444.518	822.52
444.892	857.32
445.267	878.34
445.641	871.78
446.016	890.54
446.39	868.85
446.764	880.15
447.139	858.23
447.513	894.16
447.887	874.95
448.262	910.65
448.636	915.17
449.01	916.53
449.384	917.21
449.758	924.89
450.132	932.57
450.506	929.86
450.88	954.04
451.254	927.38
451.628	936.42
452.002	980.48
452.376	987.49
452.75	987.71
453.123	974.83
453.497	979.8
453.871	991.56
454.244	1015.28
454.618	1007.83
454.992	1019.35
455.365	1010.31
455.739	1035.85
456.112	1046.02
456.486	1058.45
456.859	1053.25
457.232	1073.81
457.606	1087.6
457.979	1102.51
458.352	1119.24
458.725	1129.41
459.099	1170.31
459.472	1128.73
459.845	1167.14
460.218	1162.62
460.591	1189.06
460.964	1182.06
461.337	1214.6
461.71	1247.37
462.083	1265.67
462.456	1217.31
462.829	1250.98
463.201	1269.74
463.574	1256.41
463.947	1253.7
464.32	1331.43
464.692	1328.04
465.065	1334.82
465.438	1337.08
465.81	1354.26
466.183	1392.45
466.555	1388.16
466.928	1388.61
467.3	1412.34
467.672	1409.62
468.045	1465.44
468.417	1458.44
468.789	1475.84
469.161	1494.14
469.534	1530.75
469.906	1566.46
470.278	1581.82
470.65	1592.22
471.022	1611.2
471.394	1654.14
471.766	1659.79
472.138	1698.88
472.51	1721.25
472.882	1746.56
473.253	1751.54
473.625	1772.33
473.997	1808.71
474.369	1812.55
474.74	1837.18
475.112	1896.84
475.484	1871.53
475.855	1926.45
476.227	1974.13
476.598	2007.12
476.97	2046.67
477.341	2083.28
477.713	2097.52
478.084	2123.05
478.455	2177.06
478.827	2199.66
479.198	2271.97
479.569	2264.74
479.94	2336.83
480.311	2379.54
480.682	2415.47
481.053	2436.04
481.424	2525.3
481.795	2568.92
482.166	2602.59
482.537	2611.85
482.908	2727.78
483.279	2715.35
483.65	2769.36
484.021	2810.94
484.391	2878.51
484.762	2920.54
485.133	2901.56
485.503	3034.67
485.874	3073.76
486.244	3099.97
486.615	3133.65
486.985	3181.78
487.356	3254.32
487.726	3300.65
488.097	3402.57
488.467	3412.74
488.837	3476.24
489.207	3502
489.578	3552.17
489.948	3602.33
490.318	3676.01
490.688	3651.6
491.058	3742.9
491.428	3751.94
491.798	3830.58
492.168	3914.87
492.538	3922.1
492.908	3996
493.278	4074.19
493.648	4044.36
494.017	4118.25
494.387	4166.61
494.757	4172.49
495.126	4238.48
495.496	4230.57
495.866	4292.03
496.235	4371.13
496.605	4367.06
496.974	4407.74
497.344	4514.18
497.713	4502.2
498.082	4540.39
498.452	4578.81
498.821	4621.29
499.19	4671.91
499.559	4701.74
499.928	4694.51
500.298	4722.31
500.667	4793.72
501.036	4821.51
501.405	4856.54
501.774	4865.13
502.143	4879.59
502.512	4937.89
502.88	4995.74
503.249	5016.31
503.618	4989.87
503.987	5045.01
504.356	4992.58
504.724	5086.82
505.093	5124.33
505.462	5125.01
505.83	5208.39
506.199	5182.86
506.567	5295.17
506.936	5260.6
507.304	5409.52
507.672	5346.7
508.041	5364.77
508.409	5410.2
508.777	5450.42
509.145	5437.54
509.514	5482.74
509.882	5529.74
510.25	5536.75
510.618	5610.19
510.986	5620.59
511.354	5610.87
511.722	5683.86
512.09	5682.96
512.458	5673.24
512.826	5754.59
513.193	5829.17
513.561	5767.48
513.929	5851.54
514.297	5880.24
514.664	5915.04
515.032	5933.12
515.4	5919.11
515.767	5988.49
516.135	6008.6
516.502	5984.64
516.869	6045.21
517.237	6068.94
517.604	6032.1
517.972	6145.09
518.339	6120.69
518.706	6142.15
519.073	6130.4
519.44	6254.24
519.808	6294.47
520.175	6256.95
520.542	6346.9
520.909	6396.39
521.276	6389.61
521.643	6497.17
522.009	6473.67
522.376	6508.25
522.743	6565.42
523.11	6568.13
523.477	6629.83
523.843	6643.61
524.21	6690.84
524.577	6744.62
524.943	6808.58
525.31	6773.32
525.676	6917.73
526.043	6907.78
526.409	6925.64
526.776	6964.96
527.142	7031.85
527.508	7056.26
527.874	7083.15
528.241	7117.04
528.607	7155.91
528.973	7204.95
529.339	7225.74
529.705	7237.49
530.071	7333.99
530.437	7408.34
530.803	7398.17
531.169	7381.44
531.535	7428
531.901	7470.93
532.267	7500.09
532.632	7599.29
532.998	7551.38
533.364	7584.6
533.73	7668.89
534.095	7712.96
534.461	7748.89
534.826	7859.85
535.192	7800.64
535.557	7892.62
535.923	7884.71
536.288	7905.05
536.653	7990.02
537.019	7920.87
537.384	7983.24
537.749	7975.1
538.114	8047.42
538.479	8027.76
538.845	8146.4
539.21	8077.02
539.575	8166.28
539.94	8152.95
540.305	8221.87
540.67	8213.06
541.034	8410.57
541.399	8360.85
541.764	8278.14
542.129	8396.78
542.494	8394.07
542.858	8488.99
543.223	8574.63
543.587	8564.69
543.952	8533.96
544.316	8655.54
544.681	8541.41
545.045	8660.51
545.41	8699.83
545.774	8728.75
546.138	8800.16
546.503	8767.4
546.867	8764.01
547.231	8897.11
547.595	8876.32
547.959	8902.53
548.324	8926.49
548.688	8966.26
549.052	9001.29
549.416	8968.52
549.779	9017.11
550.143	9108.63
550.507	9077.44
550.871	9193.6
551.235	9176.88
551.599	9246.93
551.962	9239.7
552.326	9285.12
552.689	9317.89
553.053	9314.5
553.417	9395.4
553.78	9509.98
554.143	9401.28
554.507	9460.71
554.87	9514.72
555.234	9592.23
555.597	9517.89
555.96	9521.28
556.323	9653.02
556.686	9657.99
557.05	9653.7
557.413	9723.53
557.776	9774.83
558.139	9839.91
558.502	9822.06
558.865	9816.41
559.228	9881.27
559.59	9902.06
559.953	10017.31
560.316	10026.12
560.679	10051.66
561.041	10116.06
561.404	10097.31
561.767	10177.3
562.129	10192.67
562.492	10274.25
562.854	10245.32
563.217	10260.24
563.579	10314.93
563.941	10361.48
564.304	10377.75
564.666	10435.83
565.028	10426.34
565.39	10546.56
565.753	10549.04
566.115	10625.65
566.477	10669.04
566.839	10728.7
567.201	10770.06
567.563	10773.45
567.925	10832.88
568.287	10853.22
568.648	10905.42
569.01	10973.44
569.372	11042.59
569.734	11031.07
570.095	11074.68
570.457	11063.38
570.819	11161.91
571.18	11168.24
571.542	11262.02
571.903	11313.09
572.265	11295.92
572.626	11412.75
572.987	11430.38
573.349	11479.19
573.71	11590.37
574.071	11692.74
574.432	11747.43
574.794	11825.4
575.155	11850.71
575.516	11807.09
575.877	11985.84
576.238	11953.08
576.599	12125.73
576.96	12153.75
577.32	12170.92
577.681	12335.89
578.042	12368.88
578.403	12430.35
578.763	12668.31
579.124	12697.01
579.485	12900.62
579.845	12907.4
580.206	12926.38
580.566	13092.71
580.927	13220.16
581.287	13348.52
581.648	13440.95
582.008	13608.4
582.368	13714.16
582.728	13877.54
583.089	13980.37
583.449	14153.7
583.809	14288.38
584.169	14504.19
584.529	14597.53
584.889	14928.14
585.249	15101.02
585.609	15201.35
585.969	15458.52
586.329	15628.46
586.688	15870.03
587.048	15979.64
587.408	16215.79
587.768	16518.38
588.127	16721.99
588.487	16965.83
588.846	17349.09
589.206	17456.66
589.565	17727.61
589.925	18063.65
590.284	18342.51
590.643	18692.79
591.003	18912.89
591.362	19283.73
591.721	19505.87
592.08	19846.65
592.44	20066.31
592.799	20399.18
593.158	20740.87
593.517	20978.83
593.876	21366.39
594.235	21589.88
594.593	21916.43
594.952	22278.68
595.311	22606.58
595.67	22967.7
596.029	23452.66
596.387	23739.21
596.746	24117.73
597.104	24167.67
597.463	24616.92
597.822	25083.13
598.18	25297.36
598.538	25529.89
598.897	26112.7
599.255	26364.67
599.613	26904.55
599.972	27131.43
600.33	27417.75
600.688	27656.39
601.046	28072.65
601.404	28419.99
601.762	28710.6
602.12	29282.11
602.478	29630.12
602.836	30005.71
603.194	29942.89
603.552	30445.24
603.91	30662.87
604.268	31159.35
604.625	31409.06
604.983	31707.58
605.341	31965.66
605.698	32423.95
606.056	32667.33
606.413	32914.33
606.771	33303.02
607.128	33604.26
607.485	33702.33
607.843	34026.62
608.2	34519.26
608.557	34721.52
608.914	34818.69
609.272	35277.89
609.629	35498.9
609.986	35966.46
610.343	36056.62
610.7	36379.33
611.057	36511.53
611.414	36802.37
611.771	37175.92
612.127	37457.72
612.484	37535.45
612.841	38015.89
613.198	38029.68
613.554	38268.54
613.911	38511.25
614.267	38850.9
614.624	38924.57
614.98	39226.48
615.337	39623.08
615.693	39506.7
616.05	39670.54
616.406	40182.84
616.762	40064.65
617.118	40351.2
617.475	40413.34
617.831	40666.22
618.187	40907.79
618.543	41099.88
618.899	41540.55
619.255	41415.35
619.611	41600.88
619.967	41868.45
620.323	41962.23
620.678	41979.63
621.034	41961.55
621.39	42118.16
621.746	42311.6
622.101	42760.85
622.457	42596.56
622.812	42821.64
623.168	43020.06
623.523	43049.21
623.879	43240.16
624.234	43093.73
624.589	43263.66
624.945	43406.26
625.3	43521.51
625.655	43463.66
626.01	43557.44
626.365	43954.04
626.72	43764.44
627.075	43938.68
627.43	44036.07
627.785	43909.07
628.14	44210.76
628.495	44208.5
628.85	44166.01
629.205	44322.39
629.559	44631.31
629.914	44328.95
630.269	44441.03
630.623	44511.54
630.978	44361.94
631.332	44650.75
631.687	44706.11
632.041	44570.52
632.396	44645.78
632.75	44706.34
633.104	44714.02
633.459	44621.37
633.813	44663.85
634.167	44689.84
634.521	44801.25
634.875	44734.81
635.229	44728.94
635.583	44697.07
635.937	44716.96
636.291	44617.75
636.645	44841.93
636.999	44744.98
637.352	44893
637.706	44656.17
638.06	44888.93
638.413	44726.9
638.767	44714.7
639.121	44792.89
639.474	44544.53
639.828	44574.36
640.181	44783.85
640.534	44718.54
640.888	44654.36
641.241	44393.35
641.594	44494.59
641.947	44766.45
642.301	44565.55
642.654	44626.11
643.007	44565.33
643.36	44497.08
643.713	44594.25
644.066	44686.23
644.419	44400.81
644.771	44224.77
645.124	43848.73
645.477	43970.31
645.83	43559.7
646.182	43559.25
646.535	43443.1
646.888	43431.8
647.24	43197.68
647.593	43470.21
647.945	43399.48
648.298	43132.37
648.65	43165.81
649.002	43079.94
649.355	43331.01
649.707	43120.62
650.059	43255.76
650.411	43700.94
650.763	43840.15
651.115	44277.88
651.467	44109.74
651.819	44167.6
652.171	44132.57
652.523	44079.91
652.875	44166.01
653.227	43956.08
653.578	44225.9
653.93	44217.76
654.282	43945.68
654.633	43802.63
654.985	43951.33
655.337	44062.51
655.688	43940.26
656.039	44013.48
656.391	43615.75
656.742	43817.55
657.094	43751.34
657.445	43874.04
657.796	43733.03
658.147	43807.83
658.498	43787.27
658.849	43855.74
659.2	43697.1
659.551	43890.99
659.902	43707.04
660.253	43729.42
660.604	43857.1
660.955	43653.26
661.306	43798.11
661.656	43706.59
662.007	43585.24
662.358	43601.28
662.708	43603.09
663.059	43500.04
663.409	43250.11
663.76	43721.96
664.11	43710.21
664.461	43616.2
664.811	43589.76
665.161	43687.61
665.511	43541.85
665.862	43576.65
666.212	43648.51
666.562	43819.58
666.912	43678.34
667.262	43541.62
667.612	43579.81
667.962	43634.73
668.312	43467.73
668.662	43539.14
669.011	43547.73
669.361	43490.78
669.711	43366.71
670.06	43425.92
670.41	43365.58
670.76	43405.13
671.109	43521.06
671.459	43420.72
671.808	43371.46
672.157	43342.98
672.507	43044.46
672.856	43099.38
673.205	43185.02
673.554	43248.52
673.904	43112.71
674.253	43373.04
674.602	43201.52
674.951	42608.31
675.3	42552.27
675.649	43218.02
675.998	43038.13
676.346	43151.35
676.695	43216.66
677.044	42855.31
677.393	43105.02
677.741	43012.37
678.09	42981.41
678.438	42835.43
678.787	43017.8
679.135	42972.37
679.484	42543.68
679.832	42833.62
680.181	42616.9
680.529	42660.06
680.877	42568.99
681.225	42474.53
681.573	42813.96
681.922	42515.89
682.27	42499.62
682.618	42342.33
682.966	42338.27
683.314	42277.93
683.661	42262.34
684.009	42156.35
684.357	41977.6
684.705	42064.6
685.053	41965.17
685.4	41993.42
685.748	41780.09
686.095	41783.48
686.443	41597.95
686.79	41564.5
687.138	41783.93
687.485	41600.88
687.832	41483.82
688.18	41431.4
688.527	41298.52
688.874	41210.16
689.221	41095.59
689.568	41075.7
689.915	40844.29
690.262	41149.37
690.609	40903.27
690.956	40609.27
691.303	40720.68
691.65	40552.32
691.997	40581.25
692.344	40324.08
692.69	40251.99
693.037	40343.74
693.383	39986.46
693.73	40243.41
694.077	39820.37
694.423	39865.56
694.769	39896.75
695.116	39744.66
695.462	39553.03
695.808	39671.22
696.155	39575.85
696.501	39398.46
696.847	39187.61
697.193	39127.5
697.539	39113.72
697.885	38986.04
698.231	38828.98
698.577	38748.3
698.923	38806.38
699.269	38498.59
699.614	38266.51
699.96	38279.84
700.306	38333.62
700.651	38111.26
700.997	38016.57
701.342	37858.84
701.688	37932.05
702.033	37864.48
702.379	37874.65
702.724	37756.01
703.069	37713.53
703.415	37297.49
703.76	37488.45
704.105	37334.1
704.45	37267.66
704.795	36949.03
705.14	37044.85
705.485	37081
705.83	36858.86
706.175	36928.01
706.52	36706.1
706.865	36702.71
707.209	36674.69
707.554	36363.28
707.899	36587.91
708.243	36379.78
708.588	36335.03
708.932	36002.39
709.277	36077.41
709.621	36058.88
709.966	35894.14
710.31	35933.69
710.654	35636.07
710.998	35695.28
711.342	35706.12
711.687	35532.34
712.031	35365.79
712.375	35305
712.719	35390.65
713.063	35313.37
713.407	35426.58
713.75	35091.68
714.094	35098.46
714.438	35083.99
714.782	35071.34
715.125	34815.07
715.469	34907.95
715.812	34711.12
716.156	34467.96
716.499	34569.66
716.843	34618.69
717.186	34380.06
717.53	34565.14
717.873	34484.91
718.216	34266.39
718.559	34232.26
718.902	34101.42
719.246	34153.85
719.589	34093.06
719.932	33892.61
720.275	33923.35
720.617	33855.32
720.96	33857.58
721.303	33907.98
721.646	33788.66
721.989	33599.51
722.331	33697.59
722.674	33536.69
723.016	33458.27
723.359	33490.14
723.701	33525.39
724.044	33297.83
724.386	33202.46
724.729	33224.15
725.071	33127.21
725.413	33232.06
725.755	33129.24
726.097	33011.73
726.439	32881.11
726.782	32789.59
727.124	32985.29
727.465	32808.12
727.807	32801.34
728.149	32627.79
728.491	32611.29
728.833	32757.05
729.175	32641.57
729.516	32409.94
729.858	32429.15
730.199	32421.92
730.541	32360
730.882	32238.19
731.224	32440.22
731.565	32054.69
731.906	32063.51
732.248	32116.39
732.589	31917.07
732.93	31948.71
733.271	31914.13
733.612	31778.32
733.953	32029.16
734.294	31763.4
734.635	31663.52
734.976	31780.58
735.317	31592.79
735.658	31651.09
735.999	31514.82
736.339	31571.99
736.68	31642.73
737.021	31495.39
737.361	31304.66
737.702	31596.4
738.042	31367.93
738.383	31286.58
738.723	31417.2
739.063	31253.13
739.404	31262.17
739.744	31256.75
740.084	31066.92
740.424	31138.11
740.764	31019.47
741.104	31177.88
741.444	30965.01
741.784	30831.45
742.124	30974.95
742.464	30920.71
742.804	30837.32
743.143	30704.9
743.483	30687.05
743.823	30477.79
744.162	30628.52
744.502	30697.89
744.841	30452.25
745.181	30683.66
745.52	30306.94
745.86	30356.66
746.199	30340.16
746.538	30323.67
746.877	30321.86
747.216	30403.21
747.556	30158.7
747.895	30238.02
748.234	30128.87
748.573	30017.91
748.911	29990.57
749.25	30143.78
749.589	29770.01
749.928	29945.37
750.267	29942.66
750.605	29808.2
750.944	29844.13
751.283	29690.24
751.621	29725.72
751.96	29549.9
752.298	29519.85
752.636	29448.21
752.975	29441.88
753.313	29347.65
753.651	29407.08
753.989	29224.94
754.327	29223.58
754.666	29056.58
755.004	29134.54
755.342	29033.08
755.679	28982.23
756.017	28937.71
756.355	28921.44
756.693	28744.95
757.031	28850.94
757.368	28565.97
757.706	28573.2
758.044	28502.47
758.381	28518.97
758.719	28360.55
759.056	28434.22
759.394	28365.75
