Data from hue_38_FLMS001491_00068.txt Node
Date: Tue Feb 07 17:31:50 GMT 2017
User: dcchb
Spectrometer: FLMS00149
Trigger mode: 0
Integration Time (sec): 2.000000E-2
Scans to average: 10
Electric dark correction enabled: true
Nonlinearity correction enabled: false
Boxcar width: 0
XAxis mode: Wavelengths
Number of Pixels in Spectrum: 2048
>>>>>Begin Spectral Data<<<<<
341.393	-11.24
341.776	-11.24
342.16	-11.24
342.543	-60.96
342.927	-36.1
343.31	-72.26
343.693	-51.24
344.077	-63.22
344.46	-69.77
344.843	-56.44
345.226	-43.56
345.61	-24.8
345.993	-13.28
346.376	-22.54
346.759	17.23
347.142	33.5
347.525	47.29
347.908	61.52
348.291	87.06
348.674	70.79
349.057	99.71
349.44	144.46
349.823	134.06
350.206	176.55
350.588	195.98
350.971	238.69
351.354	217.45
351.737	257
352.119	259.26
352.502	266.26
352.884	280.5
353.267	290.9
353.65	285.47
354.032	295.42
354.414	328.41
354.797	319.37
355.179	345.36
355.562	341.06
355.944	340.61
356.326	351.69
356.709	310.78
357.091	345.81
357.473	356.88
357.855	360.72
358.238	348.07
358.62	343.55
359.002	353.49
359.384	369.54
359.766	358.24
360.148	354.85
360.53	333.83
360.912	356.21
361.294	345.81
361.676	346.71
362.057	341.97
362.439	343.1
362.821	338.58
363.203	345.81
363.584	344.23
363.966	356.66
364.348	336.32
364.729	333.16
365.111	339.93
365.493	331.12
365.874	340.61
366.256	328.41
366.637	314.17
367.019	321.63
367.4	324.12
367.781	334.28
368.163	311.23
368.544	313.27
368.925	320.5
369.306	333.38
369.688	341.29
370.069	332.48
370.45	311.23
370.831	329.54
371.212	315.98
371.593	323.44
371.974	329.77
372.355	309.65
372.736	338.58
373.117	326.6
373.498	302.87
373.879	314.85
374.26	337.9
374.641	333.38
375.021	323.44
375.402	325.47
375.783	336.54
376.163	346.94
376.544	321.86
376.925	338.13
377.305	353.27
377.686	349.88
378.066	366.15
378.447	345.13
378.827	348.97
379.208	336.77
379.588	338.8
379.968	355.3
380.349	355.53
380.729	357.11
381.109	352.36
381.489	333.16
381.87	353.95
382.25	351.46
382.63	356.66
383.01	365.02
383.39	351.69
383.77	355.53
384.15	363.44
384.53	351.23
384.91	367.5
385.29	384.91
385.67	368.86
386.049	351.23
386.429	383.32
386.809	354.4
387.189	348.97
387.568	356.66
387.948	381.97
388.328	361.18
388.707	380.84
389.087	365.47
389.466	374.96
389.846	404.34
390.225	373.83
390.605	362.08
390.984	374.74
391.363	371.8
391.743	386.71
392.122	381.29
392.501	370.44
392.881	416.32
393.26	407.96
393.639	390.33
394.018	425.36
394.397	389.65
394.776	424.68
395.155	408.63
395.534	406.37
395.913	390.55
396.292	399.59
396.671	406.83
397.05	401.63
397.429	405.7
397.808	379.03
398.186	427.62
398.565	405.7
398.944	393.04
399.323	412.93
399.701	415.64
400.08	420.16
400.458	425.58
400.837	428.97
401.215	421.97
401.594	427.62
401.972	412.25
402.351	456.09
402.729	425.13
403.107	415.41
403.486	407.28
403.864	438.92
404.242	445.02
404.62	433.94
404.999	440.27
405.377	428.29
405.755	426.94
406.133	438.24
406.511	462.64
406.889	444.34
407.267	436.66
407.645	448.18
408.023	449.76
408.401	434.85
408.779	456.54
409.156	467.61
409.534	466.48
409.912	469.87
410.29	469.65
410.667	487.95
411.045	490.21
411.422	484.11
411.8	468.74
412.178	476.65
412.555	481.17
412.933	492.25
413.31	488.18
413.687	521.17
414.065	517.33
414.442	506.03
414.819	512.59
415.197	524.11
415.574	525.92
415.951	524.79
416.328	523.88
416.705	523.43
417.082	539.93
417.46	542.19
417.837	505.35
418.214	553.94
418.591	553.49
418.967	555.3
419.344	504.9
419.721	549.19
420.098	554.39
420.475	552.36
420.852	553.49
421.228	565.47
421.605	568.4
421.982	550.32
422.358	587.39
422.735	593.71
423.111	588.06
423.488	565.92
423.864	605.24
424.241	605.24
424.617	595.97
424.994	572.92
425.37	597.78
425.746	631.23
426.123	639.14
426.499	608.85
426.875	621.51
427.251	618.57
427.627	631.68
428.003	609.98
428.379	617.44
428.756	667.61
429.132	668.29
429.507	672.81
429.883	645.24
430.259	664.9
430.635	657.89
431.011	675.29
431.387	681.85
431.763	693.6
432.138	697.21
432.514	695.63
432.89	689.98
433.265	716.2
433.641	712.13
434.016	704.67
434.392	716.2
434.767	725.69
435.143	750.09
435.518	743.77
435.894	763.65
436.269	748.74
436.644	763.65
437.02	762.3
437.395	773.37
437.77	784.89
438.145	787.61
438.52	806.59
438.895	793.71
439.271	797.1
439.646	808.85
440.021	809.98
440.395	840.94
440.77	811.56
441.145	836.64
441.52	853.82
441.895	821.5
442.27	852.69
442.645	861.05
443.019	838
443.394	851.33
443.769	861.05
444.143	840.26
444.518	856.53
444.892	852.01
445.267	859.24
445.641	892.01
446.016	878.68
446.39	899.47
446.764	924.55
447.139	895.17
447.513	903.54
447.887	922.07
448.262	942.4
448.636	922.52
449.01	922.07
449.384	941.5
449.758	927.26
450.132	975.4
450.506	955.74
450.88	932.46
451.254	975.17
451.628	985.79
452.002	987.15
452.376	1005.23
452.75	1009.52
453.123	1009.75
453.497	1010.65
453.871	1024.44
454.244	1024.21
454.618	1019.24
454.992	1055.4
455.365	1063.76
455.739	1079.35
456.112	1066.02
456.486	1071.89
456.859	1095.62
457.232	1131.78
457.606	1155.73
457.979	1145.56
458.352	1156.18
458.725	1177.65
459.099	1179.91
459.472	1205.67
459.845	1205.22
460.218	1211.78
460.591	1219.23
460.964	1231.44
461.337	1247.03
461.71	1262.4
462.083	1294.94
462.456	1295.84
462.829	1300.36
463.201	1323.19
463.574	1354.82
463.947	1355.05
464.32	1365.67
464.692	1391.66
465.065	1403.41
465.438	1443.41
465.81	1427.14
466.183	1466.01
466.555	1490.64
466.928	1528.38
467.3	1496.97
467.672	1550.52
468.045	1550.75
468.417	1569.96
468.789	1584.65
469.161	1616.74
469.534	1629.84
469.906	1667.58
470.278	1706.45
470.65	1720.24
471.022	1756.85
471.394	1775.6
471.766	1809.95
472.138	1863.51
472.51	1863.06
472.882	1915.71
473.253	1935.37
473.625	1967.01
473.997	1982.6
474.369	2044.52
474.74	2093.79
475.112	2117.97
475.484	2162.94
475.855	2218.08
476.227	2217.17
476.598	2329.26
476.97	2327
477.341	2431.63
477.713	2434.57
478.084	2511.85
478.455	2577.39
478.827	2613.32
479.198	2705.75
479.569	2757.95
479.94	2807.89
480.311	2845.18
480.682	2933.99
481.053	3049.92
481.424	3119.52
481.795	3163.82
482.166	3225.73
482.537	3320.87
482.908	3407.65
483.279	3455.11
483.65	3541.21
484.021	3694.87
484.391	3710.47
484.762	3753.63
485.133	3825.94
485.503	3964.92
485.874	4061.87
486.244	4180.29
486.615	4260.96
486.985	4372.6
487.356	4424.35
487.726	4530.33
488.097	4653.27
488.467	4711.57
488.837	4845.35
489.207	4905.01
489.578	5096.87
489.948	5173.03
490.318	5283.53
490.688	5309.52
491.058	5472.68
491.428	5540.48
491.798	5676.52
492.168	5821.6
492.538	5886.46
492.908	5973.23
493.278	6107.92
493.648	6174.36
494.017	6292.77
494.387	6405.76
494.757	6464.52
495.126	6677.62
495.496	6695.02
495.866	6743.83
496.235	6859.09
496.605	7002.13
496.974	7068.8
497.344	7167.78
497.713	7266.53
498.082	7340.43
498.452	7541.33
498.821	7516.02
499.19	7661.78
499.559	7683.7
499.928	7773.86
500.298	7911.71
500.667	8059.28
501.036	8009.56
501.405	8181.76
501.774	8222.67
502.143	8291.82
502.512	8373.17
502.88	8468.08
503.249	8515.76
503.618	8685.48
503.987	8708.53
504.356	8795.53
504.724	8846.6
505.093	8929.99
505.462	8959.37
505.83	9068.74
506.199	9146.48
506.567	9268.74
506.936	9361.17
507.304	9390.54
507.672	9484.55
508.041	9507.83
508.409	9699.24
508.777	9709.18
509.145	9842.74
509.514	9870.76
509.882	9933.13
510.25	10017.65
510.618	10061.94
510.986	10163.86
511.354	10215.16
511.722	10336.51
512.09	10418.77
512.458	10421.03
512.826	10559.55
513.193	10514.13
513.561	10625.09
513.929	10738.08
514.297	10848.58
514.664	10938.75
515.032	10933.1
515.4	11023.95
515.767	11100.56
516.135	11179.65
516.502	11160.89
516.869	11236.37
517.237	11356.14
517.604	11338.74
517.972	11426.42
518.339	11588
518.706	11571.73
519.073	11580.09
519.44	11765.17
519.808	11809.24
520.175	11860.99
520.542	12000.42
520.909	12079.06
521.276	12049.01
521.643	12184.82
522.009	12273.63
522.376	12294.87
522.743	12465.27
523.11	12499.39
523.477	12679.95
523.843	12736.9
524.21	12891.69
524.577	12905.93
524.943	12992.48
525.31	12974.86
525.676	13155.64
526.043	13231.12
526.409	13274.28
526.776	13314.73
527.142	13418.91
527.508	13470.44
527.874	13554.28
528.241	13660.49
528.607	13713.82
528.973	13882.18
529.339	13866.81
529.705	13983.87
530.071	14106.13
530.437	14170.98
530.803	14226.35
531.169	14318.1
531.535	14340.47
531.901	14448.49
532.267	14504.08
532.632	14567.36
532.998	14625.89
533.364	14762.61
533.73	14803.96
534.095	14911.3
534.461	14900.23
534.826	14974.13
535.192	15019.1
535.557	15074.46
535.923	15163.05
536.288	15168.7
536.653	15198.53
537.019	15245.53
537.384	15416.37
537.749	15421.8
538.114	15499.08
538.479	15537.73
538.845	15684.84
539.21	15642.13
539.575	15678.29
539.94	15659.53
540.305	15850.71
540.67	15858.62
541.034	15927.55
541.399	16082.8
541.764	16035.57
542.129	16126.41
542.494	16110.14
542.858	16268.33
543.223	16225.39
543.587	16426.07
543.952	16399.63
544.316	16398.27
544.681	16524.59
545.045	16628.55
545.41	16713.74
545.774	16758.94
546.138	16709.67
546.503	16812.04
546.867	16833.96
547.231	16968.88
547.595	16999.84
547.959	17049.55
548.324	17130.68
548.688	17231.69
549.052	17193.28
549.416	17319.6
549.779	17241.41
550.143	17388.98
550.507	17577.22
550.871	17515.98
551.235	17468.07
551.599	17740.16
551.962	17686.15
552.326	17795.07
552.689	17814.28
553.053	17786.48
553.417	17886.14
553.78	18106.93
554.143	18032.8
554.507	18126.36
554.87	18160.93
555.234	18366.35
555.597	18233.93
555.96	18373.81
556.323	18427.59
556.686	18429.4
557.05	18570.42
557.413	18663.07
557.776	18627.59
558.139	18798.66
558.502	18797.3
558.865	18873.46
559.228	18966.34
559.59	18984.19
559.953	19006.79
560.316	19293.33
560.679	19224.41
561.041	19341.92
561.404	19427.12
561.767	19525.64
562.129	19397.51
562.492	19706.43
562.854	19706.88
563.217	19730.16
563.579	19824.17
563.941	19866.2
564.304	19901.23
564.666	19996.14
565.028	20025.74
565.39	20123.82
565.753	20192.75
566.115	20273.87
566.477	20375.11
566.839	20483.13
567.201	20638.16
567.563	20601.77
567.925	20816.23
568.287	20739.17
568.648	20931.26
569.01	20856.23
569.372	21068.88
569.734	21106.62
570.095	21284.92
570.457	21250.12
570.819	21291.7
571.18	21405.6
571.542	21593.39
571.903	21517.91
572.265	21765.59
572.626	21724.46
572.987	21852.14
573.349	21872.7
573.71	21998.57
574.071	22121.96
574.432	22332.58
574.794	22417.77
575.155	22432.46
575.516	22323.76
575.877	22654.38
576.238	22757.2
576.599	22799.91
576.96	22916.29
577.32	23001.26
577.681	23214.36
578.042	23309.05
578.403	23321.48
578.763	23487.12
579.124	23678.98
579.485	23853.21
579.845	23982.48
580.206	24109.48
580.566	24168.01
580.927	24432.63
581.287	24628.56
581.648	24707.88
582.008	24957.14
582.368	25093.41
582.728	25187.87
583.089	25248.21
583.449	25494.3
583.809	25646.61
584.169	25957.57
584.529	25921.86
584.889	26434.84
585.249	26500.6
585.609	26457.21
585.969	26860.82
586.329	26952.34
586.688	27211.32
587.048	27359.56
587.408	27595.04
587.768	27839.32
588.127	28000.45
588.487	28178.98
588.846	28576.93
589.206	28450.61
589.565	28778.73
589.925	29082
590.284	29210.81
590.643	29514.31
591.003	29666.62
591.362	29931.47
591.721	30110
592.08	30293.27
592.44	30599.48
592.799	30716.09
593.158	30794.05
593.517	31227.48
593.876	31324.2
594.235	31475.61
594.593	31626.57
594.952	31984.07
595.311	32086.44
595.67	32297.74
596.029	32768.91
596.387	32867.44
596.746	33153.54
597.104	33153.99
597.463	33320.31
597.822	33731.37
598.18	33646.63
598.538	33756.68
598.897	34288.19
599.255	34289.55
599.613	34811.34
599.972	34857.22
600.33	34998.91
600.688	35148.51
601.046	35285.91
601.404	35691.1
601.762	35692
602.12	36015.38
602.478	36127.47
602.836	36282.94
603.194	36262.83
603.552	36530.62
603.91	36613.11
604.268	36834.79
604.625	36820.11
604.983	37140.32
605.341	37169.7
605.698	37578.96
606.056	37662.34
606.413	37780.53
606.771	37960.64
607.128	38047.19
607.485	38053.97
607.843	38278.37
608.2	38509.1
608.557	38785.93
608.914	38681.3
609.272	39011.69
609.629	39084.45
609.986	39301.17
610.343	39240.83
610.7	39688.28
611.057	39615.51
611.414	39702.52
611.771	39852.79
612.127	40097.76
612.484	40293.46
612.841	40279.9
613.198	40425.66
613.554	40405.77
613.911	40692.32
614.267	40759.89
614.624	40746.33
614.98	41047.79
615.337	41300.67
615.693	41240.55
616.05	41125.3
616.406	41608.23
616.762	41507.44
617.118	41499.98
617.475	41657.49
617.831	41695.01
618.187	41888.67
618.543	41970.48
618.899	42321.43
619.255	42101.77
619.611	42196.91
619.967	42282.33
620.323	42517.13
620.678	42340.64
621.034	42288.44
621.39	42396
621.746	42483.23
622.101	42983.11
622.457	42726.39
622.812	42752.6
623.168	43017
623.523	43009.32
623.879	43103.33
624.234	42915.31
624.589	43051.81
624.945	43162.76
625.3	43352.14
625.655	43152.82
626.01	43329.99
626.365	43331.12
626.72	43384.23
627.075	43352.81
627.43	43305.58
627.785	43214.51
628.14	43477.78
628.495	43445.69
628.85	43485.24
629.205	43344
629.559	43674.16
629.914	43582.19
630.269	43557.78
630.623	43417.67
630.978	43351.23
631.332	43574.96
631.687	43700.6
632.041	43623.32
632.396	43759.36
632.75	43509.19
633.104	43537.67
633.459	43342.42
633.813	43546.03
634.167	43503.32
634.521	43490.44
634.875	43497.9
635.229	43508.74
635.583	43396.66
635.937	43388.52
636.291	43428.52
636.645	43596.65
636.999	43383.77
637.352	43503.32
637.706	43372.7
638.06	43541.51
638.413	43264.68
638.767	43232.37
639.121	43329.99
639.474	43086.83
639.828	43218.36
640.181	43268.98
640.534	43254.74
640.888	42992.15
641.241	43009.77
641.594	42985.37
641.947	43187.62
642.301	43209.99
642.654	43104.69
643.007	43245.93
643.36	42927.52
643.713	43031.69
644.066	43162.09
644.419	42962.77
644.771	42693.85
645.124	42274.88
645.477	42330.02
645.83	42013.42
646.182	41822.69
646.535	41685.97
646.888	41934.77
647.24	41720.77
647.593	41894.55
647.945	41692.07
648.298	41657.94
648.65	41515.12
649.002	41527.78
649.355	41730.03
649.707	41770.94
650.059	41808.67
650.411	42243.01
650.763	42409.34
651.115	42761.42
651.467	42572.27
651.819	42520.75
652.171	42552.16
652.523	42415.44
652.875	42338.83
653.227	42276.91
653.578	42689.33
653.93	42338.6
654.282	42229
654.633	42200.53
654.985	42198.04
655.337	42297.48
655.688	42189.23
656.039	42389
656.391	42128.44
656.742	42156.91
657.094	42206.18
657.445	42277.36
657.796	42196.69
658.147	42068.55
658.498	42172.73
658.849	42156.69
659.2	42112.17
659.551	42025.84
659.902	42201.88
660.253	42182.9
660.604	42093.19
660.955	42054.54
661.306	42118.27
661.656	41984.72
662.007	42063.58
662.358	42069.68
662.708	41897.26
663.059	41952.17
663.409	41769.81
663.76	42122.56
664.11	42041.89
664.461	42125.28
664.811	42057.03
665.161	42028.1
665.511	41846.64
665.862	41888.9
666.212	42004.15
666.562	41858.62
666.912	41926.86
667.262	41758.05
667.612	41874.66
667.962	42026.3
668.312	41754.89
668.662	41971.38
669.011	41856.58
669.361	41875.57
669.711	41770.71
670.06	41761.44
670.41	41687.77
670.76	41800.77
671.109	41841.44
671.459	41886.64
671.808	41750.6
672.157	41737.94
672.507	41626.98
672.856	41596.48
673.205	41672.86
673.554	41685.29
673.904	41497.72
674.253	41920.99
674.602	41753.08
674.951	41164.4
675.3	40863.84
675.649	41651.84
675.998	41434
676.346	41466.99
676.695	41571.62
677.044	41370.72
677.393	41361.23
677.741	41541.79
678.09	41280.1
678.438	41411.17
678.787	41343.15
679.135	41364.84
679.484	41156.49
679.832	41200.78
680.181	40943.39
680.529	41287.11
680.877	41134.34
681.225	40867.68
681.573	41225.87
681.922	40860.45
682.27	40741.13
682.618	40784.75
682.966	40722.15
683.314	40887.57
683.661	40641.47
684.009	40489.16
684.357	40489.61
684.705	40427.47
685.053	40193.8
685.4	40403.97
685.748	40212.11
686.095	40193.58
686.443	39978.44
686.79	39944.54
687.138	40151.09
687.485	40096.18
687.832	39850.99
688.18	40029.74
688.527	39647.83
688.874	39755.62
689.221	39688.28
689.568	39470.21
689.915	39603.99
690.262	39491.45
690.609	39375.29
690.956	39289.42
691.303	39220.27
691.65	39066.37
691.997	39151.34
692.344	38781.64
692.69	38663.22
693.037	38866.15
693.383	38345.04
693.73	38612.6
694.077	38397.01
694.423	38399.5
694.769	38249.9
695.116	38383.91
695.462	38317.69
695.808	38036.8
696.155	38098.94
696.501	37833.64
696.847	37944.14
697.193	37596.81
697.539	37716.35
697.885	37542.8
698.231	37410.6
698.577	37277.27
698.923	37233.43
699.269	37202.47
699.614	37008.57
699.96	36905.53
700.306	36975.36
700.651	36663.5
700.997	36621.01
701.342	36675.7
701.688	36468.25
702.033	36432.32
702.379	36444.52
702.724	36279.33
703.069	36422.6
703.415	36069.39
703.76	35971.31
704.105	36068.71
704.45	35955.27
704.795	35729.29
705.14	35588.95
705.485	35641.15
705.83	35291.33
706.175	35482.74
706.52	35470.54
706.865	35169.08
707.209	35163.65
707.554	35128.85
707.899	35313.25
708.243	35013.15
708.588	35052.92
708.932	34772.93
709.277	34746.71
709.621	34704.91
709.966	34641.63
710.31	34639.6
710.654	34226.28
710.998	34333.17
711.342	34347.4
711.687	34400.06
712.031	34146.28
712.375	34076.22
712.719	34050.91
713.063	33971.14
713.407	34116.67
713.75	33809.79
714.094	33854.31
714.438	33649.12
714.782	33688.66
715.125	33687.76
715.469	33674.2
715.812	33489.35
716.156	33366.41
716.499	33460.65
716.843	33358.05
717.186	33153.99
717.53	33300.2
717.873	33200.09
718.216	33119.19
718.559	32942.24
718.902	32832.41
719.246	32956.7
719.589	32788.57
719.932	32653.66
720.275	32658.41
720.617	32651.63
720.96	32592.87
721.303	32532.31
721.646	32432.42
721.989	32481.24
722.331	32420
722.674	32294.12
723.016	32296.38
723.359	32323.27
723.701	32369.83
724.044	32185.2
724.386	32007.58
724.729	32289.38
725.071	32013.68
725.413	31915.38
725.755	31904.3
726.097	31751.09
726.439	31727.36
726.782	31666.79
727.124	31772.78
727.465	31569.62
727.807	31542.73
728.149	31482.17
728.491	31456.18
728.833	31489.85
729.175	31393.58
729.516	31233.13
729.858	31409.63
730.199	31287.82
730.541	31174.83
730.882	31217.31
731.224	31227.48
731.565	30961.05
731.906	31007.38
732.248	31101.16
732.589	30877.21
732.93	30730.55
733.271	30853.03
733.612	30881.5
733.953	30719.7
734.294	30734.39
734.635	30542.08
734.976	30767.61
735.317	30515.19
735.658	30623.43
735.999	30477.9
736.339	30450.33
736.68	30474.74
737.021	30387.28
737.361	30218.24
737.702	30390.67
738.042	30274.06
738.383	30131.47
738.723	30194.74
739.063	30143.44
739.404	30134.63
739.744	30055.09
740.084	30053.28
740.424	30082.66
740.764	29917.91
741.104	30038.81
741.444	29871.36
741.784	29889.67
742.124	29890.8
742.464	29720.86
742.804	29724.47
743.143	29553.63
743.483	29592.95
743.823	29488.77
744.162	29591.59
744.502	29502.78
744.841	29395.67
745.181	29605.15
745.52	29348.21
745.86	29460.52
746.199	29258.27
746.538	29181.66
746.877	29297.37
747.216	29273.86
747.556	29241.1
747.895	29240.87
748.234	28974.89
748.573	28999.97
748.911	29087.43
749.25	28988.45
749.589	28938.28
749.928	28811.95
750.267	28893.53
750.605	28698.51
750.944	28551.17
751.283	28598.4
751.621	28653.77
751.96	28514.33
752.298	28505.07
752.636	28528.12
752.975	28364.96
753.313	28245.87
753.651	28274.34
753.989	28349.37
754.327	28301.23
754.666	27971.98
755.004	28131.07
755.342	28006.55
755.679	28016.27
756.017	28007.23
756.355	27988.25
756.693	27877.29
