Data from hue_270_FLMS001491_00043.txt Node
Date: Tue Feb 07 15:57:14 GMT 2017
User: dcchb
Spectrometer: FLMS00149
Trigger mode: 0
Integration Time (sec): 2.000000E-2
Scans to average: 10
Electric dark correction enabled: true
Nonlinearity correction enabled: false
Boxcar width: 0
XAxis mode: Wavelengths
Number of Pixels in Spectrum: 2048
>>>>>Begin Spectral Data<<<<<
341.393	-14.91
341.776	-14.91
342.16	-14.91
342.543	-68.92
342.927	-65.53
343.31	-53.56
343.693	-71.41
344.077	-61.92
344.46	-58.98
344.843	-50.17
345.226	-57.63
345.61	-20.79
345.993	-30.96
346.376	10.85
346.759	24.41
347.142	18.98
347.525	42.03
347.908	60.11
348.291	81.81
348.674	77.29
349.057	89.94
349.44	120.45
349.823	150.96
350.206	171.75
350.588	190.5
350.971	216.72
351.354	241.12
351.737	241.35
352.119	242.93
352.502	253.55
352.884	258.98
353.267	290.16
353.65	291.29
354.032	301.69
354.414	317.51
354.797	303.95
355.179	305.08
355.562	333.32
355.944	320.44
356.326	334.45
356.709	342.14
357.091	346.21
357.473	331.74
357.855	344.62
358.238	325.42
358.62	322.7
359.002	329.93
359.384	311.18
359.766	345.08
360.148	359.09
360.53	343.49
360.912	347.79
361.294	343.49
361.676	337.84
362.057	317.51
362.439	326.55
362.821	318.41
363.203	337.17
363.584	336.94
363.966	332.19
364.348	322.48
364.729	314.57
365.111	330.61
365.493	335.36
365.874	329.93
366.256	333.78
366.637	305.08
367.019	319.54
367.4	322.48
367.781	307.11
368.163	312.53
368.544	322.03
368.925	323.83
369.306	324.06
369.688	309.37
370.069	302.59
370.45	294.23
370.831	327.45
371.212	322.7
371.593	318.86
371.974	308.24
372.355	307.11
372.736	319.77
373.117	316.6
373.498	319.77
373.879	300.78
374.26	297.39
374.641	319.99
375.021	325.42
375.402	307.79
375.783	314.57
376.163	325.19
376.544	334.23
376.925	326.32
377.305	321.8
377.686	331.06
378.066	337.62
378.447	345.75
378.827	315.92
379.208	319.99
379.588	349.6
379.968	323.83
380.349	324.29
380.729	346.88
381.109	340.33
381.489	361.8
381.87	358.41
382.25	329.03
382.63	342.82
383.01	354.57
383.39	366.77
383.77	348.47
384.15	344.85
384.53	357.73
384.91	348.69
385.29	345.75
385.67	343.72
386.049	353.89
386.429	353.89
386.809	361.12
387.189	357.73
387.568	359.76
387.948	378.52
388.328	354.11
388.707	367.67
389.087	338.07
389.466	391.63
389.846	361.12
390.225	365.87
390.605	360.67
390.984	369.26
391.363	381.23
391.743	369.03
392.122	387.11
392.501	381.23
392.881	390.05
393.26	397.96
393.639	389.14
394.018	399.09
394.397	394.34
394.776	409.93
395.155	402.02
395.534	391.63
395.913	404.96
396.292	413.77
396.671	409.03
397.05	397.96
397.429	388.01
397.808	409.48
398.186	397.05
398.565	427.33
398.944	402.02
399.323	379.2
399.701	427.56
400.08	420.55
400.458	427.79
400.837	413.55
401.215	421.91
401.594	442.02
401.972	411.06
402.351	427.11
402.729	450.16
403.107	451.06
403.486	460.78
403.864	462.36
404.242	444.73
404.62	458.29
404.999	443.15
405.377	456.26
405.755	465.98
406.133	467.33
406.511	463.26
406.889	478.18
407.267	472.53
407.645	496.48
408.023	478.41
408.401	467.78
408.779	510.04
409.156	500.33
409.534	515.69
409.912	518.18
410.29	518.63
410.667	512.3
411.045	552.75
411.422	521.79
411.8	558.86
412.178	541
412.555	591.62
412.933	549.36
413.31	566.99
413.687	576.48
414.065	572.19
414.442	579.65
414.819	600.44
415.197	625.07
415.574	603.6
415.951	611.28
416.328	618.97
416.705	638.4
417.082	639.08
417.46	650.6
417.837	653.99
418.214	677.95
418.591	638.85
418.967	646.08
419.344	679.08
419.721	686.54
420.098	681.56
420.475	689.25
420.852	679.08
421.228	723.6
421.605	734.67
421.982	755.46
422.358	740.55
422.735	761.56
423.111	770.6
423.488	747.55
423.864	771.51
424.241	781.9
424.617	789.81
424.994	820.77
425.37	850.83
425.746	831.16
426.123	838.17
426.499	807.21
426.875	837.49
427.251	880.65
427.627	883.37
428.003	892.86
428.379	911.39
428.756	921.78
429.132	916.81
429.507	945.96
429.883	934.89
430.259	957.26
430.635	969.24
431.011	971.05
431.387	1025.74
431.763	1037.03
432.138	1001.56
432.514	1022.8
432.89	1035.68
433.265	1063.02
433.641	1064.15
434.016	1097.15
434.392	1111.16
434.767	1126.98
435.143	1160.2
435.518	1165.62
435.894	1154.09
436.269	1187.54
436.644	1197.26
437.02	1222.11
437.395	1218.05
437.77	1236.8
438.145	1245.62
438.52	1286.97
438.895	1288.33
439.271	1320.64
439.646	1342.56
440.021	1334.65
440.395	1371.94
440.77	1360.64
441.145	1390.25
441.52	1408.32
441.895	1422.56
442.27	1419.62
442.645	1426.63
443.019	1431.83
443.394	1450.13
443.769	1494.88
444.143	1450.36
444.518	1479.96
444.892	1477.93
445.267	1488.55
445.641	1519.73
446.016	1505.72
446.39	1572.84
446.764	1531.49
447.139	1542.11
447.513	1576.91
447.887	1567.42
448.262	1592.5
448.636	1588.88
449.01	1597.7
449.384	1613.97
449.758	1597.47
450.132	1647.87
450.506	1658.71
450.88	1661.2
451.254	1642.67
451.628	1673.4
452.002	1705.72
452.376	1716.11
452.75	1697.58
453.123	1708.2
453.497	1748.43
453.871	1786.17
454.244	1747.07
454.618	1794.08
454.992	1820.52
455.365	1848.31
455.739	1867.52
456.112	1837.92
456.486	1894.41
456.859	1927.86
457.232	1947.97
457.606	1924.24
457.979	1941.19
458.352	1982.77
458.725	2002.21
459.099	2001.76
459.472	2077.46
459.845	2037.23
460.218	2084.24
460.591	2060.74
460.964	2085.14
461.337	2146.16
461.71	2177.8
462.083	2185.71
462.456	2179.38
462.829	2208.3
463.201	2212.37
463.574	2218.7
463.947	2276.78
464.32	2314.29
464.692	2306.38
465.065	2331.92
465.438	2359.49
465.81	2371.01
466.183	2398.81
466.555	2472.25
466.928	2460.27
467.3	2433.83
467.672	2503.66
468.045	2523.1
468.417	2541.63
468.789	2523.32
469.161	2598.8
469.534	2632.7
469.906	2670.21
470.278	2688.06
470.65	2702.08
471.022	2745.46
471.394	2827.04
471.766	2842.86
472.138	2856.2
472.51	2889.19
472.882	2896.2
473.253	2943.65
473.625	2972.13
473.997	3032.24
474.369	3044.44
474.74	3050.99
475.112	3089.41
475.484	3164.44
475.855	3174.83
476.227	3224.32
476.598	3256.19
476.97	3319.01
477.341	3407.14
477.713	3389.52
478.084	3381.15
478.455	3502.51
478.827	3509.74
479.198	3640.81
479.569	3539.12
479.94	3693.69
480.311	3715.61
480.682	3776.85
481.053	3863.85
481.424	3894.36
481.795	3939.11
482.166	3936.17
482.537	3961.03
482.908	4100.01
483.279	4130.74
483.65	4146.11
484.021	4210.51
484.391	4300.68
484.762	4266.1
485.133	4266.1
485.503	4374.8
485.874	4495.7
486.244	4444.85
486.615	4582.48
486.985	4591.97
487.356	4591.29
487.726	4648.47
488.097	4717.16
488.467	4752.64
488.837	4836.48
489.207	4909.93
489.578	4890.49
489.948	4979.76
490.318	5024.5
490.688	5031.51
491.058	5067.44
491.428	5125.06
491.798	5210.94
492.168	5263.36
492.538	5280.31
492.908	5334.77
493.278	5377.49
493.648	5388.33
494.017	5444.83
494.387	5469.01
494.757	5497.03
495.126	5543.81
495.496	5570.02
495.866	5558.27
496.235	5644.6
496.605	5685.27
496.974	5694.31
497.344	5743.8
497.713	5801.88
498.082	5797.81
498.452	5861.77
498.821	5801.43
499.19	5894.08
499.559	5911.48
499.928	5964.14
500.298	5952.61
500.667	5986.96
501.036	6032.84
501.405	6015.44
501.774	6048.2
502.143	6061.54
502.512	6096.79
502.88	6123.45
503.249	6124.58
503.618	6181.76
503.987	6212.94
504.356	6251.59
504.724	6255.65
505.093	6304.47
505.462	6241.87
505.83	6284.58
506.199	6344.24
506.567	6378.14
506.936	6380.4
507.304	6464.01
507.672	6431.47
508.041	6462.65
508.409	6471.47
508.777	6487.51
509.145	6545.36
509.514	6528.19
509.882	6587.62
510.25	6552.37
510.618	6593.72
510.986	6636.44
511.354	6663.55
511.722	6675.08
512.09	6744.68
512.458	6698.13
512.826	6744
513.193	6760.27
513.561	6816.32
513.929	6781.74
514.297	6841.4
514.664	6834.85
515.032	6814.74
515.4	6863.1
515.767	6875.3
516.135	6912.81
516.502	6896.77
516.869	7011.79
517.237	6932.25
517.604	6932.93
517.972	6923.89
518.339	7029.19
518.706	7037.1
519.073	7011.34
519.44	7032.58
519.808	7035.3
520.175	7029.65
520.542	7112.36
520.909	7182.86
521.276	7122.75
521.643	7125.01
522.009	7210.43
522.376	7226.25
522.743	7231.9
523.11	7300.6
523.477	7307.38
523.843	7363.65
524.21	7436.64
524.577	7401.16
524.943	7405.91
525.31	7430.77
525.676	7503.53
526.043	7550.76
526.409	7543.98
526.776	7599.12
527.142	7569.74
527.508	7650.65
527.874	7618.78
528.241	7688.61
528.607	7714.83
528.973	7771.77
529.339	7691.1
529.705	7691.55
530.071	7792.34
530.437	7790.08
530.803	7798.89
531.169	7829.62
531.535	7808.83
531.901	7861.26
532.267	7861.04
532.632	7901.94
532.998	7917.76
533.364	7959.56
533.73	7974.25
534.095	8002.73
534.461	8045.21
534.826	7986.46
535.192	7985.78
535.557	8081.14
535.923	8034.37
536.288	8042.73
536.653	8082.5
537.019	8078.66
537.384	8115.27
537.749	8068.71
538.114	8080.92
538.479	8087.92
538.845	8086.79
539.21	8108.49
539.575	8088.15
539.94	8089.73
540.305	8142.38
540.67	8147.58
541.034	8187.36
541.399	8210.41
541.764	8147.13
542.129	8184.64
542.494	8175.83
542.858	8221.7
543.223	8214.7
543.587	8234.59
543.952	8256.51
544.316	8231.65
544.681	8236.62
545.045	8297.18
545.41	8328.59
545.774	8317.3
546.138	8288.6
546.503	8310.06
546.867	8261.48
547.231	8353.68
547.595	8366.11
547.959	8347.58
548.324	8374.47
548.688	8365.2
549.052	8398.88
549.416	8362.04
549.779	8364.98
550.143	8388.48
550.507	8414.47
550.871	8411.08
551.235	8423.96
551.599	8505.54
551.962	8463.96
552.326	8495.82
552.689	8498.53
553.053	8483.39
553.417	8519.78
553.78	8603.84
554.143	8549.83
554.507	8544.41
554.87	8580.79
555.234	8684.97
555.597	8640.68
555.96	8597.06
556.323	8648.36
556.686	8636.61
557.05	8678.42
557.413	8666.66
557.776	8714.12
558.139	8712.09
558.502	8773.55
558.865	8765.87
559.228	8785.53
559.59	8835.25
559.953	8891.52
560.316	8862.14
560.679	8912.08
561.041	8907.79
561.404	9003.61
561.767	9052.87
562.129	8986.88
562.492	9105.98
562.854	9045.19
563.217	9079.54
563.579	9115.69
563.941	9118.4
564.304	9163.15
564.666	9166.31
565.028	9202.02
565.39	9212.19
565.753	9284.95
566.115	9362.24
566.477	9344.61
566.839	9333.31
567.201	9472.07
567.563	9437.72
567.925	9460.54
568.287	9435.91
568.648	9521.56
569.01	9533.76
569.372	9660.76
569.734	9562.01
570.095	9633.19
570.457	9737.82
570.819	9739.86
571.18	9631.84
571.542	9800.19
571.903	9729.91
572.265	9806.3
572.626	9842
572.987	9794.09
573.349	9886.52
573.71	9931.26
574.071	9942.56
574.432	9996.12
574.794	10056.23
575.155	10035.44
575.516	10005.16
575.877	10109.34
576.238	10230.69
576.599	10144.14
576.96	10196.34
577.32	10211.93
577.681	10314.98
578.042	10328.32
578.403	10349.78
578.763	10340.75
579.124	10312.5
579.485	10399.73
579.845	10498.71
580.206	10448.54
580.566	10513.85
580.927	10554.3
581.287	10525.15
581.648	10522.44
582.008	10595.2
582.368	10656.22
582.728	10624.58
583.089	10694.18
583.449	10676.33
583.809	10761.98
584.169	10782.09
584.529	10722.66
584.889	10840.17
585.249	10766.5
585.609	10794.74
585.969	10837.23
586.329	10888.3
586.688	10933.95
587.048	10937.11
587.408	10940.5
587.768	11041.29
588.127	10958.36
588.487	11012.37
588.846	11055.98
589.206	10987.06
589.565	11149.99
589.925	11176.88
590.284	11206.03
590.643	11232.25
591.003	11258.46
591.362	11231.57
591.721	11200.61
592.08	11285.8
592.44	11322.87
592.799	11366.03
593.158	11319.25
593.517	11369.87
593.876	11414.16
594.235	11405.58
594.593	11456.87
594.952	11438.34
595.311	11380.27
595.67	11479.7
596.029	11537.32
596.387	11507.49
596.746	11580.03
597.104	11611.67
597.463	11606.25
597.822	11639.24
598.18	11614.84
598.538	11600.15
598.897	11699.35
599.255	11613.03
599.613	11742.06
599.972	11632.01
600.33	11736.19
600.688	11745.23
601.046	11712.23
601.404	11827.49
601.762	11774.38
602.12	11879.91
602.478	11805.57
602.836	11868.39
603.194	11812.12
603.552	11792.91
603.91	11806.7
604.268	11845.79
604.625	11728.96
604.983	11895.05
605.341	11848.5
605.698	11882.63
606.056	11856.86
606.413	11864.32
606.771	11987.48
607.128	11882.63
607.485	11874.94
607.843	11981.61
608.2	12037.88
608.557	11981.61
608.914	12015.28
609.272	12083.3
609.629	12025.67
609.986	12125.33
610.343	12072.68
610.7	12085.56
611.057	12163.3
611.414	12096.86
611.771	12112.45
612.127	12231.77
612.484	12199.68
612.841	12270.64
613.198	12132.11
613.554	12160.58
613.911	12270.64
614.267	12288.94
614.624	12277.19
614.98	12228.38
615.337	12341.14
615.693	12350.86
616.05	12324.87
616.406	12330.07
616.762	12334.36
617.118	12395.38
617.475	12306.8
617.831	12334.36
618.187	12352.44
618.543	12410.3
618.899	12415.94
619.255	12431.99
619.611	12322.61
619.967	12483.51
620.323	12455.49
620.678	12442.16
621.034	12425.66
621.39	12415.27
621.746	12348.6
622.101	12558.31
622.457	12455.72
622.812	12431.54
623.168	12468.6
623.523	12485.1
623.879	12497.98
624.234	12442.38
624.589	12482.16
624.945	12489.62
625.3	12446
625.655	12423.63
626.01	12457.98
626.365	12524.87
626.72	12586.11
627.075	12460.24
627.43	12477.86
627.785	12379.11
628.14	12494.59
628.495	12491.65
628.85	12389.73
629.205	12377.08
629.559	12429.96
629.914	12325.78
630.269	12455.49
630.623	12372.33
630.978	12365.1
631.332	12390.18
631.687	12439.9
632.041	12321.48
632.396	12372.33
632.75	12337.08
633.104	12361.71
633.459	12259.79
633.813	12238.32
634.167	12282.39
634.521	12227.7
634.875	12322.39
635.229	12211.66
635.583	12198.1
635.937	12223.86
636.291	12230.86
636.645	12165.33
636.999	12109.96
637.352	12182.05
637.706	12061.38
638.06	12153.58
638.413	12106.57
638.767	12124.88
639.121	12085.33
639.474	12060.47
639.828	12071.32
640.181	12062.73
640.534	12055.5
640.888	11973.02
641.241	11988.84
641.594	12064.09
641.947	12007.59
642.301	11936.41
642.654	12056.18
643.007	12043.75
643.36	11949.74
643.713	11957.65
644.066	12008.95
644.419	11964.21
644.771	11820.71
645.124	11732.12
645.477	11678.79
645.83	11646.02
646.182	11556.76
646.535	11577.77
646.888	11595.18
647.24	11455.07
647.593	11532.13
647.945	11472.24
648.298	11523.76
648.65	11410.1
649.002	11473.37
649.355	11489.87
649.707	11517.21
650.059	11578.45
650.411	11706.13
650.763	11633.59
651.115	11740.03
651.467	11762.4
651.819	11737.09
652.171	11755.17
652.523	11691.9
652.875	11779.8
653.227	11599.47
653.578	11689.86
653.93	11741.16
654.282	11613.03
654.633	11685.34
654.985	11722.63
655.337	11664.33
655.688	11684.21
656.039	11782.74
656.391	11641.28
656.742	11664.1
657.094	11732.57
657.445	11752.91
657.796	11654.61
658.147	11628.85
658.498	11737.32
658.849	11749.52
659.2	11745.91
659.551	11654.83
659.902	11701.61
660.253	11669.75
660.604	11784.32
660.955	11602.63
661.306	11685.34
661.656	11712.46
662.007	11697.77
662.358	11659.81
662.708	11672.91
663.059	11804.21
663.409	11629.3
663.76	11692.8
664.11	11758.79
664.461	11710.2
664.811	11720.37
665.161	11775.96
665.511	11681.5
665.862	11716.53
666.212	11814.15
666.562	11738
666.912	11699.58
667.262	11713.82
667.612	11699.13
667.962	11744.55
668.312	11727.83
668.662	11756.98
669.011	11782.06
669.361	11691.9
669.711	11717.88
670.06	11724.21
670.41	11761.27
670.76	11660.94
671.109	11671.33
671.459	11718.56
671.808	11632.46
672.157	11703.2
672.507	11609.19
672.856	11563.99
673.205	11610.77
673.554	11622.97
673.904	11635.17
674.253	11764.66
674.602	11621.16
674.951	11458.68
675.3	11394.05
675.649	11593.14
675.998	11499.36
676.346	11497.1
676.695	11597.89
677.044	11485.57
677.393	11491.9
677.741	11517.89
678.09	11486.93
678.438	11428.4
678.787	11488.51
679.135	11471.11
679.484	11359.25
679.832	11468.4
680.181	11359.25
680.529	11388.85
680.877	11309.31
681.225	11314.73
681.573	11404.67
681.922	11315.18
682.27	11291.91
682.618	11205.36
682.966	11267.95
683.314	11265.69
683.661	11263.88
684.009	11160.38
684.357	11159.25
684.705	11114.51
685.053	11092.36
685.4	11164.45
685.748	11076.77
686.095	11108.18
686.443	11059.6
686.79	10957.9
687.138	10973.72
687.485	11011.46
687.832	10968.53
688.18	10954.06
688.527	10879.26
688.874	10879.94
689.221	10814.18
689.568	10853.95
689.915	10820.28
690.262	10792.03
690.609	10710.45
690.956	10701.64
691.303	10677.91
691.65	10643.34
691.997	10647.18
692.344	10572.6
692.69	10508.42
693.037	10493.51
693.383	10430.69
693.73	10457.58
694.077	10416.9
694.423	10434.08
694.769	10360.63
695.116	10343.46
695.462	10313.63
695.808	10258.94
696.155	10274.76
696.501	10191.37
696.847	10226.4
697.193	10106.85
697.539	10097.36
697.885	9991.6
698.231	9984.6
698.577	10010.81
698.923	9998.16
699.269	9894.2
699.614	9894.66
699.96	9844.71
700.306	9752.29
700.651	9788.22
700.997	9689.69
701.342	9762.23
701.688	9645.17
702.033	9646.98
702.379	9651.5
702.724	9613.08
703.069	9589.13
703.415	9512.52
703.76	9513.42
704.105	9517.26
704.45	9414.44
704.795	9403.82
705.14	9371.51
705.485	9363.6
705.83	9318.4
706.175	9337.38
706.52	9316.59
706.865	9277.5
707.209	9255.35
707.554	9210.38
707.899	9239.08
708.243	9183.71
708.588	9194.79
708.932	9101.23
709.277	9111.4
709.621	9082.93
709.966	9048.8
710.31	9022.14
710.654	9010.38
710.998	8925.64
711.342	9003.83
711.687	8950.27
712.031	8876.6
712.375	8889.48
712.719	8929.26
713.063	8870.95
713.407	8918.64
713.75	8776.04
714.094	8850.39
714.438	8816.27
714.782	8814.01
715.125	8792.09
715.469	8783.05
715.812	8745.76
716.156	8703.27
716.499	8758.19
716.843	8700.79
717.186	8682.94
717.53	8688.59
717.873	8692.88
718.216	8606.1
718.559	8641.35
718.902	8570.85
719.246	8579.21
719.589	8585.76
719.932	8539.44
720.275	8588.93
720.617	8497.18
720.96	8555.03
721.303	8557.06
721.646	8546.89
721.989	8442.94
722.331	8504.64
722.674	8501.47
723.016	8480.45
723.359	8544.41
723.701	8480
724.044	8408.82
724.386	8398.2
724.729	8453.56
725.071	8439.55
725.413	8461.02
725.755	8402.49
726.097	8255.83
726.439	8301.25
726.782	8364.75
727.124	8368.14
727.465	8323.62
727.807	8329.05
728.149	8331.98
728.491	8287.47
728.833	8265.32
729.175	8342.83
729.516	8242.95
729.858	8211.31
730.199	8243.17
730.541	8290.4
730.882	8252.89
731.224	8354.81
731.565	8211.08
731.906	8258.99
732.248	8249.05
732.589	8230.74
732.93	8208.15
733.271	8251.99
733.612	8255.38
733.953	8207.92
734.294	8214.25
734.635	8183.97
734.976	8215.15
735.317	8243.4
735.658	8231.2
735.999	8179.67
736.339	8234.36
736.68	8261.93
737.021	8196.62
737.361	8217.41
737.702	8253.12
738.042	8268.71
738.383	8226.22
738.723	8291.31
739.063	8260.8
739.404	8322.72
739.744	8249.27
740.084	8276.17
740.424	8290.18
740.764	8304.64
741.104	8367.92
741.444	8262.61
741.784	8250.4
742.124	8371.31
742.464	8311.19
742.804	8306.9
743.143	8284.75
743.483	8322.72
743.823	8339.22
744.162	8398.42
744.502	8438.87
744.841	8371.53
745.181	8448.37
745.52	8383.28
745.86	8550.06
746.199	8494.92
746.538	8579.89
746.877	8600.23
747.216	8619.89
747.556	8648.81
747.895	8714.35
748.234	8698.75
748.573	8712.99
748.911	8793.89
749.25	8849.48
749.589	8891.74
749.928	8930.61
750.267	9056.03
750.605	9077.95
750.944	9056.71
751.283	9158.4
751.621	9198.63
751.96	9344.39
752.298	9361.79
752.636	9463.03
752.975	9448.34
753.313	9540.54
753.651	9719.52
753.989	9742.57
754.327	9882.23
754.666	9936.24
755.004	10066.85
755.342	10149.11
755.679	10273.4
756.017	10333.74
756.355	10493.74
756.693	10587.52
757.031	10722.2
757.368	10784.58
757.706	11006.72
758.044	10997.22
758.381	11311.34
758.719	11338.68
759.056	11558.11
759.394	11703.42
759.731	11758.33
760.068	11865.45
760.405	12036.75
760.743	12164.88
761.08	12386.79
761.417	12442.61
761.754	12651.42
762.091	12799.44
