Data from hue_60_FLMS001491_34.txt Node
Date: Mon Feb 06 15:17:17 GMT 2017
User: dcchb
Spectrometer: FLMS00149
Trigger mode: 0
Integration Time (sec): 2.000000E-2
Scans to average: 10
Electric dark correction enabled: true
Nonlinearity correction enabled: false
Boxcar width: 0
XAxis mode: Wavelengths
Number of Pixels in Spectrum: 2048
>>>>>Begin Spectral Data<<<<<
341.393	19.15
341.776	19.15
342.16	19.15
342.543	-55.42
342.927	-66.04
343.31	-65.37
343.693	-65.14
344.077	-55.65
344.46	-67.4
344.843	-40.28
345.226	-43.45
345.61	-40.96
345.993	-22.2
346.376	-2.99
346.759	8.98
347.142	21.64
347.525	22.32
347.908	67.51
348.291	94.4
348.674	85.59
349.057	102.99
349.44	144.8
349.823	145.93
350.206	162.65
350.588	201.07
350.971	211.24
351.354	218.92
351.737	253.72
352.119	236.32
352.502	283.1
352.884	277.9
353.267	303.44
353.65	298.01
354.032	319.03
354.414	314.74
354.797	321.29
355.179	308.64
355.562	337.34
355.944	342.76
356.326	340.27
356.709	328.75
357.091	344.12
357.473	344.79
357.855	353.83
358.238	344.34
358.62	348.63
359.002	346.15
359.384	348.41
359.766	362.42
360.148	335.3
360.53	341.63
360.912	326.04
361.294	345.7
361.676	333.49
362.057	323.78
362.439	343.21
362.821	352.7
363.203	336.21
363.584	335.53
363.966	317.9
364.348	338.92
364.729	312.93
365.111	310.67
365.493	326.49
365.874	314.74
366.256	318.58
366.637	342.53
367.019	325.81
367.4	293.04
367.781	331.01
368.163	317.68
368.544	309.77
368.925	317.45
369.306	314.51
369.688	311.57
370.069	316.09
370.45	321.52
370.831	314.51
371.212	309.54
371.593	319.03
371.974	310.22
372.355	307.51
372.736	300.73
373.117	322.87
373.498	341.4
373.879	319.94
374.26	317
374.641	337.11
375.021	323.55
375.402	303.21
375.783	314.06
376.163	319.48
376.544	323.78
376.925	330.1
377.305	336.43
377.686	327.39
378.066	335.98
378.447	317.45
378.827	333.49
379.208	324.45
379.588	346.15
379.968	336.21
380.349	327.17
380.729	333.49
381.109	329.43
381.489	326.49
381.87	343.21
382.25	331.23
382.63	344.12
383.01	336.66
383.39	363.1
383.77	329.88
384.15	345.47
384.53	330.56
384.91	349.76
385.29	357
385.67	347.5
386.049	359.93
386.429	364.91
386.809	337.34
387.189	332.14
387.568	362.87
387.948	345.25
388.328	353.61
388.707	358.58
389.087	354.96
389.466	336.43
389.846	369.2
390.225	356.54
390.605	361.74
390.984	354.96
391.363	343.44
391.743	342.99
392.122	356.09
392.501	358.35
392.881	347.73
393.26	365.81
393.639	370.56
394.018	357
394.397	365.58
394.776	372.36
395.155	381.85
395.534	381.4
395.913	382.31
396.292	384.11
396.671	391.35
397.05	372.36
397.429	366.04
397.808	376.2
398.186	386.37
398.565	371.46
398.944	387.96
399.323	373.27
399.701	368.97
400.08	385.47
400.458	379.59
400.837	382.08
401.215	401.74
401.594	391.35
401.972	383.89
402.351	408.07
402.729	402.19
403.107	399.26
403.486	368.52
403.864	406.94
404.242	403.77
404.62	387.96
404.999	381.63
405.377	406.49
405.755	418.24
406.133	432.02
406.511	410.1
406.889	412.81
407.267	416.43
407.645	400.16
408.023	413.04
408.401	422.53
408.779	430.89
409.156	432.7
409.534	412.81
409.912	423.66
410.29	427.73
410.667	444.45
411.045	466.6
411.422	445.81
411.8	456.43
412.178	435.19
412.555	440.84
412.933	465.69
413.31	464.34
413.687	462.08
414.065	471.12
414.442	474.51
414.819	447.16
415.197	457.11
415.574	480.83
415.951	453.49
416.328	477.22
416.705	462.76
417.082	448.97
417.46	489.42
417.837	477.22
418.214	464.34
418.591	486.48
418.967	491.91
419.344	464.79
419.721	500.5
420.098	503.43
420.475	486.26
420.852	487.39
421.228	494.39
421.605	505.24
421.982	507.73
422.358	516.77
422.735	493.04
423.111	505.47
423.488	527.61
423.864	536.2
424.241	543.43
424.617	507.5
424.994	510.89
425.37	528.52
425.746	529.42
426.123	519.48
426.499	545.69
426.875	541.85
427.251	534.62
427.627	543.88
428.003	547.95
428.379	557.67
428.756	584.33
429.132	567.39
429.507	556.99
429.883	563.77
430.259	576.43
430.635	563.54
431.011	574.17
431.387	605.35
431.763	597.22
432.138	589.76
432.514	608.97
432.89	605.58
433.265	621.62
433.641	610.32
434.016	611.45
434.392	623.43
434.767	621.62
435.143	629.53
435.518	634.96
435.894	633.83
436.269	648.06
436.644	648.29
437.02	671.11
437.395	638.34
437.77	656.65
438.145	665.24
438.52	680.83
438.895	680.6
439.271	672.24
439.646	677.67
440.021	677.44
440.395	691.9
440.77	709.3
441.145	708.63
441.52	703.2
441.895	680.38
442.27	721.96
442.645	723.77
443.019	724.67
443.394	724.22
443.769	711.79
444.143	740.04
444.518	744.1
444.892	722.18
445.267	738.91
445.641	735.74
446.016	751.11
446.39	757.66
446.764	762.64
447.139	760.83
447.513	780.04
447.887	760.83
448.262	767.15
448.636	770.09
449.01	771.67
449.384	780.26
449.758	775.29
450.132	791.56
450.506	780.49
450.88	766.48
451.254	797.89
451.628	810.09
452.002	823.42
452.376	782.07
452.75	839.02
453.123	846.25
453.497	847.83
453.871	831.11
454.244	857.55
454.618	850.99
454.992	852.35
455.365	874.95
455.739	902.52
456.112	911.78
456.486	908.17
456.859	884.21
457.232	906.36
457.606	932.12
457.979	912.01
458.352	959.69
458.725	959.01
459.099	967.6
459.472	985.45
459.845	976.64
460.218	1005.79
460.591	997.21
460.964	1003.08
461.337	1037.2
461.71	1062.51
462.083	1072.46
462.456	1075.85
462.829	1083.08
463.201	1076.75
463.574	1076.98
463.947	1137.31
464.32	1117.2
464.692	1133.92
465.065	1150.2
465.438	1167.14
465.81	1182.96
466.183	1214.83
466.555	1229.52
466.928	1259.57
467.3	1233.58
467.672	1271.55
468.045	1293.24
468.417	1291.66
468.789	1311.32
469.161	1350.87
469.534	1364.88
469.906	1401.04
470.278	1420.47
470.65	1420.47
471.022	1460.24
471.394	1513.12
471.766	1527.13
472.138	1579.79
472.51	1602.61
472.882	1608.71
473.253	1623.86
473.625	1663.18
473.997	1721.93
474.369	1753.8
474.74	1776.85
475.112	1827.69
475.484	1858.43
475.855	1955.82
476.227	1989.04
476.598	2055.03
476.97	2073.79
477.341	2143.62
477.713	2209.38
478.084	2229.49
478.455	2315.14
478.827	2372.54
479.198	2425.87
479.569	2461.57
479.94	2592.19
480.311	2622.7
480.682	2704.28
481.053	2786.31
481.424	2902.92
481.795	2962.8
482.166	3050.71
482.537	3089.58
482.908	3267.2
483.279	3255.23
483.65	3389.23
484.021	3509.68
484.391	3631.71
484.762	3713.52
485.133	3818.37
485.503	3833.74
485.874	4009.78
486.244	4105.15
486.615	4253.84
486.985	4381.07
487.356	4509.2
487.726	4609.31
488.097	4806.82
488.467	4874.84
488.837	4986.25
489.207	5156.42
489.578	5242.52
489.948	5426.47
490.318	5573.81
490.688	5655.16
491.058	5787.81
491.428	5963.18
491.798	6122.49
492.168	6289.95
492.538	6395.93
492.908	6517.74
493.278	6696.49
493.648	6802.25
494.017	6961.57
494.387	7135.12
494.757	7297.38
495.126	7436.13
495.496	7553.42
495.866	7742.56
496.235	7863.01
496.605	8030.69
496.974	8162.67
497.344	8296.22
497.713	8387.07
498.082	8615.99
498.452	8818.69
498.821	8849.65
499.19	8955.19
499.559	9216.42
499.928	9244.22
500.298	9440.83
500.667	9547.72
501.036	9735.28
501.405	9822.51
501.774	9966.01
502.143	10128.72
502.512	10217.53
502.88	10436.28
503.249	10511.08
503.618	10658.65
503.987	10813.44
504.356	10906.32
504.724	11060.22
505.093	11139.99
505.462	11317.16
505.83	11409.81
506.199	11575.91
506.567	11763.93
506.936	11845.06
507.304	12018.16
507.672	12110.13
508.041	12288.21
508.409	12384.25
508.777	12576.11
509.145	12679.84
509.514	12741.76
509.882	12928.87
510.25	13015.19
510.618	13205.7
510.986	13265.58
511.354	13463.77
511.722	13617.89
512.09	13738.34
512.458	13809.75
512.826	14008.16
513.193	14035.73
513.561	14212.23
513.929	14264.43
514.297	14482.27
514.664	14604.31
515.032	14683.17
515.4	14777.41
515.767	14953.45
516.135	15144.86
516.502	15115.7
516.869	15340.78
517.237	15486.99
517.604	15447.9
517.972	15756.37
518.339	15865.52
518.706	15924.04
519.073	15997.94
519.44	16142.34
519.808	16425.5
520.175	16365.84
520.542	16665.27
520.909	16706.85
521.276	16720.63
521.643	16988.42
522.009	17197.91
522.376	17230.9
522.743	17318.81
523.11	17608.52
523.477	17818.91
523.843	17868.85
524.21	18041.95
524.577	18178.9
524.943	18364.88
525.31	18423.64
525.676	18510.42
526.043	18657.98
526.409	18789.51
526.776	19008.71
527.142	19188.14
527.508	19239.21
527.874	19376.16
528.241	19525.08
528.607	19630.39
528.973	19846.65
529.339	19932.3
529.705	19909.25
530.071	20219.98
530.437	20334.1
530.803	20365.28
531.169	20536.8
531.535	20467.88
531.901	20706.52
532.267	20643.69
532.632	20875.33
532.998	20953.97
533.364	21095.43
533.73	21213.85
534.095	21332.26
534.461	21284.81
534.826	21568.19
535.192	21556.66
535.557	21698.13
535.923	21786.72
536.288	21954.17
536.653	22088.4
537.019	21928.63
537.384	22118.46
537.749	22232.35
538.114	22202.07
538.479	22290.66
538.845	22461.95
539.21	22483.19
539.575	22574.04
539.94	22700.14
540.305	22768.16
540.67	22733.81
541.034	22803.86
541.399	23000.47
541.764	23001.6
542.129	23077.08
542.494	23216.73
542.858	23283.63
543.223	23306.45
543.587	23486.78
543.952	23501.7
544.316	23599.32
544.681	23551.41
545.045	23790.28
545.41	23794.57
545.774	23743.5
546.138	24034.79
546.503	24026.2
546.867	24157.73
547.231	24238.18
547.595	24159.99
547.959	24314.56
548.324	24409.7
548.688	24302.13
549.052	24484.72
549.416	24682.46
549.779	24600.88
550.143	24677.71
550.507	24865.28
550.871	24912.06
551.235	24928.55
551.599	25214.2
551.962	25183.46
552.326	25213.07
552.689	25498.71
553.053	25384.13
553.417	25490.12
553.78	25905.03
554.143	25762.66
554.507	25683.34
554.87	25924.69
555.234	26098.92
555.597	26032.48
555.96	26151.35
556.323	26253.72
556.686	26217.11
557.05	26618.45
557.413	26566.93
557.776	26683.31
558.139	26844.21
558.502	26824.55
558.865	26985.9
559.228	27286.68
559.59	27312.45
559.953	27343.86
560.316	27575.26
560.679	27553.57
561.041	27787.91
561.404	27846.67
561.767	28040.56
562.129	28104.52
562.492	28416.82
562.854	28340.44
563.217	28319.42
563.579	28590.38
563.941	28656.82
564.304	28721.9
564.666	28866.08
565.028	28995.34
565.39	29155.56
565.753	29251.15
566.115	29325.27
566.477	29447.08
566.839	29489.79
567.201	29770.23
567.563	29772.72
567.925	29915.77
568.287	30135.65
568.648	30117.57
569.01	30093.62
569.372	30432.59
569.734	30278.02
570.095	30512.59
570.457	30800.49
570.819	30805.01
571.18	30829.87
571.542	30963.42
571.903	31039.35
572.265	31163.42
572.626	31272.12
572.987	31321.83
573.349	31460.36
573.71	31498.1
574.071	31554.59
574.432	31691.99
574.794	31922.04
575.155	31902.83
575.516	31830.97
575.877	32000.01
576.238	32146.44
576.599	32155.26
576.96	32198.87
577.32	32253.33
577.681	32312.99
578.042	32483.84
578.403	32508.69
578.763	32597.28
579.124	32561.12
579.485	32734
579.845	32739.87
580.206	32642.02
580.566	32757.73
580.927	32727.44
581.287	32989.13
581.648	32715.69
582.008	32971.05
582.368	32947.78
582.728	32998.17
583.089	32887.21
583.449	32895.8
583.809	33062.58
584.169	33083.59
584.529	32953.2
584.889	33274.77
585.249	33224.83
585.609	33093.08
585.969	33246.07
586.329	33192.07
586.688	33195.68
587.048	33259.41
587.408	33181.44
587.768	33394.32
588.127	33156.81
588.487	33175.57
588.846	33470.25
589.206	33276.58
589.565	33275.23
589.925	33398.16
590.284	33356.81
590.643	33370.14
591.003	33395.22
591.362	33559.97
591.721	33442.68
592.08	33470.25
592.44	33498.5
592.799	33610.36
593.158	33585.95
593.517	33545.28
593.876	33636.57
594.235	33468.44
594.593	33657.59
594.952	33700.75
595.311	33761.77
595.67	33667.31
596.029	33960.86
596.387	33963.12
596.746	34049.44
597.104	33936.45
597.463	33901.88
597.822	34023.46
598.18	33906.85
598.538	33907.98
598.897	34171.25
599.255	33914.53
599.613	34345.71
599.972	34146.16
600.33	34293.51
600.688	34062.1
601.046	34329.66
601.404	34430.68
601.762	34375.76
602.12	34439.49
602.478	34418.02
602.836	34537.57
603.194	34426.83
603.552	34509.77
603.91	34353.84
604.268	34594.29
604.625	34600.62
604.983	34613.95
605.341	34524.69
605.698	34752.02
606.056	34750.22
606.413	34872.7
606.771	34906.82
607.128	35040.6
607.485	34808.52
607.843	34908.86
608.2	35159.25
608.557	35279.92
608.914	35031.11
609.272	35267.72
609.629	35400.82
609.986	35469.07
610.343	35472.68
610.7	35636.75
611.057	35517.43
611.414	35577.09
611.771	35606.24
612.127	35768.49
612.484	35800.36
612.841	35922.61
613.198	35781.83
613.554	35882.62
613.911	36207.35
614.267	36094.14
614.624	36048.26
614.98	36173.91
615.337	36334.58
615.693	36260.68
616.05	36222.72
616.406	36520.79
616.762	36393.56
617.118	36451.64
617.475	36452.32
617.831	36525.31
618.187	36561.24
618.543	36584.07
618.899	36728.24
619.255	36793.33
619.611	36702.71
619.967	37043.04
620.323	36902.25
620.678	37013.43
621.034	36670.62
621.39	36948.35
621.746	36817.73
622.101	37101.57
622.457	36919.65
622.812	37067.22
623.168	37189.7
623.523	37166.65
623.879	37223.15
624.234	37101.57
624.589	37131.85
624.945	37264.5
625.3	37382.92
625.655	37248.23
626.01	37324.61
626.365	37372.97
626.72	37431.5
627.075	37222.92
627.43	37400.09
627.785	37264.5
628.14	37364.61
628.495	37480.09
628.85	37376.36
629.205	37183.37
629.559	37477.15
629.914	37411.84
630.269	37310.15
630.623	37189.25
630.978	37127.33
631.332	37271.28
631.687	37419.3
632.041	37362.8
632.396	37423.82
632.75	37204.84
633.104	37273.99
633.459	37143.83
633.813	37180.21
634.167	37149.93
634.521	37146.09
634.875	37134.11
635.229	37098.86
635.583	37048.01
635.937	36922.36
636.291	36837.17
636.645	37029.03
636.999	36882.36
637.352	37019.08
637.706	36718.98
638.06	37024.05
638.413	36797.39
638.767	36825.64
639.121	36891.85
639.474	36823.16
639.828	36784.29
640.181	36825.64
640.534	36918.29
640.888	36872.65
641.241	36635.36
641.594	36635.36
641.947	36829.71
642.301	36572.77
642.654	36608.47
643.007	36635.14
643.36	36588.13
643.713	36516.95
644.066	36608.92
644.419	36401.92
644.771	36226.34
645.124	35806.91
645.477	35716.29
645.83	35701.15
646.182	35529.86
646.535	35447.83
646.888	35386.58
647.24	35290.09
647.593	35435.85
647.945	35312.01
648.298	35198.11
648.65	35154.27
649.002	35018.01
649.355	35150.88
649.707	35093.48
650.059	35268.62
650.411	35602.62
650.763	35802.84
651.115	36117.64
651.467	35930.75
651.819	35950.41
652.171	35845.1
652.523	35811.66
652.875	35795.16
653.227	35655.73
653.578	35887.59
653.93	35773.24
654.282	35599.69
654.633	35526.47
654.985	35771.66
655.337	35697.99
655.688	35647.14
656.039	35791.54
656.391	35452.8
656.742	35521.72
657.094	35566.92
657.445	35639.68
657.796	35698.89
658.147	35536.64
658.498	35498.22
658.849	35555.62
659.2	35537.77
659.551	35359.92
659.902	35664.77
660.253	35557.88
660.604	35591.78
660.955	35496.64
661.306	35454.15
661.656	35478.78
662.007	35475.85
662.358	35354.27
662.708	35405.11
663.059	35410.54
663.409	35243.99
663.76	35483.08
664.11	35335.96
664.461	35365.79
664.811	35432.91
665.161	35391.56
665.511	35312.24
665.862	35338.45
666.212	35493.47
666.562	35305.91
666.912	35319.69
667.262	35285.12
667.612	35120.83
667.962	35349.97
668.312	35200.15
668.662	35372.35
669.011	35175.97
669.361	35131.45
669.711	35251.67
670.06	35131.45
670.41	35063.65
670.76	35076.99
671.109	35180.71
671.459	35119.47
671.808	35017.55
672.157	35168.28
672.507	34887.84
672.856	34928.97
673.205	35177.78
673.554	35055.52
673.904	35063.88
674.253	35108.4
674.602	34973.04
674.951	34498.7
675.3	34311.36
675.649	34896.88
675.998	34962.41
676.346	34933.26
676.695	34859.82
677.044	34758.13
677.393	34834.96
677.741	34861.85
678.09	34885.13
678.438	34751.12
678.787	34800.16
679.135	34816.2
679.484	34517.91
679.832	34605.14
680.181	34495.76
680.529	34561.07
680.877	34496.89
681.225	34399.72
681.573	34737.56
681.922	34312.71
682.27	34264.81
682.618	34239.5
682.966	34254.41
683.314	34258.93
683.661	34098.71
684.009	33960.86
684.357	34007.86
684.705	33914.76
685.053	33875.21
685.4	33792.5
685.748	33537.82
686.095	33643.35
686.443	33597.25
686.79	33527.2
687.138	33538.27
687.485	33639.28
687.832	33409.01
688.18	33552.96
688.527	33353.19
688.874	33261.44
689.221	33296.7
689.568	33209.01
689.915	33096.02
690.262	33058.28
690.609	33003.6
690.956	32819.19
691.303	32787.33
691.65	32581.23
691.997	32615.13
692.344	32520.44
692.69	32465.98
693.037	32442.48
693.383	32317.06
693.73	32394.8
694.077	32115.03
694.423	32025.32
694.769	32187.57
695.116	31877.75
695.462	31813.8
695.808	31771.31
696.155	31841.14
696.501	31600.02
696.847	31607.47
697.193	31316.86
697.539	31360.7
697.885	31125.9
698.231	31168.84
698.577	31296.75
698.923	31150.76
699.269	31016.98
699.614	30809.08
699.96	31021.5
700.306	30811.56
700.651	30678.23
700.997	30607.73
701.342	30615.18
701.688	30544.68
702.033	30501.29
702.379	30498.12
702.724	30343.78
703.069	30329.32
703.415	30096.1
703.76	30087.06
704.105	30183.33
704.45	29913.73
704.795	29861.08
705.14	29793.51
705.485	29789.89
705.83	29567.08
706.175	29671.03
706.52	29558.26
706.865	29513.97
707.209	29254.54
707.554	29164.15
707.899	29273.3
708.243	29197.82
708.588	29071.27
708.932	28915.79
709.277	28852.97
709.621	28931.16
709.966	28730.71
710.31	28923.48
710.654	28614.33
710.998	28691.17
711.342	28619.98
711.687	28461.79
712.031	28471.96
712.375	28349.25
712.719	28403.72
713.063	28219.99
713.407	28439.42
713.75	28217.28
714.094	28298.86
714.438	28015.48
714.782	28133.89
715.125	27890.96
715.469	28031.3
715.812	27773.22
716.156	27822.49
716.499	27843.51
716.843	27744.07
717.186	27569.61
717.53	27667.92
717.873	27631.53
718.216	27593.12
718.559	27419.79
718.902	27401.26
719.246	27470.41
719.589	27399.22
719.932	27191.32
720.275	27210.08
720.617	27086.24
720.96	27041.49
721.303	27028.39
721.646	27093.02
721.989	26841.5
722.331	26939.35
722.674	26836.3
723.016	26963.98
723.359	26828.84
723.701	26881.04
724.044	26688.51
724.386	26581.39
724.729	26705.68
725.071	26588.62
725.413	26697.32
725.755	26561.28
726.097	26405.35
726.439	26419.14
726.782	26548.85
727.124	26373.94
727.465	26261.85
727.807	26291.46
728.149	26156.09
728.491	26115.87
728.833	26193.38
729.175	26051.46
729.516	26073.83
729.858	25939.83
730.199	26014.85
730.541	25862.09
730.882	25895.31
731.224	25984.57
731.565	25862.77
731.906	25814.41
732.248	25778.47
732.589	25641.53
732.93	25579.38
733.271	25627.29
733.612	25628.65
733.953	25612.83
734.294	25541.42
734.635	25477.69
734.976	25443.57
735.317	25272.95
735.658	25300.3
735.999	25391.59
736.339	25209.45
736.68	25255.78
737.021	25232.05
737.361	25064.37
737.702	25244.25
738.042	25173.07
738.383	25148.66
738.723	25049
739.063	24994.99
739.404	25080.64
739.744	25053.07
740.084	24813.75
740.424	24928.78
740.764	24946.18
741.104	24891.94
741.444	24818.95
741.784	24642.69
742.124	24808.1
742.464	24593.2
742.804	24725.4
743.143	24626.64
743.483	24624.15
743.823	24549.81
744.162	24444.95
744.502	24487.66
744.841	24340.77
745.181	24459.87
745.52	24275.46
745.86	24315.24
746.199	24256.71
746.538	24233.2
746.877	24225.3
747.216	24285.18
747.556	24021.68
747.895	24052.87
748.234	23964.06
748.573	24019.42
748.911	23945.75
749.25	23871.41
749.589	23870.5
749.928	23846.55
750.267	23830.5
750.605	23807.23
750.944	23724.97
751.283	23650.4
751.621	23571.98
751.96	23616.27
752.298	23556.39
752.636	23573.79
752.975	23420.8
753.313	23371.08
753.651	23454.69
753.989	23232.33
754.327	23278.2
754.666	23158.43
755.004	23314.36
755.342	23179
755.679	23084.99
756.017	22928.83
756.355	23069.39
756.693	22834.82
