Data from hue_290_FLMS001491_00003.txt Node
Date: Tue Feb 07 15:52:07 GMT 2017
User: dcchb
Spectrometer: FLMS00149
Trigger mode: 0
Integration Time (sec): 2.000000E-2
Scans to average: 10
Electric dark correction enabled: true
Nonlinearity correction enabled: false
Boxcar width: 0
XAxis mode: Wavelengths
Number of Pixels in Spectrum: 2048
>>>>>Begin Spectral Data<<<<<
341.393	-10.34
341.776	-10.34
342.16	-10.34
342.543	-45.59
342.927	-63.67
343.31	-65.03
343.693	-60.51
344.077	-59.38
344.46	-49.89
344.843	-52.6
345.226	-45.37
345.61	-38.36
345.993	-16.89
346.376	-1.75
346.759	17.23
347.142	31.24
347.525	25.82
347.908	66.04
348.291	51.81
348.674	75.99
349.057	121.64
349.44	114.4
349.823	129.32
350.206	161.63
350.588	203.21
350.971	204.8
351.354	213.16
351.737	217.45
352.119	252.25
352.502	253.84
352.884	266.94
353.267	268.75
353.65	283.89
354.032	294.51
354.414	284.34
354.797	272.37
355.179	317.34
355.562	314.85
355.944	329.54
356.326	351.23
356.709	310.78
357.091	317.34
357.473	338.13
357.855	332.03
358.238	332.25
358.62	324.79
359.002	374.96
359.384	326.83
359.766	324.57
360.148	332.03
360.53	321.86
360.912	319.14
361.294	327.51
361.676	342.87
362.057	329.77
362.439	322.76
362.821	299.48
363.203	332.48
363.584	318.01
363.966	306.26
364.348	312.59
364.729	308.3
365.111	332.25
365.493	300.61
365.874	291.12
366.256	304.68
366.637	293.38
367.019	309.43
367.4	320.5
367.781	300.61
368.163	314.85
368.544	302.42
368.925	300.61
369.306	339.93
369.688	308.75
370.069	314.85
370.45	309.88
370.831	300.39
371.212	317.34
371.593	315.53
371.974	299.03
372.355	302.87
372.736	314.17
373.117	309.43
373.498	308.52
373.879	308.52
374.26	309.65
374.641	321.86
375.021	318.24
375.402	316.21
375.783	322.76
376.163	318.69
376.544	325.92
376.925	336.77
377.305	339.03
377.686	334.28
378.066	301.07
378.447	319.82
378.827	323.44
379.208	332.93
379.588	328.41
379.968	326.6
380.349	325.92
380.729	341.74
381.109	346.26
381.489	353.49
381.87	328.86
382.25	352.36
382.63	349.65
383.01	330.67
383.39	350.1
383.77	353.27
384.15	336.32
384.53	337.67
384.91	341.06
385.29	339.03
385.67	335.87
386.049	360.05
386.429	341.74
386.809	349.65
387.189	358.01
387.568	354.62
387.948	354.4
388.328	367.96
388.707	352.36
389.087	347.84
389.466	370.89
389.846	377.45
390.225	373.15
390.605	369.09
390.984	362.31
391.363	355.75
391.743	381.06
392.122	379.71
392.501	362.76
392.881	372.7
393.26	365.24
393.639	362.08
394.018	377.9
394.397	374.74
394.776	394.17
395.155	403.44
395.534	391.23
395.913	389.88
396.292	395.3
396.671	394.62
397.05	375.64
397.429	389.88
397.808	403.44
398.186	402.53
398.565	398.69
398.944	398.69
399.323	404.79
399.701	426.03
400.08	415.19
400.458	421.51
400.837	431.91
401.215	406.15
401.594	424.9
401.972	449.08
402.351	437.79
402.729	425.81
403.107	425.36
403.486	454.06
403.864	440.5
404.242	448.63
404.62	432.14
404.999	440.04
405.377	461.29
405.755	431.68
406.133	471.68
406.511	457.22
406.889	462.19
407.267	469.42
407.645	476.43
408.023	478.91
408.401	479.82
408.779	487.73
409.156	508.52
409.534	500.83
409.912	507.84
410.29	536.54
410.667	514.85
411.045	534.28
411.422	544
411.8	550.55
412.178	560.27
412.555	571.11
412.933	564.79
413.31	588.97
413.687	590.32
414.065	578.57
414.442	595.3
414.819	616.99
415.197	629.87
415.574	596.65
415.951	633.03
416.328	628.29
416.705	640.49
417.082	605.24
417.46	654.28
417.837	662.86
418.214	662.86
418.591	668.06
418.967	673.49
419.344	675.97
419.721	692.24
420.098	697.89
420.475	722.07
420.852	723.65
421.228	724.33
421.605	731.11
421.982	733.37
422.358	741.96
422.735	769.3
423.111	784.67
423.488	792.58
423.864	774.73
424.241	795.74
424.617	809.75
424.994	817.21
425.37	828.74
425.746	859.92
426.123	848.62
426.499	843.2
426.875	831.9
427.251	873.48
427.627	883.65
428.003	892.91
428.379	913.03
428.756	892.69
429.132	938.56
429.507	938.11
429.883	946.92
430.259	972.46
430.635	942.4
431.011	976.98
431.387	1015.4
431.763	995.74
432.138	993.93
432.514	1036.64
432.89	1026.02
433.265	1056.75
433.641	1092.46
434.016	1045
434.392	1082.29
434.767	1102.4
435.143	1117.77
435.518	1139.46
435.894	1160.03
436.269	1166.58
436.644	1171.33
437.02	1170.65
437.395	1190.08
437.77	1207.48
438.145	1249.29
438.52	1251.1
438.895	1219.69
439.271	1249.97
439.646	1290.87
440.021	1271.44
440.395	1275.28
440.77	1294.03
441.145	1322.96
441.52	1317.08
441.895	1300.59
442.27	1322.06
442.645	1289.74
443.019	1324.32
443.394	1361.38
443.769	1339.91
444.143	1346.69
444.518	1365.44
444.892	1375.61
445.267	1351.66
445.641	1407.48
446.016	1402.51
446.39	1412.45
446.764	1394.82
447.139	1397.99
447.513	1426.23
447.887	1423.3
448.262	1436.18
448.636	1425.1
449.01	1466.68
449.384	1456.74
449.758	1496.74
450.132	1478.66
450.506	1491.99
450.88	1471.43
451.254	1522.05
451.628	1531.32
452.002	1537.19
452.376	1553.69
452.75	1548.04
453.123	1527.25
453.497	1571.99
453.871	1604.08
454.244	1575.83
454.618	1596.17
454.992	1600.92
455.365	1607.7
455.739	1666.23
456.112	1679.56
456.486	1657.19
456.859	1678.43
457.232	1712.55
457.606	1703.74
457.979	1729.95
458.352	1744.87
458.725	1750.97
459.099	1773.57
459.472	1776.28
459.845	1811.08
460.218	1824.87
460.591	1796.17
460.964	1775.83
461.337	1857.63
461.71	1903.06
462.083	1903.28
462.456	1879.56
462.829	1890.4
463.201	1912.32
463.574	1909.38
463.947	1938.99
464.32	1969.27
464.692	1984.86
465.065	2016.27
465.438	1995.94
465.81	2037.97
466.183	2050.17
466.555	2075.71
466.928	2087.46
467.3	2086.1
467.672	2113.67
468.045	2165.88
468.417	2120.45
468.789	2201.58
469.161	2197.06
469.534	2200.9
469.906	2251.52
470.278	2256.27
470.65	2294.91
471.022	2314.57
471.394	2371.52
471.766	2354.34
472.138	2374.46
472.51	2413.55
472.882	2438.41
473.253	2472.31
473.625	2484.96
473.997	2543.49
474.369	2531.52
474.74	2565.19
475.112	2586.43
475.484	2604.51
475.855	2619.65
476.227	2674.11
476.598	2755.24
476.97	2743.26
477.341	2753.43
477.713	2827.55
478.084	2810.15
478.455	2882.24
478.827	2880.88
479.198	2979.19
479.569	2940.09
479.94	2989.58
480.311	3041.11
480.682	3088.34
481.053	3148
481.424	3151.39
481.795	3165.62
482.166	3225.96
482.537	3217.6
482.908	3330.36
483.279	3352.74
483.65	3364.71
484.021	3437.03
484.391	3447.65
484.762	3438.38
485.133	3461.89
485.503	3522
485.874	3570.58
486.244	3617.59
486.615	3615.78
486.985	3684.48
487.356	3760.86
487.726	3735.55
488.097	3797.24
488.467	3812.39
488.837	3856.23
489.207	3903.91
489.578	3951.59
489.948	3959.27
490.318	4020.52
490.688	4040.4
491.058	4060.29
491.428	4107.29
491.798	4136.22
492.168	4216.89
492.538	4197.46
492.908	4260.74
493.278	4332.6
493.648	4261.87
494.017	4328.3
494.387	4336.44
494.757	4370.34
495.126	4411.24
495.496	4454.63
495.866	4502.09
496.235	4466.61
496.605	4516.55
496.974	4575.3
497.344	4559.48
497.713	4577.11
498.082	4615.53
498.452	4658.47
498.821	4693.94
499.19	4645.13
499.559	4680.16
499.928	4740.72
500.298	4756.32
500.667	4758.12
501.036	4802.42
501.405	4820.72
501.774	4775.3
502.143	4860.27
502.512	4815.52
502.88	4862.75
503.249	4876.09
503.618	4908.18
503.987	4937.55
504.356	4912.24
504.724	4960.38
505.093	4951.79
505.462	4938.01
505.83	5029.53
506.199	5041.28
506.567	5081.96
506.936	5092.13
507.304	5123.31
507.672	5140.71
508.041	5153.59
508.409	5109.53
508.777	5220.03
509.145	5222.74
509.514	5202.41
509.882	5254.16
510.25	5269.97
510.618	5233.59
510.986	5272.01
511.354	5294.38
511.722	5355.85
512.09	5351.55
512.458	5354.49
512.826	5380.48
513.193	5395.85
513.561	5467.48
513.929	5458.9
514.297	5463.87
514.664	5486.69
515.032	5536.86
515.4	5535.96
515.767	5570.53
516.135	5583.64
516.502	5557.65
516.869	5557.65
517.237	5609.4
517.604	5646.69
517.972	5658.44
518.339	5712.67
518.706	5689.4
519.073	5682.39
519.44	5749.06
519.808	5722.17
520.175	5725.56
520.542	5760.36
520.909	5793.12
521.276	5804.2
521.643	5821.37
522.009	5855.04
522.376	5827.93
522.743	5905.21
523.11	5955.83
523.477	5990.63
523.843	6022.72
524.21	6034.47
524.577	6019.79
524.943	6059.33
525.31	6093.91
525.676	6189.72
526.043	6190.63
526.409	6143.85
526.776	6240.12
527.142	6218.65
527.508	6280.8
527.874	6301.59
528.241	6320.12
528.607	6380
528.973	6353.79
529.339	6346.56
529.705	6435.59
530.071	6494.35
530.437	6476.04
530.803	6490.06
531.169	6535.03
531.535	6517.85
531.901	6585.65
532.267	6591.07
532.632	6607.11
532.998	6629.03
533.364	6679.88
533.73	6665.64
534.095	6751.74
534.461	6740.44
534.826	6707.45
535.192	6795.36
535.557	6797.17
535.923	6819.76
536.288	6880.1
536.653	6870.16
537.019	6834.91
537.384	6820.44
537.749	6932.3
538.114	6908.35
538.479	6905.86
538.845	6966.43
539.21	6968.46
539.575	6955.13
539.94	7037.84
540.305	7072.41
540.67	7065.41
541.034	7074.22
541.399	7082.13
541.764	7095.24
542.129	7083.03
542.494	7108.12
542.858	7189.7
543.223	7176.59
543.587	7219.53
543.952	7209.13
544.316	7232.18
544.681	7225.86
545.045	7302.69
545.41	7287.1
545.774	7403.03
546.138	7292.75
546.503	7391.05
546.867	7382.24
547.231	7453.87
547.595	7464.72
547.959	7445.28
548.324	7434.89
548.688	7448
549.052	7516.47
549.416	7517.82
549.779	7543.81
550.143	7558.5
550.507	7573.42
550.871	7584.04
551.235	7575.9
551.599	7644.83
551.962	7640.53
552.326	7678.05
552.689	7688.44
553.053	7699.74
553.417	7686.41
553.78	7739.51
554.143	7702.45
554.507	7769.34
554.87	7743.13
555.234	7799.4
555.597	7823.58
555.96	7795.33
556.323	7848.89
556.686	7899.96
557.05	7952.62
557.413	7892.5
557.776	7968.21
558.139	7927.98
558.502	7960.07
558.865	7981.77
559.228	8109.45
559.59	8111.48
559.953	8012.5
560.316	8101.99
560.679	8074.65
561.041	8161.2
561.404	8217.02
561.767	8255.21
562.129	8233.96
562.492	8283
562.854	8319.39
563.217	8299.27
563.579	8368.65
563.941	8438.93
564.304	8438.93
564.666	8474.86
565.028	8464.92
565.39	8487.29
565.753	8538.14
566.115	8553.73
566.477	8576.78
566.839	8547.63
567.201	8592.15
567.563	8576.1
567.925	8719.38
568.287	8736.78
568.648	8668.53
569.01	8784.91
569.372	8835.3
569.734	8809.99
570.095	8842.76
570.457	8904.68
570.819	8954.85
571.18	8930.22
571.542	8967.73
571.903	8988.52
572.265	9033.49
572.626	9078.69
572.987	9087.5
573.349	9150.1
573.71	9238.23
574.071	9210.89
574.432	9290.21
574.794	9348.96
575.155	9416.76
575.516	9361.39
575.877	9449.3
576.238	9444.33
576.599	9504.21
576.96	9621.05
577.32	9632.35
577.681	9650.42
578.042	9724.55
578.403	9810.65
578.763	9788.05
579.124	9852.23
579.485	9981.04
579.845	10051.54
580.206	10014.03
580.566	10076.4
580.927	10134.93
581.287	10283.63
581.648	10390.74
582.008	10478.43
582.368	10484.3
582.728	10543.96
583.089	10602.94
583.449	10773.33
583.809	10815.14
584.169	10914.57
584.529	10974.68
584.889	11124.28
585.249	11209.25
585.609	11209.48
585.969	11456.93
586.329	11524.05
586.688	11625.74
587.048	11783.93
587.408	11846.07
587.768	11967.65
588.127	12104.15
588.487	12208.1
588.846	12383.69
589.206	12322.22
589.565	12535.55
589.925	12845.37
590.284	12881.53
590.643	13051.92
591.003	13153.38
591.362	13257.79
591.721	13358.35
592.08	13545.69
592.44	13693.03
592.799	13863.19
593.158	13923.31
593.517	14076.3
593.876	14258.21
594.235	14343.41
594.593	14472.9
594.952	14589.28
595.311	14728.03
595.67	14946.33
596.029	15038.08
596.387	15202.37
596.746	15356.71
597.104	15389.71
597.463	15479.2
597.822	15709.7
598.18	15749.47
598.538	15906.76
598.897	16120.54
599.255	16030.14
599.613	16334.54
599.972	16420.87
600.33	16578.15
600.688	16670.8
601.046	16828.77
601.404	17031.93
601.762	17033.28
602.12	17288.42
602.478	17298.36
602.836	17366.15
603.194	17348.3
603.552	17477.79
603.91	17634.85
604.268	17817.22
604.625	17823.77
604.983	17987.38
605.341	17987.15
605.698	18168.62
606.056	18315.96
606.413	18344.88
606.771	18482.28
607.128	18532.45
607.485	18562.51
607.843	18673.24
608.2	18849.5
608.557	18919.33
608.914	18956.62
609.272	19111.87
609.629	19212.21
609.986	19303.96
610.343	19269.83
610.7	19461.92
611.057	19473.67
611.414	19554.8
611.771	19673.89
612.127	19721.8
612.484	19712.31
612.841	19900.55
613.198	19944.39
613.554	20013.09
613.911	20103.48
614.267	20091.05
614.624	20202.01
614.98	20295.12
615.337	20405.62
615.693	20518.61
616.05	20356.81
616.406	20612.62
616.762	20614.2
617.118	20637.03
617.475	20592.96
617.831	20705.27
618.187	20750.92
618.543	20849.45
618.899	20917.25
619.255	20948.88
619.611	20863.69
619.967	21053.97
620.323	21126.51
620.678	21090.35
621.034	21065.04
621.39	21073.63
621.746	21147.07
622.101	21444.24
622.457	21220.29
622.812	21310.68
623.168	21429.55
623.523	21404.47
623.879	21518.36
624.234	21385.26
624.589	21443.79
624.945	21542.99
625.3	21558.59
625.655	21560.85
626.01	21567.4
626.365	21588.42
626.72	21689.88
627.075	21660.5
627.43	21686.49
627.785	21526.95
628.14	21618.92
628.495	21704.12
628.85	21601.52
629.205	21655.08
629.559	21767.85
629.914	21627.06
630.269	21620.96
630.623	21625.7
630.978	21575.31
631.332	21634.06
631.687	21634.97
632.041	21562.88
632.396	21742.76
632.75	21552.71
633.104	21601.52
633.459	21590.45
633.813	21649.66
634.167	21486.05
634.521	21475.88
634.875	21562.43
635.229	21601.3
635.583	21397.69
635.937	21500.96
636.291	21522.2
636.645	21349.55
636.999	21325.6
637.352	21435.43
637.706	21346.61
638.06	21363.34
638.413	21473.62
638.767	21308.2
639.121	21443.56
639.474	21277.01
639.828	21354.3
640.181	21265.26
640.534	21325.6
640.888	21277.46
641.241	21290.8
641.594	21336.22
641.947	21309.55
642.301	21281.08
642.654	21342.32
643.007	21278.14
643.36	21266.39
643.713	21233.85
644.066	21323.34
644.419	21229.55
644.771	20999.73
645.124	20757.93
645.477	20922.67
645.83	20765.39
646.182	20733.75
646.535	20703.69
646.888	20649.68
647.24	20595.67
647.593	20644.94
647.945	20651.94
648.298	20637.93
648.65	20567.65
649.002	20547.54
649.355	20631.6
649.707	20559.52
650.059	20596.35
650.411	20957.92
650.763	20909.11
651.115	21141.87
651.467	21150.69
651.819	21048.54
652.171	21057.36
652.523	20907.08
652.875	21105.04
653.227	21017.36
653.578	21070.01
653.93	21060.97
654.282	20994.98
654.633	20922.44
654.985	21013.97
655.337	21021.88
655.688	21007.87
656.039	21120.63
656.391	20923.35
656.742	21073.4
657.094	21003.35
657.445	21077.92
657.796	21011.03
658.147	20944.14
658.498	20951.14
658.849	21104.59
659.2	21057.81
659.551	20962.44
659.902	21178.26
660.253	21005.15
660.604	21063.01
660.955	20895.55
661.306	21131.03
661.656	21069.56
662.007	21121.08
662.358	21067.75
662.708	21095.1
663.059	21146.39
663.409	21042.67
663.76	21164.25
664.11	21238.37
664.461	21294.86
664.811	21206.5
665.161	21086.51
665.511	21110.91
665.862	21163.34
666.212	21308.65
666.562	21147.52
666.912	21125.15
667.262	21107.3
667.612	21123.57
667.962	21184.81
668.312	20999.96
668.662	21201.53
669.011	21157.24
669.361	21076.34
669.711	21061.2
670.06	21098.26
670.41	21036.57
670.76	20973.06
671.109	21047.86
671.459	21149.78
671.808	21045.6
672.157	20982.1
672.507	20887.42
672.856	20988.88
673.205	21001.99
673.554	21002.22
673.904	20900.98
674.253	21001.09
674.602	20952.05
674.951	20678.61
675.3	20491.72
675.649	20931.03
675.998	20843.12
676.346	20829.11
676.695	20924.25
677.044	20785.95
677.393	20793.86
677.741	20786.63
678.09	20788.66
678.438	20788.66
678.787	20765.39
679.135	20680.42
679.484	20530.36
679.832	20699.85
680.181	20470.25
680.529	20624.37
680.877	20489.01
681.225	20445.17
681.573	20663.24
681.922	20470.93
682.27	20407.2
682.618	20486.75
682.966	20406.3
683.314	20402.91
683.661	20255.34
684.009	20273.2
684.357	20231.39
684.705	20115.46
685.053	20128.79
685.4	20148.45
685.748	19900.1
686.095	20126.76
686.443	19934.9
686.79	19833.89
687.138	19952.3
687.485	19960.21
687.832	19926.31
688.18	19817.39
688.527	19743.94
688.874	19787.78
689.221	19724.28
689.568	19569.71
689.915	19582.82
690.262	19542.82
690.609	19426.44
690.956	19418.08
691.303	19410.17
691.65	19243.62
691.997	19313.67
692.344	19243.62
692.69	19114.36
693.037	19117.07
693.383	19054.7
693.73	19091.76
694.077	18845.89
694.423	18830.97
694.769	18873.68
695.116	18849.28
695.462	18756.85
695.808	18599.57
696.155	18758.66
696.501	18480.25
696.847	18522.96
697.193	18383.53
697.539	18382.62
697.885	18247.03
698.231	18174.04
698.577	18228.05
698.923	18167.04
699.269	18151.67
699.614	17945.35
699.96	17934.27
700.306	17903.77
700.651	17774.5
700.997	17793.49
701.342	17722.08
701.688	17699.93
702.033	17567.05
702.379	17627.84
702.724	17584.9
703.069	17553.95
703.415	17261.75
703.76	17367.51
704.105	17256.1
704.45	17160.51
704.795	17159.83
705.14	17142.2
705.485	17148.76
705.83	17061.53
706.175	16936.56
706.52	16819.5
706.865	16887.07
707.209	16720.75
707.554	16730.46
707.899	16850.01
708.243	16625.61
708.588	16701.76
708.932	16581.77
709.277	16598.04
709.621	16546.51
709.966	16395.33
710.31	16407.99
710.654	16297.48
710.998	16359.4
711.342	16348.55
711.687	16329.57
712.031	16194.88
712.375	16116.02
712.719	16233.75
713.063	16083.25
713.407	16203.25
713.75	16063.81
714.094	16099.29
714.438	15993.31
714.782	15997.6
715.125	15911.95
715.469	15989.24
715.812	15935.23
716.156	15830.83
716.499	15755.8
716.843	15796.25
717.186	15687.55
717.53	15851.17
717.873	15879.64
718.216	15729.36
718.559	15662.24
718.902	15567.33
719.246	15674.22
719.589	15586.54
719.932	15471.06
720.275	15463.15
720.617	15523.26
720.96	15431.97
721.303	15422.48
721.646	15455.7
721.989	15284.4
722.331	15426.32
722.674	15341.35
723.016	15417.96
723.359	15331.63
723.701	15346.32
724.044	15304.74
724.386	15225.19
724.729	15275.14
725.071	15247.11
725.413	15170.05
725.755	15249.6
726.097	15215.93
726.439	15115.14
726.782	15136.83
727.124	15244.18
727.465	15050.51
727.807	15042.37
728.149	15112.88
728.491	15055.25
728.833	15130.96
729.175	15056.61
729.516	14970.28
729.858	15042.6
730.199	14983.62
730.541	14991.98
730.882	14955.37
731.224	15042.82
731.565	14929.16
731.906	14982.49
732.248	14935.93
732.589	14989.72
732.93	14923.96
733.271	14877.63
733.612	14952.88
733.953	14951.3
734.294	14920.57
734.635	14810.74
734.976	14955.6
735.317	14818.2
735.658	14888.48
735.999	14814.36
736.339	14783.85
736.68	14845.09
737.021	14946.56
737.361	14897.97
737.702	14808.93
738.042	14843.06
738.383	14866.56
738.723	14950.62
739.063	14874.24
739.404	14994.46
739.744	14942.26
740.084	14953.34
740.424	14900.68
740.764	14903.17
741.104	14973
741.444	14843.73
741.784	14872.89
742.124	14951.3
742.464	14917.4
742.804	14936.84
743.143	14965.54
743.483	14957.18
743.823	14948.82
744.162	14916.73
744.502	15040.34
744.841	15062.49
745.181	15101.58
745.52	15118.3
745.86	15176.83
746.199	15208.92
746.538	15158.53
746.877	15307.68
747.216	15263.61
747.556	15286.89
747.895	15513.09
748.234	15404.62
748.573	15492.76
748.911	15488.01
749.25	15580.66
749.589	15624.05
749.928	15706.31
750.267	15772.98
750.605	15748.57
750.944	15780.43
751.283	15942.46
751.621	16055.68
751.96	16067.43
752.298	16112.4
752.636	16237.82
752.975	16332.96
753.313	16390.13
753.651	16516.01
753.989	16599.39
754.327	16647.53
754.666	16707.41
755.004	16887.3
755.342	16954.86
755.679	17089.32
756.017	17201.64
756.355	17269.43
756.693	17404.57
757.031	17584.45
757.368	17506.94
757.706	17686.15
758.044	17772.47
758.381	17930.43
758.719	17993.26
759.056	18113.7
759.394	18265.34
