Data from hue_40_FLMS001491_66.txt Node
Date: Mon Feb 06 15:08:16 GMT 2017
User: dcchb
Spectrometer: FLMS00149
Trigger mode: 0
Integration Time (sec): 2.000000E-2
Scans to average: 10
Electric dark correction enabled: true
Nonlinearity correction enabled: false
Boxcar width: 0
XAxis mode: Wavelengths
Number of Pixels in Spectrum: 2048
>>>>>Begin Spectral Data<<<<<
341.393	-6.1
341.776	-6.1
342.16	-6.1
342.543	-72.31
342.927	-72.54
343.31	-75.03
343.693	-77.96
344.077	-70.28
344.46	-43.61
344.843	-65.99
345.226	-62.6
345.61	-34.35
345.993	-29.38
346.376	-4.75
346.759	30.51
347.142	46.55
347.525	38.19
347.908	71.41
348.291	90.39
348.674	87.91
349.057	98.98
349.44	134.69
349.823	133.56
350.206	183.5
350.588	208.36
350.971	207.45
351.354	236.38
351.737	242.71
352.119	244.97
352.502	259.2
352.884	265.3
353.267	276.15
353.65	300.78
354.032	292.42
354.414	305.3
354.797	326.09
355.179	345.3
355.562	322.93
355.944	328.8
356.326	337.17
356.709	329.26
357.091	345.53
357.473	337.39
357.855	339.2
358.238	344.62
358.62	334.68
359.002	338.75
359.384	340.78
359.766	345.08
360.148	343.27
360.53	342.82
360.912	347.56
361.294	333.32
361.676	335.58
362.057	341.01
362.439	342.36
362.821	346.21
363.203	333.32
363.584	325.19
363.966	328.8
364.348	337.39
364.729	349.6
365.111	338.75
365.493	331.97
365.874	338.07
366.256	318.41
366.637	324.29
367.019	327.9
367.4	340.56
367.781	309.6
368.163	322.48
368.544	319.77
368.925	341.23
369.306	346.66
369.688	319.77
370.069	316.6
370.45	315.02
370.831	313.89
371.212	331.74
371.593	286.32
371.974	323.83
372.355	305.53
372.736	329.26
373.117	316.15
373.498	310.73
373.879	311.63
374.26	317.73
374.641	327.9
375.021	313.44
375.402	331.74
375.783	328.35
376.163	340.33
376.544	344.62
376.925	333.32
377.305	324.74
377.686	329.03
378.066	311.63
378.447	353.44
378.827	329.71
379.208	328.8
379.588	341.69
379.968	338.97
380.349	343.72
380.729	350.95
381.109	335.58
381.489	350.95
381.87	348.47
382.25	359.54
382.63	348.47
383.01	365.41
383.39	355.02
383.77	360.44
384.15	335.13
384.53	373.32
384.91	368.8
385.29	336.04
385.67	342.14
386.049	362.48
386.429	360.89
386.809	365.19
387.189	334.91
387.568	369.03
387.948	364.96
388.328	371.06
388.707	358.63
389.087	385.07
389.466	371.06
389.846	358.18
390.225	360.67
390.605	383.49
390.984	374.23
391.363	366.54
391.743	377.62
392.122	376.04
392.501	391.63
392.881	378.75
393.26	374.68
393.639	406.54
394.018	414.68
394.397	378.52
394.776	411.06
395.155	394.34
395.534	399.76
395.913	401.57
396.292	404.96
396.671	398.41
397.05	401.12
397.429	407.22
397.808	412.87
398.186	385.75
398.565	396.6
398.944	409.93
399.323	390.95
399.701	409.71
400.08	426.88
400.458	414.23
400.837	409.93
401.215	435.69
401.594	417.84
401.972	435.92
402.351	426.66
402.729	442.93
403.107	426.43
403.486	439.54
403.864	420.55
404.242	430.05
404.62	447.9
404.999	441.8
405.377	431.85
405.755	432.31
406.133	442.25
406.511	434.56
406.889	458.74
407.267	456.03
407.645	438.86
408.023	458.07
408.401	469.59
408.779	454.23
409.156	456.49
409.534	472.76
409.912	479.31
410.29	507.56
410.667	473.89
411.045	496.71
411.422	486.09
411.8	496.26
412.178	478.18
412.555	491.51
412.933	494.45
413.31	490.16
413.687	499.2
414.065	526.99
414.442	503.26
414.819	536.26
415.197	510.72
415.574	550.95
415.951	550.04
416.328	546.43
416.705	517.73
417.082	520.89
417.46	533.32
417.837	552.53
418.214	537.39
418.591	551.62
418.967	554.56
419.344	562.7
419.721	536.94
420.098	570.83
420.475	564.73
420.852	571.96
421.228	576.03
421.605	567.22
421.982	553.43
422.358	564.73
422.735	578.74
423.111	573.32
423.488	591.85
423.864	592.53
424.241	601.57
424.617	618.51
424.994	591.17
425.37	614.22
425.746	605.41
426.123	632.53
426.499	629.14
426.875	617.84
427.251	640.44
427.627	624.84
428.003	645.86
428.379	621.23
428.756	639.98
429.132	649.93
429.507	662.58
429.883	665.75
430.259	659.64
430.635	650.15
431.011	639.53
431.387	656.03
431.763	702.58
432.138	684.28
432.514	722.24
432.89	710.72
433.265	721.11
433.641	713.88
434.016	745.97
434.392	745.29
434.767	745.52
435.143	728.12
435.518	729.47
435.894	764.27
436.269	751.39
436.644	786.87
437.02	778.74
437.395	811.05
437.77	781.9
438.145	773.09
438.52	813.99
438.895	791.39
439.271	813.76
439.646	794.78
440.021	836.81
440.395	853.08
440.77	818.06
441.145	818.28
441.52	835.23
441.895	839.75
442.27	846.76
442.645	842.01
443.019	863.03
443.394	879.07
443.769	877.49
444.143	868.68
444.518	889.92
444.892	879.75
445.267	903.25
445.641	848.11
446.016	878.39
446.39	912.97
446.764	912.52
447.139	900.54
447.513	929.47
447.887	914.33
448.262	926.98
448.636	937.15
449.01	956.81
449.384	949.81
449.758	935.57
450.132	953.87
450.506	976.92
450.88	960.2
451.254	982.57
451.628	981.22
452.002	982.12
452.376	1011.05
452.75	1006.3
453.123	1015.79
453.497	1051.27
453.871	1021.89
454.244	1061.89
454.618	1037.26
454.992	1068.9
455.365	1062.8
455.739	1074.77
456.112	1113.42
456.486	1106.86
456.859	1142.79
457.232	1123.36
457.606	1150.7
457.979	1133.98
458.352	1170.14
458.725	1172.62
459.099	1200.42
459.472	1220.31
459.845	1204.49
460.218	1265.05
460.591	1219.63
460.964	1246.97
461.337	1262.79
461.71	1302.79
462.083	1317.03
462.456	1302.34
462.829	1305.05
463.201	1324.48
463.574	1348.89
463.947	1371.49
464.32	1384.37
464.692	1416.46
465.065	1387.08
465.438	1449.68
465.81	1471.83
466.183	1502.79
466.555	1491.94
466.928	1518.6
467.3	1517.47
467.672	1561.77
468.045	1587.3
468.417	1612.84
468.789	1625.72
469.161	1642.67
469.534	1640.86
469.906	1696.45
470.278	1743.01
470.65	1769.44
471.022	1774.19
471.394	1814.64
471.766	1820.29
472.138	1870.01
472.51	1910.46
472.882	1939.38
473.253	1982.32
473.625	2008.08
473.997	2065.48
474.369	2102.77
474.74	2108.42
475.112	2195.2
475.484	2245.82
475.855	2257.57
476.227	2298.47
476.598	2369.88
476.97	2438.35
477.341	2474.51
477.713	2527.62
478.084	2589.31
478.455	2607.62
478.827	2705.01
479.198	2774.39
479.569	2786.82
479.94	2919.7
480.311	2935.29
480.682	3071.78
481.053	3170.54
481.424	3213.47
481.795	3267.94
482.166	3302.29
482.537	3392
482.908	3501.15
483.279	3619.11
483.65	3671.77
484.021	3794.02
484.391	3858.88
484.762	3954.25
485.133	4052.1
485.503	4135.94
485.874	4205.77
486.244	4315.59
486.615	4425.65
486.985	4525.98
487.356	4647.11
487.726	4724.4
488.097	4899.53
488.467	4939.31
488.837	5106.76
489.207	5204.61
489.578	5304.27
489.948	5403.02
490.318	5524.83
490.688	5611.38
491.058	5712.17
491.428	5824.25
491.798	5977.92
492.168	6090.91
492.538	6144.47
492.908	6231.02
493.278	6478.25
493.648	6464.69
494.017	6669.66
494.387	6711.91
494.757	6858.35
495.126	6921.85
495.496	7039.36
495.866	7151.68
496.235	7320.03
496.605	7433.48
496.974	7457.66
497.344	7583.3
497.713	7734.49
498.082	7840.25
498.452	7905.78
498.821	7998.43
499.19	8042.05
499.559	8233
499.928	8353.9
500.298	8449.27
500.667	8548.02
501.036	8597.06
501.405	8654.01
501.774	8775.81
502.143	8891.52
502.512	8949.6
502.88	9098.74
503.249	9185.07
503.618	9174
503.987	9339.19
504.356	9358.17
504.724	9446.31
505.093	9509.58
505.462	9642.68
505.83	9689.91
506.199	9778.27
506.567	9923.35
506.936	9964.26
507.304	10072.05
507.672	10143.24
508.041	10260.52
508.409	10261.65
508.777	10398.6
509.145	10544.13
509.514	10526.5
509.882	10696.44
510.25	10768.08
510.618	10819.38
510.986	10861.64
511.354	11016.21
511.722	11030.67
512.09	11150.22
512.458	11255.07
512.826	11322.64
513.193	11422.3
513.561	11454.61
513.929	11434.95
514.297	11694.61
514.664	11756.3
515.032	11820.03
515.4	11849.86
515.767	11944.09
516.135	12055.73
516.502	12001.49
516.869	12257.08
517.237	12222.05
517.604	12270.64
517.972	12416.17
518.339	12507.69
518.706	12516.96
519.073	12607.13
519.44	12682.83
519.808	12848.02
520.175	12838.53
520.542	12954.69
520.909	13147.45
521.276	13131.18
521.643	13225.87
522.009	13309.03
522.376	13413.43
522.743	13444.62
523.11	13572.75
523.477	13615.91
523.843	13802.57
524.21	13924.61
524.577	13981.55
524.943	14082.79
525.31	14128.22
525.676	14297.93
526.043	14391.71
526.409	14379.06
526.776	14580.63
527.142	14665.83
527.508	14706.96
527.874	14728.2
528.241	14817.92
528.607	14977.69
528.973	15011.58
529.339	15033.28
529.705	15348.52
530.071	15358.69
530.437	15386.71
530.803	15551.91
531.169	15641.62
531.535	15660.38
531.901	15607.05
532.267	15774.05
532.632	15833.03
532.998	15870.54
533.364	16010.88
533.73	16084.77
534.095	16178.56
534.461	16091.55
534.826	16261.72
535.192	16405.9
535.557	16431.66
535.923	16452.9
536.288	16624.65
536.653	16614.48
537.019	16675.95
537.384	16735.38
537.749	16864.64
538.114	16817.41
538.479	16927.69
538.845	17067.35
539.21	17037.97
539.575	17105.54
539.94	17244.07
540.305	17353.89
540.67	17336.27
541.034	17429.37
541.399	17567.22
541.764	17449.71
542.129	17689.03
542.494	17605.86
542.858	17753.21
543.223	17698.29
543.587	17872.98
543.952	17806.31
544.316	17889.93
544.681	17919.53
545.045	18104.38
545.41	18180.54
545.774	18189.35
546.138	18270.93
546.503	18205.62
546.867	18328.56
547.231	18593.18
547.595	18557.7
547.959	18585.05
548.324	18621.66
548.688	18677.02
549.052	18748.21
549.416	18777.59
549.779	18846.74
550.143	18915.21
550.507	19026.39
550.871	19204.01
551.235	19101.87
551.599	19252.15
551.962	19241.53
552.326	19406.27
552.689	19423.9
553.053	19350.9
553.417	19376.44
553.78	19664.34
554.143	19688.07
554.507	19699.82
554.87	19794.51
555.234	19981.62
555.597	19880.38
555.96	20084.44
556.323	20121.73
556.686	20102.75
557.05	20256.87
557.413	20314.72
557.776	20372.35
558.139	20523.3
558.502	20518.78
558.865	20607.37
559.228	20773.01
559.59	20817.08
559.953	20761.71
560.316	21036.74
560.679	21021.14
561.041	21183.4
561.404	21336.16
561.767	21384.97
562.129	21238.54
562.492	21560.56
562.854	21478.53
563.217	21570.96
563.579	21590.84
563.941	21688.47
564.304	21859.09
564.666	22042.13
565.028	21917.62
565.39	22006.88
565.753	22158.51
566.115	22225.86
566.477	22418.85
566.839	22401.9
567.201	22542.68
567.563	22434.89
567.925	22687.77
568.287	22653.42
568.648	22761.44
569.01	23004.82
569.372	23141.54
569.734	22961.88
570.095	23222.21
570.457	23198.03
570.819	23298.6
571.18	23405.03
571.542	23406.16
571.903	23567.74
572.265	23634.63
572.626	23766.61
572.987	23891.12
573.349	23908.3
573.71	24136.77
574.071	24071.91
574.432	24287.72
574.794	24490.2
575.155	24402.75
575.516	24473.48
575.877	24656.53
576.238	24797.31
576.599	24994.15
576.96	25093.13
577.32	25074.37
577.681	25244.08
578.042	25416.96
578.403	25448.6
578.763	25615.37
579.124	25667.12
579.485	25826.21
579.845	26089.71
580.206	26191.63
580.566	26261.91
580.927	26372.64
581.287	26740.54
581.648	26589.81
582.008	26814.89
582.368	26903.7
582.728	27143.47
583.089	27211.71
583.449	27432.73
583.809	27608.99
584.169	27636.11
584.529	27767.63
584.889	28193.38
585.249	28071.35
585.609	28233.61
585.969	28599.02
586.329	28677.44
586.688	28782.52
587.048	29041.95
587.408	29189.29
587.768	29447.36
588.127	29529.17
588.487	29683.51
588.846	30070.4
589.206	30015.48
589.565	30209.83
589.925	30509.03
590.284	30678.74
590.643	30838.74
591.003	31079.18
591.362	31444.14
591.721	31377.03
592.08	31654.08
592.44	31882.33
592.799	31995.32
593.158	32061.3
593.517	32320.73
593.876	32451.12
594.235	32611.35
594.593	32778.8
594.952	33114.84
595.311	33140.82
595.67	33337.2
596.029	33714.14
596.387	33735.16
596.746	34019.9
597.104	34034.59
597.463	34186.67
597.822	34439.32
598.18	34461.92
598.538	34634.12
598.897	34925.18
599.255	34835.69
599.613	35493.08
599.972	35300.99
600.33	35585.05
600.688	35614.2
601.046	35890.36
601.404	36207.18
601.762	36118.82
602.12	36570.56
602.478	36610.11
602.836	36799.48
603.194	36629.09
603.552	36832.93
603.91	36819.6
604.268	37196.54
604.625	37169.64
604.983	37404.89
605.341	37342.52
605.698	37618.22
606.056	37872.45
606.413	37852.34
606.771	38047.14
607.128	38199
607.485	38148.6
607.843	38321.7
608.2	38651.41
608.557	38706.55
608.914	38665.88
609.272	38912.88
609.629	39033.55
609.986	39252.53
610.343	39105.41
610.7	39491.62
611.057	39622.46
611.414	39529.58
611.771	39602.12
612.127	39886.86
612.484	39991.94
612.841	40092.73
613.198	40020.42
613.554	40181.99
613.911	40510.57
614.267	40551.93
614.624	40477.81
614.98	40605.03
615.337	40941.3
615.693	40865.37
616.05	40957.79
616.406	41060.62
616.762	41022.2
617.118	41112.14
617.475	41086.38
617.831	41479.81
618.187	41447.72
618.543	41559.59
618.899	41789.64
619.255	41639.13
619.611	41794.16
619.967	41970.2
620.323	42023.08
620.678	41904.43
621.034	41743.08
621.39	42031.44
621.746	41939.69
622.101	42361.15
622.457	42253.35
622.812	42260.81
623.168	42303.52
623.523	42451.31
623.879	42631.2
624.234	42323.63
624.589	42509.39
624.945	42586
625.3	42737.63
625.655	42599.56
626.01	42736.05
626.365	42695.6
626.72	42709.84
627.075	42694.02
627.43	42787.8
627.785	42687.24
628.14	42943.96
628.495	42828.48
628.85	42767.69
629.205	42726.11
629.559	43045.87
629.914	42824.64
630.269	42898.53
630.623	42839.1
630.978	42875.71
631.332	42922.49
631.687	43025.76
632.041	42774.92
632.396	43035.7
632.75	42952.32
633.104	42848.36
633.459	42796.16
633.813	42751.19
634.167	42817.18
634.521	42769.27
634.875	42834.81
635.229	42813.11
635.583	42528.37
635.937	42737.63
636.291	42655.83
636.645	42784.19
636.999	42706.45
637.352	42797.74
637.706	42610.63
638.06	42742.38
638.413	42601.82
638.767	42576.28
639.121	42480.92
639.474	42434.36
639.828	42498.09
640.181	42492.44
640.534	42456.28
640.888	42417.87
641.241	42223.75
641.594	42329.96
641.947	42328.15
642.301	42329.73
642.654	42368.38
643.007	42310.07
643.36	42307.36
643.713	42179
644.066	42395.04
644.419	42161.38
644.771	41736.08
645.124	41572.01
645.477	41404.79
645.83	41189.88
646.182	41099.94
646.535	40985.36
646.888	41170.44
647.24	40871.24
647.593	40954.63
647.945	40890.68
648.298	40764.13
648.65	40859.04
649.002	40770
649.355	40894.29
649.707	40696.33
650.059	40920.51
650.411	41564.78
650.763	41248.41
651.115	41846.58
651.467	41742.86
651.819	41707.6
652.171	41696.76
652.523	41578.34
652.875	41525.01
653.227	41276.88
653.578	41515.74
653.93	41403.21
654.282	41378.57
654.633	41242.08
654.985	41303.55
655.337	41356.88
655.688	41377.22
656.039	41491.11
656.391	41187.17
656.742	41178.35
657.094	41154.4
657.445	41259.25
657.796	41343.32
658.147	41228.75
658.498	41121.63
658.849	41327.05
659.2	41117.79
659.551	41180.61
659.902	41268.52
660.253	41114.63
660.604	41248.86
660.955	41017.45
661.306	41181.74
661.656	40999.15
662.007	41040.5
662.358	41136.09
662.708	41040.73
663.059	41051.35
663.409	40671.25
663.76	41184.68
664.11	41050.67
664.461	40952.82
664.811	41058.58
665.161	41056.1
665.511	40981.75
665.862	41045.7
666.212	41059.26
666.562	41177.9
666.912	41010.45
667.262	40939.49
667.612	40909.66
667.962	40957.79
668.312	40813.16
668.662	41090.44
669.011	40915.99
669.361	40705.37
669.711	40851.58
670.06	40738.59
670.41	40716.44
670.76	40705.6
671.109	40812.03
671.459	40887.06
671.808	40742.88
672.157	40711.47
672.507	40500.86
672.856	40586.28
673.205	40671.25
673.554	40750.11
673.904	40584.47
674.253	40837.57
674.602	40630.12
674.951	40127.08
675.3	39950.59
675.649	40593.28
675.998	40490.23
676.346	40528.88
676.695	40638.93
677.044	40379.96
677.393	40449.56
677.741	40349.67
678.09	40348.77
678.438	40325.49
678.787	40278.26
679.135	40378.15
679.484	40035.56
679.832	40225.38
680.181	39993.98
680.529	40096.57
680.877	40024.94
681.225	40026.52
681.573	40202.11
681.922	39875.34
682.27	39741.78
682.618	39791.27
682.966	39786.52
683.314	39910.36
683.661	39633.31
684.009	39605.74
684.357	39364.61
684.705	39372.75
685.053	39374.33
685.4	39372.3
685.748	39206.88
686.095	39347.21
686.443	39048.69
686.79	39084.85
687.138	38973.89
687.485	39200.55
687.832	39008.01
688.18	38926.21
688.527	38781.81
688.874	38675.37
689.221	38622.71
689.568	38489.16
689.915	38544.75
690.262	38517.63
690.609	38396.28
690.956	38178.66
691.303	38171.65
691.65	38070.19
691.997	38010.75
692.344	37826.35
692.69	37821.15
693.037	37752.91
693.383	37596.07
693.73	37535.06
694.077	37345.23
694.423	37372.8
694.769	37199.7
695.116	37287.83
695.462	37110.21
695.808	37072.92
696.155	37203.09
696.501	36749.09
696.847	36795.87
697.193	36575.31
697.539	36667.74
697.885	36526.5
698.231	36325.37
698.577	36421.42
698.923	36201.99
699.269	36118.37
699.614	35953.86
699.96	35956.79
700.306	35927.87
700.651	35804.71
700.997	35696.69
701.342	35765.16
701.688	35545.96
702.033	35428.45
702.379	35379.18
702.724	35291.95
703.069	35348.9
703.415	34810.84
703.76	35053.99
704.105	35107.1
704.45	34881.12
704.795	34759.99
705.14	34712.08
705.485	34600.45
705.83	34618.52
706.175	34479.32
706.52	34454.91
706.865	34273.22
707.209	34253.56
707.554	34220.57
707.899	34247.69
708.243	33963.17
708.588	33953.01
708.932	33762.05
709.277	33722.96
709.621	33809.28
709.966	33621.49
710.31	33610.64
710.654	33332.23
710.998	33588.27
711.342	33457.2
711.687	33341.27
712.031	33298.11
712.375	33026.02
712.719	33193.93
713.063	33093.59
713.407	33193.93
713.75	33004.56
714.094	32966.14
714.438	32775.86
714.782	32871.45
715.125	32646.37
715.469	32693.38
715.812	32531.57
716.156	32373.61
716.499	32328.19
716.843	32401.41
717.186	32280.96
717.53	32448.19
717.873	32274.86
718.216	32323.67
718.559	31986.05
718.902	31906.51
719.246	32021.53
719.589	31793.74
719.932	31827.19
720.275	31711.03
720.617	31737.92
720.96	31685.04
721.303	31611.15
721.646	31745.83
721.989	31346.29
722.331	31605.95
722.674	31386.29
723.016	31356.92
723.359	31398.27
723.701	31383.58
724.044	31106.75
724.386	31036.25
724.729	31106.3
725.071	31099.75
725.413	30953.54
725.755	31044.61
726.097	30943.37
726.439	30707.67
726.782	30706.09
727.124	30829.47
727.465	30606.65
727.807	30635.35
728.149	30571.85
728.491	30592.19
728.833	30443.27
729.175	30462.48
729.516	30323.27
729.858	30305.64
730.199	30417.73
730.541	30240.56
730.882	30244.18
731.224	30257.96
731.565	30147.46
731.906	30077.63
732.248	30086.44
732.589	29907.46
732.93	29783.85
733.271	29921.02
733.612	29822.72
733.953	29856.62
734.294	29766.22
734.635	29716.51
734.976	29739.33
735.317	29561.26
735.658	29675.83
735.999	29553.8
736.339	29439.45
736.68	29657.75
737.021	29568.26
737.361	29344.77
737.702	29472.9
738.042	29320.58
738.383	29254.15
738.723	29295.5
739.063	29194.03
739.404	29303.64
739.744	29169.4
740.084	29022.29
740.424	29052.12
740.764	29086.01
741.104	29058.22
741.444	28925.12
741.784	28871.11
742.124	28790.88
742.464	28801.5
742.804	28652.35
743.143	28805.8
743.483	28674.95
743.823	28549.31
744.162	28531.45
744.502	28546.82
744.841	28298.01
745.181	28477.67
745.52	28372.81
745.86	28315.19
746.199	28351.8
746.538	28455.52
746.877	28446.26
747.216	28348.41
747.556	28209.2
747.895	28166.94
748.234	28110.9
748.573	28113.16
748.911	27943.9
749.25	27922.88
749.589	27856.89
749.928	27785.03
750.267	27860.28
750.605	27835.88
750.944	27734.19
751.283	27600.4
751.621	27673.62
751.96	27518.37
752.298	27434.98
752.636	27607.64
752.975	27344.59
753.313	27281.77
753.651	27507.07
753.989	27213.52
754.327	27220.3
754.666	26952.96
755.004	27091.49
755.342	27120.42
755.679	27049.23
756.017	26792.06
756.355	26886.98
