Data from hue_350_FLMS001491_34.txt Node
Date: Mon Feb 06 15:37:56 GMT 2017
User: dcchb
Spectrometer: FLMS00149
Trigger mode: 0
Integration Time (sec): 2.000000E-2
Scans to average: 10
Electric dark correction enabled: true
Nonlinearity correction enabled: false
Boxcar width: 0
XAxis mode: Wavelengths
Number of Pixels in Spectrum: 2048
>>>>>Begin Spectral Data<<<<<
341.393	-10.79
341.776	-10.79
342.16	-10.79
342.543	-65.48
342.927	-67.74
343.31	-63.9
343.693	-74.52
344.077	-72.71
344.46	-40.17
344.843	-41.3
345.226	-36.33
345.61	-46.72
345.993	-15.99
346.376	-21.64
346.759	11.36
347.142	33.05
347.525	40.73
347.908	54.74
348.291	76.89
348.674	90
349.057	106.49
349.44	139.49
349.823	135.19
350.206	184.46
350.588	208.41
350.971	196.89
351.354	190.79
351.737	229.2
352.119	256.55
352.502	233.5
352.884	263.55
353.267	278.47
353.65	306.94
354.032	294.29
354.414	308.52
354.797	293.38
355.179	326.83
355.562	318.24
355.944	332.93
356.326	328.41
356.709	341.52
357.091	319.37
357.473	337.67
357.855	342.65
358.238	360.05
358.62	339.03
359.002	334.06
359.384	345.36
359.766	318.47
360.148	323.89
360.53	327.96
360.912	334.06
361.294	340.61
361.676	329.99
362.057	330.9
362.439	319.37
362.821	332.25
363.203	342.87
363.584	325.7
363.966	317.79
364.348	310.1
364.729	325.02
365.111	301.07
365.493	317.56
365.874	307.85
366.256	308.3
366.637	307.62
367.019	302.65
367.4	325.7
367.781	322.76
368.163	309.2
368.544	321.86
368.925	344.45
369.306	327.73
369.688	310.33
370.069	317.79
370.45	301.29
370.831	298.58
371.212	326.15
371.593	313.27
371.974	309.43
372.355	303.1
372.736	287.51
373.117	301.07
373.498	284.57
373.879	293.83
374.26	300.84
374.641	300.39
375.021	302.65
375.402	314.62
375.783	306.04
376.163	322.31
376.544	335.41
376.925	296.09
377.305	326.15
377.686	320.73
378.066	337.22
378.447	344.68
378.827	293.83
379.208	315.75
379.588	318.24
379.968	322.31
380.349	339.26
380.729	322.99
381.109	327.96
381.489	328.64
381.87	319.37
382.25	350.1
382.63	350.33
383.01	342.42
383.39	344
383.77	355.3
384.15	354.4
384.53	338.58
384.91	329.31
385.29	328.86
385.67	328.64
386.049	340.39
386.429	328.86
386.809	326.15
387.189	344
387.568	349.88
387.948	331.8
388.328	337
388.707	339.26
389.087	354.85
389.466	366.15
389.846	360.72
390.225	351.46
390.605	367.73
390.984	365.92
391.363	356.88
391.743	359.37
392.122	362.31
392.501	334.96
392.881	355.98
393.26	351.23
393.639	349.88
394.018	356.88
394.397	351.69
394.776	369.99
395.155	376.54
395.534	343.32
395.913	381.06
396.292	362.98
396.671	347.62
397.05	370.67
397.429	391.68
397.808	373.83
398.186	375.19
398.565	381.52
398.944	383.32
399.323	365.24
399.701	379.48
400.08	387.39
400.458	376.32
400.837	362.98
401.215	390.55
401.594	383.32
401.972	376.77
402.351	397.11
402.729	401.63
403.107	390.55
403.486	386.04
403.864	395.98
404.242	397.33
404.62	388.97
404.999	405.02
405.377	394.4
405.755	397.79
406.133	413.38
406.511	402.98
406.889	398.24
407.267	401.63
407.645	413.38
408.023	398.69
408.401	423.77
408.779	409.54
409.156	431.23
409.534	438.69
409.912	413.15
410.29	405.47
410.667	424.9
411.045	430.78
411.422	436.2
411.8	458.8
412.178	440.27
412.555	453.6
412.933	442.08
413.31	464
413.687	455.19
414.065	454.28
414.442	446.15
414.819	450.44
415.197	462.19
415.574	463.55
415.951	468.97
416.328	471.68
416.705	459.48
417.082	493.15
417.46	447.28
417.837	478.01
418.214	493.83
418.591	502.87
418.967	488.63
419.344	469.87
419.721	509.65
420.098	482.98
420.475	492.47
420.852	514.39
421.228	517.33
421.605	502.64
421.982	497.67
422.358	514.17
422.735	518.01
423.111	521.17
423.488	540.61
423.864	529.31
424.241	547.16
424.617	534.51
424.994	540.83
425.37	526.14
425.746	544.9
426.123	538.12
426.499	561.4
426.875	555.3
427.251	562.75
427.627	568.4
428.003	591.45
428.379	567.73
428.756	558.91
429.132	590.32
429.507	583.32
429.883	587.16
430.259	597.78
430.635	595.97
431.011	597.78
431.387	620.83
431.763	625.12
432.138	603.2
432.514	627.84
432.89	617.89
433.265	639.14
433.641	648.63
434.016	642.98
434.392	627.61
434.767	637.55
435.143	649.76
435.518	663.99
435.894	659.47
436.269	663.32
436.644	682.75
437.02	658.8
437.395	675.29
437.77	680.72
438.145	701.06
438.52	701.51
438.895	693.15
439.271	699.25
439.646	694.5
440.021	738.12
440.395	715.74
440.77	732.24
441.145	738.34
441.52	712.35
441.895	715.74
442.27	705.57
442.645	742.64
443.019	730.88
443.394	744.22
443.769	745.8
444.143	732.69
444.518	767.27
444.892	754.39
445.267	764.78
445.641	767.04
446.016	772.01
446.39	766.59
446.764	777.21
447.139	780.6
447.513	775.4
447.887	776.08
448.262	784.22
448.636	767.04
449.01	785.57
449.384	797.78
449.758	807.27
450.132	824.44
450.506	799.13
450.88	797.55
451.254	826.25
451.628	818.57
452.002	783.09
452.376	826.93
452.75	812.92
453.123	829.64
453.497	835.51
453.871	839.81
454.244	863.99
454.618	853.14
454.992	877.77
455.365	864.44
455.739	892.69
456.112	894.5
456.486	904.21
456.859	930.65
457.232	915.06
457.606	889.3
457.979	920.94
458.352	958
458.725	943.08
459.099	945.12
459.472	981.5
459.845	979.69
460.218	979.69
460.591	989.86
460.964	982.18
461.337	1003.65
461.71	1029.86
462.083	1033.7
462.456	1033.93
462.829	1024.89
463.201	1033.02
463.574	1039.35
463.947	1062.18
464.32	1062.85
464.692	1052.46
465.065	1113.93
465.438	1104.21
465.81	1135.17
466.183	1136.75
466.555	1132.46
466.928	1138.78
467.3	1139.01
467.672	1153.7
468.045	1200.7
468.417	1178.33
468.789	1193.25
469.161	1214.49
469.534	1221.95
469.906	1258.78
470.278	1251.77
470.65	1246.35
471.022	1273.47
471.394	1308.95
471.766	1336.74
472.138	1345.11
472.51	1346.69
472.882	1376.07
473.253	1403.86
473.625	1439.57
473.997	1452.45
474.369	1433.24
474.74	1462.16
475.112	1480.92
475.484	1490.41
475.855	1513.91
476.227	1521.15
476.598	1561.37
476.97	1600.92
477.341	1620.8
477.713	1656.51
478.084	1638.21
478.455	1687.24
478.827	1718.2
479.198	1764.53
479.569	1763.63
479.94	1835.71
480.311	1820.57
480.682	1876.17
481.053	1928.82
481.424	1942.83
481.795	1982.38
482.166	2030.96
482.537	2034.13
482.908	2083.84
483.279	2068.48
483.65	2148.7
484.021	2176.72
484.391	2187.8
484.762	2193.67
485.133	2236.38
485.503	2278.41
485.874	2344.4
486.244	2329.94
486.615	2387.11
486.985	2404.97
487.356	2479.09
487.726	2477.96
488.097	2552.98
488.467	2535.36
488.837	2609.93
489.207	2648.8
489.578	2648.57
489.948	2694.45
490.318	2743.71
490.688	2742.36
491.058	2785.97
491.428	2834.11
491.798	2857.83
492.168	2908
492.538	2928.57
492.908	2984.84
493.278	3035.23
493.648	3011.05
494.017	3075.68
494.387	3105.74
494.757	3125.85
495.126	3126.98
495.496	3159.52
495.866	3141.44
496.235	3222.57
496.605	3261.89
496.974	3237.71
497.344	3296.92
497.713	3356.35
498.082	3326.3
498.452	3399.52
498.821	3417.82
499.19	3426.41
499.559	3466.86
499.928	3494.2
500.298	3491.26
500.667	3523.81
501.036	3489.91
501.405	3538.49
501.774	3532.17
502.143	3571.26
502.512	3587.53
502.88	3586.18
503.249	3608.1
503.618	3654.42
503.987	3650.13
504.356	3699.39
504.724	3703.91
505.093	3733.52
505.462	3723.8
505.83	3788.21
506.199	3752.5
506.567	3824.81
506.936	3823.01
507.304	3868.88
507.672	3840.18
508.041	3898.94
508.409	3874.76
508.777	3981.65
509.145	3955.21
509.514	3963.79
509.882	3971.03
510.25	3988.88
510.618	3979.61
510.986	4034.3
511.354	4079.5
511.722	4073.4
512.09	4076.33
512.458	4055.77
512.826	4126.95
513.193	4125.6
513.561	4157.91
513.929	4139.16
514.297	4196.78
514.664	4224.58
515.032	4180.96
515.4	4244.92
515.767	4263.67
516.135	4276.78
516.502	4213.51
516.869	4321.98
517.237	4318.14
517.604	4279.94
517.972	4320.85
518.339	4312.26
518.706	4315.65
519.073	4324.24
519.44	4330.34
519.808	4387.74
520.175	4409.66
520.542	4428.41
520.909	4446.95
521.276	4494.63
521.643	4470.67
522.009	4512.71
522.376	4537.34
522.743	4503.44
523.11	4591.12
523.477	4615.08
523.843	4633.61
524.21	4640.16
524.577	4676.09
524.943	4670.44
525.31	4719.03
525.676	4756.32
526.043	4792.7
526.409	4800.16
526.776	4790.21
527.142	4831.57
527.508	4812.36
527.874	4874.96
528.241	4905.46
528.607	4905.46
528.973	4961.96
529.339	4922.64
529.705	4997.44
530.071	5033.14
530.437	5015.97
530.803	5098.68
531.169	5072.92
531.535	5054.16
531.901	5094.39
532.267	5133.93
532.632	5149.53
532.998	5167.83
533.364	5188.17
533.73	5212.57
534.095	5208.06
534.461	5235.17
534.826	5309.97
535.192	5334.38
535.557	5358.33
535.923	5300.71
536.288	5346.36
536.653	5403.98
537.019	5376.19
537.384	5437.43
537.749	5460.25
538.114	5471.1
538.479	5422.74
538.845	5539.12
539.21	5460.03
539.575	5581.83
539.94	5587.25
540.305	5576.18
540.67	5635.84
541.034	5641.49
541.399	5647.59
541.764	5678.1
542.129	5639.91
542.494	5700.47
542.858	5750.87
543.223	5736.85
543.587	5807.36
543.952	5813.69
544.316	5859.79
544.681	5832.9
545.045	5882.61
545.41	5895.95
545.774	5881.48
546.138	5944.53
546.503	5971.42
546.867	5992.67
547.231	6010.29
547.595	5968.94
547.959	6056.39
548.324	6054.36
548.688	6116.96
549.052	6109.5
549.416	6101.82
549.779	6115.6
550.143	6163.96
550.507	6199.44
550.871	6253.23
551.235	6206.9
551.599	6282.83
551.962	6287.57
552.326	6321.92
552.689	6348.82
553.053	6329.83
553.417	6335.03
553.78	6383.62
554.143	6364.41
554.507	6347.69
554.87	6444.86
555.234	6510.62
555.597	6453.22
555.96	6485.54
556.323	6515.14
556.686	6488.93
557.05	6523.27
557.413	6570.51
557.776	6612.99
558.139	6592.88
558.502	6674.01
558.865	6690.5
559.228	6679.43
559.59	6699.54
559.953	6717.39
560.316	6776.83
560.679	6791.52
561.041	6808.01
561.404	6871.97
561.767	6900.44
562.129	6900.67
562.492	6876.94
562.854	6911.06
563.217	6932.76
563.579	6921.46
563.941	6933.43
564.304	6979.99
564.666	6998.97
565.028	7070.61
565.39	7051.17
565.753	7131.17
566.115	7093.43
566.477	7123.26
566.839	7121.23
567.201	7229.7
567.563	7266.76
567.925	7330.94
568.287	7262.69
568.648	7306.98
569.01	7353.54
569.372	7397.38
569.734	7346.98
570.095	7420.2
570.457	7520.54
570.819	7486.41
571.18	7502.91
571.542	7494.1
571.903	7594.89
572.265	7656.8
572.626	7645.96
572.987	7768.89
573.349	7710.14
573.71	7810.92
574.071	7810.47
574.432	7878.27
574.794	7966.17
575.155	7966.4
575.516	7933.86
575.877	8112.16
576.238	8161.88
576.599	8178.6
576.96	8240.97
577.32	8264.92
577.681	8360.97
578.042	8472.15
578.403	8544.46
578.763	8615.88
579.124	8691.13
579.485	8790.79
579.845	8907.17
580.206	8945.81
580.566	9049.54
580.927	9176.99
581.287	9340.6
581.648	9398
582.008	9572.01
582.368	9592.35
582.728	9811.32
583.089	9881.6
583.449	10040.7
583.809	10176.74
584.169	10410.63
584.529	10507.8
584.889	10735.37
585.249	10843.84
585.609	11013.1
585.969	11229.59
586.329	11492.18
586.688	11602.69
587.048	11810.82
587.408	12020.76
587.768	12256.46
588.127	12424.59
588.487	12579.61
588.846	12976.21
589.206	12985.03
589.565	13335.53
589.925	13552.02
590.284	13781.62
590.643	14106.8
591.003	14290.08
591.362	14685.55
591.721	14919.44
592.08	15079.89
592.44	15439.65
592.799	15669.47
593.158	15925.97
593.517	16175.22
593.876	16424.48
594.235	16712.39
594.593	17092.04
594.952	17423.1
595.311	17567.96
595.67	17896.08
596.029	18284.55
596.387	18581.26
596.746	18864.65
597.104	18994.13
597.463	19516.83
597.822	19743.49
598.18	19788.91
598.538	20169.47
598.897	20580.98
599.255	20628.44
599.613	21205.6
599.972	21481.98
600.33	21574.63
600.688	21862.98
601.046	22279.02
601.404	22613.7
601.762	22857.76
602.12	23187.02
602.478	23427.24
602.836	23654.12
603.194	23853.67
603.552	24168.69
603.91	24250.94
604.268	24619.3
604.625	24796.47
604.983	25219.51
605.341	25344.7
605.698	25672.15
606.056	25998.02
606.413	26108.97
606.771	26487.27
607.128	26720.71
607.485	26803.42
607.843	27032.57
608.2	27383.74
608.557	27756.61
608.914	27838.42
609.272	28202.03
609.629	28296.94
609.986	28514.79
610.343	28647.66
610.7	29089.24
611.057	29347.31
611.414	29439.28
611.771	29720.4
612.127	29905.94
612.484	30140.96
612.841	30351.57
613.198	30229.09
613.554	30493.27
613.911	30921.28
614.267	30915.18
614.624	31150.42
614.98	31351.77
615.337	31655.27
615.693	31673.35
616.05	31791.54
616.406	32042.83
616.762	32089.83
617.118	32319.66
617.475	32306.1
617.831	32639.65
618.187	32786.31
618.543	32823.37
618.899	33189.47
619.255	33317.15
619.611	33265.62
619.967	33645.95
620.323	33771.37
620.678	33710.81
621.034	33722.79
621.39	33789.9
621.746	33906.06
622.101	34311.7
622.457	34214.98
622.812	34407.74
623.168	34584.46
623.523	34591.92
623.879	34790.78
624.234	34576.77
624.589	34839.37
624.945	35023.32
625.3	35037.33
625.655	35191.45
626.01	35219.02
626.365	35220.37
626.72	35314.38
627.075	35377.66
627.43	35507.37
627.785	35409.07
628.14	35584.43
628.495	35593.02
628.85	35731.77
629.205	35652.68
629.559	36010.18
629.914	35730.42
630.269	35898.32
630.623	35844.31
630.978	35807.02
631.332	36026.45
631.687	36084.98
632.041	36045.89
632.396	36069.16
632.75	36099.45
633.104	36113.68
633.459	35969.05
633.813	36152.55
634.167	36024.19
634.521	36158.43
634.875	36237.52
635.229	36120.01
635.583	36023.52
635.937	35995.49
636.291	36009.96
636.645	36040.01
636.999	35970.86
637.352	36252.44
637.706	36101.03
638.06	36120.24
638.413	36197.3
638.767	36015.83
639.121	36169.05
639.474	35962.95
639.828	36166.34
640.181	36143.29
640.534	36241.14
640.888	36152.1
641.241	35972.9
641.594	35994.14
641.947	36101.48
642.301	36097.41
642.654	36101.93
643.007	36068.49
643.36	35922.73
643.713	35925.89
644.066	36035.72
644.419	35857.19
644.771	35539.46
645.124	35197.78
645.477	35287.49
645.83	35056.31
646.182	34962.53
646.535	34996.65
646.888	35036.65
647.24	34800.5
647.593	34996.88
647.945	34986.48
648.298	34814.06
648.65	34730.89
649.002	34763.66
649.355	34785.58
649.707	34874.85
650.059	35017.44
650.411	35440.03
650.763	35414.04
651.115	35795.73
651.467	35647.03
651.819	35730.19
652.171	35505.79
652.523	35674.37
652.875	35473.7
653.227	35484.32
653.578	35667.14
653.93	35508.73
654.282	35368.62
654.633	35432.35
654.985	35460.82
655.337	35342.86
655.688	35431.22
656.039	35621.94
656.391	35252.01
656.742	35367.49
657.094	35353.48
657.445	35446.36
657.796	35297.66
658.147	35207.94
658.498	35335.4
658.849	35362.52
659.2	35338.56
659.551	35275.51
659.902	35377.66
660.253	35161.62
660.604	35359.13
660.955	35060.38
661.306	35257.21
661.656	35126.82
662.007	35348.05
662.358	35209.98
662.708	35184.89
663.059	35228.73
663.409	34936.54
663.76	35299.92
664.11	35203.88
664.461	35172.24
664.811	35206.59
665.161	35192.13
665.511	35159.36
665.862	35111.22
666.212	35256.08
666.562	35226.7
666.912	35164.56
667.262	35104.22
667.612	34964.11
667.962	35194.61
668.312	35113.48
668.662	35187.61
669.011	35200.03
669.361	35023.99
669.711	35043.65
670.06	35087.04
670.41	34899.93
670.76	34955.75
671.109	35092.69
671.459	34968.18
671.808	35021.28
672.157	35076.2
672.507	34881.4
672.856	34843.66
673.205	34977.67
673.554	35016.31
673.904	34762.98
674.253	35037.1
674.602	34991
674.951	34522.76
675.3	34264.24
675.649	34802.76
675.998	34865.58
676.346	34753.94
676.695	34982.41
677.044	34692.7
677.393	34762.08
677.741	34794.4
678.09	34742.19
678.438	34542.43
678.787	34607.51
679.135	34652.93
679.484	34506.49
679.832	34549.66
680.181	34323
680.529	34657.45
680.877	34304.01
681.225	34322.77
681.573	34669.43
681.922	34266.73
682.27	34269.66
682.618	34306.5
682.966	34153.06
683.314	34298.36
683.661	34200.29
684.009	34064.7
684.357	33977.92
684.705	33934.98
685.053	33872.84
685.4	33818.6
685.748	33715.33
686.095	33635.1
686.443	33662.9
686.79	33529.12
687.138	33646.63
687.485	33611.6
687.832	33390.59
688.18	33407.77
688.527	33327.09
688.874	33241.22
689.221	33022.47
689.568	33056.81
689.915	33009.36
690.262	33020.43
690.609	32821.79
690.956	32765.3
691.303	32823.37
691.65	32677.16
691.997	32594.23
692.344	32459.99
692.69	32415.48
693.037	32359.43
693.383	32140.45
693.73	32332.54
694.077	32140.68
694.423	32049.16
694.769	31982.49
695.116	31949.05
695.462	31884.42
695.808	31889.39
696.155	31907.01
696.501	31708.15
696.847	31573.92
697.193	31413.24
697.539	31549.74
697.885	31309.06
698.231	31199.01
698.577	31317.88
698.923	31208.5
699.269	30880.83
699.614	30848.96
699.96	30760.6
700.306	30853.26
700.651	30645.58
700.997	30661.62
701.342	30434.96
701.688	30611
702.033	30542.76
702.379	30396.55
702.724	30291.92
703.069	30331.01
703.415	30033.39
703.76	29991.81
704.105	30023
704.45	29914.07
704.795	29819.39
705.14	29731.25
705.485	29671.82
705.83	29622.1
706.175	29637.92
706.52	29472.28
706.865	29334.2
707.209	29438.83
707.554	29375.78
707.899	29321.09
708.243	29165.62
708.588	29196.35
708.932	28957.94
709.277	28900.54
709.621	28922.01
709.966	28765.63
710.31	28787.77
710.654	28614.45
710.998	28726.53
711.342	28743.03
711.687	28543.94
712.031	28457.84
712.375	28312.08
712.719	28394.34
713.063	28270.73
713.407	28414.22
713.75	28267.34
714.094	28295.81
714.438	28026.66
714.782	28051.75
715.125	28017.85
715.469	28011.75
715.812	27818.08
716.156	27715.71
716.499	27766.56
716.843	27796.39
717.186	27643.4
717.53	27790.51
717.873	27741.7
718.216	27698.31
718.559	27553.68
718.902	27399.34
719.246	27345.55
719.589	27306.91
719.932	27103.07
720.275	27214.93
720.617	27145.78
720.96	27165.67
721.303	27068.05
721.646	27118.44
721.989	26889.74
722.331	27022.85
722.674	27024.66
723.016	26963.64
723.359	26924.32
723.701	26860.82
724.044	26736.08
724.386	26624.67
724.729	26698.34
725.071	26569.53
725.413	26655.85
725.755	26520.94
726.097	26552.35
726.439	26387.16
726.782	26421.96
727.124	26297.9
727.465	26299.03
727.807	26291.57
728.149	26299.48
728.491	26305.81
728.833	26198.01
729.175	26106.94
729.516	26117.34
729.858	26009.09
730.199	26069.43
730.541	25891.81
730.882	25972.03
731.224	26017.9
731.565	25806.84
731.906	25802.99
732.248	25818.59
732.589	25794.63
732.93	25683.22
733.271	25686.61
733.612	25649.78
733.953	25624.69
734.294	25418.37
734.635	25492.49
734.976	25620.4
735.317	25361.2
735.658	25334.08
735.999	25409.33
736.339	25270.13
736.68	25328.43
737.021	25268.77
737.361	25226.29
737.702	25326.62
738.042	25226.29
738.383	25160.3
738.723	25220.41
739.063	25122.79
739.404	25064.48
739.744	25012.51
740.084	24975.9
740.424	24976.35
740.764	24844.83
741.104	24919.63
741.444	24732.97
741.784	24686.41
742.124	24787.43
742.464	24730.25
742.804	24604.16
743.143	24608.67
743.483	24635.57
743.823	24574.78
744.162	24446.42
744.502	24546.53
744.841	24347.21
745.181	24465.18
745.52	24397.83
745.86	24452.52
746.199	24366.65
746.538	24356.7
746.877	24345.41
747.216	24398.29
747.556	24342.24
747.895	24299.3
748.234	24203.94
748.573	24160.33
748.911	24115.13
749.25	24091.63
749.589	23919.43
749.928	24128.01
750.267	23980.22
750.605	23980.89
750.944	23825.87
751.283	23842.37
751.621	23886.66
751.96	23730.28
752.298	23691.18
752.636	23845.76
752.975	23655.25
753.313	23516.5
753.651	23545.43
753.989	23521.92
754.327	23300.01
754.666	23385.88
755.004	23336.17
755.342	23391.31
755.679	23289.16
756.017	23223.85
756.355	23157.87
756.693	23139.34
757.031	23157.64
757.368	23123.06
757.706	22864.99
758.044	22899.12
758.381	22996.51
758.719	22788.38
759.056	22903.41
759.394	22673.81
759.731	22573.47
760.068	22539.58
760.405	22537.99
760.743	22397.21
761.08	22443.76
761.417	22427.26
