Data from hue_270_FLMS001491_00093.txt Node
Date: Tue Feb 07 15:57:56 GMT 2017
User: dcchb
Spectrometer: FLMS00149
Trigger mode: 0
Integration Time (sec): 2.000000E-2
Scans to average: 10
Electric dark correction enabled: true
Nonlinearity correction enabled: false
Boxcar width: 0
XAxis mode: Wavelengths
Number of Pixels in Spectrum: 2048
>>>>>Begin Spectral Data<<<<<
341.393	3.73
341.776	3.73
342.16	3.73
342.543	-67.46
342.927	-83.5
343.31	-73.56
343.693	-69.94
344.077	-48.02
344.46	-62.48
344.843	-53.9
345.226	-25.42
345.61	-43.28
345.993	-37.63
346.376	1.92
346.759	12.32
347.142	14.58
347.525	54.12
347.908	62.94
348.291	87.79
348.674	88.02
349.057	92.54
349.44	100.68
349.823	122.82
350.206	167.57
350.588	189.49
350.971	194.01
351.354	208.47
351.737	202.59
352.119	227.45
352.502	259.54
352.884	251.41
353.267	264.06
353.65	275.59
354.032	276.26
354.414	292.76
354.797	290.73
355.179	306.77
355.562	318.75
355.944	313.33
356.326	318.52
356.709	321.69
357.091	326.21
357.473	317.84
357.855	334.57
358.238	337.05
358.62	328.92
359.002	353.1
359.384	321.91
359.766	339.54
360.148	329.37
360.53	317.62
360.912	328.92
361.294	328.01
361.676	327.56
362.057	302.03
362.439	321.23
362.821	318.3
363.203	297.96
363.584	321.01
363.966	321.01
364.348	314
364.729	320.78
365.111	307
365.493	317.84
365.874	308.81
366.256	305.19
366.637	304.96
367.019	311.52
367.4	294.57
367.781	314.23
368.163	312.87
368.544	303.38
368.925	309.71
369.306	309.71
369.688	292.76
370.069	307.68
370.45	306.09
370.831	304.06
371.212	281.24
371.593	320.78
371.974	302.48
372.355	304.06
372.736	304.29
373.117	292.08
373.498	316.71
373.879	306.55
374.26	283.95
374.641	316.71
375.021	311.52
375.402	315.36
375.783	316.04
376.163	309.26
376.544	316.71
376.925	314.23
377.305	332.53
377.686	314.46
378.066	313.78
378.447	321.46
378.827	298.64
379.208	347.9
379.588	324.17
379.968	307.45
380.349	307
380.729	321.01
381.109	310.16
381.489	323.95
381.87	324.4
382.25	328.92
382.63	339.77
383.01	343.83
383.39	339.77
383.77	323.27
384.15	345.87
384.53	345.19
384.91	354.23
385.29	338.41
385.67	345.87
386.049	320.78
386.429	345.64
386.809	361.23
387.189	354.68
387.568	356.71
387.948	367.79
388.328	334.57
388.707	358.97
389.087	360.1
389.466	359.2
389.846	343.15
390.225	341.8
390.605	376.6
390.984	365.98
391.363	354.68
391.743	341.57
392.122	358.07
392.501	367.56
392.881	401.23
393.26	375.24
393.639	372.53
394.018	374.34
394.397	365.08
394.776	385.41
395.155	367.79
395.534	369.59
395.913	420.44
396.292	397.39
396.671	379.31
397.05	401.23
397.429	402.14
397.808	431.29
398.186	387.67
398.565	414.11
398.944	415.02
399.323	402.81
399.701	419.09
400.08	399.65
400.458	401.46
400.837	424.96
401.215	436.94
401.594	412.53
401.972	420.21
402.351	449.37
402.729	407.33
403.107	429.93
403.486	433.55
403.864	439.65
404.242	430.38
404.62	430.38
404.999	453.89
405.377	452.08
405.755	438.97
406.133	440.1
406.511	450.5
406.889	465.64
407.267	483.04
407.645	478.74
408.023	476.26
408.401	484.39
408.779	497.05
409.156	506.99
409.534	487.33
409.912	477.84
410.29	505.86
410.667	502.7
411.045	515.81
411.422	514
411.8	512.87
412.178	552.41
412.555	521.46
412.933	544.51
413.31	554.22
413.687	564.39
414.065	566.65
414.442	594.45
414.819	592.64
415.197	592.41
415.574	608.23
415.951	596.71
416.328	611.17
416.705	614.56
417.082	624.73
417.46	612.3
417.837	648.23
418.214	634.67
418.591	621.11
418.967	633.99
419.344	663.82
419.721	669.7
420.098	699.76
420.475	658.4
420.852	701.11
421.228	708.12
421.605	713.09
421.982	739.3
422.358	731.17
422.735	719.42
423.111	734.56
423.488	729.36
423.864	744.05
424.241	788.57
424.617	796.48
424.994	794.89
425.37	800.32
425.746	820.88
426.123	833.54
426.499	831.05
426.875	841.22
427.251	857.94
427.627	890.49
428.003	874.21
428.379	866.08
428.756	899.75
429.132	896.36
429.507	927.09
429.883	919.64
430.259	937.49
430.635	942.69
431.011	961.22
431.387	981.33
431.763	984.72
432.138	998.05
432.514	996.24
432.89	1010.71
433.265	1043.25
433.641	1057.94
434.016	1064.27
434.392	1080.76
434.767	1121.21
435.143	1115.79
435.518	1152.4
435.894	1141.33
436.269	1186.75
436.644	1228.78
437.02	1195.11
437.395	1235.56
437.77	1234.2
438.145	1255.45
438.52	1269.46
438.895	1296.35
439.271	1297.48
439.646	1329.12
440.021	1344.94
440.395	1341.55
440.77	1341.32
441.145	1357.82
441.52	1367.08
441.895	1358.27
442.27	1417.02
442.645	1407.76
443.019	1413.64
443.394	1430.36
443.769	1443.24
444.143	1445.95
444.518	1471.49
444.892	1470.58
445.267	1475.1
445.641	1492.73
446.016	1499.51
446.39	1536.8
446.764	1536.12
447.139	1504.71
447.513	1566.85
447.887	1553.74
448.262	1574.31
448.636	1570.24
449.01	1587.19
449.384	1614.08
449.758	1590.58
450.132	1644.82
450.506	1617.02
450.88	1664.93
451.254	1628.54
451.628	1661.54
452.002	1679.16
452.376	1695.89
452.75	1720.07
453.123	1733.85
453.497	1766.39
453.871	1742.21
454.244	1765.26
454.618	1763.68
454.992	1805.49
455.365	1783.57
455.739	1839.16
456.112	1864.7
456.486	1880.52
456.859	1880.29
457.232	1938.82
457.606	1894.98
457.979	1975.88
458.352	1983.34
458.725	1993.28
459.099	1987.41
459.472	2021.53
459.845	2024.01
460.218	2071.92
460.591	2065.82
460.964	2085.93
461.337	2104.24
461.71	2170.23
462.083	2211.81
462.456	2149.66
462.829	2177.46
463.201	2180.17
463.574	2225.14
463.947	2226.27
464.32	2280.05
464.692	2301.52
465.065	2351.92
465.438	2363.21
465.81	2364.57
466.183	2408.64
466.555	2445.25
466.928	2455.19
467.3	2398.69
467.672	2505.36
468.045	2510.56
468.417	2515.08
468.789	2554.4
469.161	2539.93
469.534	2622.42
469.906	2653.83
470.278	2671.23
470.65	2693.83
471.022	2755.52
471.394	2779.02
471.766	2809.76
472.138	2839.59
472.51	2880.72
472.882	2881.17
473.253	2903.77
473.625	2947.15
473.997	3003.42
474.369	3030.99
474.74	3043.2
475.112	3059.47
475.484	3122.06
475.855	3167.71
476.227	3187.83
476.598	3259.69
476.97	3307.6
477.341	3345.34
477.713	3398.44
478.084	3390.08
478.455	3435.5
478.827	3495.39
479.198	3591.66
479.569	3557.53
479.94	3639.79
480.311	3658.1
480.682	3775.61
481.053	3798.66
481.424	3852.44
481.795	3874.14
482.166	3934.92
482.537	3942.16
482.908	4023.06
483.279	4062.15
483.65	4134.69
484.021	4164.52
484.391	4217.18
484.762	4225.99
485.133	4251.3
485.503	4280.68
485.874	4412.88
486.244	4393.22
486.615	4504.4
486.985	4512.99
487.356	4588.69
487.726	4653.32
488.097	4718.18
488.467	4659.2
488.837	4817.16
489.207	4860.55
489.578	4883.37
489.948	4921.34
490.318	4986.2
490.688	4948.68
491.058	5050.38
491.428	5119.53
491.798	5170.37
492.168	5208.34
492.538	5253.53
492.908	5295.12
493.278	5323.14
493.648	5340.09
494.017	5420.08
494.387	5460.08
494.757	5477.26
495.126	5518.16
495.496	5486.97
495.866	5542.57
496.235	5616.91
496.605	5662.11
496.974	5676.8
497.344	5680.19
497.713	5738.49
498.082	5698.95
498.452	5827.08
498.821	5781.2
499.19	5793.86
499.559	5858.72
499.928	5867.08
500.298	5944.82
500.667	5912.73
501.036	5964.02
501.405	6003.34
501.774	6020.75
502.143	6011.71
502.512	6068.88
502.88	6102.55
503.249	6067.07
503.618	6109.33
503.987	6128.31
504.356	6158.14
504.724	6150.91
505.093	6188.65
505.462	6230.23
505.83	6219.38
506.199	6242.89
506.567	6308.42
506.936	6343.9
507.304	6416.89
507.672	6357.69
508.041	6335.54
508.409	6415.99
508.777	6434.29
509.145	6493.05
509.514	6507.06
509.882	6477
510.25	6468.19
510.618	6538.47
510.986	6528.53
511.354	6577.57
511.722	6592.48
512.09	6665.47
512.458	6608.75
512.826	6693.95
513.193	6647.17
513.561	6662.99
513.929	6691.46
514.297	6726.94
514.664	6750.9
515.032	6761.52
515.4	6809.65
515.767	6811.46
516.135	6780.5
516.502	6758.58
516.869	6864.57
517.237	6838.8
517.604	6827.96
517.972	6910.67
518.339	6880.16
518.706	6949.99
519.073	6894.62
519.44	6935.3
519.808	7015.52
520.175	6941.17
520.542	6995.41
520.909	6984.34
521.276	7039.93
521.643	7031.57
522.009	7027.72
522.376	7128.97
522.743	7065.24
523.11	7185.23
523.477	7171.68
523.843	7175.74
524.21	7227.27
524.577	7284.22
524.943	7189.53
525.31	7365.57
525.676	7341.39
526.043	7360.15
526.409	7401.95
526.776	7394.95
527.142	7418.67
527.508	7422.06
527.874	7403.08
528.241	7534.6
528.607	7476.75
528.973	7514.27
529.339	7510.42
529.705	7554.04
530.071	7515.17
530.437	7579.8
530.803	7621.16
531.169	7705.22
531.535	7668.16
531.901	7643.75
532.267	7662.51
532.632	7701.83
532.998	7725.56
533.364	7730.76
533.73	7697.09
534.095	7753.13
534.461	7774.37
534.826	7828.16
535.192	7841.71
535.557	7902.73
535.923	7853.69
536.288	7858.89
536.653	7847.36
537.019	7841.49
537.384	7865.67
537.749	7866.35
538.114	7837.42
538.479	7857.53
538.845	7853.47
539.21	7876.06
539.575	7886.01
539.94	7926.46
540.305	7962.39
540.67	7940.7
541.034	7889.4
541.399	7917.42
541.764	7956.97
542.129	7931.43
542.494	7935.72
542.858	7960.36
543.223	7988.38
543.587	8003.29
543.952	8034.25
544.316	7988.83
544.681	8009.39
545.045	8020.92
545.41	8016.85
545.774	8046.68
546.138	8026.34
546.503	8086
546.867	8083.06
547.231	8056.4
547.595	8083.29
547.959	8085.78
548.324	8067.47
548.688	8137.07
549.052	8168.71
549.416	8132.33
549.779	8122.16
550.143	8178.66
550.507	8209.61
550.871	8169.84
551.235	8128.03
551.599	8166.23
551.962	8155.83
552.326	8156.51
552.689	8193.34
553.053	8205.09
553.417	8150.63
553.78	8262.04
554.143	8218.43
554.507	8242.38
554.87	8224.08
555.234	8361.93
555.597	8245.09
555.96	8306.11
556.323	8315.37
556.686	8260.46
557.05	8349.72
557.413	8346.56
557.776	8408.25
558.139	8443.51
558.502	8434.92
558.865	8452.32
559.228	8405.54
559.59	8480.12
559.953	8498.19
560.316	8512.66
560.679	8511.75
561.041	8620.68
561.404	8589.94
561.767	8683.5
562.129	8641.24
562.492	8713.78
562.854	8660
563.217	8654.35
563.579	8737.28
563.941	8778.64
564.304	8755.81
564.666	8930.27
565.028	8807.11
565.39	8876.49
565.753	8872.42
566.115	8882.59
566.477	8962.14
566.839	8995.13
567.201	9022.93
567.563	9028.35
567.925	9029.48
568.287	9153.09
568.648	9126.43
569.01	9138.63
569.372	9221.34
569.734	9192.41
570.095	9138.4
570.457	9273.32
570.819	9308.57
571.18	9336.14
571.542	9356.93
571.903	9325.07
572.265	9399.19
572.626	9393.99
572.987	9450.03
573.349	9454.1
573.71	9502.91
574.071	9511.95
574.432	9537.04
574.794	9636.47
575.155	9611.16
575.516	9595.34
575.877	9685.96
576.238	9729.35
576.599	9853.64
576.96	9800.53
577.32	9806.63
577.681	9850.02
578.042	9817.26
578.403	9831.94
578.763	9934.09
579.124	9880.08
579.485	9995.1
579.845	9993.52
580.206	10051.37
580.566	9977.03
580.927	9985.84
581.287	10061.77
581.648	10081.88
582.008	10137.47
582.368	10196
582.728	10229
583.089	10252.05
583.449	10268.09
583.809	10258.83
584.169	10336.11
584.529	10328.43
584.889	10418.37
585.249	10291.14
585.609	10340.86
585.969	10484.13
586.329	10464.24
586.688	10459.27
587.048	10507.63
587.408	10433.06
587.768	10552.6
588.127	10564.58
588.487	10624.69
588.846	10654.52
589.206	10552.83
589.565	10648.65
589.925	10715.76
590.284	10733.16
590.643	10747.4
591.003	10727.97
591.362	10815.65
591.721	10845.25
592.08	10768.42
592.44	10889.32
592.799	10831.69
593.158	10952.14
593.517	10935.87
593.876	10942.65
594.235	10968.64
594.593	10943.78
594.952	10973.16
595.311	10980.84
595.67	11010.9
596.029	11060.39
596.387	11073.95
596.746	11160.5
597.104	11081.63
597.463	11066.26
597.822	11128.86
598.18	11142.64
598.538	11090.44
598.897	11200.95
599.255	11099.93
599.613	11289.76
599.972	11237.78
600.33	11196.43
600.688	11212.25
601.046	11260.38
601.404	11309.87
601.762	11303.77
602.12	11325.46
602.478	11291.12
602.836	11361.62
603.194	11300.38
603.552	11388.74
603.91	11349.19
604.268	11373.6
604.625	11337.89
604.983	11417.44
605.341	11386.25
605.698	11430.55
606.056	11431
606.413	11424.9
606.771	11416.31
607.128	11467.38
607.485	11501.05
607.843	11433.48
608.2	11453.37
608.557	11571.33
608.914	11492.01
609.272	11598.68
609.629	11553.71
609.986	11592.35
610.343	11524.78
610.7	11668.28
611.057	11538.34
611.414	11646.59
611.771	11645
612.127	11655.17
612.484	11665.34
612.841	11662.86
613.198	11624.89
613.554	11632.58
613.911	11716.19
614.267	11763.87
614.624	11627.38
614.98	11746.7
615.337	11719.58
615.693	11747.37
616.05	11781.27
616.406	11875.05
616.762	11814.04
617.118	11775.17
617.475	11877.99
617.831	11839.58
618.187	11829.41
618.543	11868.73
618.899	11885.45
619.255	11900.37
619.611	11848.84
619.967	11948.73
620.323	11935.17
620.678	11937.88
621.034	11850.87
621.39	11926.13
621.746	11770.42
622.101	11995.28
622.457	11947.82
622.812	11937.43
623.168	11969.29
623.523	11936.52
623.879	11963.64
624.234	11916.41
624.589	11950.99
624.945	11977.2
625.3	11978.56
625.655	11943.3
626.01	11941.27
626.365	11921.16
626.72	11883.19
627.075	11947.14
627.43	11855.39
627.785	11886.58
628.14	11961.61
628.495	11927.71
628.85	11894.49
629.205	11907.82
629.559	11913.47
629.914	11852.91
630.269	11925.45
630.623	11876.41
630.978	11760.71
631.332	11841.38
631.687	11907.37
632.041	11789.86
632.396	11812.01
632.75	11854.49
633.104	11757.09
633.459	11772.68
633.813	11726.36
634.167	11700.37
634.521	11764.55
634.875	11755.06
635.229	11702.4
635.583	11745.34
635.937	11644.33
636.291	11656.53
636.645	11689.3
636.999	11559.81
637.352	11609.75
637.706	11553.03
638.06	11613.14
638.413	11652.91
638.767	11540.37
639.121	11595.06
639.474	11526.59
639.828	11416.31
640.181	11532.69
640.534	11602.29
640.888	11518.91
641.241	11487.49
641.594	11427.16
641.947	11505.35
642.301	11500.15
642.654	11494.05
643.007	11492.69
643.36	11478.68
643.713	11373.6
644.066	11455.18
644.419	11474.39
644.771	11347.39
645.124	11215.19
645.477	11255.41
645.83	11239.37
646.182	11107.62
646.535	11098.35
646.888	11030.11
647.24	10988.3
647.593	11105.81
647.945	11095.64
648.298	11026.72
648.65	11000.73
649.002	11012.48
649.355	11043.44
649.707	11069.43
650.059	11118.24
650.411	11161.63
650.763	11204.56
651.115	11292.02
651.467	11266.26
651.819	11321.17
652.171	11252.7
652.523	11224
652.875	11311.23
653.227	11305.13
653.578	11308.52
653.93	11303.09
654.282	11254.96
654.633	11196.43
654.985	11214.06
655.337	11221.51
655.688	11255.18
656.039	11323.43
656.391	11217.9
656.742	11157.56
657.094	11233.04
657.445	11241.63
657.796	11267.39
658.147	11227.39
658.498	11191.46
658.849	11254.96
659.2	11218.8
659.551	11181.06
659.902	11224.45
660.253	11281.17
660.604	11238.91
660.955	11234.39
661.306	11210.44
661.656	11225.81
662.007	11273.26
662.358	11253.38
662.708	11195.98
663.059	11241.17
663.409	11241.17
663.76	11322.08
664.11	11252.02
664.461	11254.28
664.811	11252.92
665.161	11283.88
665.511	11242.08
665.862	11246.82
666.212	11292.7
666.562	11221.06
666.912	11294.05
667.262	11295.41
667.612	11179.03
667.962	11230.78
668.312	11234.39
668.662	11300.83
669.011	11254.96
669.361	11245.69
669.711	11219.48
670.06	11178.35
670.41	11104.68
670.76	11141.74
671.109	11232.59
671.459	11183.77
671.808	11173.83
672.157	11176.54
672.507	11082.99
672.856	11160.05
673.205	11056.77
673.554	11190.33
673.904	11117.56
674.253	11175.41
674.602	11071.46
674.951	10989.88
675.3	10894.97
675.649	11089.31
675.998	11092.02
676.346	11113.49
676.695	11066.94
677.044	11025.59
677.393	11018.81
677.741	11065.58
678.09	11000.73
678.438	11002.54
678.787	11027.85
679.135	10990.78
679.484	10863.78
679.832	11031.01
680.181	10921.63
680.529	10891.13
680.877	10917.57
681.225	10887.96
681.573	10921.18
681.922	10868.08
682.27	10742.66
682.618	10814.29
682.966	10799.83
683.314	10819.26
683.661	10701.07
684.009	10683.67
684.357	10656.56
684.705	10674.86
685.053	10696.78
685.4	10621.53
685.748	10606.61
686.095	10605.26
686.443	10579.27
686.79	10435.32
687.138	10539.72
687.485	10492.72
687.832	10521.19
688.18	10521.87
688.527	10432.61
688.874	10420.63
689.221	10417.47
689.568	10328.88
689.915	10311.71
690.262	10355.09
690.609	10221.54
690.956	10241.65
691.303	10185.61
691.65	10124.37
691.997	10167.76
692.344	10109
692.69	10136.12
693.037	10093.41
693.383	10039.4
693.73	10075.78
694.077	9946.52
694.423	9965.73
694.769	9945.84
695.116	9889.57
695.462	9830.59
695.808	9900.42
696.155	9865.39
696.501	9739.97
696.847	9708.11
697.193	9676.69
697.539	9719.86
697.885	9577.04
698.231	9632.4
698.577	9542.23
698.923	9572.97
699.269	9517.83
699.614	9428.11
699.96	9391.5
700.306	9376.36
700.651	9336.36
700.997	9363.26
701.342	9395.57
701.688	9299.98
702.033	9278.74
702.379	9239.64
702.724	9256.59
703.069	9286.87
703.415	9090.04
703.76	9174.11
704.105	9088.69
704.45	9106.31
704.795	9084.62
705.14	8994.68
705.485	9024.28
705.83	8983.61
706.175	9001.68
706.52	8962.82
706.865	8875.81
707.209	8933.21
707.554	8797.17
707.899	8885.53
708.243	8849.82
708.588	8732.99
708.932	8780.45
709.277	8722.14
709.621	8683.95
709.966	8633.33
710.31	8673.11
710.654	8560.11
710.998	8536.61
711.342	8591.53
711.687	8601.92
712.031	8462.94
712.375	8520.34
712.719	8504.52
713.063	8530.06
713.407	8493.9
713.75	8427.46
714.094	8475.14
714.438	8409.38
714.782	8454.13
715.125	8347.46
715.469	8377.29
715.812	8312.66
716.156	8319.22
716.499	8313.57
716.843	8364.19
717.186	8337.52
717.53	8337.07
717.873	8332.1
718.216	8275.83
718.559	8258.2
718.902	8194.7
719.246	8180.24
719.589	8189.5
719.932	8175.72
720.275	8210.07
720.617	8173.91
720.96	8185.66
721.303	8190.63
721.646	8205.09
721.989	8146.11
722.331	8121.26
722.674	8095.27
723.016	8182.72
723.359	8114.48
723.701	8143.63
724.044	8065.66
724.386	7932.33
724.729	8044.2
725.071	8017.3
725.413	8048.04
725.755	8050.52
726.097	7942.95
726.439	7967.59
726.782	7980.92
727.124	8038.09
727.465	7987.93
727.807	7939.57
728.149	7944.31
728.491	8010.98
728.833	7965.78
729.175	7981.15
729.516	7948.83
729.858	7937.08
730.199	7936.4
730.541	7935.5
730.882	7915.16
731.224	7963.97
731.565	7880.81
731.906	7948.15
732.248	7946.34
732.589	7901.6
732.93	7860.47
733.271	7866.8
733.612	7886.46
733.953	7935.95
734.294	7892.56
734.635	7875.16
734.976	7832
735.317	7861.6
735.658	7820.92
735.999	7890.75
736.339	7827.48
736.68	7875.61
737.021	7857.08
737.361	7883.75
737.702	7839.23
738.042	7870.64
738.383	7905.44
738.723	7883.52
739.063	7842.84
739.404	7884.43
739.744	7911.09
740.084	7899.34
740.424	7929.62
740.764	7936.85
741.104	7920.81
741.444	7932.33
741.784	7965.33
742.124	7979.34
742.464	8018.66
742.804	7973.69
743.143	7976.63
743.483	8026.79
743.823	8008.49
744.162	7988.83
744.502	8104.76
744.841	8068.15
745.181	8115.15
745.52	8133.91
745.86	8135.27
746.199	8139.79
746.538	8228.15
746.877	8286.45
747.216	8290.74
747.556	8337.29
747.895	8384.75
748.234	8388.37
748.573	8479.89
748.911	8519.44
749.25	8526.22
749.589	8551.75
749.928	8733.22
750.267	8719.43
750.605	8807.34
750.944	8817.73
751.283	8890.05
751.621	8956.49
751.96	8967.56
752.298	9124.62
752.636	9193.09
752.975	9226.09
753.313	9251.85
753.651	9427.66
753.989	9469.69
754.327	9577.26
754.666	9609.58
755.004	9741.78
755.342	9884.6
755.679	10000.08
756.017	10052.28
756.355	10163.69
756.693	10252.27
757.031	10392.83
757.368	10493.17
757.706	10705.82
758.044	10830.11
758.381	10979.94
758.719	11124.34
759.056	11224
759.394	11367.05
759.731	11525.46
760.068	11648.17
760.405	11761.84
760.743	11927.93
761.08	12069.17
761.417	12183.07
761.754	12395.49
762.091	12486.11
762.428	12652.66
762.765	12776.95
