Data from hue_240_FLMS001491_00050.txt Node
Date: Tue Feb 07 16:35:33 GMT 2017
User: dcchb
Spectrometer: FLMS00149
Trigger mode: 0
Integration Time (sec): 2.000000E-2
Scans to average: 10
Electric dark correction enabled: true
Nonlinearity correction enabled: false
Boxcar width: 0
XAxis mode: Wavelengths
Number of Pixels in Spectrum: 2048
>>>>>Begin Spectral Data<<<<<
341.393	-12.39
341.776	-12.39
342.16	-12.39
342.543	-53.29
342.927	-47.19
343.31	-68.66
343.693	-66.17
344.077	-69.33
344.46	-58.26
344.843	-54.19
345.226	-34.53
345.61	-44.93
345.993	-26.4
346.376	21.96
346.759	18.12
347.142	22.64
347.525	38.01
347.908	50.89
348.291	85.69
348.674	93.37
349.057	91.79
349.44	112.36
349.823	143.09
350.206	150.32
350.588	186.7
350.971	205.01
351.354	219.02
351.737	228.74
352.119	250.21
352.502	240.49
352.884	260.37
353.267	268.28
353.65	280.26
354.032	301.28
354.414	292.24
354.797	302.41
355.179	329.75
355.562	320.26
355.944	309.41
356.326	326.14
356.709	317.55
357.091	339.69
357.473	350.54
357.855	333.59
358.238	330.88
358.62	321.16
359.002	330.2
359.384	352.12
359.766	343.54
360.148	323.65
360.53	317.77
360.912	327.49
361.294	323.65
361.676	347.6
362.057	319.13
362.439	323.88
362.821	299.7
363.203	315.97
363.584	318.23
363.966	305.57
364.348	336.53
364.729	332.24
365.111	306.47
365.493	309.19
365.874	322.75
366.256	307.6
366.637	309.41
367.019	311.45
367.4	300.37
367.781	308.28
368.163	330.66
368.544	315.29
368.925	320.49
369.306	313.48
369.688	314.61
370.069	308.73
370.45	297.66
370.831	304.89
371.212	307.83
371.593	310.99
371.974	317.1
372.355	295.63
372.736	304.44
373.117	325.46
373.498	342.63
373.879	307.6
374.26	323.65
374.641	326.14
375.021	320.26
375.402	318.68
375.783	310.54
376.163	324.78
376.544	326.14
376.925	332.24
377.305	326.81
377.686	333.59
378.066	320.26
378.447	315.06
378.827	316.42
379.208	322.07
379.588	317.77
379.968	325.68
380.349	316.87
380.729	351.22
381.109	311.22
381.489	331.56
381.87	341.73
382.25	331.33
382.63	331.33
383.01	341.5
383.39	336.3
383.77	339.47
384.15	341.5
384.53	335.85
384.91	334.27
385.29	322.75
385.67	339.69
386.049	346.93
386.429	346.47
386.809	347.15
387.189	343.99
387.568	343.08
387.948	353.03
388.328	344.21
388.707	350.09
389.087	356.19
389.466	367.94
389.846	363.65
390.225	367.49
390.605	346.02
390.984	347.83
391.363	351.9
391.743	372.01
392.122	366.13
392.501	353.48
392.881	372.46
393.26	374.5
393.639	357.32
394.018	366.81
394.397	377.89
394.776	370.43
395.155	396.19
395.534	383.54
395.913	385.79
396.292	377.43
396.671	385.79
397.05	382.18
397.429	411.33
397.808	393.48
398.186	373.37
398.565	391.9
398.944	383.54
399.323	414.49
399.701	428.73
400.08	406.59
400.458	416.08
400.837	401.61
401.215	403.65
401.594	417.88
401.972	418.34
402.351	422.4
402.729	418.34
403.107	423.53
403.486	428.05
403.864	428.73
404.242	426.7
404.62	430.54
404.999	450.2
405.377	423.99
405.755	424.89
406.133	438.9
406.511	422.86
406.889	440.71
407.267	464.21
407.645	447.49
408.023	443.19
408.401	462.86
408.779	477.09
409.156	477.77
409.534	490.2
409.912	516.64
410.29	498.11
410.667	490.2
411.045	518.9
411.422	510.09
411.8	490.2
412.178	505.34
412.555	528.39
412.933	546.69
413.31	533.14
413.687	545.11
414.065	542.18
414.442	554.6
414.819	551.67
415.197	542.85
415.574	568.61
415.951	566.13
416.328	572.91
416.705	579.01
417.082	578.33
417.46	599.57
417.837	610.42
418.214	603.64
418.591	606.58
418.967	604.32
419.344	645.9
419.721	640.7
420.098	671.66
420.475	651.78
420.852	647.48
421.228	647.26
421.605	674.15
421.982	690.65
422.358	686.58
422.735	685.45
423.111	691.32
423.488	723.87
423.864	719.57
424.241	754.37
424.617	749.18
424.994	735.84
425.37	763.86
425.746	729.06
426.123	797.99
426.499	775.16
426.875	781.26
427.251	811.55
427.627	823.3
428.003	828.27
428.379	832.56
428.756	827.59
429.132	848.83
429.507	815.39
429.883	863.52
430.259	866.23
430.635	870.08
431.011	890.87
431.387	907.36
431.763	920.92
432.138	915.05
432.514	932.67
432.89	961.37
433.265	964.08
433.641	980.36
434.016	984.65
434.392	1014.93
434.767	1006.12
435.143	1022.16
435.518	1067.13
435.894	1039.79
436.269	1067.13
436.644	1080.01
437.02	1094.02
437.395	1095.83
437.77	1123.18
438.145	1128.37
438.52	1148.26
438.895	1171.99
439.271	1172.21
439.646	1170.18
440.021	1192.55
440.395	1195.72
440.77	1234.36
441.145	1237.3
441.52	1266.22
441.895	1273
442.27	1277.52
442.645	1254.92
443.019	1322.95
443.394	1279.1
443.769	1334.02
444.143	1312.78
444.518	1348.93
444.892	1343.96
445.267	1365.88
445.641	1363.4
446.016	1388.71
446.39	1383.51
446.764	1398.88
447.139	1406.56
447.513	1438.2
447.887	1406.79
448.262	1438.42
448.636	1425.54
449.01	1464.86
449.384	1445.43
449.758	1468.48
450.132	1510.74
450.506	1482.49
450.88	1495.14
451.254	1513.45
451.628	1483.17
452.002	1549.38
452.376	1555.93
452.75	1553.22
453.123	1588.25
453.497	1601.13
453.871	1618.98
454.244	1636.16
454.618	1651.98
454.992	1644.97
455.365	1643.16
455.739	1693.56
456.112	1726.78
456.486	1727.68
456.859	1749.6
457.232	1756.61
457.606	1781.92
457.979	1768.58
458.352	1812.65
458.725	1847.68
459.099	1819.66
459.472	1894.68
459.845	1907.11
460.218	1905.53
460.591	1945.75
460.964	1943.49
461.337	1963.83
461.71	2009.93
462.083	2017.39
462.456	1993.66
462.829	2021.01
463.201	2079.31
463.574	2091.51
463.947	2106.65
464.32	2123.83
464.692	2148.69
465.065	2169.93
465.438	2177.61
465.81	2242.24
466.183	2239.53
466.555	2273.88
466.928	2275.91
467.3	2295.12
467.672	2330.15
468.045	2407.44
468.417	2381
468.789	2388.23
469.161	2429.58
469.534	2451.5
469.906	2494.89
470.278	2552.97
470.65	2534.66
471.022	2603.14
471.394	2641.78
471.766	2642.01
472.138	2674.55
472.51	2745.96
472.882	2741.89
473.253	2800.42
473.625	2815.79
473.997	2878.61
474.369	2870.48
474.74	2907.99
475.112	2960.19
475.484	2986.63
475.855	3079.51
476.227	3053.07
476.598	3157.02
476.97	3142.78
477.341	3225.27
477.713	3263.69
478.084	3280.86
478.455	3354.98
478.827	3380.74
479.198	3456.45
479.569	3463.68
479.94	3553.62
480.311	3566.05
480.682	3630
481.053	3766.27
481.424	3776.89
481.795	3813.05
482.166	3804.91
482.537	3815.08
482.908	3927.17
483.279	3958.58
483.65	4078.58
484.021	4117.22
484.391	4114.51
484.762	4191.57
485.133	4187.5
485.503	4315.41
485.874	4341.17
486.244	4385.24
486.615	4476.31
486.985	4491.68
487.356	4552.47
487.726	4603.54
488.097	4683.99
488.467	4651.9
488.837	4805.79
489.207	4835.85
489.578	4854.83
489.948	4906.58
490.318	4989.52
490.688	4980.02
491.058	5043.75
491.428	5076.07
491.798	5106.35
492.168	5210.98
492.538	5265.89
492.908	5280.36
493.278	5364.65
493.648	5366
494.017	5429.96
494.387	5450.52
494.757	5492.33
495.126	5537.52
495.496	5527.58
495.866	5574.81
496.235	5654.81
496.605	5670.85
496.974	5680.12
497.344	5764.86
497.713	5725.99
498.082	5809.61
498.452	5834.47
498.821	5867.46
499.19	5865.42
499.559	5909.27
499.928	5930.51
500.298	5925.31
500.667	5983.61
501.036	6005.31
501.405	6068.13
501.774	6038.08
502.143	6132.76
502.512	6125.08
502.88	6118.07
503.249	6104.29
503.618	6139.32
503.987	6166.89
504.356	6228.35
504.724	6242.14
505.093	6290.5
505.462	6217.05
505.83	6336.6
506.199	6348.12
506.567	6403.94
506.936	6419.76
507.304	6464.28
507.672	6502.24
508.041	6423.6
508.409	6559.64
508.777	6540.66
509.145	6540.21
509.514	6505.18
509.882	6618.4
510.25	6609.13
510.618	6654.78
510.986	6663.82
511.354	6677.83
511.722	6723.71
512.09	6734.78
512.458	6754.89
512.826	6822.24
513.193	6817.72
513.561	6809.35
513.929	6856.36
514.297	6886.87
514.664	6880.99
515.032	6943.59
515.4	6925.06
515.767	6947.88
516.135	6956.92
516.502	6900.65
516.869	7027.2
517.237	6994.21
517.604	6993.98
517.972	7033.53
518.339	7069.46
518.706	7083.25
519.073	7092.06
519.44	7096.35
519.808	7135.45
520.175	7117.6
520.542	7209.12
520.909	7166.86
521.276	7116.47
521.643	7272.85
522.009	7249.34
522.376	7286.18
522.743	7271.49
523.11	7318.27
523.477	7369.11
523.843	7347.65
524.21	7415.67
524.577	7395.55
524.943	7362.33
525.31	7450.47
525.676	7566.62
526.043	7458.38
526.409	7567.08
526.776	7638.03
527.142	7524.14
527.508	7625.38
527.874	7572.5
528.241	7666.96
528.607	7570.24
528.973	7666.06
529.339	7629.9
529.705	7625.6
530.071	7696.79
530.437	7733.85
530.803	7634.19
531.169	7711.7
531.535	7725.71
531.901	7736.56
532.267	7658.37
532.632	7799.84
532.998	7776.34
533.364	7781.98
533.73	7780.4
534.095	7779.5
534.461	7760.29
534.826	7830.34
535.192	7783.57
535.557	7736.79
535.923	7746.73
536.288	7782.44
536.653	7831.25
537.019	7722.33
537.384	7730.01
537.749	7732.95
538.114	7754.87
538.479	7697.92
538.845	7761.19
539.21	7770.69
539.575	7702.44
539.94	7727.97
540.305	7730.46
540.67	7688.88
541.034	7713.74
541.399	7705.83
541.764	7710.12
542.129	7703.79
542.494	7712.38
542.858	7712.16
543.223	7697.92
543.587	7711.93
543.952	7683.91
544.316	7672.83
544.681	7666.28
545.045	7677.13
545.41	7665.83
545.774	7688.2
546.138	7598.03
546.503	7744.02
546.867	7639.84
547.231	7695.66
547.595	7574.98
547.959	7615.44
548.324	7676.68
548.688	7666.73
549.052	7653.4
549.416	7634.87
549.779	7608.43
550.143	7606.62
550.507	7624.02
550.871	7676
551.235	7570.46
551.599	7626.51
551.962	7583.8
552.326	7624.47
552.689	7625.6
553.053	7561.43
553.417	7574.31
553.78	7574.76
554.143	7592.61
554.507	7605.27
554.87	7602.55
555.234	7657.24
555.597	7546.51
555.96	7553.74
556.323	7601.2
556.686	7589.9
557.05	7658.6
557.413	7689.11
557.776	7628.77
558.139	7648.88
558.502	7592.61
558.865	7661.99
559.228	7691.59
559.59	7641.65
559.953	7634.19
560.316	7733.4
560.679	7717.35
561.041	7676.45
561.404	7738.14
561.767	7784.02
562.129	7786.96
562.492	7769.1
562.854	7752.83
563.217	7775.21
563.579	7816.33
563.941	7799.16
564.304	7807.29
564.666	7851.14
565.028	7852.49
565.39	7857.69
565.753	7926.61
566.115	7904.69
566.477	7977.01
566.839	7953.51
567.201	8024.92
567.563	7981.53
567.925	8044.35
568.287	8014.97
568.648	8000.06
569.01	8104.91
569.372	8105.37
569.734	8073.28
570.095	8161.86
570.457	8104.46
570.819	8192.82
571.18	8137.23
571.542	8123.44
571.903	8230.56
572.265	8181.07
572.626	8253.38
572.987	8243.44
573.349	8284.34
573.71	8267.4
574.071	8295.64
574.432	8308.07
574.794	8370.22
575.155	8368.64
575.516	8295.87
575.877	8422.87
576.238	8348.3
576.599	8478.92
576.96	8421.52
577.32	8469.88
577.681	8469.88
578.042	8502.87
578.403	8470.78
578.763	8477.33
579.124	8497.67
579.485	8563.43
579.845	8565.92
580.206	8542.64
580.566	8539.25
580.927	8547.39
581.287	8659.93
581.648	8533.15
582.008	8671.68
582.368	8638.69
582.728	8667.61
583.089	8634.17
583.449	8671
583.809	8645.46
584.169	8723.43
584.529	8618.57
584.889	8797.1
585.249	8704.45
585.609	8690.44
585.969	8693.15
586.329	8693.15
586.688	8792.35
587.048	8772.02
587.408	8742.41
587.768	8787.16
588.127	8743.54
588.487	8781.51
588.846	8849.08
589.206	8811.34
589.565	8768.4
589.925	8835.06
590.284	8849.53
590.643	8851.11
591.003	8873.93
591.362	8908.51
591.721	8927.27
592.08	8889.98
592.44	8907.38
592.799	8977.66
593.158	8926.36
593.517	8956.19
593.876	8980.15
594.235	8935.4
594.593	8955.97
594.952	9008.39
595.311	8910.99
595.67	8996.64
596.029	8995.51
596.387	9063.98
596.746	9025.34
597.104	8979.69
597.463	9001.39
597.822	9011.33
598.18	8934.72
598.538	8979.69
598.897	9051.1
599.255	8903.09
599.613	9075.28
599.972	9034.16
600.33	9092.46
600.688	9089.75
601.046	9043.65
601.404	9116.64
601.762	9084.78
602.12	9133.36
602.478	9099.24
602.836	9110.09
603.194	9063.76
603.552	9110.31
603.91	9066.7
604.268	9102.4
604.625	9093.81
604.983	9075.51
605.341	9095.17
605.698	9119.35
606.056	9208.16
606.413	9135.17
606.771	9144.21
607.128	9113.48
607.485	9142.63
607.843	9089.75
608.2	9220.14
608.557	9161.38
608.914	9129.75
609.272	9185.11
609.629	9257.2
609.986	9259.69
610.343	9166.13
610.7	9251.78
611.057	9245.9
611.414	9164.77
611.771	9283.41
612.127	9303.98
612.484	9207.71
612.841	9297.65
613.198	9325.45
613.554	9252.91
613.911	9289.97
614.267	9315.73
614.624	9327.71
614.98	9346.92
615.337	9376.74
615.693	9319.8
616.05	9334.94
616.406	9426.91
616.762	9334.71
617.118	9410.19
617.475	9369.29
617.831	9383.52
618.187	9346.24
618.543	9393.24
618.899	9404.31
619.255	9411.77
619.611	9492.22
619.967	9413.35
620.323	9395.5
620.678	9438.66
621.034	9355.05
621.39	9392.79
621.746	9414.03
622.101	9486.57
622.457	9482.96
622.812	9485.89
623.168	9413.13
623.523	9430.53
623.879	9474.82
624.234	9444.77
624.589	9409.51
624.945	9457.19
625.3	9453.13
625.655	9478.66
626.01	9461.71
626.365	9432.56
626.72	9442.05
627.075	9421.72
627.43	9452.9
627.785	9388.72
628.14	9409.06
628.495	9441.83
628.85	9433.47
629.205	9357.08
629.559	9504.65
629.914	9382.85
630.269	9393.92
630.623	9350.76
630.978	9345.56
631.332	9306.92
631.687	9406.12
632.041	9328.61
632.396	9300.36
632.75	9310.08
633.104	9380.36
633.459	9273.02
633.813	9301.49
634.167	9326.12
634.521	9251.78
634.875	9288.61
635.229	9297.88
635.583	9191.21
635.937	9269.86
636.291	9219.91
636.645	9204.32
636.999	9218.33
637.352	9228.27
637.706	9159.58
638.06	9233.02
638.413	9190.08
638.767	9100.14
639.121	9189.18
639.474	9125
639.828	9136.3
640.181	9140.37
640.534	9156.19
640.888	9126.81
641.241	9053.14
641.594	8983.31
641.947	9113.02
642.301	9096.75
642.654	9064.44
643.007	9004.78
643.36	9081.84
643.713	9023.76
644.066	9071.22
644.419	9020.82
644.771	8902.41
645.124	8882.29
645.477	8813.82
645.83	8783.77
646.182	8743.54
646.535	8723.2
646.888	8686.82
647.24	8691.34
647.593	8729.3
647.945	8647.5
648.298	8694.95
648.65	8684.56
649.002	8635.3
649.355	8686.59
649.707	8726.37
650.059	8800.49
650.411	8849.3
650.763	8756.2
651.115	8936.76
651.467	8969.75
651.819	8924.1
652.171	8915.97
652.523	8843.88
652.875	8871.22
653.227	8822.86
653.578	8819.92
653.93	8915.06
654.282	8811.34
654.633	8803.65
654.985	8870.54
655.337	8825.35
655.688	8902.86
656.039	8847.72
656.391	8797.1
656.742	8898.79
657.094	8839.81
657.445	8833.48
657.796	8834.84
658.147	8800.71
658.498	8857.21
658.849	8850.21
659.2	8849.3
659.551	8837.55
659.902	8871.67
660.253	8798.23
660.604	8863.54
660.955	8812.92
661.306	8847.27
661.656	8860.37
662.007	8795.07
662.358	8826.02
662.708	8860.6
663.059	8889.3
663.409	8777.44
663.76	8859.7
664.11	8903.99
664.461	8871.67
664.811	8848.85
665.161	8830.32
665.511	8815.4
665.862	8827.61
666.212	8881.39
666.562	8833.71
666.912	8888.62
667.262	8785.12
667.612	8868.28
667.962	8766.37
668.312	8814.5
668.662	8841.84
669.011	8811.34
669.361	8807.49
669.711	8825.8
670.06	8801.17
670.41	8781.96
670.76	8808.62
671.109	8860.15
671.459	8801.62
671.808	8832.58
672.157	8862.86
672.507	8772.69
672.856	8707.61
673.205	8754.39
673.554	8775.86
673.904	8709.42
674.253	8772.02
674.602	8769.53
674.951	8639.82
675.3	8632.36
675.649	8684.33
675.998	8727.04
676.346	8697.89
676.695	8768.4
677.044	8703.77
677.393	8727.72
677.741	8699.7
678.09	8620.61
678.438	8640.72
678.787	8688.4
679.135	8692.02
679.484	8629.42
679.832	8617.22
680.181	8509.65
680.529	8621.06
680.877	8586.03
681.225	8571.57
681.573	8515.98
681.922	8577.44
682.27	8473.04
682.618	8516.88
682.966	8472.59
683.314	8476.43
683.661	8500.16
684.009	8381.29
684.357	8403.44
684.705	8350.78
685.053	8365.02
685.4	8361.86
685.748	8305.81
686.095	8324.57
686.443	8284.57
686.79	8315.3
687.138	8309.43
687.485	8333.16
687.832	8209.32
688.18	8272.59
688.527	8179.71
688.874	8233.95
689.221	8152.82
689.568	8211.35
689.915	8111.92
690.262	8099.26
690.609	8106.95
690.956	8032.6
691.303	8074.86
691.65	8016.55
691.997	7993.73
692.344	7939.95
692.69	7942.43
693.037	8000.74
693.383	7888.87
693.73	7854.07
694.077	7807.75
694.423	7847.97
694.769	7811.14
695.116	7818.82
695.462	7756
695.808	7669.67
696.155	7754.64
696.501	7685.04
696.847	7670.8
697.193	7609.33
697.539	7610.69
697.885	7567.08
698.231	7598.49
698.577	7529.56
698.923	7528.88
699.269	7433.52
699.614	7415.89
699.96	7420.19
700.306	7470.13
700.651	7360.53
700.997	7388.77
701.342	7357.36
701.688	7311.49
702.033	7294.54
702.379	7289.79
702.724	7257.48
703.069	7279.62
703.415	7162.79
703.76	7205.73
704.105	7203.92
704.45	7153.53
704.795	7050.93
705.14	7102.45
705.485	7087.54
705.83	7018.16
706.175	7048.22
706.52	6992.63
706.865	7095
707.209	6965.51
707.554	6908.11
707.899	6931.39
708.243	6890.48
708.588	6886.41
708.932	6852.52
709.277	6844.38
709.621	6843.48
709.966	6831.28
710.31	6817.26
710.654	6718.96
710.998	6761.45
711.342	6730.94
711.687	6704.27
712.031	6718.28
712.375	6686.19
712.719	6672.18
713.063	6712.18
713.407	6731.84
713.75	6757.83
714.094	6666.99
714.438	6619.53
714.782	6633.99
715.125	6627.66
715.469	6556.71
715.812	6586.54
716.156	6606.87
716.499	6571.4
716.843	6517.84
717.186	6523.71
717.53	6501.11
717.873	6562.58
718.216	6531.17
718.559	6521.23
718.902	6412.98
719.246	6413.21
719.589	6474.67
719.932	6470.83
720.275	6418.4
720.617	6461.57
720.96	6449.14
721.303	6398.29
721.646	6441.91
721.989	6442.13
722.331	6474
722.674	6424.73
723.016	6449.59
723.359	6355.13
723.701	6371.4
724.044	6325.07
724.386	6347.45
724.729	6414.79
725.071	6323.27
725.413	6362.81
725.755	6302.93
726.097	6306.09
726.439	6266.09
726.782	6318.52
727.124	6297.73
727.465	6340.67
727.807	6297.05
728.149	6302.7
728.491	6262.48
728.833	6298.86
729.175	6273.1
729.516	6293.44
729.858	6226.09
730.199	6265.64
730.541	6229.26
730.882	6246.21
731.224	6276.04
731.565	6205.75
731.906	6247.56
732.248	6230.39
732.589	6264.74
732.93	6210.5
733.271	6225.64
733.612	6227.68
733.953	6245.3
734.294	6210.27
734.635	6230.61
734.976	6196.94
735.317	6235.58
735.658	6226.77
735.999	6150.84
736.339	6224.96
736.68	6249.14
737.021	6195.36
737.361	6210.05
737.702	6236.94
738.042	6215.47
738.383	6215.7
738.723	6220.9
739.063	6227.22
739.404	6257.05
739.744	6237.62
740.084	6219.31
740.424	6240.78
740.764	6227.45
741.104	6258.86
741.444	6284.62
741.784	6250.27
742.124	6310.16
742.464	6272.42
742.804	6293.66
743.143	6316.49
743.483	6285.98
743.823	6358.52
744.162	6382.02
744.502	6378.86
744.841	6363.72
745.181	6382.7
745.52	6397.39
745.86	6457.05
746.199	6370.72
746.538	6497.05
746.877	6522.58
747.216	6549.02
747.556	6569.14
747.895	6579.3
748.234	6593.99
748.573	6643.71
748.911	6629.02
749.25	6716.93
749.589	6723.71
749.928	6766.42
750.267	6831.95
750.605	6809.35
750.944	6874.89
751.283	6904.04
751.621	7020.87
751.96	7008.45
752.298	7064.49
752.636	7116.92
752.975	7161.89
753.313	7205.05
753.651	7336.12
753.989	7369.57
754.327	7423.58
754.666	7424.25
755.004	7521.43
755.342	7646.17
755.679	7729.78
756.017	7701.08
756.355	7840.74
756.693	7878.71
757.031	7989.89
757.368	8040.06
757.706	8130.22
758.044	8178.13
758.381	8299.03
758.719	8385.58
759.056	8498.35
759.394	8617.44
759.731	8657.44
760.068	8701.06
760.405	8853.82
760.743	8873.03
761.08	9057.43
761.417	9156.64
761.754	9213.13
762.091	9277.09
762.428	9398.67
762.765	9427.37
763.102	9602.95
763.438	9660.13
763.775	9723.85
764.112	9833.23
764.449	9941.93
764.785	9994.36
765.122	10032.09
765.458	10109.83
765.795	10197.74
766.131	10291.3
766.467	10400.45
766.804	10452.87
767.14	10449.26
767.476	10574
767.812	10602.25
768.148	10678.18
768.485	10826.2
768.821	10764.05
769.157	10930.15
769.492	10908.68
