Data from hue_350_FLMS001491_45.txt Node
Date: Mon Feb 06 15:38:05 GMT 2017
User: dcchb
Spectrometer: FLMS00149
Trigger mode: 0
Integration Time (sec): 2.000000E-2
Scans to average: 10
Electric dark correction enabled: true
Nonlinearity correction enabled: false
Boxcar width: 0
XAxis mode: Wavelengths
Number of Pixels in Spectrum: 2048
>>>>>Begin Spectral Data<<<<<
341.393	-11.23
341.776	-11.23
342.16	-11.23
342.543	-62.53
342.927	-58.01
343.31	-76.09
343.693	-64.33
344.077	-54.84
344.46	-38.12
344.843	-51
345.226	-57.78
345.61	-7.61
345.993	-11.23
346.376	-7.39
346.759	10.92
347.142	26.51
347.525	43.23
347.908	65.15
348.291	61.31
348.674	81.42
349.057	79.84
349.44	140.63
349.823	152.83
350.206	157.58
350.588	196.45
350.971	206.39
351.354	216.34
351.737	242.78
352.119	264.02
352.502	235.09
352.884	278.03
353.267	281.42
353.65	279.61
354.032	296.79
354.414	308.76
354.797	317.12
355.179	328.2
355.562	323.45
355.944	321.87
356.326	333.17
356.709	349.89
357.091	344.24
357.473	336.11
357.855	314.86
358.238	350.8
358.62	342.66
359.002	326.62
359.384	346.05
359.766	352.6
360.148	333.4
360.53	355.54
360.912	353.28
361.294	336.78
361.676	331.14
362.057	338.82
362.439	322.55
362.821	322.1
363.203	341.3
363.584	318.48
363.966	325.26
364.348	337.46
364.729	298.37
365.111	304.02
365.493	324.36
365.874	315.77
366.256	309.44
366.637	314.86
367.019	321.64
367.4	297.46
367.781	309.44
368.163	304.7
368.544	316.45
368.925	290.68
369.306	314.41
369.688	302.66
370.069	315.99
370.45	312.38
370.831	316.67
371.212	297.46
371.593	308.99
371.974	310.57
372.355	294.3
372.736	298.59
373.117	309.89
373.498	321.42
373.879	314.19
374.26	293.62
374.641	296.56
375.021	310.57
375.402	291.14
375.783	293.62
376.163	323.68
376.544	313.06
376.925	298.37
377.305	311.7
377.686	321.19
378.066	326.62
378.447	331.36
378.827	332.04
379.208	306.96
379.588	320.51
379.968	323
380.349	330.23
380.729	317.8
381.109	315.99
381.489	328.88
381.87	313.73
382.25	307.63
382.63	339.5
383.01	330.46
383.39	330.01
383.77	327.52
384.15	335.66
384.53	306.96
384.91	350.57
385.29	345.6
385.67	335.2
386.049	351.25
386.429	352.38
386.809	330.23
387.189	344.02
387.568	324.36
387.948	328.65
388.328	347.63
388.707	343.79
389.087	359.38
389.466	365.03
389.846	379.27
390.225	364.35
390.605	359.61
390.984	342.43
391.363	348.54
391.743	346.95
392.122	372.26
392.501	356.9
392.881	388.31
393.26	375.65
393.639	361.19
394.018	380.4
394.397	377.24
394.776	370.68
395.155	350.8
395.534	375.2
395.913	375.65
396.292	384.02
396.671	389.21
397.05	366.16
397.429	377.46
397.808	366.84
398.186	381.76
398.565	381.08
398.944	379.27
399.323	368.2
399.701	380.63
400.08	381.08
400.458	376.56
400.837	395.31
401.215	397.12
401.594	367.29
401.972	379.5
402.351	391.25
402.729	411.13
403.107	372.94
403.486	398.03
403.864	393.51
404.242	404.58
404.62	408.42
404.999	396.44
405.377	382.89
405.755	400.74
406.133	412.04
406.511	411.13
406.889	414.07
407.267	412.94
407.645	417.23
408.023	421.3
408.401	424.92
408.779	415.65
409.156	431.47
409.534	453.17
409.912	435.54
410.29	418.59
410.667	432.6
411.045	424.92
411.422	450.91
411.8	427.63
412.178	451.58
412.555	445.26
412.933	433.51
413.31	468.53
413.687	466.95
414.065	460.62
414.442	464.92
414.819	465.82
415.197	460.4
415.574	465.14
415.951	454.97
416.328	460.17
416.705	478.02
417.082	481.64
417.46	495.2
417.837	471.24
418.214	489.1
418.591	488.87
418.967	491.58
419.344	503.33
419.721	489.78
420.098	532.03
420.475	522.54
420.852	508.31
421.228	501.3
421.605	528.19
421.982	517.57
422.358	534.75
422.735	542.88
423.111	530.45
423.488	535.42
423.864	547.63
424.241	551.47
424.617	541.3
424.994	545.37
425.37	554.18
425.746	553.5
426.123	552.37
426.499	575.65
426.875	585.82
427.251	600.28
427.627	586.5
428.003	569.1
428.379	594.63
428.756	614.97
429.132	606.61
429.507	630.11
429.883	613.16
430.259	614.97
430.635	629.21
431.011	628.53
431.387	648.87
431.763	630.79
432.138	638.92
432.514	648.42
432.89	633.27
433.265	640.96
433.641	663.56
434.016	691.58
434.392	680.5
434.767	689.09
435.143	657.91
435.518	662.2
435.894	692.93
436.269	687.06
436.644	683.22
437.02	708.3
437.395	682.99
437.77	696.78
438.145	705.14
438.52	694.06
438.895	720.05
439.271	743.55
439.646	727.74
440.021	753.72
440.395	745.81
440.77	744.91
441.145	771.35
441.52	772.25
441.895	770.45
442.27	751.69
442.645	779.03
443.019	765.93
443.394	770.9
443.769	763.67
444.143	771.8
444.518	806.6
444.892	766.38
445.267	791.91
445.641	792.37
446.016	809.54
446.39	803.21
446.764	804.34
447.139	807.51
447.513	806.83
447.887	809.31
448.262	839.6
448.636	831.24
449.01	799.15
449.384	838.92
449.758	850.44
450.132	854.51
450.506	842.31
450.88	830.33
451.254	833.5
451.628	845.02
452.002	853.38
452.376	862.42
452.75	875.53
453.123	867.39
453.497	897
453.871	886.15
454.244	903.32
454.618	903.55
454.992	923.21
455.365	933.15
455.739	943.77
456.112	958.24
456.486	941.06
456.859	977.22
457.232	967.5
457.606	975.64
457.979	939.48
458.352	986.94
458.725	999.59
459.099	998.69
459.472	1008.18
459.845	1019.25
460.218	1024.22
460.591	1046.37
460.964	1046.14
461.337	1051.79
461.71	1059.7
462.083	1075.07
462.456	1103.54
462.829	1094.96
463.201	1093.83
463.574	1102.41
463.947	1127.72
464.32	1136.54
464.692	1136.09
465.065	1134.05
465.438	1155.97
465.81	1159.14
466.183	1189.87
466.555	1209.08
466.928	1218.57
467.3	1212.69
467.672	1223.99
468.045	1281.17
468.417	1263.09
468.789	1273.48
469.161	1326.82
469.534	1306.7
469.906	1327.27
470.278	1313.48
470.65	1332.69
471.022	1381.73
471.394	1377.89
471.766	1405.01
472.138	1393.25
472.51	1443.42
472.882	1453.37
473.253	1482.07
473.625	1507.38
473.997	1496.98
474.369	1545.11
474.74	1547.83
475.112	1548.73
475.484	1600.25
475.855	1628.95
476.227	1636.41
476.598	1682.06
476.97	1685.68
477.341	1740.14
477.713	1749.4
478.084	1774.94
478.455	1809.51
478.827	1860.59
479.198	1870.08
479.569	1886.8
479.94	1925.44
480.311	1955.05
480.682	1963.86
481.053	2033.01
481.424	2063.97
481.795	2079.34
482.166	2126.79
482.537	2131.77
482.908	2184.19
483.279	2226.68
483.65	2279.78
484.021	2294.47
484.391	2297.41
484.762	2367.92
485.133	2388.48
485.503	2394.81
485.874	2434.36
486.244	2479.33
486.615	2514.58
486.985	2548.7
487.356	2603.17
487.726	2597.52
488.097	2671.41
488.467	2681.13
488.837	2745.08
489.207	2765.65
489.578	2816.72
489.948	2832.31
490.318	2899.2
490.688	2889.03
491.058	2884.97
491.428	2964.96
491.798	2952.99
492.168	3023.27
492.538	3094.45
492.908	3125.41
493.278	3187.78
493.648	3144.62
494.017	3189.59
494.387	3211.29
494.757	3306.2
495.126	3322.92
495.496	3315.69
495.866	3320.44
496.235	3362.92
496.605	3399.98
496.974	3400.43
497.344	3422.13
497.713	3449.47
498.082	3473.88
498.452	3504.84
498.821	3534.44
499.19	3557.27
499.559	3554.1
499.928	3596.59
500.298	3630.26
500.667	3677.94
501.036	3692.85
501.405	3711.16
501.774	3730.14
502.143	3726.98
502.512	3741.89
502.88	3811.27
503.249	3776.69
503.618	3751.84
503.987	3804.49
504.356	3837.48
504.724	3852.4
505.093	3844.49
505.462	3888.78
505.83	3907.54
506.199	3916.58
506.567	3963.36
506.936	3995.45
507.304	4039.06
507.672	3977.37
508.041	4019.63
508.409	4050.36
508.777	4097.14
509.145	4051.49
509.514	4100.75
509.882	4173.75
510.25	4143.01
510.618	4154.99
510.986	4183.69
511.354	4220.07
511.722	4182.56
512.09	4197.02
512.458	4218.49
512.826	4270.47
513.193	4317.47
513.561	4226.17
513.929	4282.44
514.297	4296.68
514.664	4361.54
515.032	4359.5
515.4	4349.79
515.767	4366.51
516.135	4392.05
516.502	4378.71
516.869	4442.44
517.237	4464.36
517.604	4412.84
517.972	4477.47
518.339	4463.91
518.706	4442.44
519.073	4519.27
519.44	4504.58
519.808	4565.83
520.175	4571.93
520.542	4583.23
520.909	4568.31
521.276	4622.55
521.643	4636.78
522.009	4655.54
522.376	4676.11
522.743	4680.4
523.11	4726.5
523.477	4759.49
523.843	4793.62
524.21	4823.9
524.577	4830.68
524.943	4866.38
525.31	4899.38
525.676	4894.63
526.043	4917.23
526.409	4937.79
526.776	4962.43
527.142	4975.53
527.508	5042.2
527.874	5018.24
528.241	5109.31
528.607	5113.61
528.973	5113.83
529.339	5095.98
529.705	5165.36
530.071	5213.49
530.437	5243.55
530.803	5220.05
531.169	5242.42
531.535	5229.54
531.901	5276.99
532.267	5327.61
532.632	5276.99
532.998	5297.11
533.364	5358.12
533.73	5385.01
534.095	5439.7
534.461	5453.94
534.826	5485.12
535.192	5507.27
535.557	5471.57
535.923	5513.82
536.288	5518.12
536.653	5603.09
537.019	5547.72
537.384	5605.12
537.749	5626.82
538.114	5631.79
538.479	5643.99
538.845	5702.52
539.21	5682.63
539.575	5701.62
539.94	5730.99
540.305	5839.69
540.67	5799.24
541.034	5811.22
541.399	5846.02
541.764	5854.38
542.129	5843.31
542.494	5886.47
542.858	5940.48
543.223	5941.38
543.587	6030.19
543.952	6012.79
544.316	6016.64
544.681	6023.87
545.045	6099.35
545.41	6081.04
545.774	6114.03
546.138	6113.81
546.503	6141.38
546.867	6151.55
547.231	6247.36
547.595	6225.67
547.959	6220.47
548.324	6231.55
548.688	6266.12
549.052	6356.74
549.416	6324.88
549.779	6348.38
550.143	6376.85
550.507	6387.47
550.871	6420.47
551.235	6365.1
551.599	6467.7
551.962	6463.18
552.326	6484.19
552.689	6557.19
553.053	6489.17
553.417	6595.83
553.78	6606.68
554.143	6564.87
554.507	6632.44
554.87	6650.29
555.234	6749.95
555.597	6721.48
555.96	6695.26
556.323	6756.5
556.686	6767.12
557.05	6765.77
557.413	6831.3
557.776	6845.99
558.139	6826.33
558.502	6837.63
558.865	6857.97
559.228	6867.23
559.59	6887.8
559.953	6869.72
560.316	6957.4
560.679	7012.77
561.041	6989.04
561.404	7090.96
561.767	7052.77
562.129	7070.85
562.492	7176.38
562.854	7136.83
563.217	7152.65
563.579	7158.3
563.941	7163.05
564.304	7214.12
564.666	7313.32
565.028	7238.3
565.39	7269.26
565.753	7338.86
566.115	7374.79
566.477	7400.55
566.839	7404.85
567.201	7408.92
567.563	7432.19
567.925	7466.99
568.287	7521.91
568.648	7518.29
569.01	7533.43
569.372	7607.78
569.734	7585.63
570.095	7699.76
570.457	7666.76
570.819	7695.69
571.18	7716.48
571.542	7795.12
571.903	7805.97
572.265	7862.01
572.626	7900.88
572.987	7890.71
573.349	8028.79
573.71	8015.91
574.071	8127.77
574.432	8140.2
574.794	8182.45
575.155	8193.98
575.516	8248.89
575.877	8327.76
576.238	8403.01
576.599	8466.51
576.96	8522.78
577.32	8538.6
577.681	8659.73
578.042	8703.57
578.403	8795.09
578.763	8829.44
579.124	8986.05
579.485	9055.2
579.845	9229.21
580.206	9235.53
580.566	9370.22
580.927	9469.43
581.287	9609.76
581.648	9659.7
582.008	9856.31
582.368	9858.57
582.728	10025.8
583.089	10211.1
583.449	10370.19
583.809	10494.03
584.169	10663.52
584.529	10806.79
584.889	10996.17
585.249	11127.46
585.609	11289.94
585.969	11510.28
586.329	11589.14
586.688	11900.1
587.048	12026.87
587.408	12282.46
587.768	12520.65
588.127	12733.75
588.487	12929
588.846	13181.42
589.206	13379.15
589.565	13597.68
589.925	13923.77
590.284	14063.2
590.643	14362.18
591.003	14675.84
591.362	15002.16
591.721	15107.02
592.08	15374.13
592.44	15760.56
592.799	15986.54
593.158	16257.95
593.517	16525.29
593.876	16793.53
594.235	17118.04
594.593	17294.98
594.952	17746.04
595.311	17963.44
595.67	18237.78
596.029	18603.42
596.387	18904.21
596.746	19303.97
597.104	19388.04
597.463	19698.31
597.822	20109.6
598.18	20239.31
598.538	20503.71
598.897	20885.4
599.255	21077.71
599.613	21722.89
599.972	21860.74
600.33	22145.93
600.688	22345.7
601.046	22734.61
601.404	23133.47
601.762	23351.1
602.12	23619.79
602.478	23817.75
602.836	24176.84
603.194	24261.35
603.552	24502.03
603.91	24789.02
604.268	25217.71
604.625	25300.65
604.983	25633.29
605.341	25734.54
605.698	26189.44
606.056	26467.85
606.413	26593.72
606.771	26973.6
607.128	27160.94
607.485	27299.01
607.843	27538.33
608.2	27944.87
608.557	28247.46
608.914	28287.91
609.272	28643.84
609.629	28945.52
609.986	29224.84
610.343	29160.89
610.7	29658.5
611.057	29885.16
611.414	29957.25
611.771	30037.47
612.127	30528.99
612.484	30612.15
612.841	31023.89
613.198	30929.2
613.554	31099.59
613.911	31580.94
614.267	31725.79
614.624	31763.3
614.98	31887.82
615.337	32280.13
615.693	32387.69
616.05	32438.77
616.406	32904.74
616.762	32767.8
617.118	32996.04
617.475	33050.73
617.831	33298.18
618.187	33392.64
618.543	33584.5
618.899	33930.93
619.255	33922.79
619.611	34064.49
619.967	34254.76
620.323	34443.91
620.678	34433.74
621.034	34501.54
621.39	34664.7
621.746	34643.45
622.101	35048.87
622.457	34977.46
622.812	35112.37
623.168	35314.62
623.523	35417.67
623.879	35605.01
624.234	35405.69
624.589	35537.22
624.945	35742.86
625.3	35922.29
625.655	35952.8
626.01	35884.55
626.365	36023.53
626.72	36183.98
627.075	36160.48
627.43	36215.62
627.785	36182.4
628.14	36420.36
628.495	36458.32
628.85	36493.57
629.205	36428.27
629.559	36639.56
629.914	36625.1
630.269	36684.3
630.623	36601.37
630.978	36571.31
631.332	36814.02
631.687	36878.65
632.041	36714.36
632.396	36858.54
632.75	36711.42
633.104	36914.35
633.459	36762.27
633.813	36807.46
634.167	36932.88
634.521	36908.7
634.875	36988.25
635.229	36941.92
635.583	36650.18
635.937	36918.87
636.291	36870.06
636.645	36891.98
636.999	36868.48
637.352	37105.08
637.706	36776.05
638.06	36928.14
638.413	36811.08
638.767	36804.53
639.121	36924.75
639.474	36825.99
639.828	36712.55
640.181	36814.24
640.534	36862.83
640.888	36773.57
641.241	36653.57
641.594	36774.02
641.947	36747.13
642.301	36701.03
642.654	36903.96
643.007	36894.02
643.36	36797.75
643.713	36754.58
644.066	36903.51
644.419	36713.23
644.771	36352.34
645.124	36230.53
645.477	36098.78
645.83	35863.99
646.182	35766.14
646.535	35734.27
646.888	35906.7
647.24	35639.81
647.593	35841.61
647.945	35710.54
648.298	35647.27
648.65	35597.78
649.002	35435.3
649.355	35758
649.707	35654.5
650.059	35680.94
650.411	36107.82
650.763	36051.55
651.115	36546
651.467	36349.62
651.819	36391.43
652.171	36393.69
652.523	36331.32
652.875	36262.17
653.227	36096.07
653.578	36332.9
653.93	36293.13
654.282	36106.01
654.633	36058.56
654.985	36192.34
655.337	36221.72
655.688	36333.13
656.039	36226.24
656.391	35976.75
656.742	36119.35
657.094	36223.75
657.445	36155.73
657.796	36258.33
658.147	36109.4
658.498	36072.12
658.849	36211.55
659.2	36070.08
659.551	35956.19
659.902	36311.88
660.253	36106.01
660.604	36115.28
660.955	35934.72
661.306	36128.61
661.656	35968.62
662.007	35977.88
662.358	35946.24
662.708	36047.48
663.059	35978.33
663.409	35836.19
663.76	36101.72
664.11	36062.4
664.461	36034.38
664.811	36045.9
665.161	35943.08
665.511	35852.46
665.862	35959.35
666.212	36008.62
666.562	36067.6
666.912	35914.15
667.262	35869.18
667.612	35975.17
667.962	35895.4
668.312	35838.68
668.662	36095.62
669.011	36014.04
669.361	35965
669.711	35914.83
670.06	35912.12
670.41	35840.71
670.76	35857.66
671.109	35918
671.459	35804.78
671.808	35738.79
672.157	35747.61
672.507	35584.9
672.856	35647.95
673.205	35708.28
673.554	35788.28
673.904	35688.62
674.253	35920.03
674.602	35605.46
674.951	35135.64
675.3	35066.49
675.649	35734.95
675.998	35503.09
676.346	35602.98
676.695	35586.25
677.044	35402.76
677.393	35489.31
677.741	35583.99
678.09	35444.56
678.438	35337.67
678.787	35468.06
679.135	35421.29
679.484	35278.24
679.832	35462.64
680.181	35042.99
680.529	35339.71
680.877	35232.59
681.225	35086.61
681.573	35289.99
681.922	35068.75
682.27	35073.27
682.618	34950.34
682.966	34755.99
683.314	34878.02
683.661	34882.77
684.009	34791.92
684.357	34543.34
684.705	34531.59
685.053	34657.46
685.4	34671.25
685.748	34417.47
686.095	34468.54
686.443	34242.56
686.79	34193.75
687.138	34356
687.485	34309.22
687.832	34238.27
688.18	34157.36
688.527	33993.3
688.874	34062.23
689.221	34046.18
689.568	33822.23
689.915	33791.05
690.262	33830.37
690.609	33622.69
690.956	33562.58
691.303	33589.02
691.65	33330.95
691.997	33389.25
692.344	33297.27
692.69	33188.12
693.037	33116.49
693.383	32935.48
693.73	33132.76
694.077	32799.89
694.423	32824.07
694.769	32763.95
695.116	32690.06
695.462	32660.68
695.808	32444.19
696.155	32618.87
696.501	32419.33
696.847	32375.72
697.193	32161.71
697.539	32352.21
697.885	31966.91
698.231	31884.66
698.577	32030.19
698.923	31880.81
699.269	31710.2
699.614	31560.14
699.96	31553.82
700.306	31578.9
700.651	31438.57
700.997	31357.66
701.342	31369.42
701.688	31166.48
702.033	31121.29
702.379	31017.56
702.724	30911.35
703.069	31034.51
703.415	30720.39
703.76	30756.55
704.105	30631.13
704.45	30703.22
704.795	30523.79
705.14	30431.59
705.485	30278.37
705.83	30260.97
706.175	30269.78
706.52	30302.78
706.865	30116.79
707.209	30025.04
707.554	29966.97
707.899	29955.67
708.243	29931.49
708.588	29846.07
708.932	29472.97
709.277	29614.21
709.621	29639.97
709.966	29416.92
710.31	29642.46
710.654	29267.1
710.998	29305.29
711.342	29362.24
711.687	29195.01
712.031	29155.91
712.375	29056.48
712.719	28997.5
713.063	28915.47
713.407	29068.46
713.75	28849.03
714.094	28851.29
714.438	28676.83
714.782	28742.59
715.125	28613.56
715.469	28643.61
715.812	28602.26
716.156	28435.26
716.499	28547.57
716.843	28501.92
717.186	28268.71
717.53	28326.11
717.873	28456.5
718.216	28245.2
718.559	28115.94
718.902	27971.31
719.246	28021.25
719.589	27929.05
719.932	27885.67
720.275	27821.26
720.617	27798.21
720.96	27713.92
721.303	27778.55
721.646	27677.53
721.989	27501.49
722.331	27661.94
722.674	27501.27
723.016	27515.51
723.359	27581.49
723.701	27487.03
724.044	27337.88
724.386	27260.82
724.729	27403.42
725.071	27407.71
725.413	27222.18
725.755	27269.41
726.097	27120.71
726.439	27031.45
726.782	26997.1
727.124	27051.79
727.465	26894.05
727.807	26953.71
728.149	26854.73
728.491	26861.29
728.833	26754.85
729.175	26689.09
729.516	26646.15
729.858	26610.44
730.199	26642.53
730.541	26557.11
730.882	26499.71
731.224	26520.73
731.565	26385.37
731.906	26369.77
732.248	26422.88
732.589	26193.51
732.93	26174.52
733.271	26259.49
733.612	26288.19
733.953	26217.23
734.294	26108.54
734.635	26030.8
734.976	26109.67
735.317	25985.38
735.658	25917.58
735.999	25901.08
736.339	25880.52
736.68	26087.29
737.021	25857.47
737.361	25750.13
737.702	25875.55
738.042	25759.85
738.383	25706.51
738.723	25732.95
739.063	25587.65
739.404	25617.25
739.744	25633.97
740.084	25480.76
740.424	25441.21
740.764	25480.3
741.104	25487.99
741.444	25419.74
741.784	25338.61
742.124	25405.73
742.464	25321.89
742.804	25210.03
743.143	25096.59
743.483	25108.34
743.823	24932.75
744.162	25047.32
744.502	25059.52
744.841	24983.14
745.181	25116.47
745.52	25040.77
745.86	24910.83
746.199	24968.23
746.538	24761.45
746.877	24823.15
747.216	24906.53
747.556	24742.24
747.895	24742.7
748.234	24677.39
748.573	24707.67
748.911	24647.33
749.25	24634.23
749.589	24497.51
749.928	24491.4
750.267	24559.65
750.605	24491.18
750.944	24426.32
751.283	24245.08
751.621	24462.25
751.96	24207.34
752.298	24279.43
752.636	24257.96
752.975	24050.29
753.313	24103.39
753.651	24240.34
753.989	23990.85
754.327	23989.95
754.666	23809.84
755.004	23853.23
755.342	23824.98
755.679	23769.84
756.017	23704.53
756.355	23773.91
756.693	23743.4
757.031	23630.64
757.368	23497.76
757.706	23472.45
758.044	23448.49
758.381	23419.57
758.719	23278.55
759.056	23232.45
759.394	23180.7
759.731	23077.88
760.068	23142.51
760.405	22933.03
760.743	23003.53
761.08	22927.83
