Data from hue_210_FLMS001491_00034.txt Node
Date: Tue Feb 07 16:41:06 GMT 2017
User: dcchb
Spectrometer: FLMS00149
Trigger mode: 0
Integration Time (sec): 2.000000E-2
Scans to average: 10
Electric dark correction enabled: true
Nonlinearity correction enabled: false
Boxcar width: 0
XAxis mode: Wavelengths
Number of Pixels in Spectrum: 2048
>>>>>Begin Spectral Data<<<<<
341.393	-13.62
341.776	-13.62
342.16	-13.62
342.543	-60.17
342.927	-82.09
343.31	-62.65
343.693	-57.23
344.077	-57.46
344.46	-53.61
344.843	-60.62
345.226	-30.34
345.61	-41.41
345.993	1.98
346.376	-3.67
346.759	4.92
347.142	9.66
347.525	30.23
347.908	38.81
348.291	69.77
348.674	95.53
349.057	116.1
349.44	139.15
349.823	146.15
350.206	170.79
350.588	189.77
350.971	231.8
351.354	239.26
351.737	230.9
352.119	252.82
352.502	276.77
352.884	289.65
353.267	302.08
353.65	293.72
354.032	316.32
354.414	336.43
354.797	305.47
355.179	317
355.562	339.82
355.944	332.14
356.326	361.06
356.709	352.93
357.091	334.62
357.473	337.56
357.855	335.08
358.238	350.67
358.62	352.02
359.002	353.83
359.384	345.92
359.766	341.86
360.148	334.85
360.53	334.62
360.912	328.97
361.294	338.92
361.676	347.96
362.057	354.96
362.439	341.18
362.821	333.49
363.203	328.97
363.584	333.72
363.966	333.27
364.348	322.19
364.729	332.36
365.111	312.7
365.493	312.48
365.874	320.39
366.256	304.79
366.637	326.94
367.019	315.87
367.4	340.95
367.781	316.09
368.163	316.09
368.544	309.99
368.925	314.06
369.306	299.37
369.688	327.62
370.069	326.04
370.45	318.81
370.831	335.3
371.212	328.52
371.593	305.25
371.974	323.32
372.355	300.27
372.736	348.41
373.117	309.54
373.498	315.19
373.879	347.73
374.26	320.16
374.641	300.73
375.021	326.26
375.402	303.66
375.783	330.33
376.163	342.53
376.544	324.68
376.925	342.31
377.305	324.23
377.686	322.19
378.066	339.82
378.447	338.24
378.827	325.81
379.208	339.82
379.588	348.18
379.968	345.25
380.349	337.34
380.729	349.54
381.109	349.09
381.489	342.76
381.87	342.53
382.25	365.81
382.63	373.04
383.01	351.57
383.39	342.31
383.77	352.7
384.15	334.62
384.53	345.7
384.91	356.77
385.29	359.03
385.67	369.88
386.049	382.08
386.429	373.94
386.809	381.4
387.189	364.23
387.568	348.41
387.948	352.93
388.328	366.04
388.707	354.06
389.087	344.34
389.466	360.84
389.846	359.26
390.225	380.27
390.605	363.32
390.984	367.39
391.363	376.88
391.743	371.46
392.122	389.09
392.501	382.98
392.881	401.51
393.26	401.29
393.639	402.64
394.018	405.13
394.397	388.18
394.776	412.14
395.155	390.22
395.534	393.83
395.913	406.03
396.292	408.07
396.671	400.84
397.05	400.16
397.429	413.94
397.808	403.77
398.186	401.97
398.565	409.2
398.944	439.48
399.323	421.63
399.701	425.92
400.08	413.04
400.458	418.46
400.837	434.51
401.215	444
401.594	424.34
401.972	443.55
402.351	438.8
402.729	446.49
403.107	449.65
403.486	464.11
403.864	453.49
404.242	430.44
404.62	467.5
404.999	470.67
405.377	481.29
405.755	495.75
406.133	486.94
406.511	473.15
406.889	510.89
407.267	486.71
407.645	510.44
408.023	512.47
408.401	503.66
408.779	527.39
409.156	554.05
409.534	526.71
409.912	530.1
410.29	540.95
410.667	563.77
411.045	556.77
411.422	581.4
411.8	585.69
412.178	573.71
412.555	595.41
412.933	626.59
413.31	617.78
413.687	630.21
414.065	634.28
414.442	649.87
414.819	676.99
415.197	671.34
415.574	699.81
415.951	660.49
416.328	680.83
416.705	695.74
417.082	727.38
417.46	726.7
417.837	741.62
418.214	723.09
418.591	743.43
418.967	733.03
419.344	777.32
419.721	769.41
420.098	766.25
420.475	808.74
420.852	813.03
421.228	820.03
421.605	834.95
421.982	847.38
422.358	851.9
422.735	871.78
423.111	873.82
423.488	920.15
423.864	911.78
424.241	933.48
424.617	944.1
424.994	939.13
425.37	966.7
425.746	995.85
426.123	1014.83
426.499	997.21
426.875	1019.13
427.251	1043.08
427.627	1059.35
428.003	1055.51
428.379	1080.82
428.756	1106.13
429.132	1124.66
429.507	1138.9
429.883	1156.98
430.259	1154.72
430.635	1173.47
431.011	1188.39
431.387	1198.78
431.763	1210.31
432.138	1239.46
432.514	1237.43
432.89	1252.79
433.265	1288.72
433.641	1320.36
434.016	1323.52
434.392	1391.77
434.767	1394.03
435.143	1422.05
435.518	1438.32
435.894	1428.38
436.269	1455.95
436.644	1506.12
437.02	1536.4
437.395	1549.73
437.77	1571.2
438.145	1627.25
438.52	1642.16
438.895	1625.44
439.271	1676.96
439.646	1720.35
440.021	1746.11
440.395	1724.64
440.77	1773.68
441.145	1793.79
441.52	1829.05
441.895	1855.49
442.27	1879.44
442.645	1857.52
443.019	1904.53
443.394	1886
443.769	1926.22
444.143	1923.96
444.518	1951.08
444.892	1964.64
445.267	1974.13
445.641	2004.64
446.016	2001.7
446.39	2018.87
446.764	2047.57
447.139	2096.61
447.513	2097.97
447.887	2086.22
448.262	2106.55
448.636	2118.98
449.01	2156.27
449.384	2148.81
449.758	2193.78
450.132	2230.85
450.506	2239.66
450.88	2211.41
451.254	2230.62
451.628	2268.58
452.002	2330.73
452.376	2295.02
452.75	2331.18
453.123	2350.16
453.497	2431.07
453.871	2410.5
454.244	2466.77
454.618	2475.81
454.992	2500.22
455.365	2562.59
455.739	2605.07
456.112	2629.25
456.486	2590.61
456.859	2622.47
457.232	2728.01
457.606	2660.44
457.979	2737.27
458.352	2762.36
458.725	2781.34
459.099	2814.33
459.472	2865.18
459.845	2882.58
460.218	2912.86
460.591	2936.14
460.964	2960.09
461.337	2979.3
461.71	3067.89
462.083	3091.61
462.456	3097.26
462.829	3104.95
463.201	3133.65
463.574	3190.82
463.947	3270.37
464.32	3321.66
464.692	3337.71
465.065	3340.19
465.438	3413.87
465.81	3430.14
466.183	3488.67
466.555	3542
466.928	3543.58
467.3	3539.96
467.672	3571.15
468.045	3643.24
468.417	3722.33
468.789	3741.31
469.161	3783.12
469.534	3843.46
469.906	3921.87
470.278	3895.43
470.65	3958.71
471.022	4068.99
471.394	4128.65
471.766	4168.42
472.138	4163.9
472.51	4241.19
472.882	4287.29
473.253	4373.39
473.625	4404.8
473.997	4487.74
474.369	4509.88
474.74	4570.9
475.112	4653.38
475.484	4701.51
475.855	4750.33
476.227	4777.9
476.598	4973.15
476.97	4987.16
477.341	5075.29
477.713	5105.8
478.084	5075.74
478.455	5263.31
478.827	5324.55
479.198	5440.03
479.569	5440.7
479.94	5523.87
480.311	5640.02
480.682	5753.46
481.053	5837.53
481.424	5956.62
481.795	5961.37
482.166	6070.52
482.537	6136.73
482.908	6244.07
483.279	6284.3
483.65	6366.33
484.021	6489.72
484.391	6593.89
484.762	6588.7
485.133	6641.12
485.503	6739.2
485.874	6881.34
486.244	6859.42
486.615	7044.28
486.985	7065.97
487.356	7206.53
487.726	7245.63
488.097	7387.32
488.467	7425.06
488.837	7554.1
489.207	7623.25
489.578	7641.55
489.948	7740.3
490.318	7885.61
490.688	7905.05
491.058	8001.77
491.428	8073.4
491.798	8098.26
492.168	8236.79
492.538	8310.69
492.908	8426.84
493.278	8466.61
493.648	8453.28
494.017	8615.08
494.387	8623.45
494.757	8701.64
495.126	8748.87
495.496	8770.33
495.866	8781.41
496.235	8881.97
496.605	8983.44
496.974	8986.6
497.344	9065.47
497.713	9083.09
498.082	9130.55
498.452	9223.88
498.821	9251.23
499.19	9290.32
499.559	9326.03
499.928	9390.66
500.298	9424.78
500.667	9440.6
501.036	9420.26
501.405	9491.9
501.774	9511.78
502.143	9580.48
502.512	9652.12
502.88	9605.34
503.249	9638.56
503.618	9739.35
503.987	9709.74
504.356	9757.2
504.724	9809.63
505.093	9763.75
505.462	9850.98
505.83	9873.81
506.199	9886.01
506.567	10005.78
506.936	10024.99
507.304	10104.31
507.672	10019.12
508.041	10074.03
508.409	10159
508.777	10235.83
509.145	10196.96
509.514	10207.36
509.882	10300.46
510.25	10182.95
510.618	10321.25
510.986	10194.93
511.354	10360.58
511.722	10376.17
512.09	10437.64
512.458	10420.23
512.826	10441.02
513.193	10497.97
513.561	10478.09
513.929	10517.18
514.297	10505.2
514.664	10617.74
515.032	10651.19
515.4	10604.86
515.767	10683.73
516.135	10697.74
516.502	10472.44
516.869	10756.5
517.237	10668.59
517.604	10642.83
517.972	10730.06
518.339	10734.58
518.706	10730.51
519.073	10749.27
519.44	10777.51
519.808	10798.08
520.175	10744.52
520.542	10835.36
520.909	10845.08
521.276	10776.38
521.643	10929.83
522.009	10851.86
522.376	10937.06
522.743	10921.24
523.11	10909.71
523.477	10962.59
523.843	10922.59
524.21	11032.42
524.577	11087.56
524.943	11105.19
525.31	11074.68
525.676	11133.21
526.043	11118.07
526.409	11117.39
526.776	11155.81
527.142	11165.53
527.508	11120.56
527.874	11198.07
528.241	11138.86
528.607	11138.63
528.973	11217.28
529.339	11135.7
529.705	11220.89
530.071	11205.98
530.437	11184.51
530.803	11256.6
531.169	11194.23
531.535	11173.21
531.901	11174.79
532.267	11187.67
532.632	11155.58
532.998	11203.26
533.364	11168.24
533.73	11171.63
534.095	11104.96
534.461	11110.39
534.826	11126.88
535.192	11136.37
535.557	11121.01
535.923	11039.43
536.288	11008.92
536.653	11078.07
537.019	10980.22
537.384	10982.25
537.749	10990.84
538.114	10831.75
538.479	10901.35
538.845	10881.92
539.21	10772.99
539.575	10845.31
539.94	10798.3
540.305	10792.65
540.67	10834.91
541.034	10785.65
541.399	10805.08
541.764	10684.18
542.129	10667.01
542.494	10637.4
542.858	10580.91
543.223	10625.88
543.587	10606.9
543.952	10514.7
544.316	10499.1
544.681	10492.32
545.045	10474.7
545.41	10450.74
545.774	10366.68
546.138	10410.74
546.503	10372.1
546.867	10326.9
547.231	10344.08
547.595	10297.98
547.959	10279.9
548.324	10212.78
548.688	10137.08
549.052	10148.83
549.416	10160.35
549.779	10061.83
550.143	10116.97
550.507	10052.11
550.871	10064.09
551.235	10024.09
551.599	10010.75
551.962	10060.02
552.326	9988.61
552.689	9996.29
553.053	9857.54
553.417	9848.72
553.78	9980.7
554.143	9871.55
554.507	9860.02
554.87	9880.36
555.234	9832.68
555.597	9772.79
555.96	9743.42
556.323	9792.91
556.686	9759.23
557.05	9821.61
557.413	9771.44
557.776	9703.87
558.139	9752.68
558.502	9710.2
558.865	9651.67
559.228	9770.76
559.59	9678.11
559.953	9726.69
560.316	9704.32
560.679	9693.25
561.041	9755.62
561.404	9697.09
561.767	9716.07
562.129	9684.21
562.492	9727.15
562.854	9695.06
563.217	9654.83
563.579	9718.11
563.941	9745.22
564.304	9710.42
564.666	9765.11
565.028	9723.08
565.39	9779.8
565.753	9768.95
566.115	9805.11
566.477	9786.13
566.839	9744.09
567.201	9780.48
567.563	9815.28
567.925	9884.43
568.287	9891.21
568.648	9848.5
569.01	9827.93
569.372	9894.37
569.734	9846.69
570.095	9897.54
570.457	9893.24
570.819	9897.31
571.18	9863.19
571.542	9890.76
571.903	9851.89
572.265	9839.68
572.626	9920.59
572.987	9965.78
573.349	9896.41
573.71	9929.4
574.071	10045.56
574.432	10038.1
574.794	10032.22
575.155	10056.4
575.516	9984.54
575.877	10024.31
576.238	10140.24
576.599	10079
576.96	10111.77
577.32	10091.88
577.681	10203.07
578.042	10145.67
578.403	10080.36
578.763	10127.13
579.124	10158.77
579.485	10192.44
579.845	10205.1
580.206	10213.01
580.566	10155.16
580.927	10223.86
581.287	10234.48
581.648	10268.37
582.008	10261.59
582.368	10235.83
582.728	10243.97
583.089	10268.6
583.449	10241.71
583.809	10252.56
584.169	10240.35
584.529	10316.06
584.889	10351.54
585.249	10271.31
585.609	10282.84
585.969	10304.76
586.329	10337.98
586.688	10268.6
587.048	10356.73
587.408	10283.97
587.768	10267.02
588.127	10326.45
588.487	10300.46
588.846	10305.89
589.206	10248.04
589.565	10292.33
589.925	10309.95
590.284	10316.96
590.643	10369.39
591.003	10322.16
591.362	10370.29
591.721	10338.2
592.08	10393.57
592.44	10361.93
592.799	10443.96
593.158	10371.87
593.517	10305.44
593.876	10357.86
594.235	10368.26
594.593	10357.41
594.952	10356.73
595.311	10315.83
595.67	10394.92
596.029	10365.32
596.387	10399.9
596.746	10349.05
597.104	10429.73
597.463	10390.63
597.822	10468.82
598.18	10376.85
598.538	10364.64
598.897	10472.89
599.255	10331.88
599.613	10467.92
599.972	10390.63
600.33	10382.72
600.688	10353.12
601.046	10423.62
601.404	10445.32
601.762	10415.71
602.12	10475.6
602.478	10553.79
602.836	10488.48
603.194	10472.44
603.552	10400.12
603.91	10385.66
604.268	10463.85
604.625	10419.78
604.983	10523.73
605.341	10372.78
605.698	10466.56
606.056	10476.5
606.413	10484.41
606.771	10493.68
607.128	10487.58
607.485	10481.7
607.843	10499.55
608.2	10532.32
608.557	10561.47
608.914	10559.21
609.272	10544.07
609.629	10523.73
609.986	10626.1
610.343	10502.27
610.7	10649.61
611.057	10598.53
611.414	10574.58
611.771	10566.67
612.127	10685.31
612.484	10618.2
612.841	10640.79
613.198	10600.12
613.554	10543.62
613.911	10644.86
614.267	10624.3
614.624	10670.85
614.98	10654.35
615.337	10654.58
615.693	10679.89
616.05	10670.85
616.406	10719.89
616.762	10707.01
617.118	10680.34
617.475	10729.83
617.831	10694.8
618.187	10669.27
618.543	10700.45
618.899	10772.99
619.255	10785.2
619.611	10747.46
619.967	10845.76
620.323	10791.3
620.678	10665.43
621.034	10746.1
621.39	10754.01
621.746	10668.59
622.101	10847.34
622.457	10738.87
622.812	10767.57
623.168	10773.9
623.523	10792.43
623.879	10762.82
624.234	10731.64
624.589	10760.34
624.945	10832.2
625.3	10741.81
625.655	10763.5
626.01	10782.71
626.365	10828.59
626.72	10729.15
627.075	10714.01
627.43	10730.51
627.785	10752.2
628.14	10743.39
628.495	10770.51
628.85	10725.31
629.205	10643.05
629.559	10751.75
629.914	10707.46
630.269	10713.11
630.623	10658.19
630.978	10626.78
631.332	10644.41
631.687	10722.6
632.041	10577.07
632.396	10668.14
632.75	10596.5
633.104	10639.44
633.459	10588.59
633.813	10607.8
634.167	10553.34
634.521	10488.71
634.875	10566.9
635.229	10527.58
635.583	10465.21
635.937	10482.38
636.291	10501.14
636.645	10446
636.999	10426.34
637.352	10424.3
637.706	10356.06
638.06	10470.63
638.413	10384.76
638.767	10472.66
639.121	10430.86
639.474	10345.21
639.828	10388.37
640.181	10373.23
640.534	10391.08
640.888	10318.32
641.241	10296.62
641.594	10266.79
641.947	10267.92
642.301	10292.55
642.654	10310.41
643.007	10316.96
643.36	10294.81
643.713	10293.01
644.066	10287.81
644.419	10160.81
644.771	10142.95
645.124	10067.48
645.477	10080.58
645.83	9942.28
646.182	9890.08
646.535	9902.06
646.888	9949.06
647.24	9813.24
647.593	9904.99
647.945	9902.28
648.298	9881.04
648.65	9827.93
649.002	9831.78
649.355	9860.48
649.707	9877.88
650.059	9920.13
650.411	10099.34
650.763	10012.11
651.115	10141.6
651.467	10139.56
651.819	10132.33
652.171	10103.41
652.523	10081.49
652.875	10080.36
653.227	10047.81
653.578	10138.43
653.93	10113.8
654.282	10029.06
654.633	10093.69
654.985	10023.63
655.337	10060.92
655.688	10067.7
656.039	10088.27
656.391	10078.1
656.742	10050.75
657.094	10083.97
657.445	10098.44
657.796	10039.23
658.147	10023.41
658.498	10072.9
658.849	10104.08
659.2	10073.8
659.551	10053.92
659.902	10113.8
660.253	10101.6
660.604	10158.32
660.955	10074.71
661.306	10161.03
661.656	10131.65
662.007	10091.2
662.358	10114.93
662.708	10170.3
663.059	10080.36
663.409	10106.12
663.76	10129.39
664.11	10178.21
664.461	10163.97
664.811	10183.4
665.161	10137.53
665.511	10132.33
665.862	10199
666.212	10151.77
666.562	10182.05
666.912	10173.01
667.262	10133.46
667.612	10175.27
667.962	10193.8
668.312	10156.51
668.662	10173.91
669.011	10153.12
669.361	10151.54
669.711	10128.26
670.06	10145.21
670.41	10013.01
670.76	10112.22
671.109	10144.08
671.459	10086.23
671.808	10087.14
672.157	10125.33
672.507	10028.83
672.856	10044.43
673.205	9986.57
673.554	10086.68
673.904	10072.22
674.253	10081.49
674.602	10063.18
674.951	9955.16
675.3	9865.45
675.649	9996.52
675.998	10019.12
676.346	10020.02
676.695	10000.58
677.044	9926.01
677.393	9982.96
677.741	9958.33
678.09	9955.61
678.438	9922.17
678.787	9901.83
679.135	9933.69
679.484	9831.78
679.832	9936.63
680.181	9841.49
680.529	9831.78
680.877	9828.39
681.225	9816.18
681.573	9807.82
681.922	9747.03
682.27	9760.14
682.618	9703.19
682.966	9692.8
683.314	9757.2
683.661	9742.29
684.009	9662.06
684.357	9626.36
684.705	9618.22
685.053	9614.15
685.4	9555.17
685.748	9507.72
686.095	9514.95
686.443	9484.89
686.79	9417.32
687.138	9483.08
687.485	9545
687.832	9418.9
688.18	9415.29
688.527	9394.72
688.874	9358.79
689.221	9320.83
689.568	9376.42
689.915	9287.38
690.262	9259.59
690.609	9241.73
690.956	9243.77
691.303	9158.35
691.65	9112.92
691.997	9150.66
692.344	9073.38
692.69	9104.79
693.037	9021.4
693.383	8949.99
693.73	8962.65
694.077	8871.8
694.423	8926.71
694.769	8876.77
695.116	8821.86
695.462	8819.82
695.808	8793.38
696.155	8731.69
696.501	8726.95
696.847	8749.54
697.193	8667.06
697.539	8671.35
697.885	8624.58
698.231	8506.84
698.577	8504.35
698.923	8523.56
699.269	8467.07
699.614	8443.56
699.96	8410.57
700.306	8419.61
700.651	8410.57
700.997	8316.11
701.342	8371.02
701.688	8336.9
702.033	8317.24
702.379	8284.02
702.724	8166.28
703.069	8181.65
703.415	8196.11
703.76	8175.32
704.105	8154.53
704.45	8058.94
704.795	8069.79
705.14	7981.65
705.485	8029.79
705.83	7966.51
706.175	7968.32
706.52	7891.49
706.865	7884.03
707.209	7871.15
707.554	7877.7
707.899	7887.65
708.243	7763.81
708.588	7792.73
708.932	7750.47
709.277	7663.92
709.621	7709.8
709.966	7644.71
710.31	7689.01
710.654	7567.2
710.998	7619.86
711.342	7530.14
711.687	7593.42
712.031	7572.85
712.375	7449.92
712.719	7498.73
713.063	7549.35
713.407	7546.64
713.75	7420.54
714.094	7429.8
714.438	7488.79
714.782	7444.27
715.125	7428.67
715.469	7446.53
715.812	7411.95
716.156	7353.87
716.499	7388.9
716.843	7365.63
717.186	7311.16
717.53	7348.9
717.873	7372.18
718.216	7309.36
718.559	7297.83
718.902	7278.62
719.246	7244.5
719.589	7259.87
719.932	7217.15
720.275	7192.3
720.617	7178.96
720.96	7217.38
721.303	7203.37
721.646	7246.53
721.989	7199.75
722.331	7227.55
722.674	7181.45
723.016	7132.19
723.359	7145.29
723.701	7193.2
724.044	7107.33
724.386	7083.37
724.729	7181.9
725.071	7101.9
725.413	7138.96
725.755	7137.38
726.097	7075.46
726.439	7060.1
726.782	7031.85
727.124	7085.41
727.465	7013.09
727.807	7082.02
728.149	7001.34
728.491	7033.2
728.833	7031.4
729.175	7023.26
729.516	6978.29
729.858	7045.41
730.199	7070.94
730.541	6991.62
730.882	7009.48
731.224	6997.27
731.565	6973.32
731.906	7027.1
732.248	7004.96
732.589	7029.82
732.93	7038.4
733.271	7036.82
733.612	7004.73
733.953	6955.01
734.294	6978.52
734.635	6967.44
734.976	7004.51
735.317	6953.88
735.658	7037.05
735.999	7041.79
736.339	7005.41
736.68	6999.76
737.021	7025.97
737.361	6959.76
737.702	7044.5
738.042	6993.88
738.383	6986.2
738.723	7028.46
739.063	7055.35
739.404	7072.75
739.744	7037.95
740.084	7054.67
740.424	7087.21
740.764	7068.01
741.104	7093.32
741.444	7084.73
741.784	7132.86
742.124	7141.22
742.464	7151.62
742.804	7102.36
743.143	7189.36
743.483	7185.97
743.823	7155.46
744.162	7228.45
744.502	7205.63
744.841	7315.01
745.181	7326.76
745.52	7376.47
745.86	7361.33
746.199	7403.82
746.538	7435.23
746.877	7460.31
747.216	7583.02
747.556	7596.81
747.895	7595.22
748.234	7627.09
748.573	7685.84
748.911	7767.65
749.25	7810.13
749.589	7871.83
749.928	7964.03
750.267	8020.3
750.605	8115.21
750.944	8195.43
751.283	8188.88
751.621	8287.86
751.96	8321.31
752.298	8447.63
752.636	8547.74
752.975	8670
753.313	8646.72
753.651	8873.16
753.989	8869.31
754.327	8962.87
754.666	9074.73
755.004	9256.42
755.342	9363.54
755.679	9548.84
756.017	9551.33
756.355	9747.71
756.693	9801.72
757.031	10011.66
757.368	10105.67
757.706	10250.52
758.044	10348.37
758.381	10599.44
758.719	10708.36
759.056	10879.21
759.394	11070.16
759.731	11128.01
760.068	11292.3
760.405	11435.35
760.743	11645.06
761.08	11801.67
761.417	11948.1
