Data from hue_22_FLMS001491_00033.txt Node
Date: Tue Feb 07 17:10:01 GMT 2017
User: dcchb
Spectrometer: FLMS00149
Trigger mode: 0
Integration Time (sec): 2.000000E-2
Scans to average: 10
Electric dark correction enabled: true
Nonlinearity correction enabled: false
Boxcar width: 0
XAxis mode: Wavelengths
Number of Pixels in Spectrum: 2048
>>>>>Begin Spectral Data<<<<<
341.393	-14.62
341.776	-14.62
342.16	-14.62
342.543	-58.23
342.927	-67.5
343.31	-67.72
343.693	-66.14
344.077	-60.04
344.46	-53.71
344.843	-50.32
345.226	-45.13
345.61	-39.02
345.993	-34.5
346.376	-5.35
346.759	30.58
347.142	14.08
347.525	34.42
347.908	68.09
348.291	69
348.674	71.71
349.057	134.08
349.44	125.49
349.823	141.99
350.206	164.13
350.588	192.61
350.971	211.59
351.354	220.63
351.737	245.26
352.119	254.08
352.502	284.81
352.884	270.57
353.267	281.42
353.65	281.87
354.032	282.55
354.414	313.06
354.797	312.15
355.179	335.2
355.562	323.23
355.944	317.12
356.326	339.27
356.709	336.33
357.091	326.39
357.473	338.82
357.855	332.04
358.238	349.89
358.62	343.56
359.002	349.89
359.384	327.52
359.766	336.11
360.148	340.85
360.53	354.64
360.912	337.91
361.294	341.53
361.676	314.19
362.057	344.92
362.439	329.55
362.821	326.16
363.203	328.42
363.584	330.01
363.966	329.55
364.348	332.04
364.729	307.18
365.111	325.71
365.493	304.7
365.874	293.62
366.256	306.05
366.637	320.29
367.019	332.27
367.4	306.96
367.781	319.16
368.163	318.71
368.544	342.43
368.925	309.89
369.306	318.48
369.688	306.96
370.069	324.13
370.45	313.73
370.831	324.13
371.212	284.36
371.593	324.58
371.974	315.77
372.355	337.24
372.736	316.22
373.117	319.61
373.498	328.2
373.879	308.76
374.26	331.14
374.641	323.23
375.021	332.72
375.402	313.73
375.783	323.45
376.163	326.84
376.544	321.19
376.925	321.87
377.305	338.14
377.686	307.41
378.066	322.32
378.447	327.29
378.827	337.69
379.208	322.1
379.588	303.57
379.968	327.52
380.349	323.68
380.729	322.1
381.109	334.07
381.489	344.02
381.87	337.91
382.25	341.76
382.63	334.07
383.01	337.46
383.39	327.97
383.77	341.76
384.15	355.77
384.53	323.45
384.91	347.18
385.29	344.92
385.67	349.67
386.049	358.93
386.429	352.83
386.809	360.51
387.189	353.73
387.568	338.14
387.948	355.77
388.328	330.91
388.707	370.68
389.087	360.97
389.466	370.23
389.846	377.69
390.225	384.47
390.605	376.33
390.984	383.11
391.363	371.81
391.743	373.85
392.122	368.2
392.501	361.19
392.881	376.78
393.26	381.76
393.639	349.21
394.018	388.99
394.397	382.21
394.776	418.14
395.155	358.25
395.534	351.7
395.913	369.78
396.292	395.09
396.671	390.12
397.05	373.17
397.429	373.39
397.808	398.03
398.186	377.01
398.565	389.44
398.944	427.63
399.323	415.2
399.701	400.29
400.08	392.83
400.458	395.31
400.837	404.13
401.215	414.52
401.594	384.92
401.972	412.72
402.351	409.78
402.729	419.27
403.107	401.42
403.486	424.24
403.864	397.35
404.242	421.53
404.62	409.55
404.999	421.98
405.377	433.05
405.755	420.17
406.133	437.57
406.511	460.17
406.889	431.25
407.267	456.1
407.645	419.95
408.023	424.24
408.401	441.87
408.779	436.9
409.156	438.93
409.534	464.01
409.912	456.33
410.29	465.37
410.667	463.34
411.045	447.74
411.422	468.53
411.8	465.82
412.178	475.99
412.555	484.13
412.933	463.34
413.31	470.57
413.687	474.18
414.065	492.71
414.442	492.71
414.819	496.1
415.197	502.66
415.574	485.26
415.951	497.01
416.328	501.75
416.705	490.45
417.082	510.79
417.46	532.03
417.837	543.11
418.214	522.32
418.591	509.89
418.967	498.59
419.344	533.62
419.721	545.82
420.098	541.07
420.475	522.09
420.852	555.99
421.228	545.59
421.605	534.97
421.982	539.94
422.358	575.2
422.735	554.41
423.111	569.55
423.488	573.84
423.864	560.96
424.241	562.99
424.617	558.02
424.994	566.38
425.37	577.23
425.746	564.8
426.123	579.49
426.499	602.99
426.875	595.99
427.251	591.24
427.627	609.09
428.003	600.73
428.379	618.59
428.756	614.29
429.132	610.22
429.507	622.2
429.883	612.48
430.259	628.75
430.635	631.01
431.011	631.24
431.387	668.08
431.763	671.47
432.138	668.08
432.514	692.03
432.89	684.57
433.265	682.31
433.641	689.77
434.016	663.33
434.392	688.19
434.767	725.7
435.143	676.89
435.518	713.95
435.894	697
436.269	724.57
436.644	734.51
437.02	729.09
437.395	746.04
437.77	753.72
438.145	738.36
438.52	776.77
438.895	760.28
439.271	749.88
439.646	774.06
440.021	772.93
440.395	785.59
440.77	770.9
441.145	760.5
441.52	802.31
441.895	779.94
442.27	786.72
442.645	798.92
443.019	825.36
443.394	837.34
443.769	829.2
444.143	809.54
444.518	841.63
444.892	828.98
445.267	816.55
445.641	827.62
446.016	845.25
446.39	830.78
446.764	854.51
447.139	868.75
447.513	857
447.887	871.23
448.262	868.97
448.636	878.92
449.01	883.89
449.384	877.79
449.758	875.3
450.132	914.62
450.506	902.42
450.88	888.18
451.254	912.59
451.628	944
452.002	940.84
452.376	920.95
452.75	921.63
453.123	951.91
453.497	971.34
453.871	976.99
454.244	950.78
454.618	1008.41
454.992	1022.42
455.365	991.01
455.739	1042.53
456.112	1026.26
456.486	1037.33
456.859	1044.11
457.232	1071
457.606	1073.04
457.979	1050.66
458.352	1071.45
458.725	1113.26
459.099	1115.07
459.472	1127.72
459.845	1164.11
460.218	1148.97
460.591	1158.01
460.964	1152.13
461.337	1185.58
461.71	1195.97
462.083	1190.55
462.456	1217.21
462.829	1209.76
463.201	1245.69
463.574	1236.42
463.947	1256.08
464.32	1266.03
464.692	1301.28
465.065	1287.72
465.438	1309.19
465.81	1334.05
466.183	1348.28
466.555	1373.37
466.928	1388.28
467.3	1377.66
467.672	1423.76
468.045	1416.53
468.417	1419.92
468.789	1460.15
469.161	1478
469.534	1484.1
469.906	1523.87
470.278	1550.54
470.65	1550.54
471.022	1557.54
471.394	1600.25
471.766	1642.51
472.138	1611.33
472.51	1672.12
472.882	1719.35
473.253	1725.9
473.625	1760.93
473.997	1784.43
474.369	1768.84
474.74	1802.28
475.112	1853.36
475.484	1856.52
475.855	1920.47
476.227	1914.6
476.598	1987.81
476.97	1987.36
477.341	2049.51
477.713	2059
478.084	2093.35
478.455	2164.99
478.827	2180.13
479.198	2249.95
479.569	2209.96
479.94	2306.45
480.311	2330.18
480.682	2386.67
481.053	2438.2
481.424	2497.63
481.795	2508.93
482.166	2551.64
482.537	2600.45
482.908	2671.64
483.279	2681.13
483.65	2713.45
484.021	2805.87
484.391	2850.62
484.762	2872.76
485.133	2884.29
485.503	2954.57
485.874	3022.82
486.244	3028.24
486.615	3106.88
486.985	3186.65
487.356	3208.57
487.726	3200.44
488.097	3283.15
488.467	3360.89
488.837	3385.97
489.207	3423.71
489.578	3530.37
489.948	3554.33
490.318	3625.51
490.688	3659.64
491.058	3675.68
491.428	3728.33
491.798	3739.41
492.168	3864.15
492.538	3842.91
492.908	3937.14
493.278	3994.09
493.648	4006.52
494.017	4058.95
494.387	4085.39
494.757	4164.25
495.126	4123.8
495.496	4184.59
495.866	4236.57
496.235	4264.82
496.605	4316.57
496.974	4308.66
497.344	4387.53
497.713	4473.85
498.082	4442.44
498.452	4484.92
498.821	4554.3
499.19	4543.68
499.559	4608.31
499.928	4634.98
500.298	4614.41
500.667	4673.85
501.036	4691.02
501.405	4741.64
501.774	4760.85
502.143	4802.66
502.512	4820.51
502.88	4864.8
503.249	4888.98
503.618	4926.49
503.987	4933.05
504.356	4966.49
504.724	5008.53
505.093	5052.59
505.462	5041.75
505.83	5052.37
506.199	5107.96
506.567	5203.55
506.936	5177.56
507.304	5266.15
507.672	5217.33
508.041	5243.77
508.409	5301.17
508.777	5313.6
509.145	5329.42
509.514	5316.54
509.882	5424.56
510.25	5438.8
510.618	5426.37
510.986	5465.46
511.354	5488.97
511.722	5526.7
512.09	5559.02
512.458	5578.68
512.826	5671.79
513.193	5698.45
513.561	5641.96
513.929	5700.03
514.297	5772.57
514.664	5749.3
515.032	5795.85
515.4	5822.52
515.767	5823.65
516.135	5908.16
516.502	5834.04
516.869	5905.68
517.237	5948.39
517.604	5940.03
517.972	5975.05
518.339	6010.53
518.706	6051.21
519.073	6040.14
519.44	6069.74
519.808	6081.49
520.175	6126.24
520.542	6184.31
520.909	6239.23
521.276	6198.78
521.643	6282.17
522.009	6267.48
522.376	6326.01
522.743	6404.87
523.11	6402.84
523.477	6439.68
523.843	6496.62
524.21	6529.16
524.577	6547.7
524.943	6621.82
525.31	6637.86
525.676	6715.83
526.043	6733.45
526.409	6786.78
526.776	6870.62
527.142	6805.54
527.508	6824.52
527.874	6900.45
528.241	6904.75
528.607	6975.71
528.973	7059.55
529.339	7027.68
529.705	7098.19
530.071	7098.19
530.437	7188.13
530.803	7201.24
531.169	7217.06
531.535	7240.11
531.901	7259.77
532.267	7300.67
532.632	7321.69
532.998	7382.7
533.364	7389.25
533.73	7422.02
534.095	7477.16
534.461	7538.4
534.826	7539.31
535.192	7636.48
535.557	7647.78
535.923	7653.88
536.288	7710.6
536.653	7729.58
537.019	7679.64
537.384	7742.47
537.749	7789.47
538.114	7794.67
538.479	7840.54
538.845	7867.66
539.21	7865.85
539.575	7897.04
539.94	7895
540.305	7933.2
540.67	7953.31
541.034	8032.63
541.399	8070.59
541.764	8106.75
542.129	8098.16
542.494	8126.18
542.858	8172.06
543.223	8211.38
543.587	8256.35
543.952	8270.14
544.316	8311.04
544.681	8365.27
545.045	8365.73
545.41	8401.21
545.774	8464.03
546.138	8454.09
546.503	8468.32
546.867	8504.93
547.231	8563.01
547.595	8573.18
547.959	8567.98
548.324	8691.59
548.688	8588.77
549.052	8727.07
549.416	8683.91
549.779	8753.29
550.143	8793.74
550.507	8759.84
550.871	8850.91
551.235	8815.21
551.599	8919.84
551.962	8899.95
552.326	8939.5
552.689	9069.44
553.053	9013.17
553.417	9003.68
553.78	9097.68
554.143	9113.96
554.507	9114.86
554.87	9205.25
555.234	9225.36
555.597	9184.69
555.96	9253.61
556.323	9338.58
556.686	9321.41
557.05	9339.71
557.413	9398.02
557.776	9408.86
558.139	9440.73
558.502	9483.44
558.865	9509.65
559.228	9583.1
559.59	9595.52
559.953	9653.6
560.316	9710.78
560.679	9675.07
561.041	9749.87
561.404	9720.27
561.767	9915.29
562.129	9805.24
562.492	9929.98
562.854	9890.21
563.217	9908.96
563.579	9913.03
563.941	9967.04
564.304	9988.51
564.666	10087.04
565.028	10056.3
565.39	10123.19
565.753	10228.05
566.115	10183.76
566.477	10241.84
566.839	10329.97
567.201	10337.65
567.563	10389.18
567.925	10393.02
568.287	10459.91
568.648	10492.22
569.01	10476.41
569.372	10576.74
569.734	10589.62
570.095	10610.41
570.457	10633.24
570.819	10613.58
571.18	10709.39
571.542	10824.19
571.903	10888.15
572.265	10929.73
572.626	10922.95
572.987	10995.49
573.349	11045.43
573.71	11132.21
574.071	11153.9
574.432	11174.47
574.794	11274.8
575.155	11334.01
575.516	11386.66
575.877	11399.09
576.238	11532.87
576.599	11565.19
576.96	11612.87
577.32	11710.05
577.681	11812.19
578.042	11862.36
578.403	11960.66
578.763	11987.78
579.124	12024.39
579.485	12194.55
579.845	12366.3
580.206	12400.65
580.566	12541.66
580.927	12688.1
581.287	12725.84
581.648	12901.65
582.008	13002.21
582.368	13121.08
582.728	13298.25
583.089	13422.99
583.449	13534.63
583.809	13740.5
584.169	13816.43
584.529	13928.97
584.889	14174.84
585.249	14400.37
585.609	14476.53
585.969	14731.21
586.329	14910.41
586.688	15163.06
587.048	15300.01
587.408	15531.41
587.768	15694.12
588.127	15937.28
588.487	16115.58
588.846	16506.08
589.206	16645.51
589.565	16949.68
589.925	17304.7
590.284	17403
590.643	17741.53
591.003	18008.86
591.362	18303.54
591.721	18513.48
592.08	18773.81
592.44	19143.52
592.799	19415.83
593.158	19680.23
593.517	19998.64
593.876	20388.91
594.235	20505.29
594.593	20821.9
594.952	21250.13
595.311	21324.48
595.67	21752.04
596.029	22241.07
596.387	22451.01
596.746	22775.52
597.104	22927.15
597.463	23243.3
597.822	23695.04
598.18	23864.98
598.538	24236.04
598.897	24647.78
599.255	24745.18
599.613	25352.4
599.972	25429.91
600.33	25856.57
600.688	25980.86
601.046	26468.08
601.404	26789.2
601.762	27012.02
602.12	27482.29
602.478	27753.01
602.836	28050.86
603.194	28200.46
603.552	28538.76
603.91	28642.03
604.268	29189.81
604.625	29263.03
604.983	29771.27
605.341	29950.7
605.698	30254.19
606.056	30460.51
606.413	30923.1
606.771	31182.3
607.128	31427.94
607.485	31490.99
607.843	31819.35
608.2	32153.58
608.557	32547.01
608.914	32671.08
609.272	33028.35
609.629	33213.21
609.986	33655.46
610.343	33718.51
610.7	34066.97
611.057	34197.36
611.414	34411.37
611.771	34702.66
612.127	35061.07
612.484	35190.56
612.841	35520.94
613.198	35368.18
613.554	35666.25
613.911	36155.73
614.267	36194.83
614.624	36383.75
614.98	36547.36
615.337	36945.99
615.693	37109.15
616.05	37252.42
616.406	37541.23
616.762	37581.46
617.118	37796.14
617.475	37849.7
617.831	38131.72
618.187	38250.14
618.543	38425.95
618.899	38736.91
619.255	38756.34
619.611	38859.16
619.967	39233.16
620.323	39334.86
620.678	39398.36
621.034	39415.08
621.39	39575.53
621.746	39697.11
622.101	40095.97
622.457	39939.36
622.812	40095.29
623.168	40233.81
623.523	40337.32
623.879	40628.83
624.234	40457.54
624.589	40744.08
624.945	40843.06
625.3	40977.07
625.655	41035.83
626.01	40977.98
626.365	41169.84
626.72	41053.68
627.075	41111.08
627.43	41236.95
627.785	41341.13
628.14	41458.19
628.495	41607.34
628.85	41539.77
629.205	41442.6
629.559	41838.29
629.914	41697.96
630.269	41767.33
630.623	41776.37
630.978	41761.01
631.332	41931.17
631.687	41948.8
632.041	41963.04
632.396	42052.07
632.75	42041.68
633.104	42019.76
633.459	42000.32
633.813	42033.77
634.167	42114.67
634.521	42064.05
634.875	42119.19
635.229	42080.32
635.583	41911.51
635.937	42126.65
636.291	42037.84
636.645	42228.11
636.999	42136.82
637.352	42132.97
637.706	41958.06
638.06	42202.35
638.413	42062.92
638.767	42078.51
639.121	42035.58
639.474	42047.33
639.828	42036.25
640.181	41997.16
640.534	42035.58
640.888	42048.68
641.241	41833.55
641.594	42084.39
641.947	42182.24
642.301	42014.56
642.654	42099.98
643.007	42104.95
643.36	42079.87
643.713	41997.61
644.066	42255.91
644.419	41951.51
644.771	41696.15
645.124	41321.47
645.477	41246.44
645.83	41045.09
646.182	41002.61
646.535	40844.19
646.888	40860.69
647.24	40640.81
647.593	41006.9
647.945	40906.34
648.298	40754.93
648.65	40559.91
649.002	40537.54
649.355	40816.4
649.707	40780.02
650.059	40952.67
650.411	41456.61
650.763	41383.62
651.115	41892.75
651.467	41633.33
651.819	41621.8
652.171	41592.42
652.523	41535.93
652.875	41485.99
653.227	41390.39
653.578	41785.19
653.93	41596.27
654.282	41404.41
654.633	41306.78
654.985	41405.54
655.337	41416.61
655.688	41407.12
656.039	41640.56
656.391	41306.78
656.742	41403.5
657.094	41298.65
657.445	41549.49
657.796	41464.29
658.147	41351.3
658.498	41283.05
658.849	41371.86
659.2	41270.17
659.551	41288.25
659.902	41332.32
660.253	41343.16
660.604	41355.82
660.955	41143.62
661.306	41427.23
661.656	41239.44
662.007	41348.81
662.358	41335.48
662.708	41282.37
663.059	41248.93
663.409	40975.49
663.76	41403.95
664.11	41290.51
664.461	41351.53
664.811	41246.44
665.161	41285.54
665.511	41124.86
665.862	41276.73
666.212	41309.72
666.562	41330.51
666.912	41125.32
667.262	41071.08
667.612	41144.75
667.962	41347.23
668.312	41089.16
668.662	41303.39
669.011	41158.54
669.361	41095.49
669.711	41012.1
670.06	41144.53
670.41	41099.78
670.76	40974.59
671.109	41180.91
671.459	41057.75
671.808	41068.6
672.157	41082.15
672.507	40901.59
672.856	40937.98
673.205	41034.47
673.554	41107.01
673.904	41059.78
674.253	41144.07
674.602	40927.58
674.951	40456.18
675.3	40341.38
675.649	40866.57
675.998	40846.23
676.346	40810.52
676.695	41014.59
677.044	40713.35
677.393	40852.78
677.741	40756.29
678.09	40645.78
678.438	40701.15
678.787	40710.86
679.135	40769.85
679.484	40429.52
679.832	40535.05
680.181	40321.72
680.529	40490.08
680.877	40357.88
681.225	40293.25
681.573	40575.73
681.922	40245.79
682.27	40100.03
682.618	40277.88
682.966	40100.49
683.314	40152.01
683.661	40013.71
684.009	39768.74
684.357	39820.49
684.705	39815.29
685.053	39862.07
685.4	39772.58
685.748	39364.01
686.095	39492.37
686.443	39542.53
686.79	39481.52
687.138	39513.38
687.485	39547.28
687.832	39210.34
688.18	39364.69
688.527	39100.74
688.874	39169.89
689.221	38988.88
689.568	38986.39
689.915	38836.11
690.262	38958.82
690.609	38752.95
690.956	38650.58
691.303	38577.59
691.65	38455.78
691.997	38335.79
692.344	38173.76
692.69	38290.14
693.037	38343.24
693.383	37918.62
693.73	38133.08
694.077	37788.23
694.423	37863.71
694.769	37760.43
695.116	37674.56
695.462	37649.02
695.808	37434.34
696.155	37498.97
696.501	37091.07
696.847	37284.97
697.193	36909.16
697.539	37152.54
697.885	36820.8
698.231	36753
698.577	36818.99
698.923	36804.98
699.269	36600.69
699.614	36437.98
699.96	36330.41
700.306	36293.81
700.651	36185.33
700.997	36045.22
701.342	36000.48
701.688	36041.83
702.033	35864.44
702.379	35776.31
702.724	35683.65
703.069	35859.69
703.415	35379.93
703.76	35481.17
704.105	35452.25
704.45	35452.7
704.795	35081.86
705.14	35084.12
705.485	35084.57
705.83	34966.83
706.175	34859.94
706.52	34916.89
706.865	34857.69
707.209	34572.49
707.554	34563
707.899	34719.84
708.243	34315.78
708.588	34339.28
708.932	34289.56
709.277	34097.25
709.621	34184.71
709.966	34040.08
710.31	33986.97
710.654	33802.57
710.998	33851.16
711.342	33823.14
711.687	33598.28
712.031	33520.32
712.375	33412.53
712.719	33404.39
713.063	33461.34
713.407	33544.5
713.75	33283.94
714.094	33314.22
714.438	33229.48
714.782	33360.78
715.125	33038.52
715.469	33194.45
715.812	32973.44
716.156	32843.27
716.499	32769.6
716.843	32704.75
717.186	32669.27
717.53	32803.95
717.873	32697.74
718.216	32722.83
718.559	32486.22
718.902	32340.92
719.246	32457.75
719.589	32342.5
719.932	32104.99
720.275	32190.64
720.617	32297.53
720.96	32118.77
721.303	32000.13
721.646	32081.49
721.989	31848.05
722.331	31899.57
722.674	31752.23
723.016	31932.34
723.359	31741.38
723.701	31877.42
724.044	31681.27
724.386	31573.48
724.729	31693.93
725.071	31535.29
725.413	31561.27
725.755	31397.21
726.097	31293.94
726.439	31177.1
726.782	31138.69
727.124	31235.18
727.465	31119.93
727.807	31208.52
728.149	30998.13
728.491	30961.97
728.833	31036.99
729.175	30751.58
729.516	30830.22
729.858	30835.87
730.199	30858.47
730.541	30607.63
730.882	30757.45
731.224	30842.88
731.565	30556.1
731.906	30532.6
732.248	30665.7
732.589	30232.72
732.93	30374.64
733.271	30234.3
733.612	30374.19
733.953	30315.43
734.294	30226.39
734.635	30170.35
734.976	30188.66
735.317	29945.05
735.658	30115.44
735.999	30118.15
736.339	30015.1
736.68	30007.42
737.021	29949.11
737.361	29885.61
737.702	29909.34
738.042	29738.5
738.383	29677.93
738.723	29904.82
739.063	29614.43
739.404	29806.74
739.744	29650.59
740.084	29596.13
740.424	29565.39
740.764	29526.07
741.104	29663.7
741.444	29518.16
741.784	29313.2
742.124	29430.03
742.464	29313.2
742.804	29363.37
743.143	29235.46
743.483	29269.13
743.823	29144.39
744.162	29063.04
744.502	29221.68
744.841	28994.56
745.181	29090.15
745.52	28892.19
745.86	28995.01
746.199	28991.62
746.538	28839.09
746.877	28962.25
747.216	28906.43
747.556	28774.46
747.895	28702.82
748.234	28709.82
748.573	28746.89
748.911	28643.39
749.25	28603.39
749.589	28497.17
749.928	28610.39
750.267	28581.24
750.605	28424.18
750.944	28330.63
751.283	28283.62
751.621	28328.82
751.96	28133.34
752.298	28199.1
752.636	28300.12
752.975	28096.73
753.313	27894.25
753.651	28222.83
753.989	27902.16
754.327	27851.54
754.666	27745.78
755.004	27881.15
755.342	27900.13
755.679	27617.2
756.017	27578.33
756.355	27740.36
756.693	27413.59
757.031	27565
757.368	27440.48
757.706	27329.3
758.044	27249.52
758.381	27214.5
758.719	27170.43
759.056	27280.94
759.394	27101.28
