Data from hue_36_FLMS001491_00055.txt Node
Date: Tue Feb 07 17:30:00 GMT 2017
User: dcchb
Spectrometer: FLMS00149
Trigger mode: 0
Integration Time (sec): 2.000000E-2
Scans to average: 10
Electric dark correction enabled: true
Nonlinearity correction enabled: false
Boxcar width: 0
XAxis mode: Wavelengths
Number of Pixels in Spectrum: 2048
>>>>>Begin Spectral Data<<<<<
341.393	-17.75
341.776	-17.75
342.16	-17.75
342.543	-64.08
342.927	-72.67
343.31	-55.49
343.693	-69.28
344.077	-56.85
344.46	-74.25
344.843	-59.11
345.226	-40.58
345.61	-18.88
345.993	-19.56
346.376	-22.95
346.759	11.17
347.142	33.09
347.525	62.24
347.908	47.56
348.291	65.63
348.674	83.26
349.057	113.99
349.44	116.03
349.823	148.8
350.206	171.17
350.588	204.61
350.971	219.3
351.354	227.89
351.737	247.55
352.119	254.56
352.502	252.07
352.884	274.44
353.267	276.25
353.65	303.14
354.032	291.16
354.414	323.25
354.797	307.21
355.179	318.28
355.562	328.68
355.944	333.65
356.326	324.16
356.709	328.45
357.091	354.44
357.473	338.4
357.855	337.72
358.238	349.24
358.62	352.63
359.002	349.24
359.384	360.99
359.766	343.14
360.148	340.65
360.53	345.63
360.912	337.27
361.294	323.71
361.676	336.59
362.057	338.85
362.439	325.74
362.821	321.67
363.203	327.55
363.584	326.19
363.966	327.1
364.348	326.42
364.729	325.74
365.111	323.25
365.493	321.67
365.874	320.09
366.256	323.25
366.637	317.83
367.019	325.51
367.4	317.38
367.781	318.96
368.163	322.12
368.544	313.08
368.925	331.16
369.306	320.32
369.688	299.75
370.069	309.02
370.45	312.86
370.831	306.98
371.212	349.69
371.593	336.14
371.974	297.72
372.355	312.18
372.736	312.86
373.117	329.36
373.498	317.38
373.879	331.84
374.26	316.47
374.641	326.64
375.021	299.3
375.402	316.7
375.783	310.83
376.163	351.28
376.544	315.12
376.925	320.99
377.305	322.58
377.686	323.48
378.066	340.43
378.447	347.89
378.827	337.27
379.208	338.4
379.588	319.41
379.968	343.14
380.349	347.21
380.729	323.93
381.109	324.61
381.489	346.53
381.87	336.36
382.25	322.12
382.63	333.2
383.01	340.88
383.39	343.37
383.77	345.4
384.15	335.23
384.53	330.71
384.91	349.47
385.29	338.62
385.67	357.15
386.049	362.58
386.429	359.19
386.809	340.65
387.189	354.89
387.568	339.98
387.948	356.47
388.328	358.28
388.707	343.14
389.087	356.47
389.466	368.68
389.846	358.96
390.225	337.27
390.605	343.59
390.984	372.07
391.363	354.67
391.743	348.79
392.122	343.82
392.501	379.75
392.881	355.12
393.26	360.99
393.639	381.56
394.018	370.26
394.397	358.28
394.776	356.25
395.155	361.67
395.534	379.98
395.913	376.13
396.292	370.03
396.671	394.66
397.05	394.44
397.429	386.3
397.808	387.66
398.186	378.17
398.565	386.98
398.944	378.39
399.323	378.62
399.701	380.65
400.08	382.91
400.458	393.76
400.837	374.33
401.215	409.81
401.594	372.29
401.972	417.94
402.351	388.79
402.729	382.69
403.107	387.21
403.486	405.74
403.864	402.12
404.242	406.19
404.62	411.84
404.999	408.22
405.377	400.54
405.755	419.3
406.133	400.99
406.511	417.94
406.889	414.1
407.267	447.54
407.645	422.91
408.023	408.45
408.401	410.26
408.779	411.84
409.156	422.91
409.534	420.88
409.912	438.05
410.29	443.93
410.667	425.85
411.045	444.15
411.422	447.32
411.8	438.51
412.178	443.7
412.555	447.32
412.933	446.64
413.31	468.34
413.687	478.28
414.065	449.35
414.442	465.85
414.819	479.18
415.197	459.75
415.574	475.34
415.951	459.52
416.328	465.17
416.705	471.95
417.082	480.54
417.46	464.04
417.837	493.65
418.214	499.29
418.591	480.54
418.967	502.91
419.344	494.55
419.721	505.85
420.098	482.12
420.475	506.98
420.852	505.62
421.228	490.71
421.605	501.78
421.982	513.53
422.358	506.53
422.735	523.93
423.111	516.92
423.488	530.48
423.864	516.92
424.241	529.8
424.617	526.41
424.994	533.87
425.37	535.23
425.746	537.49
426.123	539.07
426.499	560.54
426.875	538.84
427.251	543.36
427.627	565.51
428.003	552.17
428.379	560.31
428.756	545.62
429.132	550.14
429.507	583.81
429.883	586.3
430.259	573.64
430.635	567.09
431.011	584.72
431.387	587.65
431.763	606.86
432.138	590.82
432.514	599.86
432.89	610.03
433.265	624.26
433.641	626.75
434.016	618.39
434.392	619.29
434.767	630.36
435.143	643.47
435.518	643.7
435.894	673.3
436.269	654.54
436.644	652.29
437.02	655.22
437.395	658.16
437.77	660.19
438.145	669.69
438.52	682.79
438.895	677.37
439.271	683.02
439.646	685.96
440.021	688.22
440.395	695.67
440.77	693.19
441.145	711.72
441.52	717.14
441.895	704.26
442.27	722.34
442.645	725.73
443.019	716.69
443.394	737.25
443.769	700.87
444.143	736.58
444.518	743.13
444.892	736.12
445.267	731.61
445.641	743.81
446.016	757.59
446.39	768.21
446.764	768.44
447.139	759.17
447.513	763.02
447.887	755.56
448.262	773.64
448.636	786.29
449.01	788.1
449.384	785.84
449.758	802.34
450.132	797.82
450.506	807.31
450.88	818.83
451.254	802.34
451.628	815.67
452.002	812.96
452.376	807.54
452.75	825.16
453.123	828.33
453.497	848.66
453.871	845.73
454.244	854.77
454.618	881.66
454.992	896.35
455.365	872.39
455.739	907.65
456.112	885.05
456.486	880.75
456.859	935.22
457.232	920.53
457.606	910.58
457.979	951.03
458.352	946.51
458.725	966.4
459.099	962.79
459.472	979.73
459.845	974.99
460.218	1011.82
460.591	1028.77
460.964	995.1
461.337	1024.03
461.71	1060.64
462.083	1034.2
462.456	1061.31
462.829	1071.48
463.201	1078.26
463.574	1077.81
463.947	1130.92
464.32	1124.36
464.692	1129.56
465.065	1137.02
465.438	1173.85
465.81	1154.19
466.183	1182.67
466.555	1195.1
466.928	1194.19
467.3	1224.25
467.672	1256.56
468.045	1261.31
468.417	1257.47
468.789	1304.02
469.161	1311.7
469.534	1364.81
469.906	1333.85
470.278	1392.6
470.65	1389.89
471.022	1404.58
471.394	1427.41
471.766	1459.5
472.138	1449.1
472.51	1492.26
472.882	1540.85
473.253	1570.68
473.625	1594.63
473.997	1642.09
474.369	1664.01
474.74	1676.21
475.112	1733.39
475.484	1767.51
475.855	1795.53
476.227	1805.25
476.598	1861.29
476.97	1913.95
477.341	2010.44
477.713	1984.68
478.084	2041.85
478.455	2101.51
478.827	2136.09
479.198	2228.74
479.569	2258.8
479.94	2333.82
480.311	2372.01
480.682	2405.91
481.053	2527.26
481.424	2554.38
481.795	2626.02
482.166	2664.21
482.537	2793.25
482.908	2865.56
483.279	2858.1
483.65	2976.97
484.021	3081.83
484.391	3105.78
484.762	3216.29
485.133	3279.79
485.503	3372.89
485.874	3451.99
486.244	3502.15
486.615	3628.48
486.985	3671.19
487.356	3764.52
487.726	3851.52
488.097	3970.16
488.467	4084.29
488.837	4137.84
489.207	4267.78
489.578	4330.83
489.948	4435.91
490.318	4549.36
490.688	4576.7
491.058	4690.37
491.428	4830.48
491.798	4936.01
492.168	5073.86
492.538	5110.25
492.908	5221.66
493.278	5310.92
493.648	5394.53
494.017	5491.48
494.387	5608.76
494.757	5657.35
495.126	5790.91
495.496	5825.93
495.866	5931.69
496.235	6007.17
496.605	6156.32
496.974	6185.25
497.344	6297.79
497.713	6401.74
498.082	6479.48
498.452	6591.79
498.821	6650.55
499.19	6687.15
499.559	6833.59
499.928	6933.93
500.298	6940.03
500.667	7078.1
501.036	7097.99
501.405	7205.33
501.774	7243.07
502.143	7394.93
502.512	7483.97
502.88	7528.49
503.249	7570.52
503.618	7655.94
503.987	7718.09
504.356	7839.89
504.724	7904.3
505.093	7982.94
505.462	7995.14
505.83	8109.94
506.199	8192.2
506.567	8309.94
506.936	8263.38
507.304	8440.55
507.672	8450.27
508.041	8535.24
508.409	8613.66
508.777	8717.38
509.145	8822.24
509.514	8836.25
509.882	8912.18
510.25	8870.15
510.618	8947.66
510.986	9063.36
511.354	9142.01
511.722	9200.76
512.09	9367.54
512.458	9263.36
512.826	9372.96
513.193	9450.02
513.561	9486.86
513.929	9503.8
514.297	9633.97
514.664	9767.07
515.032	9806.85
515.4	9894.98
515.767	9866.05
516.135	9970.91
516.502	9907.86
516.869	10131.58
517.237	10154.63
517.604	10083.45
517.972	10240.96
518.339	10330.45
518.706	10378.58
519.073	10433.27
519.44	10413.84
519.808	10554.62
520.175	10521.18
520.542	10673.26
520.909	10717.78
521.276	10711.23
521.643	10839.59
522.009	10881.17
522.376	10986.7
522.743	11063.08
523.11	11145.57
523.477	11273.93
523.843	11258.33
524.21	11399.35
524.577	11465.11
524.943	11541.49
525.31	11520.25
525.676	11654.48
526.043	11748.26
526.409	11754.14
526.776	11962.04
527.142	11925.66
527.508	12094.7
527.874	12133.57
528.241	12249.72
528.607	12305.99
528.973	12340.34
529.339	12394.35
529.705	12480.45
530.071	12543.05
530.437	12587.34
530.803	12698.07
531.169	12814
531.535	12709.82
531.901	12816.71
532.267	12870.27
532.632	12950.94
532.998	12993.66
533.364	13058.74
533.73	13086.99
534.095	13243.14
534.461	13297.38
534.826	13333.08
535.192	13396.81
535.557	13439.29
535.923	13430.71
536.288	13544.38
536.653	13507.99
537.019	13561.32
537.384	13709.79
537.749	13779.4
538.114	13680.64
538.479	13813.29
538.845	13901.65
539.21	13870.02
539.575	13937.59
539.94	13987.08
540.305	14005.61
540.67	14052.16
541.034	14139.39
541.399	14255.77
541.764	14279.27
542.129	14386.84
542.494	14389.1
542.858	14377.12
543.223	14412.15
543.587	14639.49
543.952	14569.89
544.316	14693.5
544.681	14653.05
545.045	14696.89
545.41	14898.92
545.774	14898.24
546.138	14931.46
546.503	15022.3
546.867	14988.18
547.231	15172.81
547.595	15157.89
547.959	15180.04
548.324	15180.04
548.688	15300.94
549.052	15241.51
549.416	15342.97
549.779	15366.02
550.143	15375.51
550.507	15525.34
550.871	15591.55
551.235	15566.02
551.599	15712.45
551.962	15717.2
552.326	15828.38
552.689	15844.88
553.053	15779.8
553.417	15895.73
553.78	16020.92
554.143	15971.88
554.507	16165.32
554.87	16130.97
555.234	16278.31
555.597	16165.32
555.96	16269.95
556.323	16351.08
556.686	16435.37
557.05	16476.73
557.413	16579.1
557.776	16583.84
558.139	16703.84
558.502	16758.53
558.865	16721.24
559.228	16860.67
559.59	16872.2
559.953	16982.03
560.316	17158.97
560.679	17057.05
561.041	17294.56
561.404	17353.99
561.767	17314.9
562.129	17347.67
562.492	17533.2
562.854	17460.88
563.217	17427.66
563.579	17622.91
563.941	17639.86
564.304	17793.76
564.666	17812.06
565.028	17990.13
565.39	17967.08
565.753	17979.74
566.115	18085.5
566.477	18230.81
566.839	18222.22
567.201	18356.9
567.563	18313.74
567.925	18474.87
568.287	18501.53
568.648	18582.89
569.01	18687.97
569.372	18828.08
569.734	18691.13
570.095	18942.88
570.457	19025.59
570.819	18928.19
571.18	19044.34
571.542	19188.75
571.903	19135.64
572.265	19262.64
572.626	19384.45
572.987	19399.59
573.349	19485.24
573.71	19534.73
574.071	19654.95
574.432	19771.33
574.794	19919.12
575.155	20066.46
575.516	19972.91
575.877	20257.42
576.238	20276.4
576.599	20433.91
576.96	20435.27
577.32	20539.67
577.681	20749.38
578.042	20789.38
578.403	20883.39
578.763	21038.19
579.124	21162.93
579.485	21315.47
579.845	21538.74
580.206	21625.97
580.566	21741.22
580.927	21848.34
581.287	22042.01
581.648	22219.63
582.008	22336.91
582.368	22455.33
582.728	22655.32
583.089	22694.19
583.449	22986.84
583.809	23100.06
584.169	23443.55
584.529	23349.32
584.889	23719.7
585.249	23705.69
585.609	23991.56
585.969	24271.55
586.329	24427.03
586.688	24695.27
587.048	24670.18
587.408	24903.62
587.768	25217.06
588.127	25382.03
588.487	25502.93
588.846	25815.69
589.206	25857.5
589.565	26006.19
589.925	26480.53
590.284	26638.49
590.643	26912.16
591.003	27048.43
591.362	27291.36
591.721	27513.27
592.08	27655.64
592.44	28056.54
592.799	28154.16
593.158	28364.32
593.517	28539.24
593.876	28802.73
594.235	28914.82
594.593	29287.69
594.952	29540.34
595.311	29674.8
595.67	29789.6
596.029	30210.15
596.387	30352.07
596.746	30632.06
597.104	30610.14
597.463	30872.51
597.822	31304.36
598.18	31317.02
598.538	31474.07
598.897	31881.75
599.255	31786.38
599.613	32375.52
599.972	32297.55
600.33	32609.64
600.688	32550.43
601.046	32913.81
601.404	33135.27
601.762	33227.02
602.12	33454.81
602.478	33690.29
602.836	33865.65
603.194	33819.77
603.552	34085.08
603.91	34171.18
604.268	34555.57
604.625	34560.32
604.983	34814.32
605.341	34749.02
605.698	35055
606.056	35331.83
606.413	35377.93
606.771	35459.51
607.128	35678.26
607.485	35773.62
607.843	35881.42
608.2	36108.98
608.557	36431.01
608.914	36276.66
609.272	36534.51
609.629	36772.24
609.986	37003.19
610.343	36960.71
610.7	37334.03
611.057	37383.07
611.414	37460.81
611.771	37506.23
612.127	37886.33
612.484	37937.18
612.841	38178.3
613.198	38138.53
613.554	38144.18
613.911	38496.94
614.267	38573.1
614.624	38646.54
614.98	38664.84
615.337	38994.33
615.693	38961.79
616.05	39045.63
616.406	39267.77
616.762	39297.6
617.118	39444.94
617.475	39401.77
617.831	39609.9
618.187	39556.8
618.543	39738.49
618.899	40158.14
619.255	39990.46
619.611	39968.09
619.967	40114.75
620.323	40308.42
620.678	40119.04
621.034	40216.22
621.39	40248.31
621.746	40266.38
622.101	40613.27
622.457	40485.81
622.812	40622.31
623.168	40867.5
623.523	40805.81
623.879	40903.43
624.234	40792.47
624.589	40851.23
624.945	41097.78
625.3	41162.41
625.655	41215.06
626.01	41150.66
626.365	41291.44
626.72	41174.38
627.075	41330.54
627.43	41252.57
627.785	41323.08
628.14	41377.99
628.495	41345.68
628.85	41401.5
629.205	41271.56
629.559	41512.91
629.914	41376.64
630.269	41472
630.623	41319.24
630.978	41387.03
631.332	41560.36
631.687	41752.45
632.041	41337.99
632.396	41538.89
632.75	41421.61
633.104	41510.87
633.459	41201.5
633.813	41326.24
634.167	41390.2
634.521	41360.59
634.875	41488.5
635.229	41557.2
635.583	41323.08
635.937	41441.5
636.291	41391.78
636.645	41329.63
636.999	41300.71
637.352	41454.6
637.706	41281.05
638.06	41407.82
638.413	41378.45
638.767	41219.58
639.121	41308.84
639.474	41120.83
639.828	41033.6
640.181	41229.3
640.534	41227.72
640.888	41013.26
641.241	40969.42
641.594	41089.41
641.947	41221.84
642.301	41044.67
642.654	41087.15
643.007	41132.58
643.36	41085.8
643.713	40984.56
644.066	41174.38
644.419	40939.14
644.771	40756.54
645.124	40425.02
645.477	40339.83
645.83	39977.58
646.182	39931.25
646.535	39983.45
646.888	40066.62
647.24	39735.78
647.593	40007.63
647.945	39967.18
648.298	39678.6
648.65	39683.35
649.002	39503.47
649.355	39738.94
649.707	39698.49
650.059	39867.07
650.411	40247.4
650.763	40248.53
651.115	40707.5
651.467	40529.88
651.819	40574.85
652.171	40427.06
652.523	40475.87
652.875	40267.74
653.227	40201.3
653.578	40568.98
653.93	40497.11
654.282	40227.74
654.633	40175.09
654.985	40357
655.337	40534.17
655.688	40239.72
656.039	40547.73
656.391	40152.26
656.742	40216.22
657.094	40337.57
657.445	40453.27
657.796	40354.29
658.147	40282.2
658.498	40204.01
658.849	40333.95
659.2	40246.5
659.551	40175.09
659.902	40318.59
660.253	40131.93
660.604	40283.79
660.955	40050.57
661.306	40231.13
661.656	40119.27
662.007	40307.29
662.358	40093.96
662.708	40153.85
663.059	40082.43
663.409	39874.53
663.76	40252.37
664.11	40117.24
664.461	40210.34
664.811	40168.31
665.161	40248.76
665.511	40003.11
665.862	40126.5
666.212	40135.09
666.562	40132.15
666.912	40065.26
667.262	40026.84
667.612	39931.48
667.962	40090.34
668.312	39913.17
668.662	40175.54
669.011	39972.83
669.361	40006.05
669.711	39960.4
670.06	39850.35
670.41	39831.37
670.76	39861.2
671.109	40017.13
671.459	39758.83
671.808	39830.69
672.157	39871.82
672.507	39627.76
672.856	39674.31
673.205	39759.05
673.554	39777.13
673.904	39681.32
674.253	39987.3
674.602	39811.48
674.951	39327.88
675.3	39078.17
675.649	39447.65
675.998	39712.05
676.346	39736.68
676.695	39793.63
677.044	39547.99
677.393	39526.07
677.741	39693.29
678.09	39597.7
678.438	39467.99
678.787	39591.15
679.135	39544.82
679.484	39163.81
679.832	39482.9
680.181	39294.66
680.529	39469.57
680.877	39256.92
681.225	39119.97
681.573	39342.79
681.922	39059.64
682.27	39044.72
682.618	38961.56
682.966	39045.4
683.314	39114.78
683.661	38944.84
684.009	38673.21
684.357	38713.21
684.705	38632.08
685.053	38634.79
685.4	38601.34
685.748	38579.65
686.095	38489.93
686.443	38316.61
686.79	38291.75
687.138	38387.11
687.485	38349.82
687.832	38184.41
688.18	38234.57
688.527	37993.9
688.874	38033.45
689.221	38000.46
689.568	37875.71
689.915	37821.93
690.262	37847.69
690.609	37671.88
690.956	37520.69
691.303	37461.03
691.65	37433.24
691.997	37300.36
692.344	37093.59
692.69	37255.84
693.037	37054.49
693.383	36749.19
693.73	36930.65
694.077	36689.08
694.423	36711.22
694.769	36674.84
695.116	36570.44
695.462	36625.58
695.808	36439.82
696.155	36465.13
696.501	36330.67
696.847	36179.26
697.193	35957.57
697.539	35986.27
697.885	35874.18
698.231	35791.47
698.577	35764.13
698.923	35685.04
699.269	35470.13
699.614	35412.5
699.96	35404.14
700.306	35419.28
700.651	35134.77
700.997	35113.53
701.342	35069.91
701.688	34942
702.033	34883.48
702.379	34724.84
702.724	34838.05
703.069	34805.51
703.415	34533.65
703.76	34497.04
704.105	34374.79
704.45	34387.9
704.795	34267.9
705.14	34106.55
705.485	34093.44
705.83	33950.84
706.175	34049.83
706.52	33875.37
706.865	33787.01
707.209	33680.34
707.554	33468.15
707.899	33720.34
708.243	33448.26
708.588	33424.08
708.932	33184.99
709.277	33228.6
709.621	33293.46
709.966	32992.68
710.31	33215.72
710.654	32872.45
710.998	32981.6
711.342	32984.99
711.687	32701.84
712.031	32626.59
712.375	32569.86
712.719	32545.68
713.063	32629.3
713.407	32660.94
713.75	32308.85
714.094	32323.32
714.438	32221.62
714.782	32316.09
715.125	32210.55
715.469	32247.84
715.812	32114.06
716.156	31761.98
716.499	31883.1
716.843	31899.6
717.186	31622.54
717.53	31957.22
717.873	31809.43
718.216	31736.67
718.559	31610.12
718.902	31379.61
719.246	31498.03
719.589	31248.54
719.932	31192.5
720.275	31118.83
720.617	31294.42
720.96	31149.56
721.303	31256.45
721.646	31159.28
721.989	31053.07
722.331	31112.73
722.674	30937.59
723.016	30962.22
723.359	30806.75
723.701	30791.61
724.044	30738.5
724.386	30568.79
724.729	30678.16
725.071	30554.55
725.413	30613.98
725.755	30475.68
726.097	30403.59
726.439	30195.69
726.782	30283.37
727.124	30537.83
727.465	30307.32
727.807	30236.82
728.149	30140.32
728.491	30017.16
728.833	30261.45
729.175	29993.21
729.516	29979.42
729.858	30084.96
730.199	29968.12
730.541	29937.16
730.882	29792.54
731.224	29878.86
731.565	29701.69
731.906	29787.79
732.248	29695.82
732.589	29588.25
732.93	29491.98
733.271	29528.14
733.612	29676.83
733.953	29510.74
734.294	29504.86
734.635	29242.04
734.976	29408.37
735.317	29182.83
735.658	29240.01
735.999	29232.1
736.339	29146.45
736.68	29177.18
737.021	29189.39
737.361	28976.06
737.702	29127.47
738.042	28967.92
738.383	28930.19
738.723	28935.84
739.063	28960.02
739.404	28952.11
739.744	28741.26
740.084	28699.23
740.424	28780.36
740.764	28663.07
741.104	28766.12
741.444	28595.51
741.784	28462.18
742.124	28605.67
742.464	28548.95
742.804	28507.37
743.143	28407.49
743.483	28365.23
743.823	28253.82
744.162	28229.19
744.502	28236.19
744.841	28229.19
745.181	28228.28
745.52	28213.82
745.86	28199.13
746.199	28061.51
746.538	27998.46
746.877	28022.41
747.216	27993.49
747.556	27874.85
747.895	28022.19
748.234	27822.87
748.573	27792.14
748.911	27655.64
749.25	27694.29
749.589	27546.27
749.928	27577.9
750.267	27537.68
750.605	27527.06
750.944	27383.79
751.283	27306.73
751.621	27409.1
751.96	27278.48
752.298	27194.41
752.636	27280.06
752.975	27124.36
753.313	27218.37
753.651	27230.34
753.989	26962.55
754.327	27002.55
754.666	26846.85
755.004	26965.72
755.342	26946.28
755.679	26861.31
756.017	26669
756.355	26826.74
756.693	26592.85
757.031	26684.37
