Data from hue_200_FLMS001491_00026.txt Node
Date: Tue Feb 07 16:43:03 GMT 2017
User: dcchb
Spectrometer: FLMS00149
Trigger mode: 0
Integration Time (sec): 2.000000E-2
Scans to average: 10
Electric dark correction enabled: true
Nonlinearity correction enabled: false
Boxcar width: 0
XAxis mode: Wavelengths
Number of Pixels in Spectrum: 2048
>>>>>Begin Spectral Data<<<<<
341.393	-18.05
341.776	-18.05
342.16	-18.05
342.543	-54.89
342.927	-45.39
343.31	-75.22
343.693	-71.61
344.077	-63.47
344.46	-57.6
344.843	-53.76
345.226	-33.87
345.61	-32.29
345.993	-15.56
346.376	-25.28
346.759	30.08
347.142	21.95
347.525	35.51
347.908	59.46
348.291	66.92
348.674	88.39
349.057	126.35
349.44	142.4
349.823	150.31
350.206	148.05
350.588	200.25
350.971	194.15
351.354	207.48
351.737	214.03
352.119	252.23
352.502	263.07
352.884	266.69
353.267	284.54
353.65	301.26
354.032	301.49
354.414	291.32
354.797	306.91
355.179	324.09
355.562	322.28
355.944	321.15
356.326	324.09
356.709	300.36
357.091	315.05
357.473	337.19
357.855	326.35
358.238	348.04
358.62	337.65
359.002	361.6
359.384	355.27
359.766	340.58
360.148	348.72
360.53	331.09
360.912	330.87
361.294	337.42
361.676	342.84
362.057	327.03
362.439	321.38
362.821	316.86
363.203	319.79
363.584	310.98
363.966	343.3
364.348	302.62
364.729	329.51
365.111	310.75
365.493	321.6
365.874	314.14
366.256	317.53
366.637	317.76
367.019	321.83
367.4	294.26
367.781	319.57
368.163	310.75
368.544	312.11
368.925	295.84
369.306	315.73
369.688	302.39
370.069	312.79
370.45	300.36
370.831	308.49
371.212	320.25
371.593	309.62
371.974	301.49
372.355	318.44
372.736	305.56
373.117	330.87
373.498	327.7
373.879	322.28
374.26	313.24
374.641	298.78
375.021	316.63
375.402	334.93
375.783	312.11
376.163	310.08
376.544	325.22
376.925	301.72
377.305	290.42
377.686	323.18
378.066	323.86
378.447	331.09
378.827	326.8
379.208	332.9
379.588	316.18
379.968	337.87
380.349	323.86
380.729	324.09
381.109	348.95
381.489	329.51
381.87	334.71
382.25	337.65
382.63	354.82
383.01	330.87
383.39	344.2
383.77	342.17
384.15	331.54
384.53	325.22
384.91	341.94
385.29	333.13
385.67	342.39
386.049	327.93
386.429	334.48
386.809	344.88
387.189	348.95
387.568	339.45
387.948	352.11
388.328	369.06
388.707	366.57
389.087	352.79
389.466	352.34
389.846	346.01
390.225	368.15
390.605	376.52
390.984	383.75
391.363	366.8
391.743	367.7
392.122	388.72
392.501	364.99
392.881	348.04
393.26	392.11
393.639	384.42
394.018	376.06
394.397	379.23
394.776	396.4
395.155	378.1
395.534	383.97
395.913	381.49
396.292	405.44
396.671	386.68
397.05	399.11
397.429	395.72
397.808	390.07
398.186	410.19
398.565	395.5
398.944	414.25
399.323	386.68
399.701	393.69
400.08	428.72
400.458	407.7
400.837	412.67
401.215	410.19
401.594	411.99
401.972	430.75
402.351	425.78
402.729	429.62
403.107	423.75
403.486	444.08
403.864	444.99
404.242	440.69
404.62	439.56
404.999	448.83
405.377	426.68
405.755	451.77
406.133	475.72
406.511	468.04
406.889	474.37
407.267	475.27
407.645	478.21
408.023	491.31
408.401	488.6
408.779	492.44
409.156	501.71
409.534	483.63
409.912	526.34
410.29	533.8
410.667	546.68
411.045	551.43
411.422	564.31
411.8	552.1
412.178	586.68
412.555	567.02
412.933	588.94
413.31	603.63
413.687	617.41
414.065	608.37
414.442	581.93
414.819	642.05
415.197	649.05
415.574	657.64
415.951	651.99
416.328	674.13
416.705	699.9
417.082	676.39
417.46	695.6
417.837	708.71
418.214	692.44
418.591	709.61
418.967	728.37
419.344	735.15
419.721	745.09
420.098	777.86
420.475	780.12
420.852	764.3
421.228	802.04
421.605	822.38
421.982	824.64
422.358	847.01
422.735	845.66
423.111	877.52
423.488	896.73
423.864	898.76
424.241	901.7
424.617	947.12
424.994	929.5
425.37	952.77
425.746	969.27
426.123	987.8
426.499	990.96
426.875	1011.53
427.251	1043.84
427.627	1077.74
428.003	1058.31
428.379	1074.12
428.756	1086.78
429.132	1107.57
429.507	1090.85
429.883	1112.09
430.259	1132.88
430.635	1124.29
431.011	1158.19
431.387	1198.64
431.763	1201.8
432.138	1208.36
432.514	1230.5
432.89	1245.42
433.265	1286.77
433.641	1303.95
434.016	1297.17
434.392	1371.74
434.767	1372.87
435.143	1420.33
435.518	1420.1
435.894	1440.44
436.269	1492.19
436.644	1511.4
437.02	1521.8
437.395	1540.78
437.77	1593.66
438.145	1589.59
438.52	1613.55
438.895	1675.92
439.271	1682.7
439.646	1754.78
440.021	1753.88
440.395	1734.67
440.77	1776.48
441.145	1777.38
441.52	1884.05
441.895	1866.42
442.27	1878.17
442.645	1889.24
443.019	1954.1
443.394	1912.97
443.769	1931.28
444.143	1968.11
444.518	1983.25
444.892	1975.12
445.267	2058.28
445.641	2064.38
446.016	2098.05
446.39	2088.11
446.764	2129.24
447.139	2090.82
447.513	2146.41
447.887	2124.49
448.262	2168.78
448.636	2175.79
449.01	2198.84
449.384	2230.03
449.758	2252.85
450.132	2289.69
450.506	2292.85
450.88	2333.3
451.254	2300.98
451.628	2363.81
452.002	2374.66
452.376	2406.74
452.75	2416.01
453.123	2404.03
453.497	2467.53
453.871	2461.66
454.244	2555.44
454.618	2572.16
454.992	2546.63
455.365	2595.21
455.739	2667.53
456.112	2672.73
456.486	2678.6
456.859	2722.22
457.232	2776.23
457.606	2763.57
457.979	2783.46
458.352	2898.03
458.725	2870.91
459.099	2891.7
459.472	2917.92
459.845	2983.45
460.218	2994.07
460.591	3040.4
460.964	3046.05
461.337	3137.57
461.71	3174.41
462.083	3241.07
462.456	3205.37
462.829	3211.92
463.201	3282.2
463.574	3304.35
463.947	3347.28
464.32	3412.82
464.692	3458.24
465.065	3454.4
465.438	3508.64
465.81	3552.48
466.183	3615.53
466.555	3686.03
466.928	3733.04
467.3	3706.37
467.672	3779.36
468.045	3853.49
468.417	3839.7
468.789	3921.28
469.161	3959.47
469.534	3978
469.906	4044.44
470.278	4109.98
470.65	4159.47
471.022	4192.46
471.394	4280.14
471.766	4312.23
472.138	4382.06
472.51	4483.53
472.882	4470.19
473.253	4521.94
473.625	4627.25
473.997	4696.63
474.369	4745.44
474.74	4753.12
475.112	4844.87
475.484	4938.2
475.855	4999.9
476.227	5091.65
476.598	5220.23
476.97	5230.17
477.341	5290.51
477.713	5382.49
478.084	5426.55
478.455	5585.87
478.827	5572.54
479.198	5682.82
479.569	5764.17
479.94	5852.53
480.311	5933.21
480.682	6012.53
481.053	6162.35
481.424	6296.13
481.795	6266.08
482.166	6313.99
482.537	6415.45
482.908	6572.28
483.279	6625.84
483.65	6692.06
484.021	6837.36
484.391	6913.74
484.762	6948.09
485.133	7013.86
485.503	7039.39
485.874	7225.6
486.244	7288.2
486.615	7387.63
486.985	7470.79
487.356	7624.69
487.726	7648.87
488.097	7789.88
488.467	7756.21
488.837	7871.69
489.207	8063.77
489.578	8111
489.948	8235.29
490.318	8275.74
490.688	8289.53
491.058	8405.46
491.428	8552.57
491.798	8582.85
492.168	8728.16
492.538	8714.83
492.908	8823.98
493.278	8916.63
493.648	8854.48
494.017	9035.27
494.387	9091.31
494.757	9135.38
495.126	9209.5
495.496	9170.63
495.866	9193.91
496.235	9354.81
496.605	9431.19
496.974	9381.93
497.344	9476.84
497.713	9553.68
498.082	9547.12
498.452	9665.76
498.821	9686.1
499.19	9637.06
499.559	9735.59
499.928	9811.3
500.298	9750.28
500.667	9880.45
501.036	9831.41
501.405	9920.22
501.774	9936.94
502.143	10012.19
502.512	10009.48
502.88	10103.94
503.249	10045.64
503.618	10118.86
503.987	10059.65
504.356	10146.88
504.724	10172.64
505.093	10186.43
505.462	10258.29
505.83	10244.73
506.199	10288.35
506.567	10454.44
506.936	10380.32
507.304	10395.69
507.672	10445.63
508.041	10516.81
508.409	10484.95
508.777	10545.97
509.145	10648.56
509.514	10542.12
509.882	10582.8
510.25	10622.57
510.618	10641.78
510.986	10634.1
511.354	10675.45
511.722	10715.68
512.09	10784.38
512.458	10699.41
512.826	10676.36
513.193	10789.12
513.561	10786.86
513.929	10823.92
514.297	10900.76
514.664	10844.49
515.032	10816.02
515.4	10842
515.767	10894.88
516.135	11030.25
516.502	10942.34
516.869	10997.25
517.237	10979.85
517.604	10901.66
517.972	10964.03
518.339	10986.18
518.706	10917.03
519.073	10992.06
519.44	10922.23
519.808	11033.64
520.175	10985.73
520.542	11059.62
520.909	11066.86
521.276	10991.15
521.643	11031.83
522.009	11027.76
522.376	11096.69
522.743	11133.07
523.11	11180.07
523.477	11202.9
523.843	11164.25
524.21	11180.3
524.577	11226.85
524.943	11239.28
525.31	11190.47
525.676	11190.24
526.043	11318.37
526.409	11201.99
526.776	11253.97
527.142	11172.62
527.508	11276.34
527.874	11224.59
528.241	11145.95
528.607	11189.79
528.973	11242.44
529.339	11147.31
529.705	11192.28
530.071	11180.53
530.437	11157.02
530.803	11183.91
531.169	11222.33
531.535	11131.49
531.901	11107.53
532.267	11096.01
532.632	11074.99
532.998	11070.92
533.364	11034.09
533.73	11004.03
534.095	11056.46
534.461	11031.38
534.826	10910.48
535.192	10921.55
535.557	10927.88
535.923	10883.81
536.288	10803.36
536.653	10846.52
537.019	10729.01
537.384	10642.46
537.749	10704.61
538.114	10651.95
538.479	10573.99
538.845	10635.45
539.21	10468.23
539.575	10484.5
539.94	10539.41
540.305	10476.36
540.67	10373.09
541.034	10330.15
541.399	10267.33
541.764	10291.28
542.129	10285.41
542.494	10112.3
542.858	10204.05
543.223	10077.28
543.587	10159.31
543.952	10072.53
544.316	9980.56
544.681	9943.72
545.045	9920.9
545.41	9920.67
545.774	9942.82
546.138	9878.86
546.503	9736.04
546.867	9715.03
547.231	9713.45
547.595	9706.44
547.959	9693.56
548.324	9585.31
548.688	9571.08
549.052	9590.28
549.416	9472.55
549.779	9437.52
550.143	9421.25
550.507	9422.15
550.871	9343.06
551.235	9327.47
551.599	9301.48
551.962	9174.48
552.326	9240.46
552.689	9174.93
553.053	9041.37
553.417	9062.61
553.78	9133.35
554.143	9045.21
554.507	9066.68
554.87	9019
555.234	9056.97
555.597	8993.01
555.96	8904.88
556.323	8933.8
556.686	8913.47
557.05	8854.26
557.413	8833.02
557.776	8851.09
558.139	8794.83
558.502	8753.92
558.865	8747.37
559.228	8835.28
559.59	8752.34
559.953	8724.77
560.316	8777.88
560.679	8797.09
561.041	8720.02
561.404	8721.83
561.767	8756.41
562.129	8699.69
562.492	8734.71
562.854	8635.73
563.217	8648.84
563.579	8707.14
563.941	8703.75
564.304	8707.82
564.666	8703.08
565.028	8712.57
565.39	8702.17
565.753	8652
566.115	8710.53
566.477	8699.91
566.839	8665.34
567.201	8710.08
567.563	8648.61
567.925	8653.36
568.287	8718.9
568.648	8653.81
569.01	8738.1
569.372	8698.56
569.734	8739.23
570.095	8711.21
570.457	8737.2
570.819	8726.13
571.18	8720.93
571.542	8721.61
571.903	8737.65
572.265	8749.4
572.626	8764.09
572.987	8766.13
573.349	8745.34
573.71	8803.41
574.071	8746.24
574.432	8767.26
574.794	8866.01
575.155	8781.72
575.516	8720.02
575.877	8725
576.238	8745.34
576.599	8795.05
576.96	8792.79
577.32	8757.76
577.681	8819.23
578.042	8839.8
578.403	8781.49
578.763	8732
579.124	8882.28
579.485	8803.64
579.845	8818.1
580.206	8806.58
580.566	8807.48
580.927	8807.03
581.287	8844.09
581.648	8790.31
582.008	8816.52
582.368	8786.92
582.728	8770.19
583.089	8825.78
583.449	8788.72
583.809	8839.57
584.169	8913.47
584.529	8705.34
584.889	8821.49
585.249	8795.05
585.609	8757.99
585.969	8743.3
586.329	8740.82
586.688	8741.95
587.048	8791.21
587.408	8768.16
587.768	8713.25
588.127	8689.74
588.487	8654.94
588.846	8778.33
589.206	8666.02
589.565	8724.77
589.925	8731.1
590.284	8710.53
590.643	8738.56
591.003	8764.32
591.362	8800.25
591.721	8689.74
592.08	8728.39
592.44	8662.17
592.799	8720.7
593.158	8688.16
593.517	8672.12
593.876	8717.54
594.235	8691.78
594.593	8643.64
594.952	8702.62
595.311	8608.84
595.67	8701.04
596.029	8691.55
596.387	8742.62
596.746	8687.71
597.104	8613.81
597.463	8602.97
597.822	8745.34
598.18	8643.64
598.538	8634.6
598.897	8653.13
599.255	8553.7
599.613	8699.01
599.972	8578.56
600.33	8646.35
600.688	8665.79
601.046	8628.95
601.404	8613.59
601.762	8657.88
602.12	8683.19
602.478	8637.99
602.836	8650.65
603.194	8612.01
603.552	8603.19
603.91	8567.71
604.268	8666.02
604.625	8606.13
604.983	8647.03
605.341	8600.93
605.698	8697.43
606.056	8668.27
606.413	8615.39
606.771	8717.54
607.128	8634.38
607.485	8575.85
607.843	8602.29
608.2	8692.23
608.557	8698.33
608.914	8642.74
609.272	8687.94
609.629	8702.85
609.986	8636.19
610.343	8633.02
610.7	8754.15
611.057	8715.51
611.414	8639.35
611.771	8705.56
612.127	8706.01
612.484	8692.46
612.841	8742.62
613.198	8681.38
613.554	8696.3
613.911	8768.16
614.267	8691.78
614.624	8752.11
614.98	8797.09
615.337	8784.66
615.693	8794.37
616.05	8707.14
616.406	8843.64
616.762	8769.29
617.118	8760.7
617.475	8739.69
617.831	8820.36
618.187	8839.34
618.543	8840.25
618.899	8848.38
619.255	8816.97
619.611	8815.84
619.967	8799.34
620.323	8832.56
620.678	8840.93
621.034	8837.99
621.39	8781.94
621.746	8804.99
622.101	8885.22
622.457	8829.4
622.812	8796.63
623.168	8800.02
623.523	8856.07
623.879	8873.02
624.234	8816.29
624.589	8825.33
624.945	8874.15
625.3	8920.92
625.655	8846.8
626.01	8763.19
626.365	8819.01
626.72	8795.28
627.075	8809.06
627.43	8791.66
627.785	8790.53
628.14	8807.71
628.495	8812.23
628.85	8766.13
629.205	8801.15
629.559	8834.82
629.914	8744.43
630.269	8794.37
630.623	8766.58
630.978	8796.86
631.332	8766.35
631.687	8734.71
632.041	8783.53
632.396	8717.99
632.75	8709.63
633.104	8680.7
633.459	8610.2
633.813	8673.92
634.167	8636.41
634.521	8641.16
634.875	8638.67
635.229	8617.43
635.583	8564.1
635.937	8605
636.291	8543.76
636.645	8603.64
636.999	8498.56
637.352	8579.69
637.706	8535.4
638.06	8560.26
638.413	8529.52
638.767	8508.73
639.121	8535.4
639.474	8495.4
639.828	8471.9
640.181	8541.27
640.534	8483.65
640.888	8456.98
641.241	8438
641.594	8465.34
641.947	8467.6
642.301	8442.07
642.654	8434.16
643.007	8467.15
643.36	8409.07
643.713	8386.02
644.066	8404.33
644.419	8398.23
644.771	8323.65
645.124	8269.87
645.477	8249.75
645.83	8241.39
646.182	8166.14
646.535	8186.48
646.888	8203.65
647.24	8181.73
647.593	8132.47
647.945	8153.49
648.298	8167.95
648.65	8074.84
649.002	8105.8
649.355	8076.43
649.707	8057.9
650.059	8194.62
650.411	8259.25
650.763	8267.38
651.115	8341.05
651.467	8321.39
651.819	8244.33
652.171	8336.08
652.523	8317.1
652.875	8288.4
653.227	8283.43
653.578	8302.18
653.93	8306.93
654.282	8290.43
654.633	8305.12
654.985	8323.65
655.337	8209.3
655.688	8236.65
656.039	8251.34
656.391	8292.01
656.742	8353.48
657.094	8273.03
657.445	8344.89
657.796	8337.66
658.147	8331.79
658.498	8268.51
658.849	8336.08
659.2	8316.87
659.551	8294.05
659.902	8299.02
660.253	8324.1
660.604	8353.48
660.955	8353.93
661.306	8294.05
661.656	8360.03
662.007	8329.53
662.358	8334.5
662.708	8337.44
663.059	8364.33
663.409	8329.98
663.76	8365.01
664.11	8343.76
664.461	8381.05
664.811	8362.75
665.161	8375.85
665.511	8319.36
665.862	8386.7
666.212	8379.92
666.562	8386.47
666.912	8333.37
667.262	8321.84
667.612	8335.63
667.962	8421.95
668.312	8373.37
668.662	8369.3
669.011	8375.18
669.361	8347.61
669.711	8333.37
670.06	8341.28
670.41	8340.15
670.76	8205.01
671.109	8378.11
671.459	8313.93
671.808	8353.48
672.157	8346.48
672.507	8237.1
672.856	8305.35
673.205	8301.96
673.554	8285.46
673.904	8282.3
674.253	8278
674.602	8294.05
674.951	8179.47
675.3	8116.65
675.649	8213.15
675.998	8261.51
676.346	8272.58
676.695	8251.79
677.044	8199.59
677.393	8215.18
677.741	8242.07
678.09	8103.09
678.438	8161.17
678.787	8161.4
679.135	8220.38
679.484	8104.45
679.832	8161.62
680.181	8108.74
680.529	8063.32
680.877	8074.17
681.225	8069.87
681.573	8120.04
681.922	8062.19
682.27	8010.21
682.618	8010.89
682.966	8002.53
683.314	7965.92
683.661	8033.94
684.009	7973.15
684.357	7938.12
684.705	7904
685.053	7899.03
685.4	7883.44
685.748	7893.83
686.095	7903.32
686.443	7766.83
686.79	7850.9
687.138	7810.22
687.485	7766.83
687.832	7769.77
688.18	7735.42
688.527	7735.19
688.874	7702.42
689.221	7694.06
689.568	7675.98
689.915	7659.94
690.262	7628.53
690.609	7620.17
690.956	7606.61
691.303	7577.68
691.65	7488.64
691.997	7468.08
692.344	7468.98
692.69	7454.3
693.037	7395.54
693.383	7386.27
693.73	7435.54
694.077	7417.23
694.423	7410.91
694.769	7302.89
695.116	7256.79
695.462	7355.99
695.808	7237.58
696.155	7233.74
696.501	7218.82
696.847	7152.61
697.193	7120.29
697.539	7094.53
697.885	7130.69
698.231	7022.89
698.577	7104.02
698.923	7034.19
699.269	7024.93
699.614	6930.24
699.96	6934.76
700.306	6901.54
700.651	6841.66
700.997	6876.68
701.342	6893.18
701.688	6828.78
702.033	6768.44
702.379	6767.99
702.724	6747.87
703.069	6808.66
703.415	6684.82
703.76	6699.51
704.105	6617.93
704.45	6634.43
704.795	6596.01
705.14	6633.98
705.485	6613.41
705.83	6517.6
706.175	6568.9
706.52	6555.56
706.865	6477.82
707.209	6493.19
707.554	6462.68
707.899	6474.89
708.243	6437.37
708.588	6413.64
708.932	6413.19
709.277	6365.74
709.621	6377.04
709.966	6335.23
710.31	6349.69
710.654	6257.49
710.998	6257.49
711.342	6349.24
711.687	6276.02
712.031	6200.77
712.375	6222.24
712.719	6265.85
713.063	6265.85
713.407	6237.83
713.75	6149.92
714.094	6172.52
714.438	6143.6
714.782	6123.94
715.125	6098.17
715.469	6165.06
715.812	6115.8
716.156	6021.79
716.499	6073.31
716.843	6118.06
717.186	6060.89
717.53	6104.95
717.873	6113.99
718.216	6084.61
718.559	6036.48
718.902	5985.41
719.246	5994.9
719.589	6039.42
719.932	5977.72
720.275	5984.73
720.617	5964.62
720.96	6013.2
721.303	5954
721.646	6005.97
721.989	5954.45
722.331	5990.15
722.674	5916.93
723.016	5977.5
723.359	5925.3
723.701	5984.5
724.044	5945.63
724.386	5922.13
724.729	5919.19
725.071	5910.38
725.413	5898.63
725.755	5901.12
726.097	5808.92
726.439	5883.49
726.782	5839.2
727.124	5891.62
727.465	5884.62
727.807	5871.29
728.149	5867.67
728.491	5843.26
728.833	5901.34
729.175	5794.9
729.516	5815.47
729.858	5866.54
730.199	5829.48
730.541	5777.96
730.882	5908.8
731.224	5856.82
731.565	5831.06
731.906	5903.6
732.248	5812.98
732.589	5821.8
732.93	5866.99
733.271	5847.11
733.612	5814.79
733.953	5789.48
734.294	5815.47
734.635	5848.46
734.976	5848.24
735.317	5866.09
735.658	5775.24
735.999	5812.53
736.339	5853.21
736.68	5872.87
737.021	5881.68
737.361	5819.54
737.702	5890.72
738.042	5857.95
738.383	5888.91
738.723	5881.23
739.063	5912.87
739.404	5882.13
739.744	5917.61
740.084	5881.68
740.424	5919.42
740.764	5917.39
741.104	5994.22
741.444	5954
741.784	5936.6
742.124	6006.42
742.464	6029.25
742.804	5978.63
743.143	6029.25
743.483	6091.17
743.823	6029.93
744.162	6049.13
744.502	6134.1
744.841	6104.5
745.181	6219.75
745.52	6189.47
745.86	6182.69
746.199	6266.98
746.538	6232.86
746.877	6334.78
747.216	6338.17
747.556	6425.17
747.895	6411.84
748.234	6448.45
748.573	6484.83
748.911	6569.57
749.25	6629.68
749.589	6682.34
749.928	6738.61
750.267	6798.95
750.605	6847.98
750.944	6920.07
751.283	6917.59
751.621	7079.62
751.96	7096.34
752.298	7211.59
752.636	7335.65
752.975	7398.48
753.313	7429.89
753.651	7645.25
753.989	7652.71
754.327	7713.95
754.666	7928.18
755.004	8009.08
755.342	8134.28
755.679	8228.51
756.017	8338.79
756.355	8555.28
756.693	8635.28
757.031	8761.38
757.368	8908.72
757.706	9054.03
758.044	9138.55
758.381	9288.6
758.719	9512.77
759.056	9613.11
759.394	9771.97
759.731	9921.35
760.068	10075.02
760.405	10244.5
760.743	10323.82
761.08	10626.19
761.417	10739.86
761.754	10926.97
762.091	11076.35
762.428	11223.01
762.765	11440.18
763.102	11599.5
763.438	11765.82
763.775	11822.32
764.112	12155.19
764.449	12384.79
764.785	12482.41
765.122	12611.9
765.458	12722.18
765.795	13069.74
766.131	13067.71
766.467	13305.44
766.804	13393.8
