Data from hue_180_FLMS001491_00088.txt Node
Date: Tue Feb 07 16:47:36 GMT 2017
User: dcchb
Spectrometer: FLMS00149
Trigger mode: 0
Integration Time (sec): 2.000000E-2
Scans to average: 10
Electric dark correction enabled: true
Nonlinearity correction enabled: false
Boxcar width: 0
XAxis mode: Wavelengths
Number of Pixels in Spectrum: 2048
>>>>>Begin Spectral Data<<<<<
341.393	-17.17
341.776	-17.17
342.16	-17.17
342.543	-54.46
342.927	-52.43
343.31	-74.12
343.693	-74.35
344.077	-63.28
344.46	-55.59
344.843	-67.12
345.226	-57.17
345.61	-36.61
345.993	-26.44
346.376	-10.62
346.759	3.16
347.142	32.54
347.525	55.59
347.908	57.4
348.291	106.44
348.674	102.6
349.057	107.57
349.44	121.8
349.823	145.53
350.206	166.55
350.588	195.93
350.971	208.36
351.354	228.24
351.737	230.73
352.119	246.1
352.502	242.93
352.884	285.42
353.267	294
353.65	295.13
354.032	295.36
354.414	303.95
354.797	313.89
355.179	308.47
355.562	331.74
355.944	324.51
356.326	314.79
356.709	336.26
357.091	324.29
357.473	342.82
357.855	333.32
358.238	334.68
358.62	337.62
359.002	313.44
359.384	348.24
359.766	326.77
360.148	331.52
360.53	334.91
360.912	316.38
361.294	318.41
361.676	332.42
362.057	319.54
362.439	330.16
362.821	329.71
363.203	350.27
363.584	339.65
363.966	316.83
364.348	336.26
364.729	314.34
365.111	314.34
365.493	319.54
365.874	314.34
366.256	330.84
366.637	324.74
367.019	298.75
367.4	317.05
367.781	310.27
368.163	307.56
368.544	292.2
368.925	320.9
369.306	328.8
369.688	308.92
370.069	292.87
370.45	294.91
370.831	319.77
371.212	287.22
371.593	309.82
371.974	298.98
372.355	305.08
372.736	318.41
373.117	306.21
373.498	324.51
373.879	299.43
374.26	325.19
374.641	315.47
375.021	318.18
375.402	300.56
375.783	300.11
376.163	312.08
376.544	324.96
376.925	319.31
377.305	308.24
377.686	310.27
378.066	326.55
378.447	320.67
378.827	311.63
379.208	317.96
379.588	317.73
379.968	332.87
380.349	328.35
380.729	320.44
381.109	331.06
381.489	336.04
381.87	332.87
382.25	331.52
382.63	324.74
383.01	317.05
383.39	336.71
383.77	325.42
384.15	349.6
384.53	343.04
384.91	327.9
385.29	332.19
385.67	348.47
386.049	339.43
386.429	342.82
386.809	341.23
387.189	353.21
387.568	343.72
387.948	329.48
388.328	341.01
388.707	378.07
389.087	355.47
389.466	348.24
389.846	359.54
390.225	358.86
390.605	326.09
390.984	367.67
391.363	356.37
391.743	375.13
392.122	377.39
392.501	370.84
392.881	364.51
393.26	391.4
393.639	390.95
394.018	368.58
394.397	370.16
394.776	373.32
395.155	379.88
395.534	378.3
395.913	378.07
396.292	381.68
396.671	383.94
397.05	382.14
397.429	400.89
397.808	394.79
398.186	387.56
398.565	413.1
398.944	401.57
399.323	394.34
399.701	397.73
400.08	406.77
400.458	408.58
400.837	426.88
401.215	385.07
401.594	398.41
401.972	423.94
402.351	426.43
402.729	402.93
403.107	417.84
403.486	415.58
403.864	434.56
404.242	427.11
404.62	430.95
404.999	435.69
405.377	447.67
405.755	449.25
406.133	446.32
406.511	429.14
406.889	446.32
407.267	433.21
407.645	457.16
408.023	460.78
408.401	465.52
408.779	475.02
409.156	486.31
409.534	496.94
409.912	477.28
410.29	497.61
410.667	517.5
411.045	526.77
411.422	519.76
411.8	521.79
412.178	538.06
412.555	532.42
412.933	560.66
413.31	551.4
413.687	556.37
414.065	559.53
414.442	573.54
414.819	591.85
415.197	582.58
415.574	580.1
415.951	579.19
416.328	609.48
416.705	616.93
417.082	606.09
417.46	608.8
417.837	635.01
418.214	646.54
418.591	641.11
418.967	633.2
419.344	664.84
419.721	663.71
420.098	650.38
420.475	700.32
420.852	693.54
421.228	700.32
421.605	694.67
421.982	722.47
422.358	733.99
422.735	738.29
423.111	738.51
423.488	740.09
423.864	764.73
424.241	775.35
424.617	793.2
424.994	775.57
425.37	820.32
425.746	833.88
426.123	847.21
426.499	834.78
426.875	857.38
427.251	853.99
427.627	869.58
428.003	874.78
428.379	908.68
428.756	883.14
429.132	899.64
429.507	926.98
429.883	940.09
430.259	919.07
430.635	940.99
431.011	983.02
431.387	1005.17
431.763	979.41
432.138	992.97
432.514	1016.02
432.89	1001.1
433.265	1058.73
433.641	1085.17
434.016	1062.34
434.392	1093.76
434.767	1094.43
435.143	1115.22
435.518	1138.73
435.894	1145.05
436.269	1194.54
436.644	1195.22
437.02	1235
437.395	1233.19
437.77	1256.01
438.145	1281.1
438.52	1263.92
438.895	1300.08
439.271	1263.92
439.646	1361.77
440.021	1352.05
440.395	1375.11
440.77	1379.62
441.145	1382.34
441.52	1392.51
441.895	1426.18
442.27	1440.87
442.645	1452.17
443.019	1476.57
443.394	1464.59
443.769	1492.39
444.143	1488.55
444.518	1557.47
444.892	1522.45
445.267	1523.35
445.641	1544.37
446.016	1517.7
446.39	1573.97
446.764	1575.78
447.139	1608.55
447.513	1608.32
447.887	1634.31
448.262	1651.26
448.636	1651.71
449.01	1690.35
449.384	1667.53
449.758	1719.28
450.132	1743.46
450.506	1717.92
450.88	1744.36
451.254	1769.44
451.628	1778.94
452.002	1786.85
452.376	1776.22
452.75	1806.96
453.123	1823.68
453.497	1887.63
453.871	1883.57
454.244	1927.18
454.618	1923.79
454.992	1982.77
455.365	1965.37
455.739	2034.97
456.112	2027.07
456.486	2032.49
456.859	2082.43
457.232	2107.29
457.606	2091.92
457.979	2157.68
458.352	2184.35
458.725	2212.37
459.099	2198.36
459.472	2259.83
459.845	2310.67
460.218	2354.97
460.591	2317.45
460.964	2360.39
461.337	2427.05
461.71	2433.38
462.083	2495.75
462.456	2468.86
462.829	2506.83
463.201	2544.57
463.574	2551.35
463.947	2606.26
464.32	2677.22
464.692	2666.6
465.065	2702.53
465.438	2734.84
465.81	2791.34
466.183	2825.24
466.555	2879.47
466.928	2885.8
467.3	2899.13
467.672	2940.71
468.045	3050.32
468.417	3080.6
468.789	3090.54
469.161	3111.56
469.534	3189.52
469.906	3261.38
470.278	3284.43
470.65	3318.78
471.022	3372.57
471.394	3457.31
471.766	3518.55
472.138	3533.24
472.51	3612.56
472.882	3670.64
473.253	3701.82
473.625	3793.8
473.997	3902.5
474.369	3911.31
474.74	3980.69
475.112	4068.37
475.484	4135.48
475.855	4163.51
476.227	4231.08
476.598	4332.09
476.97	4378.64
477.341	4497.51
477.713	4556.49
478.084	4636.04
478.455	4725.75
478.827	4785.64
479.198	4926.65
479.569	4991.51
479.94	5117.83
480.311	5159.19
480.682	5307.88
481.053	5409.12
481.424	5512.4
481.795	5586.97
482.166	5669.23
482.537	5847.98
482.908	5920.3
483.279	5982.44
483.65	6105.83
484.021	6232.15
484.391	6325.48
484.762	6392.37
485.133	6437.57
485.503	6506.95
485.874	6712.14
486.244	6766.83
486.615	6965.01
486.985	7057.22
487.356	7141.28
487.726	7246.14
488.097	7397.55
488.467	7433.93
488.837	7617.2
489.207	7764.77
489.578	7835.27
489.948	7885.44
490.318	8043.18
490.688	8110.97
491.058	8216.28
491.428	8322.72
491.798	8411.98
492.168	8554.58
492.538	8633.67
492.908	8780.56
493.278	8847.23
493.648	8900.1
494.017	9037.5
494.387	9125.18
494.757	9122.47
495.126	9247.21
495.496	9283.37
495.866	9396.14
496.235	9458.51
496.605	9556.81
496.974	9609.92
497.344	9694.21
497.713	9711.61
498.082	9830.25
498.452	9957.03
498.821	9978.27
499.19	9955.67
499.559	10045.39
499.928	10079.06
500.298	10135.78
500.667	10214.19
501.036	10258.26
501.405	10349.11
501.774	10256.91
502.143	10468.88
502.512	10470.01
502.88	10569.44
503.249	10528.31
503.618	10586.61
503.987	10683.11
504.356	10693.05
504.724	10717.68
505.093	10758.36
505.462	10785.71
505.83	10864.8
506.199	10910
506.567	10998.13
506.936	10967.17
507.304	11045.59
507.672	11095.75
508.041	11059.37
508.409	11218.69
508.777	11171.68
509.145	11248.97
509.514	11232.02
509.882	11342.98
510.25	11326.03
510.618	11342.53
510.986	11379.59
511.354	11505.69
511.722	11460.72
512.09	11550.43
512.458	11528.74
512.826	11566.93
513.193	11683.76
513.561	11584.55
513.929	11638.56
514.297	11738.9
514.664	11715.17
515.032	11782.29
515.4	11784.77
515.767	11738.22
516.135	11868.84
516.502	11684.44
516.869	11892.34
517.237	11925.56
517.604	11769.18
517.972	11929.4
518.339	11940.03
518.706	11935.51
519.073	11900.48
519.44	11998.33
519.808	12137.53
520.175	12013.02
520.542	12196.52
520.909	12149.51
521.276	12074.94
521.643	12142.96
522.009	12109.51
522.376	12187.48
522.743	12131.43
523.11	12259.79
523.477	12321.94
523.843	12296.4
524.21	12316.51
524.577	12386.79
524.943	12318.55
525.31	12364.42
525.676	12437.64
526.043	12341.14
526.409	12369.62
526.776	12422.05
527.142	12370.97
527.508	12402.61
527.874	12440.58
528.241	12468.15
528.607	12441.71
528.973	12524.87
529.339	12418.43
529.705	12481.48
530.071	12480.12
530.437	12375.95
530.803	12486
531.169	12415.49
531.535	12328.26
531.901	12314.48
532.267	12331.88
532.632	12419.11
532.998	12350.18
533.364	12285.55
533.73	12319.22
534.095	12305.44
534.461	12183.18
534.826	12251.43
535.192	12196.06
535.557	12264.76
535.923	12177.08
536.288	12104.31
536.653	12096.86
537.019	12054.37
537.384	12074.03
537.749	12067.71
538.114	11921.72
538.479	11956.07
538.845	11869.74
539.21	11847.15
539.575	11808.5
539.94	11703.2
540.305	11810.99
540.67	11607.6
541.034	11590.43
541.399	11626.81
541.764	11551.56
542.129	11548.4
542.494	11521.96
542.858	11403.32
543.223	11375.75
543.587	11368.74
543.952	11266.14
544.316	11266.82
544.681	11210.1
545.045	11190.21
545.41	11127.62
545.774	11226.37
546.138	11035.19
546.503	11048.07
546.867	10990.67
547.231	11099.14
547.595	10976.89
547.959	10929.88
548.324	10768.3
548.688	10806.04
549.052	10728.76
549.416	10735.54
549.779	10729.44
550.143	10648.99
550.507	10657.57
550.871	10598.82
551.235	10522.44
551.599	10503.9
551.962	10439.05
552.326	10421.65
552.689	10419.39
553.053	10277.92
553.417	10314.53
553.78	10356.11
554.143	10189.34
554.507	10279.73
554.87	10224.82
555.234	10245.61
555.597	10170.58
555.96	10114.54
556.323	10109.79
556.686	10103.46
557.05	10123.35
557.413	10054.88
557.776	9962.68
558.139	9994.77
558.502	9997.93
558.865	9894.2
559.228	9973.3
559.59	9940.76
559.953	9919.29
560.316	9968.78
560.679	9886.97
561.041	9917.93
561.404	9871.6
561.767	9882
562.129	9819.18
562.492	9845.39
562.854	9837.03
563.217	9771.04
563.579	9821.66
563.941	9859.85
564.304	9776.47
564.666	9828.89
565.028	9813.53
565.39	9754.77
565.753	9833.41
566.115	9796.8
566.477	9829.12
566.839	9781.44
567.201	9846.52
567.563	9844.26
567.925	9870.02
568.287	9762.68
568.648	9811.49
569.01	9867.09
569.372	9869.8
569.734	9812.85
570.095	9815.79
570.457	9776.69
570.819	9792.28
571.18	9827.54
571.542	9886.75
571.903	9762.91
572.265	9843.58
572.626	9871.15
572.987	9813.98
573.349	9872.96
573.71	9857.59
574.071	9890.14
574.432	9793.19
574.794	9855.33
575.155	9812.85
575.516	9825.28
575.877	9886.07
576.238	9854.66
576.599	9865.05
576.96	9814.88
577.32	9805.62
577.681	9867.09
578.042	9834.77
578.403	9825.05
578.763	9870.47
579.124	9816.47
579.485	9841.55
579.845	9858.05
580.206	9804.49
580.566	9820.31
580.927	9859.4
581.287	9872.06
581.648	9716.58
582.008	9792.28
582.368	9831.61
582.728	9750.03
583.089	9726.07
583.449	9750.48
583.809	9745.96
584.169	9781.44
584.529	9760.87
584.889	9759.29
585.249	9654.44
585.609	9682.91
585.969	9675.45
586.329	9684.49
586.688	9674.77
587.048	9701.44
587.408	9664.83
587.768	9600.65
588.127	9645.85
588.487	9602.23
588.846	9684.04
589.206	9556.36
589.565	9573.53
589.925	9630.03
590.284	9623.25
590.643	9603.59
591.003	9566.75
591.362	9584.83
591.721	9539.41
592.08	9569.92
592.44	9478.39
592.799	9546.87
593.158	9477.49
593.517	9558.62
593.876	9484.95
594.235	9469.13
594.593	9491.95
594.952	9462.35
595.311	9408.57
595.67	9461.22
596.029	9561.56
596.387	9475.91
596.746	9471.39
597.104	9466.19
597.463	9447.44
597.822	9438.4
598.18	9407.44
598.538	9425.29
598.897	9499.19
599.255	9390.71
599.613	9458.96
599.972	9389.36
600.33	9364.73
600.688	9383.71
601.046	9362.92
601.404	9395.01
601.762	9361.79
602.12	9410.83
602.478	9397.72
602.836	9438.17
603.194	9333.77
603.552	9346.87
603.91	9392.3
604.268	9381.67
604.625	9347.1
604.983	9439.53
605.341	9278.17
605.698	9357.72
606.056	9378.06
606.413	9388.45
606.771	9428.45
607.128	9353.65
607.485	9359.75
607.843	9399.3
608.2	9375.12
608.557	9420.77
608.914	9375.12
609.272	9414.67
609.629	9454.21
609.986	9496.47
610.343	9407.44
610.7	9457.6
611.057	9392.3
611.414	9368.34
611.771	9448.34
612.127	9503.7
612.484	9476.36
612.841	9461.45
613.198	9409.7
613.554	9484.95
613.911	9477.04
614.267	9436.81
614.624	9442.46
614.98	9495.57
615.337	9507.09
615.693	9466.42
616.05	9503.48
616.406	9539.41
616.762	9475.46
617.118	9514.33
617.475	9411.96
617.831	9517.49
618.187	9555.23
618.543	9554.1
618.899	9602.46
619.255	9556.81
619.611	9482.69
619.967	9591.61
620.323	9581.89
620.678	9537.6
621.034	9514.1
621.39	9522.69
621.746	9499.41
622.101	9627.54
622.457	9546.64
622.812	9588.67
623.168	9518.39
623.523	9601.33
623.879	9610.59
624.234	9606.08
624.589	9558.39
624.945	9567.43
625.3	9571.05
625.655	9539.41
626.01	9575.34
626.365	9578.05
626.72	9556.58
627.075	9500.77
627.43	9459.41
627.785	9521.33
628.14	9540.54
628.495	9560.88
628.85	9529.69
629.205	9482.91
629.559	9529.69
629.914	9485.17
630.269	9460.77
630.623	9437.49
630.978	9433.88
631.332	9474.78
631.687	9501.22
632.041	9445.85
632.396	9351.39
632.75	9376.02
633.104	9399.53
633.459	9326.08
633.813	9368.79
634.167	9385.06
634.521	9355.91
634.875	9370.38
635.229	9382.35
635.583	9251.06
635.937	9325.18
636.291	9325.4
636.645	9248.12
636.999	9227.33
637.352	9250.6
637.706	9221.45
638.06	9229.81
638.413	9247.89
638.767	9191.17
639.121	9215.35
639.474	9123.15
639.828	9149.14
640.181	9195.01
640.534	9225.29
640.888	9174
641.241	9156.14
641.594	9129.03
641.947	9214.9
642.301	9137.61
642.654	9157.27
643.007	9128.12
643.36	9138.97
643.713	9111.85
644.066	9166.54
644.419	9119.76
644.771	9064.62
645.124	9018.97
645.477	8982.59
645.83	8941.23
646.182	8860.56
646.535	8804.97
646.888	8834.8
647.24	8814.91
647.593	8824.4
647.945	8843.84
648.298	8763.39
648.65	8744.4
649.002	8760.67
649.355	8834.8
649.707	8814.68
650.059	8916.15
650.411	8936.26
650.763	8991.63
651.115	9079.76
651.467	9049.25
651.819	9045.41
652.171	8985.98
652.523	9026.66
652.875	9022.14
653.227	8982.36
653.578	9027.33
653.93	8994.57
654.282	9072.98
654.633	8965.19
654.985	8985.75
655.337	9023.72
655.688	9009.25
656.039	9031.85
656.391	9017.39
656.742	8998.41
657.094	9021.01
657.445	9035.69
657.796	9001.57
658.147	9013.55
658.498	9012.19
658.849	9028.69
659.2	9011.97
659.551	8983.04
659.902	9047.9
660.253	9029.59
660.604	9049.25
660.955	9020.1
661.306	9117.05
661.656	9087.44
662.007	9066.43
662.358	9092.19
662.708	9014.45
663.059	9063.49
663.409	9011.74
663.76	9162.02
664.11	9083.83
664.461	9140.78
664.811	9142.58
665.161	9036.15
665.511	9080.67
665.862	9030.27
666.212	9166.54
666.562	9106.88
666.912	9118.86
667.262	9110.72
667.612	9104.85
667.962	9120.44
668.312	9099.87
668.662	9175.8
669.011	9122.92
669.361	9150.04
669.711	9070.04
670.06	9039.99
670.41	9065.98
670.76	9042.93
671.109	9108.69
671.459	9109.36
671.808	9035.92
672.157	9116.6
672.507	9002.93
672.856	9047.9
673.205	9068.01
673.554	9048.35
673.904	9036.6
674.253	9058.52
674.602	9061.68
674.951	8932.19
675.3	8804.29
675.649	8958.86
675.998	8919.31
676.346	8954.57
676.695	8957.5
677.044	8861.01
677.393	8947.79
677.741	8918.64
678.09	8950.95
678.438	8870.95
678.787	8941.46
679.135	8955.47
679.484	8859.88
679.832	8875.25
680.181	8839.54
680.529	8812.42
680.877	8843.61
681.225	8804.74
681.573	8836.15
681.922	8772.42
682.27	8750.96
682.618	8716.38
682.966	8732.43
683.314	8799.32
683.661	8713.9
684.009	8647
684.357	8628.7
684.705	8589.38
685.053	8697.4
685.4	8643.61
685.748	8595.71
686.095	8596.16
686.443	8527.69
686.79	8536.05
687.138	8511.41
687.485	8505.09
687.832	8467.57
688.18	8442.49
688.527	8403.62
688.874	8375.15
689.221	8382.6
689.568	8352.32
689.915	8296.51
690.262	8309.16
690.609	8251.53
690.956	8266.22
691.303	8258.77
691.65	8185.32
691.997	8173.34
692.344	8116.85
692.69	8108.71
693.037	8073.69
693.383	8000.92
693.73	8085.44
694.077	8058.55
694.423	7992.33
694.769	7971.77
695.116	7981.49
695.462	7874.14
695.808	7919.79
696.155	7840.25
696.501	7812.22
696.847	7808.61
697.193	7835.27
697.539	7809.29
697.885	7670.76
698.231	7656.07
698.577	7657.43
698.923	7668.05
699.269	7597.54
699.614	7546.02
699.96	7557.54
700.306	7474.15
700.651	7487.71
700.997	7487.71
701.342	7416.3
701.688	7368.85
702.033	7396.64
702.379	7395.06
702.724	7341.73
703.069	7301.95
703.415	7194.16
703.76	7256.76
704.105	7227.15
704.45	7234.84
704.795	7163.43
705.14	7179.92
705.485	7143.09
705.83	7121.62
706.175	7082.98
706.52	7076.65
706.865	7028.06
707.209	7052.47
707.554	7006.37
707.899	7004.79
708.243	6945.58
708.588	6935.41
708.932	6861.51
709.277	6890.44
709.621	6930.44
709.966	6836.66
710.31	6802.31
710.654	6784.91
710.998	6793.04
711.342	6765.25
711.687	6755.53
712.031	6729.09
712.375	6727.96
712.719	6815.64
713.063	6758.92
713.407	6737.9
713.75	6732.93
714.094	6654.06
714.438	6646.83
714.782	6669.2
715.125	6572.48
715.469	6622.2
715.812	6591.47
716.156	6570.45
716.499	6548.75
716.843	6500.85
717.186	6554.63
717.53	6578.58
717.873	6502.65
718.216	6517.57
718.559	6546.72
718.902	6454.29
719.246	6523.44
719.589	6492.48
719.932	6427.4
720.275	6462.43
720.617	6427.18
720.96	6438.02
721.303	6427.18
721.646	6472.37
721.989	6407.97
722.331	6433.5
722.674	6373.62
723.016	6426.95
723.359	6417.68
723.701	6359.61
724.044	6362.32
724.386	6347.4
724.729	6331.81
725.071	6349.89
725.413	6406.39
725.755	6368.42
726.097	6342.43
726.439	6288.87
726.782	6342.66
727.124	6324.13
727.465	6295.43
727.807	6342.66
728.149	6279.61
728.491	6341.98
728.833	6327.74
729.175	6296.11
729.516	6319.38
729.858	6286.61
730.199	6310.79
730.541	6370.23
730.882	6260.4
731.224	6344.47
731.565	6275.32
731.906	6337.46
732.248	6312.6
732.589	6311.7
732.93	6277.8
733.271	6294.3
733.612	6321.64
733.953	6348.08
734.294	6343.11
734.635	6318.48
734.976	6361.41
735.317	6297.01
735.658	6256.56
735.999	6338.59
736.339	6366.61
736.68	6401.64
737.021	6366.61
737.361	6326.39
737.702	6329.33
738.042	6392.6
738.383	6339.95
738.723	6404.35
739.063	6384.69
739.404	6352.83
739.744	6388.53
740.084	6429.66
740.424	6455.65
740.764	6427.85
741.104	6452.03
741.444	6433.28
741.784	6414.07
742.124	6487.74
742.464	6492.03
742.804	6489.55
743.143	6541.52
743.483	6564.8
743.823	6539.72
744.162	6594.85
744.502	6640.05
744.841	6649.54
745.181	6660.39
745.52	6706.72
745.86	6762.53
746.199	6697.45
746.538	6812.93
746.877	6883.89
747.216	6883.21
747.556	6899.71
747.895	6962.98
748.234	7019.25
748.573	7022.19
748.911	7119.36
749.25	7136.08
749.589	7252.92
749.928	7310.77
750.267	7380.37
750.605	7403.42
750.944	7508.73
751.283	7552.12
751.621	7682.28
751.96	7758.89
752.298	7830.53
752.636	7954.37
752.975	7970.41
753.313	8092.22
753.651	8189.39
753.989	8327.69
754.327	8430.06
754.666	8459.21
755.004	8620.11
755.342	8818.98
755.679	8887.68
756.017	8962.25
756.355	9129.48
756.693	9220.1
757.031	9387.78
757.368	9450.15
757.706	9738.95
758.044	9804.71
758.381	9970.59
758.719	10079.06
759.056	10228.21
759.394	10416
759.731	10454.19
760.068	10784.58
760.405	10828.87
760.743	10966.27
761.08	11176.88
761.417	11314.96
761.754	11549.07
762.091	11719.24
762.428	11811.89
762.765	11947.71
763.102	12143.64
763.438	12239.9
763.775	12478.99
764.112	12636.05
764.449	12901.81
764.785	12941.13
765.122	12995.59
765.458	13210.95
