Data from hue_250_FLMS001491_00020.txt Node
Date: Tue Feb 07 16:00:38 GMT 2017
User: dcchb
Spectrometer: FLMS00149
Trigger mode: 0
Integration Time (sec): 2.000000E-2
Scans to average: 10
Electric dark correction enabled: true
Nonlinearity correction enabled: false
Boxcar width: 0
XAxis mode: Wavelengths
Number of Pixels in Spectrum: 2048
>>>>>Begin Spectral Data<<<<<
341.393	-36.23
341.776	-36.23
342.16	-36.23
342.543	-47.98
342.927	-76.23
343.31	-86.62
343.693	-77.81
344.077	-62.22
344.46	-46.4
344.843	-40.52
345.226	-35.78
345.61	-28.32
345.993	-10.69
346.376	-4.59
346.759	19.82
347.142	10.32
347.525	52.58
347.908	57.33
348.291	78.35
348.674	76.99
349.057	97.55
349.44	123.32
349.823	154.28
350.206	155.18
350.588	183.43
350.971	190.88
351.354	218
351.737	223.43
352.119	226.59
352.502	224.33
352.884	236.53
353.267	258.91
353.65	250.32
354.032	287.15
354.414	285.35
354.797	288.06
355.179	302.75
355.562	275.63
355.944	312.24
356.326	318.79
356.709	317.21
357.091	326.47
357.473	323.76
357.855	309.07
358.238	324.21
358.62	313.14
359.002	308.4
359.384	336.87
359.766	326.02
360.148	319.02
360.53	312.46
360.912	313.82
361.294	319.24
361.676	314.95
362.057	320.37
362.439	322.86
362.821	311.33
363.203	332.12
363.584	321.73
363.966	299.58
364.348	320.37
364.729	295.97
365.111	291.67
365.493	307.72
365.874	305.23
366.256	309.3
366.637	283.09
367.019	301.84
367.4	308.17
367.781	314.27
368.163	309.98
368.544	286.48
368.925	301.16
369.306	283.54
369.688	283.31
370.069	301.84
370.45	295.06
370.831	282.63
371.212	285.8
371.593	263.65
371.974	307.27
372.355	292.13
372.736	296.19
373.117	307.94
373.498	286.48
373.879	313.82
374.26	295.06
374.641	321.95
375.021	299.13
375.402	286.93
375.783	311.33
376.163	308.85
376.544	312.92
376.925	303.42
377.305	304.33
377.686	312.24
378.066	302.97
378.447	276.98
378.827	301.39
379.208	309.07
379.588	292.8
379.968	314.05
380.349	317.66
380.729	325.12
381.109	324.21
381.489	315.85
381.87	320.82
382.25	312.46
382.63	327.6
383.01	301.39
383.39	328.51
383.77	321.5
384.15	300.94
384.53	311.79
384.91	321.28
385.29	332.12
385.67	327.38
386.049	321.28
386.429	349.52
386.809	334.38
387.189	332.8
387.568	324.89
387.948	332.8
388.328	334.16
388.707	320.6
389.087	332.12
389.466	344.78
389.846	326.93
390.225	332.12
390.605	355.4
390.984	345.46
391.363	356.3
391.743	362.41
392.122	350.65
392.501	353.14
392.881	347.72
393.26	355.63
393.639	359.92
394.018	375.96
394.397	359.47
394.776	358.79
395.155	375.06
395.534	358.79
395.913	361.5
396.292	364.21
396.671	369.41
397.05	373.7
397.429	375.06
397.808	367.38
398.186	359.92
398.565	380.26
398.944	386.36
399.323	366.7
399.701	369.19
400.08	391.78
400.458	369.19
400.837	380.26
401.215	387.26
401.594	392.46
401.972	399.24
402.351	399.47
402.729	399.47
403.107	419.81
403.486	393.37
403.864	383.65
404.242	429.52
404.62	403.76
404.999	418.45
405.377	406.47
405.755	429.07
406.133	411.22
406.511	458.67
406.889	438.79
407.267	455.74
407.645	439.92
408.023	425.23
408.401	461.61
408.779	444.66
409.156	455.06
409.534	464.32
409.912	459.13
410.29	476.53
410.667	474.27
411.045	489.41
411.422	489.41
411.8	507.49
412.178	509.52
412.555	503.87
412.933	505
413.31	535.73
413.687	502.29
414.065	531.67
414.442	546.13
414.819	534.15
415.197	562.63
415.574	576.64
415.951	554.04
416.328	571.44
416.705	565.11
417.082	579.35
417.46	583.19
417.837	587.71
418.214	591.33
418.591	591.1
418.967	608.95
419.344	610.76
419.721	624.09
420.098	645.34
420.475	635.84
420.852	634.26
421.228	655.73
421.605	658.22
421.982	691.89
422.358	675.39
422.735	726.46
423.111	685.56
423.488	746.58
423.864	706.35
424.241	731.44
424.617	734.83
424.994	757.42
425.37	739.12
425.746	778.44
426.123	777.54
426.499	795.84
426.875	804.43
427.251	810.53
427.627	814.6
428.003	846.23
428.379	827.03
428.756	850.08
429.132	852.34
429.507	876.06
429.883	867.25
430.259	875.84
430.635	869.96
431.011	900.02
431.387	912.67
431.763	918.32
432.138	922.84
432.514	955.38
432.89	964.65
433.265	974.59
433.641	980.92
434.016	1020.92
434.392	998.32
434.767	1040.35
435.143	1041.71
435.518	1028.38
435.894	1076.96
436.269	1077.87
436.644	1106.34
437.02	1111.76
437.395	1136.62
437.77	1142.95
438.145	1140.01
438.52	1164.42
438.895	1172.33
439.271	1166.45
439.646	1229.73
440.021	1251.65
440.395	1243.74
440.77	1255.04
441.145	1276.28
441.52	1328.71
441.895	1309.73
442.27	1328.26
442.645	1332.78
443.019	1296.17
443.394	1346.11
443.769	1324.64
444.143	1345.66
444.518	1401.7
444.892	1371.19
445.267	1376.84
445.641	1358.31
446.016	1411.19
446.39	1423.62
446.764	1404.64
447.139	1427.91
447.513	1437.18
447.887	1444.41
448.262	1450.29
448.636	1430.17
449.01	1474.01
449.384	1506.33
449.758	1487.12
450.132	1532.77
450.506	1536.39
450.88	1533.22
451.254	1565.76
451.628	1552.88
452.002	1568.48
452.376	1600.79
452.75	1599.21
453.123	1615.93
453.497	1646.21
453.871	1643.5
454.244	1675.82
454.618	1732.77
454.992	1692.54
455.365	1700.45
455.739	1754.69
456.112	1761.46
456.486	1758.08
456.859	1778.41
457.232	1824.97
457.606	1821.58
457.979	1811.18
458.352	1866.32
458.725	1886.43
459.099	1907.9
459.472	1907
459.845	1948.8
460.218	1951.74
460.591	1964.17
460.964	1968.24
461.337	2010.5
461.71	2067.22
462.083	2059.31
462.456	2078.97
462.829	2070.38
463.201	2130.95
463.574	2135.01
463.947	2148.12
464.32	2181.57
464.692	2200.55
465.065	2239.87
465.438	2266.99
465.81	2283.26
466.183	2292.3
466.555	2358.74
466.928	2385.4
467.3	2384.27
467.672	2354.44
468.045	2413.65
468.417	2480.99
468.789	2452.29
469.161	2457.94
469.534	2527.09
469.906	2571.84
470.278	2550.37
470.65	2609.58
471.022	2637.83
471.394	2673.76
471.766	2718.73
472.138	2777.94
472.51	2797.82
472.882	2843.02
473.253	2893.19
473.625	2892.28
473.997	2977.25
474.369	2973.18
474.74	2993.97
475.112	3035.56
475.484	3072.84
475.855	3106.74
476.227	3109.45
476.598	3242.56
476.97	3212.05
477.341	3311.25
477.713	3349.22
478.084	3374.76
478.455	3414.53
478.827	3448.88
479.198	3534.07
479.569	3580.17
479.94	3629.21
480.311	3697.69
480.682	3753.05
481.053	3812.48
481.424	3856.78
481.795	3898.81
482.166	3947.17
482.537	3964.34
482.908	4077.79
483.279	4086.38
483.65	4142.19
484.021	4237.56
484.391	4299.48
484.762	4291.34
485.133	4306.93
485.503	4380.38
485.874	4449.76
486.244	4529.3
486.615	4554.39
486.985	4604.1
487.356	4678.22
487.726	4691.33
488.097	4772.46
488.467	4739.92
488.837	4870.76
489.207	4924.09
489.578	4971.78
489.948	5005.45
490.318	5039.12
490.688	5091.55
491.058	5182.84
491.428	5195.95
491.798	5221.49
492.168	5337.19
492.538	5405.44
492.908	5409.28
493.278	5418.54
493.648	5435.04
494.017	5505.77
494.387	5580.12
494.757	5600.46
495.126	5641.36
495.496	5694.69
495.866	5723.39
496.235	5738.54
496.605	5790.96
496.974	5772.66
497.344	5804.52
497.713	5871.64
498.082	5940.34
498.452	5901.7
498.821	5954.8
499.19	5942.37
499.559	6015.82
499.928	6032.77
500.298	6063.05
500.667	6131.75
501.036	6123.61
501.405	6127.45
501.774	6176.94
502.143	6229.37
502.512	6157.06
502.88	6254.91
503.249	6195.25
503.618	6301.23
503.987	6354.79
504.356	6348.91
504.724	6404.51
505.093	6368.35
505.462	6371.06
505.83	6439.99
506.199	6472.75
506.567	6555.92
506.936	6485.41
507.304	6561.56
507.672	6594.11
508.041	6567.89
508.409	6622.81
508.777	6643.82
509.145	6611.51
509.514	6666.42
509.882	6653.54
510.25	6697.83
510.618	6719.3
510.986	6701.22
511.354	6778.96
511.722	6764.27
512.09	6836.13
512.458	6884.49
512.826	6827.77
513.193	6895.34
513.561	6926.53
513.929	6952.06
514.297	6931.05
514.664	6998.84
515.032	6990.48
515.4	7035.22
515.767	6965.62
516.135	7043.81
516.502	7005.85
516.869	7054.43
517.237	7104.83
517.604	7110.7
517.972	7097.6
518.339	7107.31
518.706	7089.69
519.073	7116.13
519.44	7118.84
519.808	7177.59
520.175	7203.36
520.542	7234.09
520.909	7263.02
521.276	7233.41
521.643	7279.96
522.009	7263.24
522.376	7371.26
522.743	7301.66
523.11	7412.39
523.477	7486.74
523.843	7447.87
524.21	7441.32
524.577	7489.22
524.943	7509.34
525.31	7462.11
525.676	7553.4
526.043	7548.21
526.409	7517.92
526.776	7585.27
527.142	7604.48
527.508	7614.64
527.874	7610.12
528.241	7627.07
528.607	7653.74
528.973	7717.01
529.339	7622.33
529.705	7686.05
530.071	7808.54
530.437	7700.29
530.803	7766.73
531.169	7781.65
531.535	7756.11
531.901	7727.18
532.267	7754.98
532.632	7718.14
532.998	7737.35
533.364	7764.02
533.73	7765.37
534.095	7767.18
534.461	7740.29
534.826	7789.1
535.192	7791.36
535.557	7810.12
535.923	7811.02
536.288	7765.83
536.653	7774.19
537.019	7741.19
537.384	7765.15
537.749	7822.1
538.114	7757.47
538.479	7715.43
538.845	7783.68
539.21	7792.27
539.575	7699.16
539.94	7728.54
540.305	7759.95
540.67	7729.67
541.034	7694.64
541.399	7742.78
541.764	7725.38
542.129	7675.89
542.494	7636.34
542.858	7689.67
543.223	7738.48
543.587	7708.65
543.952	7654.87
544.316	7645.38
544.681	7663.91
545.045	7620.97
545.41	7709.56
545.774	7644.7
546.138	7629.33
546.503	7671.37
546.867	7616.68
547.231	7696.22
547.595	7623.46
547.959	7603.57
548.324	7645.38
548.688	7644.93
549.052	7559.73
549.416	7568.77
549.779	7607.41
550.143	7574.42
550.507	7603.35
550.871	7570.13
551.235	7559.96
551.599	7617.13
551.962	7586.4
552.326	7640.63
552.689	7613.97
553.053	7516.34
553.417	7559.28
553.78	7629.11
554.143	7545.04
554.507	7618.71
554.87	7576.91
555.234	7603.57
555.597	7588.66
555.96	7601.31
556.323	7586.62
556.686	7596.11
557.05	7604.48
557.413	7544.59
557.776	7520.41
558.139	7581.2
558.502	7560.86
558.865	7569.9
559.228	7635.66
559.59	7630.92
559.953	7641.08
560.316	7640.41
560.679	7654.19
561.041	7644.25
561.404	7660.52
561.767	7702.33
562.129	7613.74
562.492	7763.79
562.854	7700.07
563.217	7631.82
563.579	7814.87
563.941	7763.57
564.304	7801.76
564.666	7829.33
565.028	7808.31
565.39	7788.88
565.753	7762.89
566.115	7838.82
566.477	7845.37
566.839	7904.35
567.201	7921.53
567.563	7929.89
567.925	7968.53
568.287	7909.33
568.648	7945.03
569.01	8043.33
569.372	8117.23
569.734	7998.82
570.095	8074.75
570.457	8073.39
570.819	8030.23
571.18	7988.19
571.542	8057.8
571.903	8040.85
572.265	8121.52
572.626	8099.83
572.987	8074.97
573.349	8139.83
573.71	8190.22
574.071	8189.54
574.432	8240.84
574.794	8240.39
575.155	8300.95
575.516	8265.7
575.877	8307.28
576.238	8306.38
576.599	8371.23
576.96	8300.28
577.32	8361.52
577.681	8399.48
578.042	8358.58
578.403	8440.61
578.763	8377.56
579.124	8434.51
579.485	8434.06
579.845	8473.38
580.206	8452.81
580.566	8521.97
580.927	8509.08
581.287	8560.16
581.648	8568.97
582.008	8583.66
582.368	8660.04
582.728	8587.95
583.089	8553.38
583.449	8603.77
583.809	8651.68
584.169	8635.41
584.529	8604.45
584.889	8740.04
585.249	8665.24
585.609	8584.56
585.969	8665.69
586.329	8682.41
586.688	8700.72
587.048	8696.88
587.408	8687.61
587.768	8737.1
588.127	8716.08
588.487	8788.4
588.846	8818.45
589.206	8757.67
589.565	8711.34
589.925	8752.92
590.284	8744.33
590.643	8764.22
591.003	8789.98
591.362	8893.71
591.721	8839.7
592.08	8879.24
592.44	8849.41
592.799	8879.7
593.158	8810.77
593.517	8881.28
593.876	8910.88
594.235	8918.34
594.593	8851
594.952	8929.64
595.311	8931.67
595.67	8922.18
596.029	8922.63
596.387	8957.21
596.746	8963.08
597.104	8967.15
597.463	8990.88
597.822	8992.46
598.18	8951.11
598.538	8979.81
598.897	8949.52
599.255	8957.89
599.613	9017.77
599.972	9035.62
600.33	9043.99
600.688	8965.57
601.046	9033.82
601.404	9044.66
601.762	9023.65
602.12	9023.65
602.478	9079.24
602.836	9069.97
603.194	8985.46
603.552	9016.64
603.91	9042.86
604.268	9062.29
604.625	9053.7
604.983	9086.24
605.341	9065.91
605.698	9059.8
606.056	9109.75
606.413	9086.24
606.771	9133.93
607.128	9131.67
607.485	9147.94
607.843	9050.09
608.2	9161.72
608.557	9152.68
608.914	9108.16
609.272	9186.58
609.629	9220.48
609.986	9217.77
610.343	9138.67
610.7	9226.35
611.057	9196.52
611.414	9241.72
611.771	9267.71
612.127	9265
612.484	9292.57
612.841	9336.86
613.198	9256.41
613.554	9281.04
613.911	9375.73
614.267	9289.4
614.624	9268.61
614.98	9333.02
615.337	9293.24
615.693	9317.65
616.05	9341.6
616.406	9403.07
616.762	9367.37
617.118	9332.34
617.475	9354.03
617.831	9347.48
618.187	9351.32
618.543	9366.69
618.899	9423.18
619.255	9444.43
619.611	9451.88
619.967	9450.08
620.323	9432
620.678	9471.54
621.034	9399.23
621.39	9412.11
621.746	9406.01
622.101	9470.19
622.457	9407.14
622.812	9428.38
623.168	9484.88
623.523	9428.83
623.879	9376.63
624.234	9310.65
624.589	9492.34
624.945	9431.55
625.3	9450.53
625.655	9437.2
626.01	9396.07
626.365	9448.49
626.72	9449.62
627.075	9373.02
627.43	9365.11
627.785	9423.86
628.14	9363.3
628.495	9347.93
628.85	9380.02
629.205	9330.98
629.559	9387.48
629.914	9340.47
630.269	9375.28
630.623	9373.69
630.978	9340.25
631.332	9331.89
631.687	9366.91
632.041	9285.11
632.396	9364.2
632.75	9274.26
633.104	9288.27
633.459	9294.37
633.813	9323.98
634.167	9218.22
634.521	9187.03
634.875	9209.86
635.229	9167.6
635.583	9178.22
635.937	9217.77
636.291	9208.95
636.645	9106.36
636.999	9198.78
637.352	9166.24
637.706	9104.77
638.06	9144.77
638.413	9097.54
638.767	9135.96
639.121	9139.35
639.474	9097.77
639.828	9068.84
640.181	9072.69
640.534	9080.59
640.888	9026.81
641.241	9027.49
641.594	9061.61
641.947	9053.02
642.301	9029.3
642.654	9009.41
643.007	9065.23
643.36	9008.05
643.713	8984.55
644.066	9092.57
644.419	8955.4
644.771	8924.67
645.124	8877.44
645.477	8855.74
645.83	8807.83
646.182	8763.77
646.535	8758.8
646.888	8749.76
647.24	8692.58
647.593	8776.2
647.945	8648.29
648.298	8696.88
648.65	8611.91
649.002	8609.65
649.355	8689.64
649.707	8626.82
650.059	8766.03
650.411	8824.1
650.763	8755.63
651.115	8967.6
651.467	8886.7
651.819	8917.21
652.171	8843.99
652.523	8854.84
652.875	8793.14
653.227	8821.39
653.578	8891.45
653.93	8849.87
654.282	8807.38
654.633	8853.48
654.985	8865.68
655.337	8868.85
655.688	8880.15
656.039	8862.07
656.391	8775.74
656.742	8803.31
657.094	8800.83
657.445	8918.79
657.796	8799.47
658.147	8873.82
658.498	8777.33
658.849	8791.34
659.2	8840.83
659.551	8804.22
659.902	8815.97
660.253	8781.62
660.604	8878.79
660.955	8846.02
661.306	8848.74
661.656	8813.26
662.007	8803.09
662.358	8885.8
662.708	8889.41
663.059	8880.83
663.409	8827.49
663.76	8838.34
664.11	8895.29
664.461	8857.32
664.811	8882.86
665.161	8853.03
665.511	8779.36
665.862	8840.37
666.212	8861.84
666.562	8821.62
666.912	8868.62
667.262	8845.8
667.612	8854.84
667.962	8863.65
668.312	8847.83
668.662	8846.7
669.011	8896.42
669.361	8844.67
669.711	8839.7
670.06	8772.81
670.41	8788.85
670.76	8774.16
671.109	8769.19
671.459	8780.94
671.808	8740.72
672.157	8797.66
672.507	8744.11
672.856	8770.77
673.205	8774.84
673.554	8795.86
673.904	8706.14
674.253	8768.51
674.602	8736.87
674.951	8658.68
675.3	8616.2
675.649	8730.77
675.998	8726.48
676.346	8714.95
676.695	8704.79
677.044	8673.83
677.393	8674.05
677.741	8700.27
678.09	8690.77
678.438	8547.28
678.787	8676.99
679.135	8653.71
679.484	8669.31
679.832	8667.5
680.181	8571.91
680.529	8646.93
680.877	8508.18
681.225	8577.78
681.573	8598.8
681.922	8531
682.27	8487.39
682.618	8549.99
682.966	8465.92
683.314	8469.76
683.661	8436.09
684.009	8406.49
684.357	8343.66
684.705	8336.43
685.053	8385.7
685.4	8289.65
685.748	8368.07
686.095	8324.23
686.443	8260.96
686.79	8268.41
687.138	8286.49
687.485	8281.52
687.832	8161.3
688.18	8242.42
688.527	8217.11
688.874	8145.03
689.221	8108.19
689.568	8150.68
689.915	8151.81
690.262	8083.11
690.609	8064.12
690.956	8051.47
691.303	8027.06
691.65	8012.37
691.997	8048.76
692.344	7940.51
692.69	7932.15
693.037	8011.92
693.383	7905.94
693.73	7855.32
694.077	7819.38
694.423	7780.97
694.769	7762.44
695.116	7791.36
695.462	7761.31
695.808	7726.73
696.155	7704.13
696.501	7629.33
696.847	7695.32
697.193	7575.1
697.539	7603.57
697.885	7548.21
698.231	7562.22
698.577	7524.48
698.923	7524.03
699.269	7443.35
699.614	7445.38
699.96	7411.71
700.306	7399.51
700.651	7310.92
700.997	7334.43
701.342	7259.17
701.688	7283.58
702.033	7308.66
702.379	7256.69
702.724	7200.87
703.069	7222.34
703.415	7169.68
703.76	7149.8
704.105	7146.18
704.45	7107.09
704.795	7056.92
705.14	7119.06
705.485	7049.24
705.83	6959.75
706.175	7025.51
706.52	6988.22
706.865	6931.5
707.209	6956.36
707.554	6877.04
707.899	6973.98
708.243	6898.73
708.588	6854.21
708.932	6785.74
709.277	6800.2
709.621	6816.7
709.966	6757.72
710.31	6741.67
710.654	6708.68
710.998	6736.93
711.342	6737.15
711.687	6646.08
712.031	6713.43
712.375	6670.49
712.719	6641.34
713.063	6659.87
713.407	6683.82
713.75	6667.55
714.094	6672.52
714.438	6582.81
714.782	6588.91
715.125	6628.68
715.469	6525.18
715.812	6535.35
716.156	6519.08
716.499	6531.28
716.843	6517.05
717.186	6483.15
717.53	6502.13
717.873	6488.35
718.216	6468.69
718.559	6454.67
718.902	6429.82
719.246	6410.16
719.589	6392.3
719.932	6388.46
720.275	6376.71
720.617	6349.59
720.96	6401.57
721.303	6421.68
721.646	6344.85
721.989	6354.56
722.331	6342.14
722.674	6326.77
723.016	6347.33
723.359	6317.5
723.701	6275.92
724.044	6272.76
724.386	6284.96
724.729	6342.36
725.071	6266.88
725.413	6261.46
725.755	6274.79
726.097	6268.47
726.439	6214.91
726.782	6252.42
727.124	6338.07
727.465	6230.73
727.807	6264.85
728.149	6230.73
728.491	6240.9
728.833	6236.15
729.175	6105.98
729.516	6219.2
729.858	6199.77
730.199	6182.14
730.541	6224.62
730.882	6182.82
731.224	6203.16
731.565	6145.53
731.906	6199.77
732.248	6184.4
732.589	6246.77
732.93	6153.21
733.271	6212.65
733.612	6155.25
733.953	6212.42
734.294	6153.89
734.635	6174.91
734.976	6196.15
735.317	6161.58
735.658	6141.24
735.999	6165.64
736.339	6128.13
736.68	6155.47
737.021	6098.07
737.361	6162.93
737.702	6204.51
738.042	6201.12
738.383	6148.02
738.723	6190.95
739.063	6173.1
739.404	6196.38
739.744	6190.05
740.084	6194.34
740.424	6221.91
740.764	6191.86
741.104	6196.83
741.444	6221.01
741.784	6206.09
742.124	6239.31
742.464	6192.99
742.804	6274.34
743.143	6258.3
743.483	6273.66
743.823	6276.15
744.162	6283.61
744.502	6336.49
744.841	6317.73
745.181	6378.07
745.52	6314.11
745.86	6354.34
746.199	6371.06
746.538	6448.35
746.877	6486.76
747.216	6501.68
747.556	6550.94
747.895	6563.82
748.234	6535.58
748.573	6543.94
748.911	6616.93
749.25	6622.13
749.589	6688.79
749.928	6728.11
750.267	6836.13
750.605	6812.63
750.944	6901.44
751.283	6904.38
751.621	7064.38
751.96	7028.22
752.298	7011.95
752.636	7113.19
752.975	7192.51
753.313	7282.68
753.651	7333.52
753.989	7338.27
754.327	7478.83
754.666	7562.44
755.004	7623.01
755.342	7752.04
755.679	7755.88
756.017	7859.61
756.355	7984.35
756.693	7997.46
757.031	8112.26
757.368	8193.84
757.706	8326.49
758.044	8382.76
758.381	8489.65
758.719	8600.61
759.056	8691.45
759.394	8707.5
759.731	8817.55
760.068	8956.3
760.405	9013.93
760.743	9146.58
761.08	9258.89
761.417	9292.34
761.754	9501.37
762.091	9552.67
762.428	9599.9
762.765	9707.7
763.102	9864.75
763.438	9889.39
763.775	10012.55
764.112	10185.88
764.449	10248.02
764.785	10306.55
765.122	10344.74
765.458	10450.73
765.795	10609.82
766.131	10685.75
766.467	10743.83
766.804	10874.45
767.14	10851.85
767.476	10936.36
767.812	11015.46
768.148	11131.16
768.485	11173.42
768.821	11205.28
