Data from hue_200_FLMS001491_00089.txt Node
Date: Tue Feb 07 16:44:04 GMT 2017
User: dcchb
Spectrometer: FLMS00149
Trigger mode: 0
Integration Time (sec): 2.000000E-2
Scans to average: 10
Electric dark correction enabled: true
Nonlinearity correction enabled: false
Boxcar width: 0
XAxis mode: Wavelengths
Number of Pixels in Spectrum: 2048
>>>>>Begin Spectral Data<<<<<
341.393	-9.22
341.776	-9.22
342.16	-9.22
342.543	-77.24
342.927	-70.24
343.31	-69.33
343.693	-57.13
344.077	-74.53
344.46	-62.33
344.843	-57.58
345.226	-41.31
345.61	-40.18
345.993	-15.78
346.376	13.38
346.759	8.4
347.142	13.38
347.525	52.02
347.908	26.71
348.291	76.42
348.674	95.63
349.057	132.24
349.44	141.06
349.823	135.41
350.206	176.53
350.588	186.7
350.971	216.76
351.354	224.67
351.737	213.14
352.119	271
352.502	266.02
352.884	247.04
353.267	282.52
353.65	286.36
354.032	310.54
354.414	308.06
354.797	311.9
355.179	325.23
355.562	325.23
355.944	304.44
356.326	331.56
356.709	347.83
357.091	331.11
357.473	345.12
357.855	328.17
358.238	334.95
358.62	353.93
359.002	338.56
359.384	352.58
359.766	341.05
360.148	337.89
360.53	340.82
360.912	340.6
361.294	352.58
361.676	327.04
362.057	335.85
362.439	347.38
362.821	325.23
363.203	317.55
363.584	331.56
363.966	334.5
364.348	312.12
364.729	315.97
365.111	327.72
365.493	315.06
365.874	328.62
366.256	313.03
366.637	320.71
367.019	330.66
367.4	325.01
367.781	308.28
368.163	315.29
368.544	304.44
368.925	314.61
369.306	330.43
369.688	314.38
370.069	335.63
370.45	322.52
370.831	307.15
371.212	316.42
371.593	311.67
371.974	318.68
372.355	314.84
372.736	315.97
373.117	325.23
373.498	297.89
373.879	316.64
374.26	324.55
374.641	319.36
375.021	311.67
375.402	306.25
375.783	323.42
376.163	333.37
376.544	336.3
376.925	340.15
377.305	345.34
377.686	318.45
378.066	359.35
378.447	311.67
378.827	345.57
379.208	329.98
379.588	343.76
379.968	333.59
380.349	336.08
380.729	329.3
381.109	342.86
381.489	322.97
381.87	350.99
382.25	326.14
382.63	355.97
383.01	329.75
383.39	342.18
383.77	369.98
384.15	348.06
384.53	358.45
384.91	347.83
385.29	364.33
385.67	349.19
386.049	379.92
386.429	347.38
386.809	353.71
387.189	381.95
387.568	357.55
387.948	346.25
388.328	363.2
388.707	377.21
389.087	371.56
389.466	375.85
389.846	375.63
390.225	363.42
390.605	372.01
390.984	381.05
391.363	378.34
391.743	369.98
392.122	400.94
392.501	380.82
392.881	380.15
393.26	389.64
393.639	395.51
394.018	377.21
394.397	380.15
394.776	389.86
395.155	393.7
395.534	389.86
395.913	396.64
396.292	393.03
396.671	400.71
397.05	400.71
397.429	411.33
397.808	415.4
398.186	412.46
398.565	404.1
398.944	431.9
399.323	400.94
399.701	401.39
400.08	412.46
400.458	411.33
400.837	428.73
401.215	412.46
401.594	437.54
401.972	422.4
402.351	464.44
402.729	455.62
403.107	435.51
403.486	456.3
403.864	457.66
404.242	443.87
404.62	440.93
404.999	457.88
405.377	464.66
405.755	473.93
406.133	488.84
406.511	472.35
406.889	480.93
407.267	488.84
407.645	511.44
408.023	503.98
408.401	516.64
408.779	516.64
409.156	501.05
409.534	531.1
409.912	544.21
410.29	548.28
410.667	556.86
411.045	560.48
411.422	574.49
411.8	563.64
412.178	586.47
412.555	583.3
412.933	607.03
413.31	629.4
413.687	612.46
414.065	660.36
414.442	634.83
414.819	657.65
415.197	663.75
415.574	680.7
415.951	696.3
416.328	660.36
416.705	675.5
417.082	743.75
417.46	729.29
417.837	747.59
418.214	728.16
418.591	736.07
418.967	750.76
419.344	790.08
419.721	806.8
420.098	789.17
420.475	803.86
420.852	800.25
421.228	824.88
421.605	860.58
421.982	875.73
422.358	863.75
422.735	876.86
423.111	899
423.488	910.98
423.864	916.85
424.241	950.3
424.617	989.17
424.994	967.47
425.37	993.01
425.746	1009.06
426.123	1029.85
426.499	1043.4
426.875	1056.29
427.251	1055.38
427.627	1080.24
428.003	1088.15
428.379	1109.62
428.756	1112.56
429.132	1145.55
429.507	1151.2
429.883	1169.5
430.259	1194.59
430.635	1188.26
431.011	1221.71
431.387	1245.89
431.763	1242.27
432.138	1263.06
432.514	1283.85
432.89	1275.49
433.265	1328.82
433.641	1358.42
434.016	1350.06
434.392	1383.96
434.767	1436.16
435.143	1444.3
435.518	1490.85
435.894	1506.22
436.269	1549.61
436.644	1570.62
437.02	1601.13
437.395	1608.59
437.77	1632.09
438.145	1681.35
438.52	1705.08
438.895	1712.54
439.271	1754.35
439.646	1781.01
440.021	1775.59
440.395	1845.19
440.77	1835.47
441.145	1863.27
441.52	1908.92
441.895	1894.23
442.27	1908.69
442.645	1923.61
443.019	1990.95
443.394	2017.84
443.769	2039.08
444.143	2055.58
444.518	2099.87
444.892	2108.69
445.267	2112.08
445.641	2157.05
446.016	2152.3
446.39	2144.39
446.764	2165.64
447.139	2229.14
447.513	2223.49
447.887	2244.5
448.262	2217.16
448.636	2249.93
449.01	2303.94
449.384	2286.08
449.758	2366.99
450.132	2375.57
450.506	2374.44
450.88	2399.75
451.254	2389.58
451.628	2432.29
452.002	2469.36
452.376	2503.48
452.75	2538.96
453.123	2567.66
453.497	2587.09
453.871	2581.9
454.244	2593.19
454.618	2651.05
454.992	2655.34
455.365	2694.66
455.739	2747.99
456.112	2789.35
456.486	2806.97
456.859	2829.12
457.232	2914.09
457.606	2899.63
457.979	2937.37
458.352	2950.25
458.725	3051.04
459.099	3023.92
459.472	3070.24
459.845	3094.65
460.218	3091.49
460.591	3177.81
460.964	3186.85
461.337	3266.62
461.71	3288.54
462.083	3340.07
462.456	3359.28
462.829	3398.15
463.201	3420.74
463.574	3467.75
463.947	3539.16
464.32	3578.93
464.692	3590.68
465.065	3631.36
465.438	3641.08
465.81	3724.24
466.183	3787.74
466.555	3818.7
466.928	3873.39
467.3	3884.46
467.672	3929.66
468.045	4065.25
468.417	4047.17
468.789	4047.85
469.161	4092.14
469.534	4159.71
469.906	4267.95
470.278	4265.24
470.65	4314.96
471.022	4393.83
471.394	4505.91
471.766	4503.43
472.138	4568.96
472.51	4647.6
472.882	4725.34
473.253	4788.62
473.625	4787.49
473.997	4959.23
474.369	4942.29
474.74	5006.46
475.112	5079.68
475.484	5150.19
475.855	5232.22
476.227	5271.99
476.598	5410.97
476.97	5438.32
477.341	5573
477.713	5621.59
478.084	5636.96
478.455	5777.52
478.827	5869.04
479.198	6018.19
479.569	6038.53
479.94	6144.97
480.311	6231.06
480.682	6363.94
481.053	6464.51
481.424	6536.37
481.795	6634.67
482.166	6708.34
482.537	6763.25
482.908	6894.1
483.279	6965.51
483.65	7025.85
484.021	7208.67
484.391	7282.34
484.762	7350.36
485.133	7349.45
485.503	7472.84
485.874	7596.68
486.244	7662.89
486.615	7792.61
486.985	7875.32
487.356	8012.71
487.726	8097.68
488.097	8159.6
488.467	8191.92
488.837	8338.35
489.207	8538.57
489.578	8543.32
489.948	8595.52
490.318	8704.22
490.688	8755.07
491.058	8890.2
491.428	8962.07
491.798	8984.66
492.168	9129.75
492.538	9133.36
492.908	9256.3
493.278	9425.11
493.648	9393.47
494.017	9484.54
494.387	9534.48
494.757	9651.99
495.126	9693.57
495.496	9705.55
495.866	9776.06
496.235	9868.26
496.605	9951.19
496.974	9936.28
497.344	10057.41
497.713	10066.44
498.082	10133.11
498.452	10210.17
498.821	10189.38
499.19	10201.36
499.559	10345.31
499.928	10394.8
500.298	10428.24
500.667	10467.11
501.036	10409.71
501.405	10470.05
501.774	10503.04
502.143	10498.75
502.512	10638.86
502.88	10701.23
503.249	10664.39
503.618	10700.1
503.987	10695.13
504.356	10777.84
504.724	10759.76
505.093	10873.2
505.462	10845.18
505.83	10886.99
506.199	10927.44
506.567	11078.62
506.936	11000.43
507.304	11045.63
507.672	11098.06
508.041	11074.78
508.409	11167.66
508.777	11219.86
509.145	11160.88
509.514	11178.28
509.882	11240.65
510.25	11171.73
510.618	11237.94
510.986	11291.27
511.354	11321.1
511.722	11434.09
512.09	11431.83
512.458	11380.53
512.826	11452.4
513.193	11448.33
513.561	11487.65
513.929	11477.48
514.297	11539.17
514.664	11577.82
515.032	11523.36
515.4	11692.16
515.767	11610.58
516.135	11589.12
516.502	11534.2
516.869	11688.1
517.237	11717.93
517.604	11660.07
517.972	11688.32
518.339	11765.16
518.706	11656.23
519.073	11739.39
519.44	11771.26
519.808	11812.16
520.175	11740.75
520.542	11853.97
520.909	11786.63
521.276	11815.55
521.643	11809.45
522.009	11804.25
522.376	11859.62
522.743	11943.46
523.11	11906.85
523.477	11942.1
523.843	12027.52
524.21	12029.33
524.577	11995.89
524.943	12028.43
525.31	12006.96
525.676	12073.62
526.043	12064.13
526.409	12000.4
526.776	12062.78
527.142	12027.75
527.508	12091.25
527.874	12061.19
528.241	12073.4
528.607	12100.06
528.973	12086.73
529.339	12030.23
529.705	12083.11
530.071	12058.48
530.437	12081.76
530.803	12020.74
531.169	12067.07
531.535	11999.5
531.901	11972.16
532.267	11976.68
532.632	11972.61
532.998	11911.59
533.364	11865.72
533.73	11853.74
534.095	11873.18
534.461	11783.91
534.826	11849.67
535.192	11834.08
535.557	11884.93
535.923	11792.5
536.288	11739.39
536.653	11747.3
537.019	11671.83
537.384	11670.02
537.749	11607.65
538.114	11554.77
538.479	11481.32
538.845	11477.25
539.21	11445.17
539.575	11363.36
539.94	11340.54
540.305	11323.59
540.67	11251.95
541.034	11242.68
541.399	11279.52
541.764	11107.09
542.129	11148.22
542.494	11035.23
542.858	11097.6
543.223	11021
543.587	11023.71
543.952	10874.56
544.316	10895.35
544.681	10862.36
545.045	10827.33
545.41	10856.03
545.774	10769.93
546.138	10747.78
546.503	10680.67
546.867	10595.24
547.231	10645.41
547.595	10543.04
547.959	10559.09
548.324	10506.43
548.688	10487.22
549.052	10410.84
549.416	10293.78
549.779	10310.51
550.143	10307.12
550.507	10271.64
550.871	10184.63
551.235	10140.57
551.599	10174.46
551.962	10141.47
552.326	10122.71
552.689	10100.57
553.053	9948.48
553.417	9982.6
553.78	10070.51
554.143	9980.8
554.507	9897.18
554.87	9807.92
555.234	9866.22
555.597	9784.87
555.96	9767.02
556.323	9798.43
556.686	9746
557.05	9733.12
557.413	9802.04
557.776	9736.28
558.139	9713.01
558.502	9642.73
558.865	9644.76
559.228	9634.37
559.59	9590.3
559.953	9653.8
560.316	9668.71
560.679	9593.24
561.041	9602.5
561.404	9627.36
561.767	9670.97
562.129	9555.27
562.492	9584.42
562.854	9593.46
563.217	9522.73
563.579	9547.14
563.941	9671.43
564.304	9551.88
564.666	9580.36
565.028	9569.06
565.39	9550.53
565.753	9505.1
566.115	9575.16
566.477	9622.61
566.839	9547.14
567.201	9640.47
567.563	9506.69
567.925	9626
568.287	9587.59
568.648	9510.98
569.01	9603.63
569.372	9620.35
569.734	9584.42
570.095	9604.08
570.457	9655.38
570.819	9541.71
571.18	9602.05
571.542	9643.4
571.903	9637.53
572.265	9616.29
572.626	9619.45
572.987	9589.62
573.349	9676.17
573.71	9630.3
574.071	9632.11
574.432	9618.55
574.794	9754.81
575.155	9623.52
575.516	9642.5
575.877	9732.89
576.238	9701.93
576.599	9679.11
576.96	9692.67
577.32	9643.4
577.681	9728.83
578.042	9743.97
578.403	9707.58
578.763	9693.12
579.124	9651.09
579.485	9730.63
579.845	9741.71
580.206	9750.97
580.566	9709.17
580.927	9728.6
581.287	9746.9
581.648	9725.89
582.008	9708.26
582.368	9722.95
582.728	9756.4
583.089	9669.84
583.449	9744.42
583.809	9743.29
584.169	9704.42
584.529	9731.31
584.889	9767.47
585.249	9683.18
585.609	9651.77
585.969	9738.77
586.329	9625.1
586.688	9655.38
587.048	9673.69
587.408	9624.2
587.768	9638.43
588.127	9580.81
588.487	9667.81
588.846	9610.64
589.206	9620.13
589.565	9550.98
589.925	9624.2
590.284	9596.17
590.643	9602.73
591.003	9611.54
591.362	9636.17
591.721	9595.72
592.08	9618.55
592.44	9606.57
592.799	9574.25
593.158	9571.32
593.517	9660.35
593.876	9628.49
594.235	9569.28
594.593	9506.69
594.952	9563.63
595.311	9596.17
595.67	9549.85
596.029	9549.4
596.387	9600.47
596.746	9597.3
597.104	9510.3
597.463	9487.02
597.822	9572.22
598.18	9476.4
598.538	9501.94
598.897	9533.8
599.255	9478.44
599.613	9631.2
599.972	9572.45
600.33	9520.92
600.688	9486.57
601.046	9457.19
601.404	9592.11
601.762	9532
602.12	9540.81
602.478	9527.02
602.836	9537.64
603.194	9492
603.552	9513.24
603.91	9530.41
604.268	9536.74
604.625	9439.34
604.983	9534.93
605.341	9404.09
605.698	9508.72
606.056	9543.75
606.413	9493.58
606.771	9518.89
607.128	9563.41
607.485	9512.56
607.843	9506.91
608.2	9487.7
608.557	9588.94
608.914	9575.38
609.272	9599.11
609.629	9565.67
609.986	9615.61
610.343	9573.12
610.7	9548.94
611.057	9602.05
611.414	9534.48
611.771	9586.23
612.127	9619.68
612.484	9653.35
612.841	9619.68
613.198	9616.29
613.554	9626.68
613.911	9617.19
614.267	9610.19
614.624	9661.03
614.98	9703.97
615.337	9703.74
615.693	9657.87
616.05	9647.02
616.406	9705.55
616.762	9687.7
617.118	9708.04
617.475	9690.41
617.831	9682.95
618.187	9679.11
618.543	9700.13
618.899	9741.26
619.255	9769.95
619.611	9765.89
619.967	9725.44
620.323	9828.94
620.678	9740.8
621.034	9694.02
621.39	9706
621.746	9746
622.101	9846.79
622.457	9735.38
622.812	9727.7
623.168	9787.36
623.523	9782.38
623.879	9779.67
624.234	9743.06
624.589	9750.29
624.945	9696.06
625.3	9767.7
625.655	9753.23
626.01	9755.27
626.365	9697.19
626.72	9765.66
627.075	9702.39
627.43	9748.71
627.785	9701.48
628.14	9721.59
628.495	9713.01
628.85	9680.47
629.205	9695.61
629.559	9661.03
629.914	9706.45
630.269	9624.65
630.623	9687.25
630.978	9695.38
631.332	9739
631.687	9702.84
632.041	9629.62
632.396	9637.3
632.75	9580.81
633.104	9558.44
633.459	9536.74
633.813	9528.83
634.167	9574.03
634.521	9573.8
634.875	9531.54
635.229	9583.97
635.583	9502.17
635.937	9446.35
636.291	9456.06
636.645	9437.76
636.999	9462.17
637.352	9452.45
637.706	9439.12
638.06	9408.61
638.413	9434.82
638.767	9387.59
639.121	9403.64
639.474	9357.76
639.828	9344.66
640.181	9370.64
640.534	9275.73
640.888	9405.22
641.241	9349.18
641.594	9306.92
641.947	9368.61
642.301	9283.41
642.654	9295.17
643.007	9328.16
643.36	9296.75
643.713	9275.96
644.066	9267.6
644.419	9208.61
644.771	9087.26
645.124	9150.99
645.477	9057.88
645.83	9080.71
646.182	9008.17
646.535	8990.54
646.888	8992.35
647.24	8952.8
647.593	8995.06
647.945	8942.18
648.298	8915.74
648.65	8997.77
649.002	8925.68
649.355	8942.18
649.707	8910.54
650.059	8998.9
650.411	9114.83
650.763	9100.14
651.115	9217.2
651.467	9162.51
651.819	9150.54
652.171	9140.59
652.523	9165.23
652.875	9126.13
653.227	9126.36
653.578	9209.97
653.93	9170.87
654.282	9090.42
654.633	9082.52
654.985	9120.03
655.337	9117.54
655.688	9127.03
656.039	9238.22
656.391	9080.93
656.742	9120.93
657.094	9124.1
657.445	9163.64
657.796	9171.33
658.147	9096.75
658.498	9211.33
658.849	9155.51
659.2	9121.84
659.551	9175.17
659.902	9172
660.253	9139.24
660.604	9147.37
660.955	9112.8
661.306	9246.35
661.656	9122.06
662.007	9193.7
662.358	9212
662.708	9168.84
663.059	9189.41
663.409	9110.54
663.76	9179.24
664.11	9137.88
664.461	9234.38
664.811	9198.22
665.161	9226.47
665.511	9170.65
665.862	9215.39
666.212	9240.25
666.562	9255.39
666.912	9199.12
667.262	9254.04
667.612	9198.22
667.962	9218.11
668.312	9209.52
668.662	9216.52
669.011	9257.65
669.361	9252.68
669.711	9163.19
670.06	9228.27
670.41	9192.34
670.76	9102.85
671.109	9183.76
671.459	9209.29
671.808	9168.61
672.157	9187.6
672.507	9108.5
672.856	9092.68
673.205	9164.1
673.554	9090.88
673.904	9156.19
674.253	9137.2
674.602	9095.4
674.951	9021.05
675.3	8989.86
675.649	9080.48
675.998	9036.41
676.346	9074.83
676.695	9142.17
677.044	9060.82
677.393	9007.72
677.741	9023.99
678.09	9047.26
678.438	9032.8
678.787	9026.47
679.135	8959.58
679.484	8938.79
679.832	9002.52
680.181	8891.11
680.529	8902.86
680.877	8925.91
681.225	8800.71
681.573	8931.11
681.922	8819.02
682.27	8893.37
682.618	8882.97
682.966	8806.59
683.314	8819.25
683.661	8791.68
684.009	8721.17
684.357	8737.67
684.705	8674.16
685.053	8706.48
685.4	8733.15
685.748	8681.4
686.095	8657.67
686.443	8664.45
686.79	8581.06
687.138	8638.01
687.485	8621.28
687.832	8558.24
688.18	8588.07
688.527	8507.62
688.874	8494.73
689.221	8466.49
689.568	8445.7
689.915	8426.49
690.262	8384.68
690.609	8383.32
690.956	8325.7
691.303	8339.71
691.65	8292.71
691.997	8279.82
692.344	8220.39
692.69	8245.48
693.037	8205.93
693.383	8177
693.73	8135.87
694.077	8102.43
694.423	8141.3
694.769	8078.7
695.116	8103.11
695.462	8003.67
695.808	7982.43
696.155	7983.79
696.501	7892.04
696.847	7918.93
697.193	7823.11
697.539	7878.25
697.885	7813.17
698.231	7762.1
698.577	7795.09
698.923	7732.04
699.269	7756.45
699.614	7700.86
699.96	7628.77
700.306	7586.51
700.651	7620.86
700.997	7550.58
701.342	7530.92
701.688	7499.96
702.033	7494.53
702.379	7483.46
702.724	7483.46
703.069	7474.87
703.415	7340.87
703.76	7368.89
704.105	7358.04
704.45	7338.38
704.795	7243.92
705.14	7186.52
705.485	7256.35
705.83	7204.82
706.175	7216.12
706.52	7196.01
706.865	7167.54
707.209	7153.53
707.554	7089.35
707.899	7105.84
708.243	7068.33
708.588	7044.83
708.932	7043.02
709.277	7013.42
709.621	6963.93
709.966	6985.62
710.31	7008.45
710.654	6941.55
710.998	6981.78
711.342	6962.8
711.687	6890.93
712.031	6826.3
712.375	6806.42
712.719	6895
713.063	6800.54
713.407	6866.98
713.75	6801.45
714.094	6746.31
714.438	6790.6
714.782	6750.37
715.125	6705.4
715.469	6724.61
715.812	6741.33
716.156	6643.26
716.499	6662.92
716.843	6664.05
717.186	6673.77
717.53	6652.97
717.873	6699.53
718.216	6655.91
718.559	6618.4
718.902	6597.83
719.246	6627.66
719.589	6561.68
719.932	6509.7
720.275	6604.16
720.617	6574.33
720.96	6535.46
721.303	6551.73
721.646	6524.62
721.989	6483.94
722.331	6506.54
722.674	6551.96
723.016	6619.08
723.359	6503.37
723.701	6495.01
724.044	6437.61
724.386	6461.34
724.729	6507.22
725.071	6508.8
725.413	6495.46
725.755	6458.86
726.097	6384.73
726.439	6405.75
726.782	6380.67
727.124	6429.48
727.465	6425.64
727.807	6466.76
728.149	6385.86
728.491	6402.59
728.833	6441.45
729.175	6422.02
729.516	6366.88
729.858	6403.49
730.199	6424.96
730.541	6405.75
730.882	6370.5
731.224	6467.67
731.565	6430.38
731.906	6396.71
732.248	6420.66
732.589	6422.7
732.93	6368.46
733.271	6403.04
733.612	6411.4
733.953	6419.99
734.294	6410.27
734.635	6371.4
734.976	6391.74
735.317	6382.47
735.658	6354.45
735.999	6375.47
736.339	6386.77
736.68	6452.3
737.021	6406.65
737.361	6458.63
737.702	6431.29
738.042	6469.48
738.383	6425.18
738.723	6415.92
739.063	6444.84
739.404	6412.98
739.744	6468.12
740.084	6463.15
740.424	6493.2
740.764	6491.17
741.104	6550.83
741.444	6513.77
741.784	6489.82
742.124	6579.08
742.464	6580.89
742.804	6583.15
743.143	6624.73
743.483	6671.05
743.823	6546.08
744.162	6612.07
744.502	6658.85
744.841	6675.12
745.181	6749.47
745.52	6744.72
745.86	6768.23
746.199	6812.07
746.538	6864.72
746.877	6841.44
747.216	6903.59
747.556	6933.87
747.895	7013.42
748.234	7044.38
748.573	7061.1
748.911	7142.23
749.25	7171.83
749.589	7262.9
749.928	7290.02
750.267	7362.79
750.605	7377.93
750.944	7451.82
751.283	7525.72
751.621	7692.95
751.96	7690.69
752.298	7847.75
752.636	7934.75
752.975	8033.28
753.313	8084.35
753.651	8245.48
753.989	8264.91
754.327	8449.09
754.666	8527.5
755.004	8649.76
755.342	8787.38
755.679	8937.89
756.017	9013.36
756.355	9229.63
756.693	9262.17
757.031	9460.81
757.368	9555.05
757.706	9754.14
758.044	9875.26
758.381	10037.29
758.719	10179.89
759.056	10372.2
759.394	10588.92
759.731	10637.73
760.068	10917.72
760.405	10896.93
760.743	11072.52
761.08	11339.18
761.417	11576.01
761.754	11725.84
762.091	11921.99
762.428	12115.2
762.765	12160.4
763.102	12415.54
763.438	12592.03
763.775	12733.04
764.112	13020.94
764.449	13151.33
764.785	13323.99
765.122	13503.19
765.458	13520.14
765.795	13748.83
766.131	13943.18
