Data from hue_100_FLMS001491_00016.txt Node
Date: Tue Feb 07 17:02:43 GMT 2017
User: dcchb
Spectrometer: FLMS00149
Trigger mode: 0
Integration Time (sec): 2.000000E-2
Scans to average: 10
Electric dark correction enabled: true
Nonlinearity correction enabled: false
Boxcar width: 0
XAxis mode: Wavelengths
Number of Pixels in Spectrum: 2048
>>>>>Begin Spectral Data<<<<<
341.393	-22.63
341.776	-22.63
342.16	-22.63
342.543	-76.64
342.927	-65.11
343.31	-69.63
343.693	-74.15
344.077	-70.76
344.46	-66.69
344.843	-41.38
345.226	-26.47
345.61	-53.36
345.993	-21.95
346.376	-24.43
346.759	44.04
347.142	20.31
347.525	35.23
347.908	67.77
348.291	81.78
348.674	99.86
349.057	99.86
349.44	106.18
349.823	124.49
350.206	164.26
350.588	191.61
350.971	181.66
351.354	213.07
351.737	229.34
352.119	266.63
352.502	263.02
352.884	278.38
353.267	285.16
353.65	293.07
354.032	290.13
354.414	320.64
354.797	328.55
355.179	320.87
355.562	326.74
355.944	340.53
356.326	309.57
356.709	314.77
357.091	323.81
357.473	331.04
357.855	327.87
358.238	334.88
358.62	343.01
359.002	336.46
359.384	355.22
359.766	339.17
360.148	340.75
360.53	341.43
360.912	342.56
361.294	328.1
361.676	321.09
362.057	341.21
362.439	333.75
362.821	327.19
363.203	323.13
363.584	318.83
363.966	287.87
364.348	313.18
364.729	335.56
365.111	319.51
365.493	322
365.874	330.36
366.256	325.16
366.637	327.19
367.019	321.32
367.4	332.39
367.781	321.09
368.163	297.82
368.544	320.87
368.925	316.8
369.306	329.45
369.688	301.21
370.069	324.26
370.45	307.53
370.831	320.87
371.212	316.35
371.593	319.29
371.974	308.89
372.355	325.61
372.736	332.84
373.117	317.93
373.498	326.06
373.879	323.58
374.26	334.43
374.641	313.64
375.021	336.69
375.402	329.68
375.783	327.42
376.163	329.45
376.544	348.21
376.925	331.26
377.305	323.58
377.686	335.56
378.066	332.17
378.447	338.95
378.827	342.11
379.208	355.67
379.588	319.51
379.968	330.13
380.349	343.47
380.729	335.33
381.109	333.3
381.489	331.49
381.87	346.4
382.25	340.75
382.63	345.73
383.01	361.54
383.39	347.31
383.77	366.97
384.15	330.81
384.53	365.84
384.91	370.36
385.29	348.89
385.67	343.69
386.049	361.32
386.429	359.96
386.809	340.98
387.189	393.63
387.568	360.41
387.948	346.4
388.328	363.8
388.707	360.87
389.087	355.89
389.466	353.18
389.846	389.57
390.225	376.91
390.605	375.56
390.984	360.64
391.363	390.02
391.743	361.09
392.122	380.75
392.501	376.69
392.881	367.65
393.26	370.58
393.639	382.56
394.018	379.85
394.397	412.39
394.776	405.38
395.155	394.31
395.534	388.66
395.913	391.15
396.292	382.11
396.671	395.67
397.05	395.67
397.429	396.57
397.808	404.93
398.186	401.32
398.565	398.15
398.944	395.44
399.323	408.77
399.701	399.28
400.08	389.34
400.458	413.07
400.837	440.19
401.215	419.4
401.594	428.89
401.972	410.13
402.351	398.83
402.729	453.29
403.107	423.92
403.486	445.38
403.864	444.25
404.242	415.33
404.62	426.85
404.999	453.29
405.377	448.1
405.755	431.82
406.133	432.95
406.511	443.35
406.889	430.24
407.267	457.13
407.645	435.21
408.023	460.98
408.401	462.78
408.779	452.39
409.156	452.39
409.534	468.66
409.912	485.16
410.29	453.29
410.667	458.72
411.045	466.63
411.422	484.03
411.8	499.17
412.178	501.43
412.555	500.98
412.933	515.89
413.31	497.36
413.687	497.13
414.065	505.04
414.442	510.01
414.819	529.22
415.197	524.7
415.574	517.02
415.951	522.22
416.328	536.68
416.705	534.19
417.082	541.2
417.46	525.38
417.837	533.07
418.214	559.96
418.591	567.41
418.967	562.89
419.344	546.62
419.721	592.27
420.098	575.32
420.475	564.25
420.852	576.68
421.228	585.49
421.605	583.23
421.982	576.23
422.358	588.2
422.735	592.27
423.111	584.59
423.488	627.3
423.864	596.11
424.241	611.03
424.617	614.19
424.994	603.57
425.37	611.71
425.746	624.81
426.123	647.19
426.499	629.56
426.875	601.76
427.251	637.47
427.627	630.01
428.003	650.58
428.379	652.61
428.756	649.22
429.132	675.21
429.507	678.82
429.883	659.62
430.259	694.42
430.635	676.79
431.011	692.16
431.387	698.26
431.763	702.33
432.138	724.92
432.514	712.72
432.89	714.76
433.265	729.44
433.641	724.47
434.016	757.47
434.392	761.08
434.767	753.85
435.143	752.72
435.518	773.28
435.894	773.51
436.269	806.5
436.644	799.95
437.02	824.36
437.395	803.11
437.77	801.53
438.145	813.74
438.52	819.39
438.895	846.5
439.271	864.81
439.646	830.23
440.021	848.76
440.395	878.14
440.77	854.41
441.145	857.8
441.52	874.3
441.895	884.24
442.27	905.26
442.645	874.75
443.019	888.31
443.394	892.6
443.769	935.77
444.143	922.43
444.518	925.37
444.892	890.12
445.267	949.1
445.641	965.37
446.016	972.6
446.39	943.22
446.764	957.46
447.139	951.36
447.513	970.12
447.887	986.39
448.262	978.7
448.636	985.26
449.01	985.26
449.384	1008.08
449.758	1028.65
450.132	1029.32
450.506	1039.27
450.88	1046.05
451.254	1044.69
451.628	1057.35
452.002	1053.73
452.376	1030.45
452.75	1082.43
453.123	1102.54
453.497	1097.57
453.871	1117.23
454.244	1136.67
454.618	1115.65
454.992	1155.2
455.365	1173.05
455.739	1172.37
456.112	1188.87
456.486	1195.42
456.859	1221.18
457.232	1212.6
457.606	1223.22
457.979	1246.72
458.352	1260.5
458.725	1270.67
459.099	1293.95
459.472	1314.06
459.845	1339.82
460.218	1352.03
460.591	1361.29
460.964	1382.53
461.337	1381.86
461.71	1415.53
462.083	1446.49
462.456	1448.52
462.829	1465.92
463.201	1478.12
463.574	1502.31
463.947	1524.9
464.32	1549.31
464.692	1564.68
465.065	1583.43
465.438	1631.12
465.81	1644.22
466.183	1650.55
466.555	1659.36
466.928	1719.47
467.3	1706.59
467.672	1726.03
468.045	1786.82
468.417	1803.31
468.789	1825.91
469.161	1829.98
469.534	1879.92
469.906	1923.76
470.278	1939.81
470.65	1999.02
471.022	2019.35
471.394	2086.02
471.766	2095.96
472.138	2119.69
472.51	2167.6
472.882	2249.18
473.253	2273.81
473.625	2333.24
473.997	2321.04
474.369	2400.81
474.74	2429.29
475.112	2525.1
475.484	2536.18
475.855	2628.6
476.227	2672.22
476.598	2754.93
476.97	2821.82
477.341	2918.31
477.713	2964.41
478.084	3001.47
478.455	3130.51
478.827	3203.5
479.198	3307.46
479.569	3310.17
479.94	3481.91
480.311	3550.84
480.682	3649.14
481.053	3794.9
481.424	3867.67
481.795	3923.48
482.166	4041.67
482.537	4184.04
482.908	4310.82
483.279	4403.92
483.65	4505.62
484.021	4658.61
484.391	4771.37
484.762	4844.36
485.133	4933.18
485.503	5055.66
485.874	5228.76
486.244	5381.98
486.615	5477.79
486.985	5608.64
487.356	5828.29
487.726	5881.4
488.097	6066.03
488.467	6162.52
488.837	6414.94
489.207	6532.68
489.578	6687.93
489.948	6766.57
490.318	6943.74
490.688	7129.5
491.058	7200.46
491.428	7444.3
491.798	7580.79
492.168	7795.92
492.538	7964.28
492.908	8070.72
493.278	8299.87
493.648	8323.14
494.017	8520.88
494.387	8713.19
494.757	8812.62
495.126	8990.92
495.496	9077.7
495.866	9191.37
496.235	9368.54
496.605	9558.59
496.974	9718.59
497.344	9814.85
497.713	9974.4
498.082	10031.12
498.452	10200.38
498.821	10344.33
499.19	10392.69
499.559	10578.22
499.928	10694.38
500.298	10872.45
500.667	10959.23
501.036	11012.79
501.405	11166.46
501.774	11248.72
502.143	11393.8
502.512	11432.44
502.88	11631.53
503.249	11735.48
503.618	11779.1
503.987	11867.46
504.356	11961.69
504.724	12073.1
505.093	12116.26
505.462	12239.2
505.83	12340.21
506.199	12471.06
506.567	12604.16
506.936	12675.8
507.304	12805.74
507.672	12916.47
508.041	12967.77
508.409	13054.54
508.777	13217.93
509.145	13258.83
509.514	13237.14
509.882	13398.04
510.25	13403.69
510.618	13430.58
510.986	13557.81
511.354	13722.77
511.722	13835.77
512.09	13856.56
512.458	13817.91
512.826	13949.89
513.193	14038.02
513.561	14042.31
513.929	14115.53
514.297	14243.44
514.664	14266.72
515.032	14310.1
515.4	14427.61
515.767	14547.16
516.135	14514.17
516.502	14379.71
516.869	14700.38
517.237	14692.24
517.604	14662.86
517.972	14817.66
518.339	14880.48
518.706	14803.88
519.073	14832.58
519.44	14819.24
519.808	14994.38
520.175	14940.82
520.542	15146.24
520.909	15115.05
521.276	15163.87
521.643	15256.07
522.009	15314.82
522.376	15335.16
522.743	15442.28
523.11	15440.92
523.477	15490.19
523.843	15621.26
524.21	15718.43
524.577	15707.81
524.943	15701.93
525.31	15782.38
525.676	15915.94
526.043	15915.94
526.409	15953
526.776	16020.57
527.142	15989.38
527.508	16001.81
527.874	16014.47
528.241	16056.5
528.607	16065.09
528.973	16128.14
529.339	16063.28
529.705	16218.98
530.071	16275.93
530.437	16228.92
530.803	16293.55
531.169	16253.78
531.535	16126.78
531.901	16184.18
532.267	16245.19
532.632	16265.76
532.998	16191.18
533.364	16197.51
533.73	16285.65
534.095	16318.19
534.461	16338.07
534.826	16354.8
535.192	16284.74
535.557	16407
535.923	16336.27
536.288	16203.84
536.653	16316.15
537.019	16179.89
537.384	16170.17
537.749	16236.38
538.114	16189.15
538.479	16117.51
538.845	16158.42
539.21	16039.55
539.575	16072.54
539.94	16074.35
540.305	16009.72
540.67	15947.12
541.034	15974.24
541.399	15933.56
541.764	15851.08
542.129	16004.3
542.494	15889.05
542.858	15833.45
543.223	15814.02
543.587	15848.14
543.952	15785.55
544.316	15766.11
544.681	15693.34
545.045	15814.47
545.41	15631.2
545.774	15720.69
546.138	15644.76
546.503	15675.49
546.867	15522.73
547.231	15540.58
547.595	15458.55
547.959	15556.85
548.324	15413.58
548.688	15432.33
549.052	15406.12
549.416	15378.55
549.779	15364.54
550.143	15400.7
550.507	15362.73
550.871	15252.23
551.235	15187.14
551.599	15327.48
551.962	15274.82
552.326	15195.28
552.689	15186.92
553.053	15067.37
553.417	15111.44
553.78	15263.3
554.143	15031.89
554.507	15070.54
554.87	15116.18
555.234	15139.46
555.597	15001.84
555.96	14963.19
556.323	15062.4
556.686	15042.97
557.05	15044.1
557.413	14916.64
557.776	15084.09
558.139	15022.18
558.502	15030.31
558.865	15102.4
559.228	14968.62
559.59	14925.91
559.953	15010.42
560.316	15098.56
560.679	15041.16
561.041	15061.04
561.404	15058.56
561.767	15150.08
562.129	15008.39
562.492	15164.32
562.854	15089.29
563.217	15089.52
563.579	15056.07
563.941	15039.58
564.304	15135.39
564.666	15152.79
565.028	15063.76
565.39	15148.95
565.753	15182.62
566.115	15135.39
566.477	15186.47
566.839	15275.95
567.201	15276.41
567.563	15275.73
567.925	15347.36
568.287	15306.24
568.648	15322.73
569.01	15356.63
569.372	15384.88
569.734	15419
570.095	15444.09
570.457	15433.92
570.819	15455.38
571.18	15463.07
571.542	15475.27
571.903	15551.43
572.265	15578.32
572.626	15506.68
572.987	15582.39
573.349	15551.88
573.71	15583.97
574.071	15597.3
574.432	15553.69
574.794	15666
575.155	15670.29
575.516	15515.95
575.877	15578.55
576.238	15634.59
576.599	15574.03
576.96	15630.75
577.32	15637.3
577.681	15765.21
578.042	15660.58
578.403	15662.38
578.763	15657.41
579.124	15690.18
579.485	15789.39
579.845	15827.8
580.206	15663.06
580.566	15764.08
580.927	15703.51
581.287	15789.84
581.648	15687.47
582.008	15669.39
582.368	15620.13
582.728	15707.58
583.089	15647.02
583.449	15627.13
583.809	15663.74
584.169	15642.72
584.529	15604.08
584.889	15718.43
585.249	15568.6
585.609	15590.3
585.969	15631.43
586.329	15603.63
586.688	15609.5
587.048	15587.36
587.408	15541.94
587.768	15561.82
588.127	15595.72
588.487	15496.29
588.846	15616.51
589.206	15470.3
589.565	15473.92
589.925	15567.47
590.284	15562.05
590.643	15507.36
591.003	15496.06
591.362	15556.17
591.721	15481.37
592.08	15448.61
592.44	15548.26
592.799	15472.79
593.158	15471.88
593.517	15457.19
593.876	15395.27
594.235	15373.13
594.593	15394.82
594.952	15418.32
595.311	15339.23
595.67	15386.23
596.029	15430.07
596.387	15468.27
596.746	15504.42
597.104	15432.79
597.463	15363.18
597.822	15394.82
598.18	15380.13
598.538	15414.93
598.897	15420.81
599.255	15224.2
599.613	15508.72
599.972	15338.1
600.33	15325.22
600.688	15350.3
601.046	15406.57
601.404	15376.74
601.762	15349.62
602.12	15456.29
602.478	15443.41
602.836	15433.01
603.194	15308.27
603.552	15309.63
603.91	15317.31
604.268	15333.35
604.625	15295.39
604.983	15405.89
605.341	15318.89
605.698	15457.19
606.056	15367.25
606.413	15420.13
606.771	15432.79
607.128	15518.89
607.485	15430.98
607.843	15336.74
608.2	15472.11
608.557	15426.46
608.914	15411.54
609.272	15461.94
609.629	15472.56
609.986	15527.02
610.343	15488.38
610.7	15510.52
611.057	15569.28
611.414	15517.53
611.771	15553.69
612.127	15590.07
612.484	15429.17
612.841	15665.77
613.198	15578.55
613.554	15554.59
613.911	15704.42
614.267	15696.96
614.624	15624.65
614.98	15633.01
615.337	15691.54
615.693	15676.85
616.05	15643.4
616.406	15756.17
616.762	15707.58
617.118	15674.14
617.475	15674.81
617.831	15728.37
618.187	15810.63
618.543	15772.89
618.899	15834.13
619.255	15840.91
619.611	15795.26
619.967	15896.28
620.323	15861.7
620.678	15851.08
621.034	15750.97
621.39	15772.21
621.746	15767.69
622.101	15936.5
622.457	15783.29
622.812	15784.19
623.168	15814.47
623.523	15807.92
623.879	15904.86
624.234	15791.42
624.589	15812.66
624.945	15807.24
625.3	15897.18
625.655	15828.03
626.01	15900.8
626.365	15827.58
626.72	15804.53
627.075	15814.02
627.43	15863.96
627.785	15781.25
628.14	15889.05
628.495	15831.87
628.85	15839.1
629.205	15783.74
629.559	15785.32
629.914	15757.3
630.269	15838.65
630.623	15735.15
630.978	15700.12
631.332	15736.51
631.687	15750.74
632.041	15714.13
632.396	15737.86
632.75	15630.07
633.104	15648.15
633.459	15560.92
633.813	15649.5
634.167	15483.63
634.521	15515.72
634.875	15517.08
635.229	15517.3
635.583	15437.76
635.937	15484.54
636.291	15426.68
636.645	15510.3
636.999	15422.62
637.352	15440.7
637.706	15348.95
638.06	15420.58
638.413	15453.35
638.767	15380.36
639.121	15384.65
639.474	15307.59
639.828	15298.33
640.181	15303.75
640.534	15287.93
640.888	15247.25
641.241	15164.32
641.594	15195.73
641.947	15250.87
642.301	15244.09
642.654	15209.74
643.007	15280.93
643.36	15209.06
643.713	15156.41
644.066	15245.22
644.419	15168.84
644.771	15010.42
645.124	14922.29
645.477	14820.15
645.83	14777.89
646.182	14669.19
646.535	14687.04
646.888	14796.42
647.24	14627.38
647.593	14686.14
647.945	14718
648.298	14667.16
648.65	14680.94
649.002	14611.56
649.355	14675.07
649.707	14630.77
650.059	14744.44
650.411	14834.61
650.763	14867.38
651.115	15069.41
651.467	15023.08
651.819	15030.31
652.171	14876.64
652.523	14959.35
652.875	14947.83
653.227	14899.02
653.578	15034.15
653.93	14919.58
654.282	14949.18
654.633	14873.03
654.985	14841.16
655.337	14955.74
655.688	14897.66
656.039	14958
656.391	14921.16
656.742	14933.36
657.094	14929.75
657.445	14972.91
657.796	14986.47
658.147	14906.47
658.498	14893.14
658.849	14943.99
659.2	14932.23
659.551	14858.34
659.902	15053.59
660.253	15037.54
660.604	15048.16
660.955	14919.35
661.306	15007.49
661.656	14955.96
662.007	15055.62
662.358	14981.27
662.708	14963.65
663.059	14984.89
663.409	14908.51
663.76	15021.5
664.11	15037.77
664.461	15110.31
664.811	15012.01
665.161	15051.78
665.511	15026.02
665.862	15009.75
666.212	15099.24
666.562	15119.35
666.912	15005.9
667.262	15049.29
667.612	15005.68
667.962	15042.97
668.312	14968.39
668.662	15115.28
669.011	15014.72
669.361	15008.62
669.711	14968.17
670.06	15035.28
670.41	14962.52
670.76	14979.92
671.109	14940.37
671.459	14943.53
671.808	14916.87
672.157	14974.04
672.507	14875.74
672.856	14835.51
673.205	14865.12
673.554	14976.98
673.904	14901.05
674.253	14970.88
674.602	14889.07
674.951	14696.99
675.3	14582.19
675.649	14840.94
675.998	14843.2
676.346	14776.08
676.695	14854.72
677.044	14715.29
677.393	14757.1
677.741	14765.23
678.09	14725.23
678.438	14717.55
678.787	14667.38
679.135	14710.77
679.484	14610.66
679.832	14560.49
680.181	14583.32
680.529	14562.53
680.877	14484.79
681.225	14452.7
681.573	14608.18
681.922	14425.13
682.27	14391.91
682.618	14475.52
682.966	14386.71
683.314	14381.97
683.661	14340.84
684.009	14332.48
684.357	14303.32
684.705	14266.49
685.053	14309.88
685.4	14270.56
685.748	14165.7
686.095	14127.51
686.443	14075.99
686.79	14008.87
687.138	14073.27
687.485	14099.49
687.832	13965.03
688.18	13975.2
688.527	13936.78
688.874	13903.56
689.221	13874.18
689.568	13875.54
689.915	13803.45
690.262	13728.42
690.609	13732.27
690.956	13664.92
691.303	13620.18
691.65	13614.76
691.997	13556.9
692.344	13521.88
692.69	13439.84
693.037	13456.79
693.383	13342.67
693.73	13406.62
694.077	13303.58
694.423	13276.23
694.769	13217.93
695.116	13149.68
695.462	13174.54
695.808	13086.86
696.155	13102.23
696.501	13025.39
696.847	12976.35
697.193	12848
697.539	12934.77
697.885	12665.85
698.231	12723.03
698.577	12746.3
698.923	12685.74
699.269	12710.82
699.614	12570.71
699.96	12518.06
700.306	12508.34
700.651	12400.55
700.997	12369.82
701.342	12397.84
701.688	12331.62
702.033	12264.28
702.379	12319.2
702.724	12295.24
703.069	12205.98
703.415	12119.65
703.76	12139.09
704.105	12131.4
704.45	12090.5
704.795	11957.62
705.14	11959.88
705.485	11894.12
705.83	11841.47
706.175	11848.93
706.52	11779.32
706.865	11809.15
707.209	11720.34
707.554	11725.99
707.899	11682.15
708.243	11628.59
708.588	11590.4
708.932	11508.82
709.277	11446.9
709.621	11482.61
709.966	11490.52
710.31	11407.58
710.654	11350.86
710.998	11346.11
711.342	11351.99
711.687	11359.45
712.031	11338.88
712.375	11191.54
712.719	11280.13
713.063	11218.21
713.407	11250.07
713.75	11174.37
714.094	11189.96
714.438	11112
714.782	11109.28
715.125	10993.81
715.469	11062.05
715.812	10982.06
716.156	10956.75
716.499	10993.13
716.843	10992.45
717.186	10905.45
717.53	11020.7
717.873	10890.76
718.216	10953.36
718.559	10830.42
718.902	10846.47
719.246	10868.16
719.589	10883.98
719.932	10768.73
720.275	10768.5
720.617	10776.86
720.96	10736.86
721.303	10776.41
721.646	10693.02
721.989	10696.64
722.331	10806.24
722.674	10708.62
723.016	10669.52
723.359	10666.81
723.701	10721.27
724.044	10620.26
724.386	10583.42
724.729	10673.14
725.071	10637.66
725.413	10574.38
725.755	10615.96
726.097	10504.33
726.439	10580.26
726.782	10494.16
727.124	10589.52
727.465	10495.74
727.807	10529.86
728.149	10582.07
728.491	10519.92
728.833	10524.89
729.175	10507.27
729.516	10497.55
729.858	10522.41
730.199	10528.96
730.541	10472.24
730.882	10468.4
731.224	10533.71
731.565	10422.07
731.906	10534.38
732.248	10492.8
732.589	10371.68
732.93	10396.76
733.271	10443.09
733.612	10502.97
733.953	10374.16
734.294	10398.34
734.635	10370.32
734.976	10465.01
735.317	10365.57
735.658	10491.45
735.999	10406.93
736.339	10407.16
736.68	10500.94
737.021	10427.72
737.361	10399.25
737.702	10425.69
738.042	10366.93
738.383	10438.12
738.723	10502.75
739.063	10440.15
739.404	10557.66
739.744	10510.88
740.084	10463.88
740.424	10552.91
740.764	10520.15
741.104	10555.17
741.444	10551.33
741.784	10543.2
742.124	10625.23
742.464	10589.75
742.804	10631.1
743.143	10612.35
743.483	10651.44
743.823	10633.59
744.162	10713.59
744.502	10759.69
744.841	10678.56
745.181	10745
745.52	10785.22
745.86	10915.62
746.199	10919.91
746.538	10905.67
746.877	11017.54
747.216	11053.92
747.556	11105.67
747.895	11130.53
748.234	11211.43
748.573	11281.26
748.911	11309.96
749.25	11338.2
749.589	11363.51
749.928	11468.37
750.267	11669.72
750.605	11659.78
750.944	11683.73
751.283	11753.79
751.621	11931.18
751.96	11915.59
752.298	12085.08
752.636	12109.94
752.975	12272.19
753.313	12395.13
753.651	12545.4
753.989	12525.29
754.327	12692.97
754.666	12869.69
755.004	12968.22
755.342	13169.12
755.679	13260.19
