Data from hue_120_FLMS001491_00086.txt Node
Date: Tue Feb 07 17:00:09 GMT 2017
User: dcchb
Spectrometer: FLMS00149
Trigger mode: 0
Integration Time (sec): 2.000000E-2
Scans to average: 10
Electric dark correction enabled: true
Nonlinearity correction enabled: false
Boxcar width: 0
XAxis mode: Wavelengths
Number of Pixels in Spectrum: 2048
>>>>>Begin Spectral Data<<<<<
341.393	-6.92
341.776	-6.92
342.16	-6.92
342.543	-53.7
342.927	-66.13
343.31	-48.73
343.693	-58.9
344.077	-64.55
344.46	-57.09
344.843	-46.47
345.226	-39.46
345.61	-33.59
345.993	-8.28
346.376	-9.86
346.759	16.81
347.142	10.25
347.525	34.21
347.908	57.26
348.291	68.11
348.674	74.66
349.057	105.62
349.44	112.62
349.823	152.17
350.206	172.51
350.588	194.43
350.971	229.23
351.354	231.72
351.737	244.37
352.119	262.68
352.502	258.61
352.884	276.24
353.267	287.08
353.65	286.63
354.032	298.61
354.414	304.26
354.797	320.08
355.179	324.6
355.562	309
355.944	317.82
356.326	320.98
356.709	355.1
357.091	319.17
357.473	341.09
357.855	338.15
358.238	334.54
358.62	351.49
359.002	342.45
359.384	349.91
359.766	355.56
360.148	359.85
360.53	354.2
360.912	339.96
361.294	342.22
361.676	328.44
362.057	320.3
362.439	329.12
362.821	336.12
363.203	323.47
363.584	336.35
363.966	323.69
364.348	323.92
364.729	325.27
365.111	313.52
365.493	324.37
365.874	322.79
366.256	299.29
366.637	323.01
367.019	313.07
367.4	338.15
367.781	321.66
368.163	328.44
368.544	325.5
368.925	310.13
369.306	322.34
369.688	304.48
370.069	290.47
370.45	316.01
370.831	327.53
371.212	326.63
371.593	322.11
371.974	314.43
372.355	327.76
372.736	326.18
373.117	330.92
373.498	326.4
373.879	327.99
374.26	295.67
374.641	311.04
375.021	311.71
375.402	301.09
375.783	329.34
376.163	326.63
376.544	334.77
376.925	332.51
377.305	325.95
377.686	316.46
378.066	317.82
378.447	339.51
378.827	340.64
379.208	337.03
379.588	356.01
379.968	332.73
380.349	349.23
380.729	334.09
381.109	353.3
381.489	341.77
381.87	334.31
382.25	334.77
382.63	351.04
383.01	362.79
383.39	360.08
383.77	345.61
384.15	364.82
384.53	352.84
384.91	364.37
385.29	370.02
385.67	347.19
386.049	372.5
386.429	365.72
386.809	377.7
387.189	369.34
387.568	348.1
387.948	370.7
388.328	382
388.707	377.7
389.087	394.2
389.466	386.97
389.846	366.63
390.225	378.83
390.605	385.39
390.984	360.3
391.363	368.21
391.743	380.41
392.122	388.55
392.501	386.06
392.881	391.26
393.26	378.83
393.639	410.02
394.018	377.93
394.397	399.85
394.776	390.58
395.155	379.28
395.534	401.2
395.913	399.4
396.292	396.46
396.671	435.55
397.05	428.1
397.429	387.19
397.808	409.79
398.186	403.69
398.565	398.94
398.944	423.58
399.323	407.08
399.701	418.15
400.08	412.96
400.458	438.04
400.837	422.22
401.215	417.02
401.594	436.23
401.972	416.57
402.351	422.67
402.729	415.44
403.107	433.29
403.486	449.11
403.864	438.27
404.242	426.29
404.62	443.69
404.999	440.98
405.377	453.41
405.755	461.99
406.133	457.7
406.511	446.85
406.889	459.06
407.267	453.41
407.645	475.1
408.023	478.26
408.401	462.9
408.779	461.09
409.156	471.71
409.534	484.37
409.912	508.77
410.29	494.99
410.667	480.52
411.045	530.92
411.422	505.61
411.8	495.89
412.178	521.2
412.555	505.38
412.933	536.79
413.31	498.38
413.687	519.62
414.065	541.99
414.442	533.18
414.819	544.25
415.197	539.28
415.574	562.78
415.951	546.51
416.328	561.43
416.705	553.52
417.082	527.3
417.46	548.32
417.837	566.4
418.214	561.43
418.591	548.77
418.967	572.27
419.344	570.24
419.721	605.27
420.098	567.08
420.475	576.34
420.852	588.54
421.228	590.35
421.605	586.28
421.982	599.39
422.358	591.26
422.735	616.79
423.111	608.88
423.488	609.56
423.864	624.25
424.241	613.63
424.617	630.8
424.994	633.74
425.37	646.85
425.746	638.49
426.123	668.54
426.499	660.41
426.875	659.28
427.251	682.78
427.627	665.83
428.003	686.85
428.379	688.88
428.756	702.44
429.132	687.75
429.507	702.44
429.883	699.05
430.259	716.22
430.635	724.36
431.011	728.2
431.387	741.08
431.763	740.4
432.138	749.9
432.514	768.88
432.89	754.19
433.265	764.13
433.641	770.69
434.016	789.89
434.392	793.96
434.767	795.77
435.143	811.59
435.518	806.84
435.894	803
436.269	832.38
436.644	818.59
437.02	840.97
437.395	839.61
437.77	875.77
438.145	866.95
438.52	879.84
438.895	866.95
439.271	892.72
439.646	898.82
440.021	860.18
440.395	905.15
440.77	891.81
441.145	924.35
441.52	922.55
441.895	931.36
442.27	906.5
442.645	906.5
443.019	941.98
443.394	938.14
443.769	955.09
444.143	949.44
444.518	977.46
444.892	968.87
445.267	964.35
445.641	963
446.016	979.04
446.39	989.44
446.764	1018.59
447.139	993.96
447.513	1010.91
447.887	1014.52
448.262	1028.53
448.636	1024.69
449.01	1029.21
449.384	1028.08
449.758	1057.68
450.132	1073.5
450.506	1087.97
450.88	1085.71
451.254	1079.38
451.628	1101.75
452.002	1111.92
452.376	1115.08
452.75	1104.01
453.123	1140.39
453.497	1163.67
453.871	1163.22
454.244	1197.34
454.618	1151.69
454.992	1204.35
455.365	1204.8
455.739	1206.38
456.112	1231.92
456.486	1220.84
456.859	1276.89
457.232	1285.47
457.606	1293.38
457.979	1307.85
458.352	1304.23
458.725	1328.41
459.099	1333.16
459.472	1365.7
459.845	1368.18
460.218	1395.53
460.591	1432.59
460.964	1415.87
461.337	1440.72
461.71	1474.85
462.083	1507.62
462.456	1485.47
462.829	1513.27
463.201	1553.26
463.574	1539.93
463.947	1580.38
464.32	1600.72
464.692	1604.56
465.065	1653.15
465.438	1671
465.81	1691.34
466.183	1716.2
466.555	1716.65
466.928	1744.22
467.3	1749.87
467.672	1844.33
468.045	1836.65
468.417	1867.38
468.789	1867.38
469.161	1906.48
469.534	1924.78
469.906	1999.13
470.278	1992.57
470.65	2040.48
471.022	2055.85
471.394	2110.54
471.766	2147.37
472.138	2193.93
472.51	2264.21
472.882	2301.27
473.253	2322.51
473.625	2361.6
473.997	2416.97
474.369	2467.82
474.74	2494.71
475.112	2590.98
475.484	2623.29
475.855	2694.7
476.227	2714.59
476.598	2813.8
476.97	2873.46
477.341	2954.13
477.713	3014.02
478.084	3096.95
478.455	3167.01
478.827	3255.37
479.198	3339.66
479.569	3392.31
479.94	3528.13
480.311	3597.28
480.682	3682.93
481.053	3783.94
481.424	3903.26
481.795	3932.64
482.166	4057.15
482.537	4163.14
482.908	4282.01
483.279	4372.17
483.65	4497.82
484.021	4584.37
484.391	4701.88
484.762	4834.76
485.133	4941.42
485.503	5035.21
485.874	5210.57
486.244	5299.38
486.615	5449.66
486.985	5573.05
487.356	5706.38
487.726	5827.73
488.097	6051.9
488.467	6108.17
488.837	6335.06
489.207	6465.23
489.578	6613.02
489.948	6709.96
490.318	6813.46
490.688	6996.74
491.058	7118.32
491.428	7259.78
491.798	7488.25
492.168	7670.17
492.538	7761.24
492.908	7935.7
493.278	8040.33
493.648	8199.64
494.017	8370.03
494.387	8494.1
494.757	8585.4
495.126	8791.04
495.496	8845.95
495.866	8978.38
496.235	9101.77
496.605	9305.83
496.974	9385.15
497.344	9536.11
497.713	9685.48
498.082	9772.03
498.452	9907.62
498.821	10017.67
499.19	10135.86
499.559	10236.65
499.928	10372.69
500.298	10494.95
500.667	10619.92
501.036	10612.91
501.405	10822.17
501.774	10889.97
502.143	11039.57
502.512	11044.54
502.88	11255.83
503.249	11342.16
503.618	11376.06
503.987	11482.27
504.356	11646.33
504.724	11686.11
505.093	11746.89
505.462	11841.36
505.83	12010.39
506.199	12044.74
506.567	12165.87
506.936	12170.39
507.304	12358.86
507.672	12510.72
508.041	12498.29
508.409	12682.24
508.777	12745.74
509.145	12812.4
509.514	12810.37
509.882	12951.61
510.25	12917.94
510.618	13076.58
510.986	13097.59
511.354	13154.54
511.722	13193.86
512.09	13326.97
512.458	13402.44
512.826	13454.42
513.193	13512.05
513.561	13583
513.929	13672.95
514.297	13693.96
514.664	13800.63
515.032	13867.52
515.4	13850.79
515.767	13936.22
516.135	13946.38
516.502	13928.31
516.869	14085.82
517.237	14130.56
517.604	14042.2
517.972	14259.6
518.339	14298.47
518.706	14270.67
519.073	14270.22
519.44	14400.61
519.808	14520.83
520.175	14453.49
520.542	14519.03
520.909	14691.68
521.276	14636.99
521.643	14778.91
522.009	14800.15
522.376	14831.33
522.743	14934.83
523.11	15013.48
523.477	15017.32
523.843	15096.86
524.21	15216.86
524.577	15220.02
524.943	15216.63
525.31	15254.37
525.676	15319.23
526.043	15356.52
526.409	15374.6
526.776	15544.08
527.142	15473.58
527.508	15517.64
527.874	15611.43
528.241	15659.79
528.607	15619.34
528.973	15595.38
529.339	15631.54
529.705	15696.17
530.071	15754.92
530.437	15697.07
530.803	15759.9
531.169	15851.65
531.535	15695.94
531.901	15807.58
532.267	15790.18
532.632	15870.4
532.998	15824.08
533.364	15843.51
533.73	15823.85
534.095	15917.86
534.461	15870.18
534.826	15822.95
535.192	15865.66
535.557	15957.18
535.923	15795.15
536.288	15862.94
536.653	15893.68
537.019	15699.56
537.384	15783.62
537.749	15826.79
538.114	15749.95
538.479	15673.57
538.845	15691.65
539.21	15699.78
539.575	15746.11
539.94	15626.34
540.305	15726
540.67	15607.58
541.034	15622.27
541.399	15629.73
541.764	15582.27
542.129	15589.73
542.494	15537.53
542.858	15547.02
543.223	15515.16
543.587	15468.15
543.952	15476.74
544.316	15422.73
544.681	15412.56
545.045	15421.6
545.41	15303.19
545.774	15345.44
546.138	15262.96
546.503	15354.71
546.867	15239.68
547.231	15259.57
547.595	15266.12
547.959	15202.85
548.324	15154.71
548.688	15151.32
549.052	15185.9
549.416	15100.03
549.779	15071.55
550.143	15062.51
550.507	15109.52
550.871	15123.08
551.235	14999.69
551.599	15028.39
551.962	14941.16
552.326	14981.39
552.689	14947.71
553.053	14878.56
553.417	14830.43
553.78	14977.77
554.143	14905.23
554.507	14824.78
554.87	14847.83
555.234	14939.35
555.597	14816.64
555.96	14845.34
556.323	14920.6
556.686	14896.64
557.05	14833.59
557.413	14880.37
557.776	14880.15
558.139	14902.52
558.502	14855.97
558.865	14874.95
559.228	14978.9
559.59	14842.18
559.953	14811.9
560.316	14986.81
560.679	14924.89
561.041	14914.49
561.404	14969.86
561.767	14949.75
562.129	14938.68
562.492	15077.2
562.854	15031.55
563.217	14993.59
563.579	14949.52
563.941	15052.34
564.304	15116.07
564.666	15131.66
565.028	15148.39
565.39	15153.36
565.753	15203.3
566.115	15234.49
566.477	15165.56
566.839	15172.57
567.201	15264.99
567.563	15250.31
567.925	15285.56
568.287	15339.79
568.648	15268.16
569.01	15413.69
569.372	15407.59
569.734	15317.42
570.095	15469.06
570.457	15417.08
570.819	15448.04
571.18	15442.39
571.542	15483.97
571.903	15483.75
572.265	15532.11
572.626	15485.55
572.987	15574.82
573.349	15559.9
573.71	15660.24
574.071	15638.09
574.432	15698.88
574.794	15818.65
575.155	15626.79
575.516	15585.21
575.877	15640.13
576.238	15729.84
576.599	15749.73
576.96	15747.92
577.32	15726.45
577.681	15757.64
578.042	15833.34
578.403	15802.38
578.763	15740.91
579.124	15776.62
579.485	15744.53
579.845	15883.28
580.206	15803.06
580.566	15810.29
580.927	15811.65
581.287	15876.73
581.648	15759.67
582.008	15921.25
582.368	15840.12
582.728	15867.24
583.089	15853.45
583.449	15841.02
583.809	15801.93
584.169	15799.22
584.529	15680.8
584.889	15836.05
585.249	15789.95
585.609	15677.41
585.969	15730.07
586.329	15667.7
586.688	15765.32
587.048	15627.24
587.408	15641.93
587.768	15674.93
588.127	15650.75
588.487	15610.52
588.846	15727.13
589.206	15636.06
589.565	15643.29
589.925	15707.69
590.284	15665.44
590.643	15626.57
591.003	15734.13
591.362	15709.28
591.721	15601.93
592.08	15632.44
592.44	15629.96
592.799	15670.18
593.158	15651.2
593.517	15641.26
593.876	15641.26
594.235	15663.4
594.593	15687.36
594.952	15597.41
595.311	15504.08
595.67	15566
596.029	15740.01
596.387	15615.49
596.746	15647.13
597.104	15610.52
597.463	15533.69
597.822	15634.7
598.18	15559.68
598.538	15532.56
598.897	15573.46
599.255	15471.09
599.613	15632.22
599.972	15534.37
600.33	15569.39
600.688	15547.02
601.046	15464.08
601.404	15714.7
601.762	15570.07
602.12	15727.81
602.478	15570.52
602.836	15644.19
603.194	15575.27
603.552	15614.59
603.91	15469.96
604.268	15606
604.625	15508.38
604.983	15573.46
605.341	15531.65
605.698	15655.72
606.056	15599.22
606.413	15579.79
606.771	15647.58
607.128	15574.14
607.485	15590.18
607.843	15594.25
608.2	15598.32
608.557	15804.41
608.914	15668.83
609.272	15770.07
609.629	15822.72
609.986	15817.07
610.343	15819.1
610.7	15866.56
611.057	15772.33
611.414	15858.65
611.771	15758.77
612.127	15790.63
612.484	15871.08
612.841	15894.13
613.198	15725.32
613.554	15858.42
613.911	15883.28
614.267	15883.51
614.624	15963.73
614.98	15966.67
615.337	15985.88
615.693	16029.27
616.05	15883.06
616.406	16072.66
616.762	15940.68
617.118	15943.39
617.475	15992.43
617.831	16043.73
618.187	16036.27
618.543	15958.76
618.899	16084.41
619.255	16087.8
619.611	16033.11
619.967	16096.38
620.323	16165.99
620.678	16098.19
621.034	16035.37
621.39	16080.34
621.746	16013.45
622.101	16206.89
622.457	16176.16
622.812	16100.9
623.168	16146.55
623.523	16182.48
623.879	16259.32
624.234	16034.69
624.589	16164.86
624.945	16150.62
625.3	16125.76
625.655	16126.89
626.01	16136.61
626.365	16128.02
626.72	16095.25
627.075	16125.08
627.43	16099.55
627.785	16024.52
628.14	16114.69
628.495	16098.87
628.85	16067.68
629.205	16052.54
629.559	16103.62
629.914	16008.25
630.269	16019.32
630.623	16020
630.978	15933.68
631.332	16031.53
631.687	16042.6
632.041	15958.99
632.396	15997.63
632.75	15971.19
633.104	15929.16
633.459	15814.58
633.813	15937.52
634.167	15787.01
634.521	15834.47
634.875	15848.26
635.229	15834.92
635.583	15779.56
635.937	15835.83
636.291	15737.07
636.645	15833.79
636.999	15659.79
637.352	15737.52
637.706	15697.3
638.06	15682.38
638.413	15584.08
638.767	15614.36
639.121	15634.7
639.474	15562.39
639.828	15634.25
640.181	15604.42
640.534	15597.19
640.888	15574.14
641.241	15483.75
641.594	15537.3
641.947	15574.82
642.301	15473.8
642.654	15518.77
643.007	15548.38
643.36	15451.43
643.713	15482.62
644.066	15457.31
644.419	15360.36
644.771	15374.6
645.124	15303.41
645.477	15152.45
645.83	15068.39
646.182	15128.27
646.535	14913.59
646.888	14966.02
647.24	14934.16
647.593	15001.5
647.945	14937.32
648.298	14852.35
648.65	14809.86
649.002	14822.52
649.355	14919.01
649.707	14930.77
650.059	14898.45
650.411	15200.36
650.763	15122.85
651.115	15342.96
651.467	15158.33
651.819	15232.68
652.171	15250.31
652.523	15184.09
652.875	15240.81
653.227	15231.55
653.578	15202.4
653.93	15222.28
654.282	15209.63
654.633	15179.8
654.985	15153.58
655.337	15173.47
655.688	15319.91
656.039	15250.08
656.391	15179.57
656.742	15208.05
657.094	15162.17
657.445	15192.91
657.796	15238.33
658.147	15101.16
658.498	15191.32
658.849	15151.78
659.2	15168.27
659.551	15176.86
659.902	15268.16
660.253	15101.38
660.604	15252.79
660.955	15130.99
661.306	15169.4
661.656	15222.06
662.007	15146.81
662.358	15174.15
662.708	15036.75
663.059	15163.75
663.409	15068.39
663.76	15167.6
664.11	15285.56
664.461	15307.7
664.811	15262.06
665.161	15207.37
665.511	15205.79
665.862	15201.72
666.212	15216.86
666.562	15222.28
666.912	15220.93
667.262	15181.38
667.612	15180.25
667.962	15183.19
668.312	15156.97
668.662	15225
669.011	15200.59
669.361	15160.14
669.711	15269.06
670.06	15161.27
670.41	15197.65
670.76	15186.58
671.109	15200.82
671.459	15117.88
671.808	15116.07
672.157	15194.71
672.507	14960.37
672.856	15044.89
673.205	15005.34
673.554	15102.96
673.904	15024.55
674.253	15216.41
674.602	15108.84
674.951	14809.19
675.3	14761.05
675.649	15043.76
675.998	15012.8
676.346	14976.64
676.695	15083.08
677.044	14896.64
677.393	14923.53
677.741	14992.01
678.09	14926.02
678.438	14886.47
678.787	14913.14
679.135	14857.55
679.484	14879.47
679.832	14816.87
680.181	14731
680.529	14792.01
680.877	14735.29
681.225	14655.97
681.573	14746.59
681.922	14653.94
682.27	14672.92
682.618	14607.16
682.966	14618.01
683.314	14662.07
683.661	14560.15
684.009	14526.48
684.357	14379.14
684.705	14451
685.053	14472.02
685.4	14449.87
685.748	14333.49
686.095	14322.65
686.443	14275.87
686.79	14303.44
687.138	14335.08
687.485	14298.24
687.832	14240.84
688.18	14265.02
688.527	14161.97
688.874	14164.01
689.221	14083.33
689.568	14071.81
689.915	14035.42
690.262	13949.55
690.609	13910.68
690.956	13910.45
691.303	13844.92
691.65	13808.08
691.997	13777.58
692.344	13692.83
692.69	13623.23
693.037	13634.98
693.383	13535.32
693.73	13573.97
694.077	13503.23
694.423	13402.67
694.769	13400.86
695.116	13347.08
695.462	13359.73
695.808	13342.78
696.155	13292.39
696.501	13146.18
696.847	13204.48
697.193	13102.57
697.539	13117.48
697.885	13124.94
698.231	13004.49
698.577	12990.48
698.923	12910.03
699.269	12874.1
699.614	12807.66
699.96	12696.7
700.306	12772.86
700.651	12731.5
700.997	12606.76
701.342	12602.01
701.688	12546.65
702.033	12536.25
702.379	12454.22
702.724	12423.26
703.069	12451.96
703.415	12299.42
703.76	12316.37
704.105	12289.93
704.45	12225.07
704.795	12200.67
705.14	12157.51
705.485	12178.97
705.83	12044.74
706.175	12113.44
706.52	12046.32
706.865	11935.59
707.209	11958.64
707.554	11903.27
707.899	11943.5
708.243	11938.75
708.588	11821.92
708.932	11750.51
709.277	11736.05
709.621	11718.42
709.966	11675.48
710.31	11729.27
710.654	11562.72
710.998	11600.23
711.342	11595.26
711.687	11594.36
712.031	11512.55
712.375	11453.57
712.719	11491.99
713.063	11431.87
713.407	11472.1
713.75	11381.48
714.094	11422.61
714.438	11222.84
714.782	11361.14
715.125	11298.77
715.469	11334.02
715.812	11262.84
716.156	11170.19
716.499	11211.77
716.843	11235.5
717.186	11139.9
717.53	11212.22
717.873	11146.23
718.216	11136.06
718.559	11136.06
718.902	11041.6
719.246	11094.71
719.589	11082.51
719.932	10970.19
720.275	11005.45
720.617	10915.96
720.96	10941.94
721.303	10924.54
721.646	10959.8
721.989	10883.87
722.331	10956.41
722.674	10849.74
723.016	10917.99
723.359	10847.26
723.701	10917.76
724.044	10885.22
724.386	10787.15
724.729	10865.11
725.071	10847.03
725.413	10829.18
725.755	10816.52
726.097	10798.9
726.439	10750.08
726.782	10784.43
727.124	10758.67
727.465	10716.41
727.807	10719.8
728.149	10754.6
728.491	10736.53
728.833	10689.75
729.175	10602.07
729.516	10646.58
729.858	10669.63
730.199	10713.93
730.541	10678.22
730.882	10639.8
731.224	10683.19
731.565	10619.47
731.906	10625.12
732.248	10647.04
732.589	10634.83
732.93	10573.14
733.271	10608.17
733.612	10628.96
733.953	10594.83
734.294	10612.46
734.635	10514.84
734.976	10565.68
735.317	10567.72
735.658	10589.86
735.999	10549.41
736.339	10554.84
736.68	10550.77
737.021	10600.26
737.361	10537.21
737.702	10679.58
738.042	10624.21
738.383	10629.64
738.723	10605.23
739.063	10625.12
739.404	10605.46
739.744	10600.71
740.084	10612.01
740.424	10653.14
740.764	10615.62
741.104	10679.8
741.444	10651.78
741.784	10626.7
742.124	10735.17
742.464	10643.42
742.804	10701.5
743.143	10762.06
743.483	10762.06
743.823	10662.4
744.162	10779.01
744.502	10746.02
744.841	10764.77
745.181	10893.58
745.52	10766.58
745.86	10841.83
746.199	10853.58
746.538	10948.72
746.877	11054.26
747.216	11075.27
747.556	11068.49
747.895	11059.68
748.234	11118.21
748.573	11181.49
748.911	11242.05
749.25	11336.74
749.589	11346.68
749.928	11409.95
750.267	11535.6
750.605	11517.52
750.944	11578.54
751.283	11607.01
751.621	11781.47
751.96	11823.95
752.298	11940.56
752.636	12121.35
752.975	12124.96
753.313	12204.06
753.651	12288.58
753.989	12390.04
754.327	12470.49
754.666	12543.94
755.004	12725.4
755.342	12795.91
755.679	13025.05
756.017	13037.71
