Data from hue_140_FLMS001491_00053.txt Node
Date: Tue Feb 07 16:56:06 GMT 2017
User: dcchb
Spectrometer: FLMS00149
Trigger mode: 0
Integration Time (sec): 2.000000E-2
Scans to average: 10
Electric dark correction enabled: true
Nonlinearity correction enabled: false
Boxcar width: 0
XAxis mode: Wavelengths
Number of Pixels in Spectrum: 2048
>>>>>Begin Spectral Data<<<<<
341.393	-4.53
341.776	-4.53
342.16	-4.53
342.543	-74.14
342.927	-59
343.31	-75.72
343.693	-68.49
344.077	-75.94
344.46	-59.67
344.843	-53.12
345.226	-47.92
345.61	-33.46
345.993	-42.5
346.376	10.38
346.759	-1.82
347.142	28.23
347.525	46.76
347.908	67.55
348.291	89.48
348.674	103.71
349.057	112.53
349.44	123.15
349.823	160.66
350.206	152.52
350.588	210.83
350.971	211.73
351.354	241.11
351.737	239.3
352.119	249.92
352.502	256.7
352.884	270.71
353.267	277.27
353.65	289.92
354.032	295.8
354.414	317.27
354.797	324.72
355.179	318.4
355.562	318.17
355.944	324.95
356.326	331.73
356.709	337.15
357.091	322.46
357.473	350.26
357.855	357.04
358.238	344.16
358.62	352.97
359.002	346.87
359.384	340.09
359.766	344.16
360.148	345.51
360.53	336.25
360.912	343.93
361.294	345.29
361.676	319.07
362.057	319.53
362.439	319.07
362.821	324.05
363.203	337.38
363.584	326.08
363.966	311.62
364.348	329.02
364.729	333.08
365.111	319.75
365.493	321.79
365.874	322.01
366.256	334.67
366.637	347.32
367.019	310.26
367.4	321.79
367.781	342.8
368.163	314.55
368.544	317.49
368.925	305.97
369.306	303.25
369.688	306.42
370.069	294.44
370.45	318.4
370.831	319.75
371.212	309.81
371.593	315.91
371.974	327.66
372.355	308.68
372.736	308.68
373.117	313.65
373.498	334.67
373.879	321.11
374.26	294.22
374.641	319.3
375.021	309.58
375.402	336.93
375.783	319.07
376.163	349.13
376.544	326.3
376.925	352.97
377.305	331.73
377.686	346.87
378.066	328.11
378.447	337.15
378.827	330.82
379.208	326.76
379.588	341.45
379.968	337.15
380.349	310.03
380.729	359.3
381.109	343.71
381.489	338.73
381.87	340.32
382.25	346.64
382.63	333.31
383.01	362.69
383.39	349.36
383.77	333.99
384.15	342.58
384.53	350.26
384.91	367.43
385.29	347.32
385.67	344.84
386.049	354.33
386.429	366.3
386.809	372.18
387.189	354.78
387.568	363.14
387.948	358.39
388.328	358.62
388.707	368.11
389.087	364.72
389.466	383.7
389.846	368.79
390.225	377.6
390.605	366.53
390.984	348.68
391.363	374.21
391.743	370.37
392.122	382.35
392.501	373.76
392.881	391.16
393.26	360.88
393.639	385.51
394.018	390.71
394.397	386.19
394.776	411.05
395.155	384.16
395.534	391.16
395.913	394.33
396.292	423.03
396.671	417.15
397.05	404.72
397.429	390.26
397.808	418.05
398.186	404.95
398.565	412.63
398.944	413.76
399.323	411.73
399.701	397.26
400.08	404.04
400.458	410.37
400.837	395.68
401.215	416.92
401.594	431.16
401.972	411.05
402.351	424.16
402.729	414.66
403.107	420.77
403.486	439.75
403.864	439.97
404.242	420.09
404.62	439.97
404.999	431.61
405.377	420.54
405.755	421.67
406.133	425.96
406.511	435.68
406.889	444.72
407.267	430.71
407.645	463.48
408.023	459.86
408.401	458.28
408.779	438.62
409.156	453.31
409.534	455.12
409.912	439.52
410.29	494.21
410.667	474.32
411.045	474.55
411.422	496.7
411.8	479.97
412.178	479.3
412.555	493.08
412.933	496.7
413.31	512.51
413.687	513.64
414.065	514.32
414.442	520.2
414.819	509.35
415.197	513.19
415.574	514.32
415.951	512.06
416.328	531.95
416.705	502.8
417.082	504.15
417.46	521.55
417.837	529.01
418.214	523.14
418.591	546.86
418.967	534.21
419.344	555.9
419.721	565.39
420.098	537.82
420.475	558.62
420.852	539.86
421.228	580.54
421.605	589.8
421.982	577.6
422.358	567.88
422.735	568.33
423.111	576.24
423.488	585.28
423.864	577.82
424.241	585.96
424.617	610.14
424.994	592.51
425.37	594.77
425.746	596.35
426.123	604.04
426.499	630.7
426.875	594.09
427.251	604.72
427.627	635.9
428.003	621.66
428.379	646.07
428.756	634.32
429.132	631.38
429.507	648.1
429.883	640.2
430.259	653.08
430.635	667.76
431.011	669.8
431.387	660.53
431.763	693.3
432.138	682.68
432.514	705.05
432.89	727.42
433.265	720.87
433.641	731.72
434.016	703.7
434.392	757.93
434.767	728.1
435.143	739.63
435.518	736.69
435.894	760.64
436.269	770.81
436.644	778.72
437.02	763.81
437.395	797.25
437.77	779.63
438.145	793.86
438.52	813.3
438.895	809
439.271	816.24
439.646	823.02
440.021	831.15
440.395	806.29
440.77	831.15
441.145	846.52
441.52	850.58
441.895	845.39
442.27	874.99
442.645	866.63
443.019	899.17
443.394	865.5
443.769	889.23
444.143	868.44
444.518	923.58
444.892	890.13
445.267	876.57
445.641	893.07
446.016	900.53
446.39	909.34
446.764	924.26
447.139	918.15
447.513	906.63
447.887	920.64
448.262	970.58
448.636	926.29
449.01	949.34
449.384	964.25
449.758	953.41
450.132	998.83
450.506	957.02
450.88	981.65
451.254	994.08
451.628	999.96
452.002	1031.15
452.376	1013.52
452.75	1039.51
453.123	1035.21
453.497	1083.57
453.871	1047.64
454.244	1094.87
454.618	1088.77
454.992	1100.3
455.365	1059.62
455.739	1120.18
456.112	1131.03
456.486	1147.3
456.859	1161.54
457.232	1177.81
457.606	1168.09
457.979	1190.24
458.352	1186.4
458.725	1222.33
459.099	1254.64
459.472	1237.47
459.845	1243.57
460.218	1274.53
460.591	1295.09
460.964	1295.32
461.337	1317.69
461.71	1333.96
462.083	1360.18
462.456	1381.42
462.829	1410.12
463.201	1407.86
463.574	1377.35
463.947	1430
464.32	1466.39
464.692	1474.07
465.065	1497.8
465.438	1508.65
465.81	1510.68
466.183	1542.54
466.555	1567.63
466.928	1612.37
467.3	1623.45
467.672	1614.18
468.045	1676.55
468.417	1704.57
468.789	1717.45
469.161	1742.31
469.534	1738.7
469.906	1818.47
470.278	1835.42
470.65	1858.24
471.022	1917.68
471.394	1921.29
471.766	1959.03
472.138	2004.68
472.51	2013.49
472.882	2092.81
473.253	2147.95
473.625	2149.99
473.997	2224.33
474.369	2240.15
474.74	2316.76
475.112	2299.36
475.484	2348.62
475.855	2474.72
476.227	2502.74
476.598	2558.56
476.97	2588.84
477.341	2691.44
477.713	2762.4
478.084	2802.62
478.455	2890.08
478.827	2972.11
479.198	3035.39
479.569	3117.87
479.94	3224.08
480.311	3275.83
480.682	3384.53
481.053	3485.32
481.424	3627.24
481.795	3653.9
482.166	3743.39
482.537	3878.53
482.908	3977.06
483.279	4037.17
483.65	4142.93
484.021	4283.26
484.391	4364.39
484.762	4492.07
485.133	4549.47
485.503	4656.59
485.874	4857.03
486.244	4952.85
486.615	5052.96
486.985	5186.97
487.356	5344.7
487.726	5441.88
488.097	5593.96
488.467	5672.83
488.837	5856.33
489.207	5998.25
489.578	6063.56
489.948	6294.74
490.318	6418.57
490.688	6518.46
491.058	6648.17
491.428	6806.36
491.798	6983.53
492.168	7163.19
492.538	7200.93
492.908	7413.12
493.278	7564.76
493.648	7618.32
494.017	7724.53
494.387	7921.59
494.757	8019.44
495.126	8204.29
495.496	8240.9
495.866	8391.18
496.235	8536.26
496.605	8677.05
496.974	8841.56
497.344	8945.74
497.713	8988.22
498.082	9163.36
498.452	9293.07
498.821	9350.7
499.19	9460.75
499.559	9600.41
499.928	9767.19
500.298	9768.77
500.667	9963.34
501.036	9987.52
501.405	10122.21
501.774	10235.65
502.143	10281.52
502.512	10386.61
502.88	10487.39
503.249	10589.54
503.618	10567.84
503.987	10773.04
504.356	10811.45
504.724	10899.36
505.093	10978.23
505.462	11031.33
505.83	11115.63
506.199	11202.18
506.567	11393.13
506.936	11410.08
507.304	11550.19
507.672	11584.99
508.041	11603.3
508.409	11704.54
508.777	11795.61
509.145	11973.91
509.514	11891.42
509.882	11992.89
510.25	12026.79
510.618	12134.13
510.986	12192.43
511.354	12254.13
511.722	12433.33
512.09	12488.47
512.458	12421.13
512.826	12576.38
513.193	12616.38
513.561	12543.84
513.929	12651.4
514.297	12744.06
514.664	12785.19
515.032	12847.11
515.4	12863.6
515.767	12955.58
516.135	12992.19
516.502	12895.92
516.869	13081.9
517.237	13047.1
517.604	13078.51
517.972	13204.16
518.339	13198.96
518.706	13268.56
519.073	13311.27
519.44	13317.83
519.808	13396.47
520.175	13416.36
520.542	13490.7
520.909	13610.02
521.276	13446.64
521.643	13611.38
522.009	13687.54
522.376	13718.5
522.743	13745.84
523.11	13805.5
523.477	13805.72
523.843	13814.99
524.21	14005.72
524.577	14024.48
524.943	13977.47
525.31	14085.04
525.676	14134.08
526.043	14108.54
526.409	14201.42
526.776	14252.72
527.142	14243.45
527.508	14228.54
527.874	14349.21
528.241	14270.35
528.607	14268.09
528.973	14367.52
529.339	14309.44
529.705	14421.08
530.071	14489.55
530.437	14419.49
530.803	14511.69
531.169	14479.83
531.535	14503.79
531.901	14428.76
532.267	14490.23
532.632	14456.78
532.998	14546.95
533.364	14467.4
533.73	14522.99
534.095	14465.82
534.461	14469.21
534.826	14463.79
535.192	14445.71
535.557	14526.38
535.923	14419.04
536.288	14499.49
536.653	14447.97
537.019	14323.23
537.384	14360.74
537.749	14352.15
538.114	14283.68
538.479	14261.31
538.845	14341.76
539.21	14258.59
539.575	14250.91
539.94	14245.94
540.305	14280.51
540.67	14159.84
541.034	14230.12
541.399	14145.6
541.764	14171.82
542.129	14157.81
542.494	14106.06
542.858	13993.97
543.223	14053.4
543.587	13967.53
543.952	13979.05
544.316	13976.34
544.681	13871.71
545.045	13923.46
545.41	13945.61
545.774	13835.78
546.138	13779.06
546.503	13873.75
546.867	13689.34
547.231	13821.09
547.595	13761.21
547.959	13721.43
548.324	13685.5
548.688	13690.47
549.052	13641.44
549.416	13598.27
549.779	13566.63
550.143	13523.02
550.507	13628.55
550.871	13544.49
551.235	13429.92
551.599	13519.63
551.962	13428.11
552.326	13437.82
552.689	13447.54
553.053	13406.41
553.417	13289.81
553.78	13491.61
554.143	13303.59
554.507	13278.96
554.87	13233.31
555.234	13366.64
555.597	13294.33
555.96	13275.34
556.323	13284.38
556.686	13190.6
557.05	13288.9
557.413	13228.34
557.776	13256.81
558.139	13330.48
558.502	13208.45
558.865	13193.09
559.228	13306.98
559.59	13217.04
559.953	13300.43
560.316	13354.66
560.679	13249.36
561.041	13334.1
561.404	13296.36
561.767	13436.47
562.129	13338.84
562.492	13380.2
562.854	13328.9
563.217	13286.87
563.579	13388.79
563.941	13364.38
564.304	13419.52
564.666	13497.48
565.028	13457.49
565.39	13440.76
565.753	13451.84
566.115	13494.55
566.477	13638.72
566.839	13530.7
567.201	13624.71
567.563	13502.68
567.925	13613.64
568.287	13628.1
568.648	13550.82
569.01	13669.68
569.372	13700.64
569.734	13641.44
570.095	13760.08
570.457	13668.33
570.819	13730.02
571.18	13664.49
571.542	13738.16
571.903	13725.73
572.265	13744.26
572.626	13776.35
572.987	13800.53
573.349	13817.25
573.71	13843.01
574.071	13847.98
574.432	13860.64
574.794	13933.63
575.155	13830.36
575.516	13861.54
575.877	13913.29
576.238	13920.07
576.599	13946.29
576.96	13880.52
577.32	13889.79
577.681	13936.79
578.042	13915.33
578.403	13895.67
578.763	14006.17
579.124	13936.34
579.485	13909.68
579.845	13987.41
580.206	13865.38
580.566	13974.31
580.927	13908.77
581.287	14002.78
581.648	13962.1
582.008	14007.98
582.368	13984.93
582.728	14039.84
583.089	13982.22
583.449	13962.78
583.809	13967.3
584.169	13980.18
584.529	13917.36
584.889	13998.26
585.249	13880.98
585.609	13921.65
585.969	13935.66
586.329	13936.57
586.688	13908.32
587.048	13864.48
587.408	13834.88
587.768	13843.69
588.127	13828.55
588.487	13811.83
588.846	13927.98
589.206	13837.59
589.565	13786.52
589.925	13786.74
590.284	13788.55
590.643	13802.79
591.003	13819.06
591.362	13764.37
591.721	13805.72
592.08	13837.81
592.44	13798.49
592.799	13803.46
593.158	13743.35
593.517	13754.65
593.876	13784.48
594.235	13739.06
594.593	13712.62
594.952	13709.46
595.311	13806.85
595.67	13753.52
596.029	13796.69
596.387	13796.91
596.746	13789.91
597.104	13740.42
597.463	13744.48
597.822	13786.74
598.18	13696.8
598.538	13683.02
598.897	13672.85
599.255	13568.89
599.613	13839.62
599.972	13789
600.33	13815.67
600.688	13713.75
601.046	13695.22
601.404	13852.95
601.762	13757.59
602.12	13760.98
602.478	13769.34
602.836	13697.93
603.194	13669
603.552	13727.99
603.91	13716.46
604.268	13775.67
604.625	13649.34
604.983	13760.98
605.341	13692.51
605.698	13733.64
606.056	13734.31
606.413	13714.65
606.771	13782.45
607.128	13688.89
607.485	13685.95
607.843	13742.68
608.2	13760.3
608.557	13915.1
608.914	13771.83
609.272	13829.23
609.629	13866.97
609.986	13855.89
610.343	13839.4
610.7	13895.89
611.057	13939.96
611.414	13906.51
611.771	13870.58
612.127	13951.03
612.484	13892.28
612.841	13944.48
613.198	13931.14
613.554	13916.91
613.911	14042.33
614.267	14037.36
614.624	13938.83
614.98	14024.02
615.337	14079.62
615.693	14061.76
616.05	14049.11
616.406	14033.74
616.762	14072.84
617.118	14008.21
617.475	14093.63
617.831	14118.71
618.187	14025.38
618.543	14025.15
618.899	14109.67
619.255	14253.62
619.611	14116.45
619.967	14162.33
620.323	14188.99
620.678	14132.95
621.034	14075.32
621.39	14176.79
621.746	14073.29
622.101	14273.73
622.457	14155.55
622.812	14158.26
623.168	14248.2
623.523	14191.93
623.879	14311.93
624.234	14175.43
624.589	14172.72
624.945	14169.1
625.3	14094.98
625.655	14207.97
626.01	14210.91
626.365	14260.85
626.72	14144.47
627.075	14166.62
627.43	14148.99
627.785	14194.87
628.14	14084.81
628.495	14218.82
628.85	14132.5
629.205	14145.38
629.559	14218.14
629.914	14155.77
630.269	14165.72
630.623	14075.77
630.978	14046.62
631.332	14113.97
631.687	14136.79
632.041	14073.06
632.396	14093.63
632.75	14091.59
633.104	14033.29
633.459	14001.2
633.813	13970.24
634.167	13947.87
634.521	13871.71
634.875	13965.49
635.229	13907.87
635.583	13836.46
635.937	13833.97
636.291	13825.61
636.645	13839.4
636.999	13771.15
637.352	13825.16
637.706	13745.61
638.06	13782.45
638.413	13725.05
638.767	13771.38
639.121	13749.23
639.474	13709.23
639.828	13669.23
640.181	13657.25
640.534	13713.3
640.888	13566.86
641.241	13547.2
641.594	13652.51
641.947	13697.48
642.301	13636.69
642.654	13660.64
643.007	13668.78
643.36	13636.92
643.713	13539.74
644.066	13689.8
644.419	13531.38
644.771	13478.73
645.124	13340.43
645.477	13271.5
645.83	13232.86
646.182	13150.83
646.535	13196.7
646.888	13179.3
647.24	13028.57
647.593	13068.79
647.945	13064.5
648.298	12986.99
648.65	13010.72
649.002	13000.32
649.355	13091.62
649.707	13062.92
650.059	13164.61
650.411	13216.59
650.763	13266.98
651.115	13450.93
651.467	13390.37
651.819	13436.02
652.171	13431.05
652.523	13353.99
652.875	13321.44
653.227	13332.29
653.578	13415.45
653.93	13459.07
654.282	13318.96
654.633	13354.21
654.985	13350.14
655.337	13363.93
655.688	13332.29
656.039	13447.54
656.391	13278.73
656.742	13255
657.094	13324.38
657.445	13370.93
657.796	13295.46
658.147	13337.94
658.498	13288.68
658.849	13372.29
659.2	13375
659.551	13274.44
659.902	13383.36
660.253	13250.26
660.604	13338.39
660.955	13317.15
661.306	13319.64
661.656	13330.26
662.007	13343.36
662.358	13384.94
662.708	13355.34
663.059	13355.11
663.409	13293.65
663.76	13385.4
664.11	13329.8
664.461	13399.63
664.811	13417.03
665.161	13418.62
665.511	13289.58
665.862	13383.36
666.212	13400.99
666.562	13385.17
666.912	13449.8
667.262	13377.71
667.612	13383.14
667.962	13377.94
668.312	13390.37
668.662	13458.16
669.011	13409.35
669.361	13398.28
669.711	13304.27
670.06	13395.79
670.41	13335.23
670.76	13286.64
671.109	13300.2
671.459	13292.29
671.808	13316.47
672.157	13331.16
672.507	13212.07
672.856	13220.43
673.205	13264.72
673.554	13252.52
673.904	13238.28
674.253	13317.15
674.602	13218.85
674.951	13121.45
675.3	12999.42
675.649	13195.35
675.998	13223.82
676.346	13273.08
676.695	13249.36
677.044	13108.79
677.393	13104.27
677.741	13126.65
678.09	13078.51
678.438	13109.02
678.787	13099.75
679.135	13153.76
679.484	13100.88
679.832	13044.61
680.181	12976.82
680.529	13117.38
680.877	12976.59
681.225	12959.19
681.573	12968.68
681.922	12902.47
682.27	12820.44
682.618	12902.25
682.966	12761.01
683.314	12763.72
683.661	12817.28
684.009	12763.94
684.357	12750.84
684.705	12684.85
685.053	12688.47
685.4	12660.9
685.748	12593.78
686.095	12627.45
686.443	12518.53
686.79	12538.87
687.138	12535.93
687.485	12490.73
687.832	12504.52
688.18	12392.43
688.527	12510.39
688.874	12342.49
689.221	12370.96
689.568	12378.19
689.915	12244.41
690.262	12280.11
690.609	12189.72
690.956	12165.99
691.303	12194.69
691.65	12109.95
691.997	12076.05
692.344	12101.59
692.69	12058.65
693.037	11865.66
693.383	11839.67
693.73	11862.5
694.077	11809.62
694.423	11770.07
694.769	11776.4
695.116	11755.61
695.462	11743.18
695.808	11634.48
696.155	11664.76
696.501	11545.9
696.847	11614.6
697.193	11464.54
697.539	11594.94
697.885	11420.93
698.231	11326.47
698.577	11395.84
698.923	11382.51
699.269	11287.37
699.614	11217.54
699.96	11194.49
700.306	11225.45
700.651	11204.66
700.997	11080.37
701.342	11104.55
701.688	11010.54
702.033	10992.92
702.379	10969.64
702.724	10908.63
703.069	10962.86
703.415	10848.74
703.76	10841.96
704.105	10815.97
704.45	10788.63
704.795	10756.54
705.14	10685.81
705.485	10652.81
705.83	10606.26
706.175	10629.76
706.52	10619.59
706.865	10627.5
707.209	10601.74
707.554	10522.42
707.899	10479.94
708.243	10472.48
708.588	10342.31
708.932	10407.4
709.277	10306.61
709.621	10311.58
709.966	10290.79
710.31	10210.34
710.654	10123.56
710.998	10194.52
711.342	10137.12
711.687	10159.94
712.031	10114.75
712.375	10025.71
712.719	10061.42
713.063	10132.6
713.407	10102.77
713.75	9952.49
714.094	9979.84
714.438	10004.92
714.782	9980.06
715.125	9911.36
715.469	9903
715.812	9845.38
716.156	9817.58
716.499	9846.51
716.843	9888.77
717.186	9811.93
717.53	9896
717.873	9813.29
718.216	9822.33
718.559	9763.57
718.902	9678.6
719.246	9705.49
719.589	9670.69
719.932	9664.36
720.275	9744.14
720.617	9705.95
720.96	9673.86
721.303	9648.32
721.646	9685.83
721.989	9584.82
722.331	9616.68
722.674	9610.58
723.016	9549.11
723.359	9529
723.701	9551.83
724.044	9559.73
724.386	9473.41
724.729	9546.85
725.071	9485.84
725.413	9503.69
725.755	9447.65
726.097	9484.26
726.439	9470.7
726.782	9451.49
727.124	9471.83
727.465	9462.34
727.807	9394.54
728.149	9375.78
728.491	9374.43
728.833	9430.02
729.175	9406.29
729.516	9369.46
729.858	9359.51
730.199	9388.67
730.541	9368.1
730.882	9350.93
731.224	9380.76
731.565	9319.51
731.906	9372.62
732.248	9389.34
732.589	9330.36
732.93	9314.77
733.271	9354.77
733.612	9321.77
733.953	9318.84
734.294	9324.03
734.635	9275.67
734.976	9366.52
735.317	9338.72
735.658	9236.35
735.999	9294.2
736.339	9341.21
736.68	9365.16
737.021	9303.47
737.361	9317.48
737.702	9385.73
738.042	9324.26
738.383	9307.09
738.723	9337.59
739.063	9409.91
739.404	9348.21
739.744	9450.36
740.084	9393.41
740.424	9349.57
740.764	9414.88
741.104	9395.67
741.444	9372.17
741.784	9403.35
742.124	9462.56
742.464	9443.35
742.804	9477.7
743.143	9392.96
743.483	9529.45
743.823	9526.06
744.162	9479.74
744.502	9559.51
744.841	9496.23
745.181	9630.47
745.52	9665.95
745.86	9653.74
746.199	9711.82
746.538	9730.8
746.877	9754.53
747.216	9847.41
747.556	9872.72
747.895	9908.2
748.234	9933.74
748.573	9968.76
748.911	9980.97
749.25	10118.59
749.589	10061.42
749.928	10211.69
750.267	10246.5
750.605	10320.84
750.944	10309.32
751.283	10455.08
751.621	10526.49
751.96	10541.18
752.298	10614.17
752.636	10617.56
752.975	10768.97
753.313	10894.61
753.651	11044.44
753.989	11065.91
754.327	11204.44
754.666	11322.4
755.004	11385.68
755.342	11509.51
755.679	11637.87
756.017	11741.6
756.355	11895.49
756.693	11969.61
757.031	12179.78
757.368	12254.58
757.706	12414.8
758.044	12514.23
