Data from hue_00_FLMS001491_48.txt Node
Date: Mon Feb 06 15:29:46 GMT 2017
User: dcchb
Spectrometer: FLMS00149
Trigger mode: 0
Integration Time (sec): 2.000000E-2
Scans to average: 10
Electric dark correction enabled: true
Nonlinearity correction enabled: false
Boxcar width: 0
XAxis mode: Wavelengths
Number of Pixels in Spectrum: 2048
>>>>>Begin Spectral Data<<<<<
341.393	-14.03
341.776	-14.03
342.16	-14.03
342.543	-53.35
342.927	-55.61
343.31	-59.67
343.693	-87.47
344.077	-54.02
344.46	-56.06
344.843	-37.98
345.226	-46.11
345.61	-54.48
345.993	-7.7
346.376	9.7
346.759	-3.18
347.142	38.85
347.525	32.98
347.908	52.19
348.291	76.14
348.674	77.05
349.057	119.76
349.44	114.11
349.823	121.34
350.206	163.37
350.588	218.74
350.971	216.03
351.354	215.8
351.737	248.57
352.119	250.6
352.502	239.3
352.884	287.89
353.267	260.09
353.65	293.09
354.032	291.73
354.414	306.42
354.797	303.03
355.179	320.66
355.562	310.94
355.944	311.62
356.326	338.73
356.709	321.56
357.091	321.56
357.473	356.36
357.855	319.98
358.238	346.19
358.62	312.97
359.002	331.05
359.384	350.49
359.766	336.25
360.148	337.6
360.53	333.76
360.912	362.46
361.294	305.51
361.676	337.15
362.057	330.37
362.439	345.51
362.821	315.68
363.203	326.76
363.584	292.86
363.966	322.69
364.348	313.65
364.729	323.59
365.111	335.12
365.493	326.76
365.874	328.56
366.256	294.89
366.637	324.72
367.019	324.95
367.4	321.11
367.781	310.71
368.163	299.86
368.544	315.23
368.925	295.12
369.306	307.77
369.688	334.89
370.069	320.2
370.45	320.88
370.831	309.81
371.212	323.82
371.593	301.45
371.974	339.64
372.355	322.92
372.736	296.93
373.117	306.42
373.498	326.08
373.879	325.4
374.26	309.58
374.641	294.22
375.021	314.78
375.402	323.59
375.783	340.32
376.163	322.69
376.544	309.81
376.925	315.91
377.305	326.53
377.686	326.98
378.066	327.43
378.447	324.27
378.827	335.8
379.208	343.25
379.588	314.1
379.968	319.98
380.349	322.24
380.729	337.6
381.109	318.17
381.489	332.41
381.87	331.73
382.25	343.03
382.63	344.84
383.01	352.74
383.39	336.93
383.77	343.48
384.15	336.25
384.53	336.93
384.91	349.13
385.29	359.3
385.67	329.24
386.049	357.94
386.429	347.32
386.809	352.52
387.189	359.98
387.568	326.76
387.948	354.1
388.328	342.12
388.707	339.19
389.087	368.79
389.466	353.87
389.846	356.81
390.225	348
390.605	333.08
390.984	352.74
391.363	366.76
391.743	346.87
392.122	364.72
392.501	344.61
392.881	385.06
393.26	358.17
393.639	352.52
394.018	366.53
394.397	399.75
394.776	381.22
395.155	379.86
395.534	350.03
395.913	369.02
396.292	392.07
396.671	403.82
397.05	397.04
397.429	377.6
397.808	383.25
398.186	369.69
398.565	407.66
398.944	388.68
399.323	381.9
399.701	378.96
400.08	385.29
400.458	387.55
400.837	402.69
401.215	418.28
401.594	406.53
401.972	403.82
402.351	391.39
402.729	401.78
403.107	393.42
403.486	410.14
403.864	401.33
404.242	388.22
404.62	402.24
404.999	421.22
405.377	401.78
405.755	403.14
406.133	421.44
406.511	404.72
406.889	391.61
407.267	408.56
407.645	420.77
408.023	418.28
408.401	406.53
408.779	412.86
409.156	438.17
409.534	432.97
409.912	418.51
410.29	452.18
410.667	439.07
411.045	458.05
411.422	443.82
411.8	433.19
412.178	449.69
412.555	448.56
412.933	452.18
413.31	453.31
413.687	451.5
414.065	462.8
414.442	465.74
414.819	463.48
415.197	462.57
415.574	461.22
415.951	482.01
416.328	475.45
416.705	451.73
417.082	492.85
417.46	500.76
417.837	492.85
418.214	491.5
418.591	493.98
418.967	513.19
419.344	516.81
419.721	498.28
420.098	484.49
420.475	504.15
420.852	526.75
421.228	496.7
421.605	508.45
421.982	523.59
422.358	524.49
422.735	519.07
423.111	534.44
423.488	502.35
423.864	528.79
424.241	550.93
424.617	521.33
424.994	550.48
425.37	524.27
425.746	538.28
426.123	559.97
426.499	567.65
426.875	570.82
427.251	587.09
427.627	567.2
428.003	576.47
428.379	580.99
428.756	560.88
429.132	574.89
429.507	602.91
429.883	583.25
430.259	579.86
430.635	592.74
431.011	609.91
431.387	607.43
431.763	603.81
432.138	614.88
432.514	606.3
432.89	630.48
433.265	649.01
433.641	637.71
434.016	630.7
434.392	658.95
434.767	668.44
435.143	661.66
435.518	667.54
435.894	680.19
436.269	654.21
436.644	675.45
437.02	691.49
437.395	684.04
437.77	684.49
438.145	674.54
438.52	680.65
438.895	699.85
439.271	704.15
439.646	700.08
440.021	725.62
440.395	732.62
440.77	717.93
441.145	738.05
441.52	723.81
441.895	737.37
442.27	731.94
442.645	757.48
443.019	740.31
443.394	725.62
443.769	736.69
444.143	763.36
444.518	754.54
444.892	791.15
445.267	786.86
445.641	789.57
446.016	791.83
446.39	799.29
446.764	791.15
447.139	784.15
447.513	780.76
447.887	811.26
448.262	788.67
448.636	780.98
449.01	813.3
449.384	833.18
449.758	804.71
450.132	797.71
450.506	831.38
450.88	827.76
451.254	840.87
451.628	834.31
452.002	836.57
452.376	873.18
452.75	868.66
453.123	876.12
453.497	869.57
453.871	889.68
454.244	904.59
454.618	923.13
454.992	913.63
455.365	911.6
455.739	893.52
456.112	933.52
456.486	935.1
456.859	933.97
457.232	956.12
457.606	941.66
457.979	954.76
458.352	976.01
458.725	973.97
459.099	1001.99
459.472	994.54
459.845	981.43
460.218	1020.75
460.591	1020.3
460.964	1018.72
461.337	1085.38
461.71	1065.72
462.083	1075.89
462.456	1072.95
462.829	1095.78
463.201	1100.07
463.574	1082.22
463.947	1101.2
464.32	1131.71
464.692	1134.87
465.065	1128.77
465.438	1150.24
465.81	1178.94
466.183	1159.73
466.555	1223.91
466.928	1189.79
467.3	1205.15
467.672	1255.09
468.045	1248.54
468.417	1242.21
468.789	1269.56
469.161	1275.21
469.534	1292.61
469.906	1340.29
470.278	1346.17
470.65	1328.54
471.022	1370.12
471.394	1379.61
471.766	1385.03
472.138	1416.9
472.51	1425.03
472.882	1462.77
473.253	1500.96
473.625	1496.44
473.997	1552.26
474.369	1546.39
474.74	1552.04
475.112	1594.52
475.484	1657.12
475.855	1666.38
476.227	1639.72
476.598	1724.23
476.97	1723.33
477.341	1749.54
477.713	1758.36
478.084	1811.24
478.455	1810.56
478.827	1860.05
479.198	1910.9
479.569	1913.16
479.94	1937.11
480.311	1988.86
480.682	2018.69
481.053	2051.46
481.424	2105.24
481.795	2115.64
482.166	2131.46
482.537	2192.7
482.908	2221.85
483.279	2251
483.65	2311.79
484.021	2345.23
484.391	2405.35
484.762	2382.97
485.133	2408.96
485.503	2450.54
485.874	2518.56
486.244	2529.41
486.615	2579.35
486.985	2622.29
487.356	2653.7
487.726	2684.21
488.097	2764.43
488.467	2755.85
488.837	2840.82
489.207	2839.23
489.578	2928.95
489.948	2932.56
490.318	2973.02
490.688	2989.51
491.058	2992.45
491.428	3099.34
491.798	3096.18
492.168	3144.76
492.538	3187.47
492.908	3215.04
493.278	3248.26
493.648	3279
494.017	3317.86
494.387	3376.39
494.757	3369.39
495.126	3441.03
495.496	3415.49
495.866	3496.39
496.235	3534.13
496.605	3523.96
496.974	3567.58
497.344	3591.98
497.713	3618.42
498.082	3671.3
498.452	3694.8
498.821	3666.33
499.19	3691.87
499.559	3752.88
499.928	3748.59
500.298	3741.81
500.667	3791.52
501.036	3839.43
501.405	3856.16
501.774	3851.86
502.143	3920.11
502.512	3913.78
502.88	3951.52
503.249	3941.35
503.618	3972.54
503.987	4031.52
504.356	4012.08
504.724	3994.01
505.093	4036.72
505.462	4081.23
505.83	4074
506.199	4088.24
506.567	4175.92
506.936	4188.35
507.304	4194
507.672	4219.76
508.041	4239.42
508.409	4231.51
508.777	4218.41
509.145	4291.4
509.514	4315.8
509.882	4356.26
510.25	4323.26
510.618	4359.42
510.986	4378.85
511.354	4417.5
511.722	4441.9
512.09	4466.31
512.458	4463.37
512.826	4501.34
513.193	4523.03
513.561	4481.22
513.929	4524.61
514.297	4571.17
514.664	4575.01
515.032	4583.82
515.4	4620.43
515.767	4623.59
516.135	4641.22
516.502	4615.46
516.869	4654.78
517.237	4741.1
517.604	4652.29
517.972	4733.87
518.339	4751.73
518.706	4732.29
519.073	4783.59
519.44	4770.71
519.808	4874.66
520.175	4819.52
520.542	4850.71
520.909	4866.98
521.276	4901.33
521.643	4909.46
522.009	4921.21
522.376	4977.71
522.743	4919.86
523.11	4998.72
523.477	5012.74
523.843	5056.35
524.21	5129.79
524.577	5130.7
524.943	5135.67
525.31	5171.38
525.676	5200.08
526.043	5229.68
526.409	5219.96
526.776	5250.02
527.142	5333.63
527.508	5344.48
527.874	5360.75
528.241	5415.21
528.607	5446.17
528.973	5456.57
529.339	5470.58
529.705	5448.88
530.071	5542.89
530.437	5544.25
530.803	5578.6
531.169	5547.18
531.535	5586.51
531.901	5619.27
532.267	5668.99
532.632	5695.66
532.998	5658.82
533.364	5761.19
533.73	5769.1
534.095	5833.05
534.461	5779.04
534.826	5843.22
535.192	5881.87
535.557	5917.8
535.923	5895.88
536.288	5936.33
536.653	5931.58
537.019	5950.56
537.384	5953.5
537.749	6022.88
538.114	6021.07
538.479	6029.21
538.845	6071.69
539.21	6097.68
539.575	6107.17
539.94	6118.7
540.305	6167.73
540.67	6207.05
541.034	6212.48
541.399	6276.43
541.764	6231.91
542.129	6236.88
542.494	6324.11
542.858	6341.51
543.223	6318.46
543.587	6425.13
543.952	6433.04
544.316	6423.55
544.681	6450.66
545.045	6503.32
545.41	6496.99
545.774	6505.13
546.138	6496.54
546.503	6556.42
546.867	6553.03
547.231	6664.44
547.595	6652.69
547.959	6651.11
548.324	6687.27
548.688	6734.27
549.052	6704.67
549.416	6786.47
549.779	6720.71
550.143	6766.81
550.507	6800.49
550.871	6878.68
551.235	6831.22
551.599	6870.54
551.962	6952.35
552.326	6948.73
552.689	7002.51
553.053	6979.92
553.417	7010.65
553.78	7066.24
554.143	7078.22
554.507	7091.1
554.87	7098.56
555.234	7166.13
555.597	7126.13
555.96	7122.96
556.323	7159.35
556.686	7176.07
557.05	7172.45
557.413	7294.03
557.776	7293.35
558.139	7300.36
558.502	7336.29
558.865	7436.4
559.228	7423.29
559.59	7414.03
559.953	7451.09
560.316	7476.4
560.679	7513.91
561.041	7567.24
561.404	7516.17
561.767	7598.88
562.129	7550.3
562.492	7661.25
562.854	7647.92
563.217	7682.27
563.579	7673.23
563.941	7738.54
564.304	7719.56
564.666	7803.4
565.028	7805.2
565.39	7816.73
565.753	7865.32
566.115	7826.67
566.477	7906.9
566.839	7957.06
567.201	8012.43
567.563	7977.18
567.925	8053.33
568.287	8044.29
568.648	8035.93
569.01	8143.95
569.372	8206.78
569.734	8111.86
570.095	8229.6
570.457	8228.47
570.819	8255.81
571.18	8343.72
571.542	8264.85
571.903	8303.27
572.265	8461.91
572.626	8429.14
572.987	8469.59
573.349	8564.28
573.71	8555.69
574.071	8654
574.432	8709.14
574.794	8797.95
575.155	8811.96
575.516	8773.31
575.877	8865.29
576.238	8980.77
576.599	9008.11
576.96	9039.52
577.32	9146.19
577.681	9214.66
578.042	9314.77
578.403	9359.29
578.763	9360.42
579.124	9510.02
579.485	9639.28
579.845	9706.85
580.206	9802.44
580.566	9891.93
580.927	10042.21
581.287	10183.9
581.648	10194.07
582.008	10364.91
582.368	10548.64
582.728	10654.17
583.089	10786.37
583.449	10894.16
583.809	11111.56
584.169	11203.99
584.529	11309.29
584.889	11569.17
585.249	11707.7
585.609	11808.49
585.969	12153.79
586.329	12281.02
586.688	12468.13
587.048	12667.68
587.408	12871.74
587.768	13104.05
588.127	13299.98
588.487	13471.27
588.846	13810.7
589.206	13856.34
589.565	14161.2
589.925	14508.98
590.284	14629.21
590.643	14835.75
591.003	15216.08
591.362	15498.56
591.721	15694.04
592.08	15990.98
592.44	16290.4
592.799	16445.88
593.158	16705.31
593.517	16977.84
593.876	17305.97
594.235	17584.38
594.593	17844.26
594.952	18170.81
595.311	18361.09
595.67	18620.97
596.029	19067.96
596.387	19442.41
596.746	19661.16
597.104	19791.56
597.463	20062.51
597.822	20539.11
598.18	20645.77
598.538	20949.72
598.897	21291.86
599.255	21514.67
599.613	22169.35
599.972	22139.74
600.33	22501.54
600.688	22619.28
601.046	23045.03
601.404	23348.52
601.762	23631
602.12	23858.34
602.478	24154.38
602.836	24417.65
603.194	24595.72
603.552	24887.69
603.91	25123.39
604.268	25308.92
604.625	25540.33
604.983	25930.6
605.341	25927.89
605.698	26474.09
606.056	26740.98
606.413	26890.58
606.771	27157.46
607.128	27400.17
607.485	27490.11
607.843	27809.88
608.2	28084.9
608.557	28350.65
608.914	28558.33
609.272	28859.34
609.629	29077.41
609.986	29325.99
610.343	29468.59
610.7	29807.34
611.057	29935.7
611.414	30094.79
611.771	30334.33
612.127	30539.75
612.484	30716.01
612.841	30945.61
613.198	31071.94
613.554	31235.32
613.911	31484.36
614.267	31680.51
614.624	31704.46
614.98	32006.6
615.337	32177.44
615.693	32301.28
616.05	32449.75
616.406	32797.32
616.762	32833.47
617.118	32840.48
617.475	33034.6
617.831	33295.16
618.187	33508.71
618.543	33529.95
618.899	33842.71
619.255	33871.86
619.611	33911.41
619.967	34242.93
620.323	34384.39
620.678	34386.2
621.034	34397.05
621.39	34481.79
621.746	34404.96
622.101	34999.52
622.457	34772.4
622.812	34876.58
623.168	35163.58
623.523	35281.09
623.879	35363.35
624.234	35231.38
624.589	35402.67
624.945	35523.8
625.3	35699.39
625.655	35619.61
626.01	35800.4
626.365	35945.26
626.72	35898.48
627.075	35891.25
627.43	36015.31
627.785	35874.52
628.14	36130.56
628.495	35982.09
628.85	36241.29
629.205	36164.68
629.559	36446.71
629.914	36218.69
630.269	36422.08
630.623	36388.41
630.978	36362.87
631.332	36553.83
631.687	36766.02
632.041	36584.79
632.396	36665.69
632.75	36582.53
633.104	36615.29
633.459	36449.65
633.813	36537.78
634.167	36639.02
634.521	36613.71
634.875	36652.13
635.229	36753.37
635.583	36474.51
635.937	36462.53
636.291	36448.07
636.645	36530.78
636.999	36622.53
637.352	36692.81
637.706	36567.61
638.06	36658.68
638.413	36655.29
638.767	36593.37
639.121	36604
639.474	36397.45
639.828	36522.87
640.181	36516.77
640.534	36609.19
640.888	36620.27
641.241	36432.02
641.594	36551.34
641.947	36465.24
642.301	36534.17
642.654	36447.39
643.007	36526.94
643.36	36558.57
643.713	36473.38
644.066	36576.43
644.419	36340.95
644.771	36110.22
645.124	35797.69
645.477	35713.17
645.83	35557.92
646.182	35536.68
646.535	35357.7
646.888	35506.4
647.24	35299.17
647.593	35579.62
647.945	35288.1
648.298	35337.14
648.65	35205.61
649.002	35106.18
649.355	35378.49
649.707	35123.13
650.059	35444.48
650.411	35791.14
650.763	35739.84
651.115	36114.74
651.467	36127.17
651.819	36229.77
652.171	36146.15
652.523	35979.38
652.875	36036.55
653.227	36001.3
653.578	36159.04
653.93	36077.46
654.282	35875.88
654.633	35863.9
654.985	35956.78
655.337	35848.08
655.688	35957.46
656.039	36007.17
656.391	35623.68
656.742	35810.8
657.094	35796.78
657.445	35961.75
657.796	35913.39
658.147	35719.27
658.498	35664.36
658.849	35844.92
659.2	35826.61
659.551	35550.69
659.902	35888.53
660.253	35683.57
660.604	35837.01
660.955	35675.66
661.306	35737.58
661.656	35827.97
662.007	35686.05
662.358	35801.08
662.708	35740.52
663.059	35611.93
663.409	35584.59
663.76	35833.39
664.11	35649.44
664.461	35703.68
664.811	35699.16
665.161	35672.72
665.511	35593.17
665.862	35712.27
666.212	35624.81
666.562	35775.99
666.912	35581.65
667.262	35667.97
667.612	35714.08
667.962	35691.48
668.312	35553.18
668.662	35637.92
669.011	35599.28
669.361	35598.15
669.711	35583.68
670.06	35469.11
670.41	35470.01
670.76	35430.92
671.109	35592.72
671.459	35444.7
671.808	35365.38
672.157	35543.23
672.507	35321.99
672.856	35300.98
673.205	35413.07
673.554	35517.24
673.904	35398.38
674.253	35562.21
674.602	35338.27
674.951	34872.97
675.3	34700.09
675.649	35448.55
675.998	35278.61
676.346	35266.63
676.695	35364.48
677.044	35109.35
677.393	35289
677.741	35339.62
678.09	35145.05
678.438	35097.82
678.787	35101.21
679.135	35145.73
679.484	34944.15
679.832	35029.35
680.181	34745.06
680.529	34932.63
680.877	34893.98
681.225	34834.78
681.573	35100.76
681.922	34777.83
682.27	34663.03
682.618	34703.03
682.966	34576.93
683.314	34733.99
683.661	34575.12
684.009	34419.65
684.357	34433.43
684.705	34185.53
685.053	34374.45
685.4	34222.81
685.748	34151.4
686.095	34062.37
686.443	34076.15
686.79	33930.62
687.138	34065.08
687.485	34019.43
687.832	33947.34
688.18	33936.95
688.527	33765.65
688.874	33828.47
689.221	33545.32
689.568	33506
689.915	33605.43
690.262	33422.38
690.609	33311.88
690.956	33273.24
691.303	33266.46
691.65	33030.53
691.997	33076.18
692.344	32858.33
692.69	32875.96
693.037	32805
693.383	32685
693.73	32894.26
694.077	32585.12
694.423	32652.01
694.769	32424.9
695.116	32460.83
695.462	32440.26
695.808	32363.65
696.155	32242.08
696.501	32064.68
696.847	32113.27
697.193	31813.16
697.539	32037.34
697.885	31694.97
698.231	31718.7
698.577	31671.92
698.923	31542.66
699.269	31358.94
699.614	31224.93
699.96	31272.38
700.306	31095.67
700.651	31100.19
700.997	30962.56
701.342	30972.5
701.688	30847.76
702.033	30809.12
702.379	30881.21
702.724	30753.98
703.069	30861.77
703.415	30494.33
703.76	30363.48
704.105	30465.63
704.45	30429.02
704.795	30181.79
705.14	30149.02
705.485	30048.69
705.83	30012.3
706.175	29970.95
706.52	29902.93
706.865	29835.13
707.209	29791.74
707.554	29691.41
707.899	29715.14
708.243	29531.86
708.588	29548.36
708.932	29394.24
709.277	29341.81
709.621	29376.61
709.966	29127.81
710.31	29278.99
710.654	28970.3
710.998	28993.12
711.342	28999
711.687	28955.38
712.031	28803.97
712.375	28734.6
712.719	28723.98
713.063	28611.44
713.407	28717.42
713.75	28479.24
714.094	28657.09
714.438	28410.09
714.782	28399.01
715.125	28310.65
715.469	28385.91
715.812	28096.87
716.156	28049.19
716.499	28128.51
716.843	28203.31
717.186	28043.99
717.53	28058.68
717.873	28060.72
718.216	27978.46
718.559	27888.52
718.902	27743.66
719.246	27719.48
719.589	27717
719.932	27480.39
720.275	27553.61
720.617	27643.55
720.96	27428.42
721.303	27504.57
721.646	27452.82
721.989	27353.39
722.331	27434.07
722.674	27269.55
723.016	27273.62
723.359	27078.82
723.701	27222.55
724.044	27027.75
724.386	26979.84
724.729	27045.83
725.071	26957.7
725.413	26901.65
725.755	26952.95
726.097	26784.14
726.439	26674.31
726.782	26716.12
727.124	26851.48
727.465	26661.66
727.807	26674.99
728.149	26574.88
728.491	26632.96
728.833	26629.57
729.175	26426.41
729.516	26441.32
729.858	26403.81
730.199	26433.42
730.541	26334.89
730.882	26220.77
731.224	26336.92
731.565	26242.46
731.906	26152.97
732.248	26173.31
732.589	26018.74
732.93	25974.9
733.271	26006.76
733.612	25938.29
733.953	25965.4
734.294	25932.41
734.635	25757.05
734.976	25977.16
735.317	25759.76
735.658	25652.19
735.999	25702.13
736.339	25628.92
736.68	25672.76
737.021	25668.46
737.361	25482.93
737.702	25592.31
738.042	25534.46
738.383	25480.9
738.723	25379.88
739.063	25450.84
739.404	25464.18
739.744	25270.28
740.084	25260.79
740.424	25403.61
740.764	25229.83
741.104	25344.4
741.444	25154.13
741.784	25173.34
742.124	25207.91
742.464	25109.83
742.804	25142.83
743.143	25023.96
743.483	25018.31
743.823	24884.08
744.162	24894.02
744.502	24895.38
744.841	24736.06
745.181	24992.32
745.52	24847.92
745.86	24811.76
746.199	24727.92
746.538	24634.37
746.877	24717.53
747.216	24725.44
747.556	24709.62
747.895	24556.18
748.234	24456.07
748.573	24561.6
748.911	24599.11
749.25	24468.95
749.589	24361.38
749.928	24324.77
750.267	24407.71
750.605	24373.13
750.944	24255.85
751.283	24220.59
751.621	24235.96
751.96	24087.49
752.298	24049.75
752.636	24130.2
752.975	24026.02
753.313	23798
753.651	23955.97
753.989	23822.86
754.327	23795.74
754.666	23671.45
755.004	23725.69
755.342	23636.43
755.679	23731.34
756.017	23564.79
756.355	23596.65
756.693	23507.84
757.031	23552.36
757.368	23329.09
757.706	23401.63
758.044	23359.37
758.381	23250.22
758.719	23398.69
759.056	23163.44
759.394	23150.34
759.731	23053.84
760.068	23000.51
760.405	22884.36
760.743	22740.18
