Data from hue_320_FLMS001491_27.txt Node
Date: Mon Feb 06 15:46:59 GMT 2017
User: dcchb
Spectrometer: FLMS00149
Trigger mode: 0
Integration Time (sec): 2.000000E-2
Scans to average: 10
Electric dark correction enabled: true
Nonlinearity correction enabled: false
Boxcar width: 0
XAxis mode: Wavelengths
Number of Pixels in Spectrum: 2048
>>>>>Begin Spectral Data<<<<<
341.393	-29.43
341.776	-29.43
342.16	-29.43
342.543	-58.13
342.927	-67.17
343.31	-77.34
343.693	-71.47
344.077	-64.91
344.46	-54.52
344.843	-56.55
345.226	-56.78
345.61	-34.63
345.993	-20.62
346.376	-11.58
346.759	7.4
347.142	27.51
347.525	41.98
347.908	69.32
348.291	75.42
348.674	114.97
349.057	111.8
349.44	148.64
349.823	138.02
350.206	174.18
350.588	186.15
350.971	198.36
351.354	207.17
351.737	218.92
352.119	254.4
352.502	256.89
352.884	254.85
353.267	270.9
353.65	279.48
354.032	287.17
354.414	317.22
354.797	307.51
355.179	311.57
355.562	309.54
355.944	304.57
356.326	321.97
356.709	310.22
357.091	336.21
357.473	352.25
357.855	347.73
358.238	346.38
358.62	339.6
359.002	342.76
359.384	331.69
359.766	317.45
360.148	339.37
360.53	331.46
360.912	330.1
361.294	327.62
361.676	317.68
362.057	308.86
362.439	322.19
362.821	338.47
363.203	340.95
363.584	312.93
363.966	321.97
364.348	319.94
364.729	334.17
365.111	310.9
365.493	314.29
365.874	284.91
366.256	313.38
366.637	304.57
367.019	310.67
367.4	310.67
367.781	320.84
368.163	284.91
368.544	305.92
368.925	295.98
369.306	301.63
369.688	303.44
370.069	300.5
370.45	288.52
370.831	299.37
371.212	303.44
371.593	298.01
371.974	278.81
372.355	302.31
372.736	321.29
373.117	311.12
373.498	328.97
373.879	338.92
374.26	321.52
374.641	314.06
375.021	319.03
375.402	303.44
375.783	329.2
376.163	335.53
376.544	326.49
376.925	340.73
377.305	322.87
377.686	312.93
378.066	340.27
378.447	286.26
378.827	354.51
379.208	322.42
379.588	307.73
379.968	323.32
380.349	324.91
380.729	336.21
381.109	326.71
381.489	325.81
381.87	327.39
382.25	326.04
382.63	352.7
383.01	340.95
383.39	345.92
383.77	303.44
384.15	347.05
384.53	337.11
384.91	340.05
385.29	341.63
385.67	316.09
386.049	351.8
386.429	345.47
386.809	337.79
387.189	353.15
387.568	338.92
387.948	353.83
388.328	354.06
388.707	340.27
389.087	349.54
389.466	352.93
389.846	360.39
390.225	349.76
390.605	361.97
390.984	338.47
391.363	351.35
391.743	361.74
392.122	344.57
392.501	364.23
392.881	367.84
393.26	363.1
393.639	378.01
394.018	375.98
394.397	368.97
394.776	347.5
395.155	385.24
395.534	356.77
395.913	365.13
396.292	382.76
396.671	392.48
397.05	382.08
397.429	371.01
397.808	385.47
398.186	383.21
398.565	393.15
398.944	355.41
399.323	384.57
399.701	378.24
400.08	412.14
400.458	375.98
400.837	389.99
401.215	410.78
401.594	386.6
401.972	403.55
402.351	398.8
402.729	410.1
403.107	400.84
403.486	380.95
403.864	414.17
404.242	398.8
404.62	405.36
404.999	392.02
405.377	414.4
405.755	437.22
406.133	425.24
406.511	422.53
406.889	428.63
407.267	440.61
407.645	401.97
408.023	430.44
408.401	458.24
408.779	452.14
409.156	445.81
409.534	462.08
409.912	474.51
410.29	482.87
410.667	467.73
411.045	486.94
411.422	449.42
411.8	486.71
412.178	492.36
412.555	483.09
412.933	494.17
413.31	505.92
413.687	501.17
414.065	501.17
414.442	514.73
414.819	515.41
415.197	546.14
415.574	544.34
415.951	531
416.328	546.6
416.705	547.5
417.082	549.31
417.46	549.31
417.837	555.86
418.214	593.37
418.591	580.95
418.967	593.83
419.344	594.73
419.721	613.94
420.098	590.44
420.475	614.39
420.852	619.14
421.228	630.89
421.605	610.32
421.982	630.21
422.358	641.28
422.735	635.86
423.111	649.87
423.488	659.81
423.864	672.02
424.241	682.41
424.617	682.19
424.994	674.95
425.37	680.15
425.746	677.21
426.123	689.19
426.499	680.15
426.875	709.76
427.251	728.74
427.627	739.59
428.003	753.6
428.379	754.27
428.756	752.92
429.132	758.79
429.507	745.23
429.883	791.56
430.259	762.86
430.635	804.22
431.011	795.85
431.387	803.09
431.763	814.16
432.138	835.4
432.514	828.62
432.89	842.86
433.265	839.24
433.641	849.86
434.016	860.26
434.392	881.28
434.767	883.31
435.143	886.02
435.518	887.15
435.894	903.42
436.269	909.52
436.644	934.16
437.02	919.69
437.395	945
437.77	942.07
438.145	981.16
438.52	967.38
438.895	992.01
439.271	963.99
439.646	999.01
440.021	1013.48
440.395	1001.95
440.77	1005.57
441.145	981.16
441.52	1013.7
441.895	1013.02
442.27	1027.26
442.645	1010.76
443.019	1051.89
443.394	1064.1
443.769	1041.05
444.143	1049.86
444.518	1043.76
444.892	1065.45
445.267	1079.01
445.641	1069.75
446.016	1043.53
446.39	1085.34
446.764	1094.15
447.139	1072.01
447.513	1083.98
447.887	1060.93
448.262	1104.55
448.636	1085.79
449.01	1097.32
449.384	1098.22
449.758	1117.88
450.132	1117.2
450.506	1119.24
450.88	1130.76
451.254	1145
451.628	1125.34
452.002	1112.91
452.376	1145.22
452.75	1133.7
453.123	1178.44
453.497	1169.18
453.871	1191.78
454.244	1176.86
454.618	1174.83
454.992	1194.71
455.365	1184.32
455.739	1227.26
456.112	1243.75
456.486	1232.23
456.859	1242.62
457.232	1256.41
457.606	1272.45
457.979	1272
458.352	1283.3
458.725	1302.06
459.099	1271.77
459.472	1332.79
459.845	1314.26
460.218	1321.94
460.591	1321.94
460.964	1358.55
461.337	1382.73
461.71	1401.71
462.083	1404.65
462.456	1401.04
462.829	1392.9
463.201	1428.61
463.574	1422.73
463.947	1418.89
464.32	1454.82
464.692	1435.61
465.065	1489.85
465.438	1488.04
465.81	1484.88
466.183	1493.46
466.555	1518.55
466.928	1530.3
467.3	1490.98
467.672	1542.95
468.045	1558.55
468.417	1560.81
468.789	1578.89
469.161	1603.29
469.534	1585.89
469.906	1603.07
470.278	1627.7
470.65	1647.36
471.022	1701.14
471.394	1697.3
471.766	1700.01
472.138	1690.29
472.51	1750.63
472.882	1754.93
473.253	1758.32
473.625	1771.2
473.997	1799.44
474.369	1833.79
474.74	1827.69
475.112	1846.22
475.484	1870.18
475.855	1907.92
476.227	1917.63
476.598	1937.97
476.97	1941.59
477.341	1953.56
477.713	2005.31
478.084	2003.51
478.455	2054.8
478.827	2061.58
479.198	2064.3
479.569	2104.07
479.94	2140.45
480.311	2171.41
480.682	2190.39
481.053	2234.46
481.424	2236.27
481.795	2262.03
482.166	2268.81
482.537	2293.44
482.908	2346.77
483.279	2358.3
483.65	2426.09
484.021	2406.21
484.391	2429.03
484.762	2448.47
485.133	2465.87
485.503	2515.58
485.874	2551.97
486.244	2536.6
486.615	2586.32
486.985	2605.52
487.356	2657.5
487.726	2661.34
488.097	2698.63
488.467	2714.67
488.837	2761.23
489.207	2754.9
489.578	2794.45
489.948	2787.21
490.318	2859.76
490.688	2834.67
491.058	2896.14
491.428	2901.79
491.798	2929.13
492.168	2986.53
492.538	2994.67
492.908	3013.65
493.278	3018.85
493.648	3062.91
494.017	3087.09
494.387	3159.18
494.757	3134.32
495.126	3129.8
495.496	3167.77
495.866	3139.97
496.235	3228.56
496.605	3233.76
496.974	3205.96
497.344	3239.18
497.713	3250.93
498.082	3297.48
498.452	3281.89
498.821	3295.45
499.19	3322.57
499.559	3334.32
499.928	3345.17
500.298	3370.93
500.667	3396.01
501.036	3422.45
501.405	3432.17
501.774	3361.89
502.143	3469.68
502.512	3444.37
502.88	3478.5
503.249	3428.1
503.618	3509.23
503.987	3512.17
504.356	3509.46
504.724	3524.14
505.093	3526.86
505.462	3559.62
505.83	3540.87
506.199	3544.26
506.567	3636.46
506.936	3640.07
507.304	3609.79
507.672	3616.8
508.041	3633.52
508.409	3699.51
508.777	3650.47
509.145	3715.78
509.514	3706.96
509.882	3711.03
510.25	3720.52
510.618	3737.47
510.986	3740.64
511.354	3767.75
511.722	3765.27
512.09	3767.98
512.458	3792.16
512.826	3812.95
513.193	3840.75
513.561	3788.54
513.929	3869.9
514.297	3873.29
514.664	3895.66
515.032	3866.06
515.4	3880.29
515.767	3906.28
516.135	3914.87
516.502	3862.44
516.869	3949.22
517.237	3920.97
517.604	3954.64
517.972	3894.76
518.339	3967.75
518.706	3968.2
519.073	3946.05
519.44	3998.03
519.808	4024.24
520.175	3985.38
520.542	4033.06
520.909	4038.71
521.276	4036.67
521.643	4077.8
522.009	4063.34
522.376	4104.92
522.743	4117.58
523.11	4104.24
523.477	4164.35
523.843	4203.67
524.21	4188.53
524.577	4191.02
524.943	4240.51
525.31	4228.98
525.676	4247.74
526.043	4234.41
526.409	4309.89
526.776	4311.92
527.142	4342.88
527.508	4387.4
527.874	4399.6
528.241	4359.83
528.607	4393.5
528.973	4450.67
529.339	4473.95
529.705	4462.88
530.071	4490.22
530.437	4516.21
530.803	4551.46
531.169	4581.97
531.535	4534.51
531.901	4593.27
532.267	4579.26
532.632	4633.27
532.998	4621.29
533.364	4667.39
533.73	4712.14
534.095	4690.89
534.461	4714.17
534.826	4724.11
535.192	4763.89
535.557	4807.05
535.923	4771.12
536.288	4830.1
536.653	4832.81
537.019	4811.34
537.384	4899.7
537.749	4911.45
538.114	4902.87
538.479	4928.63
538.845	4971.34
539.21	4968.63
539.575	5020.38
539.94	4967.5
540.305	4981.73
540.67	5007.27
541.034	5058.12
541.399	5071.67
541.764	5107.15
542.129	5097.89
542.494	5130.66
542.858	5172.69
543.223	5178.56
543.587	5228.28
543.952	5186.93
544.316	5246.36
544.681	5262.86
545.045	5300.37
545.41	5302.63
545.774	5324.32
546.138	5365.68
546.503	5367.26
546.867	5367.03
547.231	5415.39
547.595	5391.21
547.959	5418.11
548.324	5478.44
548.688	5469.86
549.052	5470.99
549.416	5440.48
549.779	5515.05
550.143	5507.37
550.507	5547.37
550.871	5603.19
551.235	5516.63
551.599	5641.15
551.962	5616.97
552.326	5616.74
552.689	5699.23
553.053	5659.23
553.417	5691.55
553.78	5792.11
554.143	5703.3
554.507	5730.19
554.87	5801.82
555.234	5780.36
555.597	5765.44
555.96	5837.76
556.323	5817.64
556.686	5832.78
557.05	5873.46
557.413	5927.7
557.776	5918.21
558.139	5974.02
558.502	5908.94
558.865	5926.34
559.228	5949.17
559.59	6007.92
559.953	5971.76
560.316	6108.26
560.679	6076.62
561.041	6064.42
561.404	6125.43
561.767	6153
562.129	6119.1
562.492	6182.38
562.854	6174.24
563.217	6204.07
563.579	6199.33
563.941	6230.74
564.304	6259.67
564.666	6255.82
565.028	6312.32
565.39	6361.81
565.753	6350.74
566.115	6371.3
566.477	6345.54
566.839	6395.48
567.201	6488.13
567.563	6439.32
567.925	6503.28
568.287	6490.39
568.648	6533.33
569.01	6532.43
569.372	6601.58
569.734	6578.08
570.095	6622.37
570.457	6614.68
570.819	6676.15
571.18	6668.02
571.542	6749.6
571.903	6747.56
572.265	6759.77
572.626	6822.59
572.987	6886.09
573.349	6878.63
573.71	6988.91
574.071	7017.16
574.432	6981.23
574.794	7054.9
575.155	7110.72
575.516	7159.98
575.877	7211.96
576.238	7219.41
576.599	7304.38
576.96	7398.17
577.32	7452.63
577.681	7540.31
578.042	7564.72
578.403	7652.4
578.763	7726.52
579.124	7814.2
579.485	7938.27
579.845	8078.6
580.206	8178.94
580.566	8171.03
580.927	8306.17
581.287	8496.22
581.648	8542.77
582.008	8703.67
582.368	8811.69
582.728	8969.88
583.089	9099.59
583.449	9249.87
583.809	9356.99
584.169	9512.01
584.529	9709.52
584.889	9960.59
585.249	9982.73
585.609	10178.88
585.969	10439.89
586.329	10687.8
586.688	10805.31
587.048	11039.88
587.408	11216.82
587.768	11398.29
588.127	11679.41
588.487	11852.97
588.846	12138.83
589.206	12304.03
589.565	12590.35
589.925	12839.83
590.284	13102.65
590.643	13354.39
591.003	13667.15
591.362	13901.5
591.721	14198.44
592.08	14446.57
592.44	14801.14
592.799	15084.74
593.158	15295.81
593.517	15580.55
593.876	15916.36
594.235	16115.9
594.593	16383.47
594.952	16736.68
595.311	16971.25
595.67	17324.46
596.029	17615.07
596.387	17927.61
596.746	18269.75
597.104	18478.78
597.463	18838.77
597.822	19169.38
598.18	19229.04
598.538	19677.62
598.897	19957.84
599.255	20118.74
599.613	20742.9
599.972	20909.68
600.33	21199.84
600.688	21369.1
601.046	21696.77
601.404	22096.54
601.762	22272.58
602.12	22581.5
602.478	22824.2
602.836	23184.64
603.194	23323.17
603.552	23660.56
603.91	23786.89
604.268	24291.96
604.625	24421.45
604.983	24651.27
605.341	24821.21
605.698	25250.8
606.056	25442.66
606.413	25704.8
606.771	26013.27
607.128	26326.03
607.485	26385.01
607.843	26581.62
608.2	26940.03
608.557	27234.48
608.914	27416.17
609.272	27778.87
609.629	27961.02
609.986	28278.52
610.343	28339.31
610.7	28632.19
611.057	28777.72
611.414	29031.5
611.771	29160.31
612.127	29593.74
612.484	29626.28
612.841	29937.69
613.198	29932.49
613.554	30056.78
613.911	30620.83
614.267	30646.14
614.624	30699.48
614.98	31005.68
615.337	31197.09
615.693	31352.79
616.05	31407.48
616.406	31768.15
616.762	31637.98
617.118	32021.47
617.475	32084.98
617.831	32275.48
618.187	32318.42
618.543	32503.72
618.899	32866.42
619.255	32789.59
619.611	32935.57
619.967	33151.61
620.323	33394.55
620.678	33573.52
621.034	33286.75
621.39	33428.22
621.746	33547.54
622.101	34086.5
622.457	33840.18
622.812	34003.57
623.168	34118.14
623.523	34246.27
623.879	34403.78
624.234	34329.44
624.589	34479.71
624.945	34583.44
625.3	34806.49
625.655	34754.74
626.01	34872.92
626.365	35033.6
626.72	34987.95
627.075	34982.07
627.43	35094.16
627.785	35093.94
628.14	35241.05
628.495	35228.4
628.85	35264.78
629.205	35243.76
629.559	35545.22
629.914	35402.85
630.269	35530.31
630.623	35506.13
630.978	35502.06
631.332	35856.63
631.687	35781.6
632.041	35754.48
632.396	35784.31
632.75	35709.29
633.104	35956.96
633.459	35634.71
633.813	35721.94
634.167	35776.18
634.521	35737.99
634.875	35995.38
635.229	35939.11
635.583	35692.11
635.937	35861.37
636.291	35863.18
636.645	35762.39
636.999	35729.85
637.352	35972.56
637.706	35671.77
638.06	35987.92
638.413	35958.32
638.767	35824.99
639.121	35819.34
639.474	35749.96
639.828	35775.73
640.181	35749.74
640.534	35886.68
640.888	35787.25
641.241	35666.58
641.594	35860.47
641.947	35831.09
642.301	35811.43
642.654	35845.1
643.007	35887.81
643.36	35758.55
643.713	35828.15
644.066	35901.6
644.419	35535.73
644.771	35380.93
645.124	35187.94
645.477	35050.32
645.83	34939.82
646.182	34710.9
646.535	34811.91
646.888	34858.91
647.24	34628.41
647.593	34754.51
647.945	34850.78
648.298	34511.58
648.65	34514.29
649.002	34577.34
649.355	34662.31
649.707	34596.77
650.059	34678.81
650.411	35163.09
650.763	35133.48
651.115	35539.12
651.467	35414.61
651.819	35396.07
652.171	35335.29
652.523	35433.14
652.875	35272.46
653.227	35134.16
653.578	35565.79
653.93	35327.83
654.282	35196.31
654.633	35077.21
654.985	35200.83
655.337	35198.34
655.688	35258.9
656.039	35430.88
656.391	34970.32
656.742	35071.79
657.094	35113.6
657.445	35252.8
657.796	35183.65
658.147	35223.2
658.498	35144.33
658.849	35323.76
659.2	35143.88
659.551	35081.73
659.902	35198.34
660.253	35256.64
660.604	35209.41
660.955	35083.09
661.306	35265.91
661.656	35182.75
662.007	34990.21
662.358	35090.32
662.708	34984.56
663.059	34976.65
663.409	34966.03
663.76	35208.28
664.11	35043.09
664.461	35218.68
664.811	34978.68
665.161	35070.89
665.511	34951.34
665.862	35018.23
666.212	35096.2
666.562	35220.49
666.912	34981.17
667.262	34957.67
667.612	35057.55
667.962	34911.12
668.312	34942.3
668.662	35126.03
669.011	35040.38
669.361	34972.36
669.711	34932.36
670.06	34973.49
670.41	34819.37
670.76	34753.61
671.109	34959.7
671.459	34973.71
671.808	34803.32
672.157	34929.87
672.507	34708.86
672.856	34736.21
673.205	34799.03
673.554	34867.28
673.904	34663.66
674.253	34992.92
674.602	34779.37
674.951	34296.44
675.3	34183
675.649	34749.09
675.998	34721.06
676.346	34723.1
676.695	34711.57
677.044	34422.99
677.393	34681.97
677.741	34770.33
678.09	34500.73
678.438	34529.21
678.787	34526.04
679.135	34502.09
679.484	34340.96
679.832	34474.74
680.181	34306.61
680.529	34366.05
680.877	34252.15
681.225	34298.25
681.573	34498.92
681.922	34135.32
682.27	34126.05
682.618	34150.01
682.966	33950.46
683.314	34123.57
683.661	34022.1
684.009	33831.14
684.357	33761.99
684.705	33677.7
685.053	33963.57
685.4	33760.19
685.748	33730.81
686.095	33649.45
686.443	33366.75
686.79	33354.32
687.138	33497.82
687.485	33499.63
687.832	33316.58
688.18	33444.49
688.527	33353.19
688.874	33206.75
689.221	33180.31
689.568	33054.89
689.915	32993.65
690.262	33046.98
690.609	32903.26
690.956	32790.49
691.303	32723.38
691.65	32711.63
691.997	32602.25
692.344	32361.8
692.69	32364.97
693.037	32378.98
693.383	32268.02
693.73	32272.77
694.077	32062.83
694.423	32105.99
694.769	32024.41
695.116	31954.13
695.462	31937.18
695.808	31710.97
696.155	31834.81
696.501	31530.64
696.847	31639.34
697.193	31313.7
697.539	31549.4
697.885	31214.26
698.231	31129.07
698.577	31170.65
698.923	31204.32
699.269	30871.67
699.614	30825.35
699.96	30861.73
700.306	30958
700.651	30729.76
700.997	30540.61
701.342	30649.31
701.688	30560.04
702.033	30473.72
702.379	30483.66
702.724	30223.78
703.069	30409.99
703.415	29990.12
703.76	30025.14
704.105	30081.41
704.45	29993.73
704.795	29804.58
705.14	29698.15
705.485	29712.16
705.83	29697.69
706.175	29702.89
706.52	29530.69
706.865	29353.75
707.209	29373.41
707.554	29325.95
707.899	29397.36
708.243	29280.08
708.588	29169.8
708.932	29079.63
709.277	29085.73
709.621	28977.94
709.966	28758.96
710.31	28859.07
710.654	28618.63
710.998	28572.07
711.342	28726.42
711.687	28586.08
712.031	28398.97
712.375	28310.84
712.719	28387.67
713.063	28392.64
713.407	28454.79
713.75	28216.15
714.094	28188.58
714.438	28025.65
714.782	28074.01
715.125	27957.4
715.469	28030.84
715.812	27903.84
716.156	27661.59
716.499	27707.01
716.843	27781.13
717.186	27548.6
717.53	27664.3
717.873	27679.22
718.216	27534.81
718.559	27550.41
718.902	27287.36
719.246	27413.69
719.589	27302.5
719.932	27154.94
720.275	27240.58
720.617	27194.93
720.96	27172.56
721.303	27194.26
721.646	27126.01
721.989	26897.32
722.331	27099.8
722.674	26956.07
723.016	27005.79
723.359	26943.87
723.701	26928.5
724.044	26665.46
724.386	26740.48
724.729	26780.03
725.071	26713.82
725.413	26646.02
725.755	26629.75
726.097	26537.32
726.439	26315.86
726.782	26422.53
727.124	26524.9
727.465	26241.74
727.807	26426.14
728.149	26423.88
728.491	26162.65
728.833	26143.89
729.175	26095.08
729.516	26051.01
729.858	25992.71
730.199	25978.24
730.541	26046.94
730.882	25970.56
731.224	26138.24
731.565	25886.49
731.906	25754.07
732.248	25833.39
732.589	25738.25
732.93	25623.45
733.271	25501.19
733.612	25747.97
733.953	25663.45
734.294	25593.39
734.635	25522.89
734.976	25523.11
735.317	25557.46
735.658	25428.88
735.999	25415.09
736.339	25377.36
736.68	25390.01
737.021	25394.76
737.361	25297.81
737.702	25312.27
738.042	25227.98
738.383	25273.18
738.723	25290.8
739.063	25041.77
739.404	25138.94
739.744	25093.07
740.084	24960.87
740.424	24995.67
740.764	24912.51
741.104	25002.68
741.444	24869.35
741.784	24740.31
742.124	24797.26
742.464	24770.37
742.804	24657.83
743.143	24630.93
743.483	24704.15
743.823	24499.19
744.162	24674.32
744.502	24613.31
744.841	24428.91
745.181	24522.01
745.52	24437.49
745.86	24454.44
746.199	24388.45
746.538	24303.71
746.877	24447.44
747.216	24345.97
747.556	24175.35
747.895	24319.98
748.234	24120.44
748.573	24112.3
748.911	24086.99
749.25	24077.73
749.589	24011.52
749.928	23941.69
750.267	24001.57
750.605	23795.25
750.944	23917.96
751.283	23812.88
751.621	23898.3
751.96	23731.52
752.298	23676.61
752.636	23718.87
752.975	23521.81
753.313	23516.16
753.651	23614.24
753.989	23452.21
754.327	23392.32
754.666	23370.85
755.004	23340.57
755.342	23326.11
755.679	23313.45
756.017	23091.31
756.355	23275.72
756.693	23082.73
757.031	23196.85
757.368	23051.99
757.706	22876.63
758.044	22911.88
758.381	22901.94
758.719	22776.75
759.056	22747.59
759.394	22838.21
759.731	22574.27
