Data from hue_30_FLMS001491_30.txt Node
Date: Mon Feb 06 15:04:57 GMT 2017
User: dcchb
Spectrometer: FLMS00149
Trigger mode: 0
Integration Time (sec): 2.000000E-2
Scans to average: 10
Electric dark correction enabled: true
Nonlinearity correction enabled: false
Boxcar width: 0
XAxis mode: Wavelengths
Number of Pixels in Spectrum: 2048
>>>>>Begin Spectral Data<<<<<
341.393	-14.79
341.776	-14.79
342.16	-14.79
342.543	-60.44
342.927	-64.5
343.31	-69.25
343.693	-56.82
344.077	-55.24
344.46	-64.73
344.843	-57.95
345.226	-48.01
345.61	-27.67
345.993	-25.63
346.376	-0.1
346.759	17.08
347.142	19.79
347.525	37.41
347.908	46.68
348.291	88.71
348.674	81.48
349.057	114.25
349.44	122.61
349.823	135.26
350.206	165.55
350.588	175.49
350.971	192.66
351.354	227.47
351.737	244.87
352.119	253.23
352.502	253.91
352.884	268.59
353.267	299.1
353.65	283.96
354.032	298.88
354.414	308.59
354.797	322.83
355.179	310.63
355.562	328.03
355.944	333.23
356.326	304.98
356.709	348.37
357.091	328.03
357.473	332.55
357.855	340.46
358.238	323.73
358.62	335.71
359.002	341.36
359.384	345.43
359.766	343.17
360.148	344.3
360.53	338.65
360.912	347.91
361.294	324.41
361.676	329.84
362.057	337.52
362.439	322.83
362.821	317.41
363.203	333.68
363.584	324.19
363.966	320.57
364.348	317.41
364.729	309.95
365.111	330.06
365.493	319.44
365.874	310.63
366.256	319.44
366.637	342.49
367.019	309.27
367.4	316.95
367.781	285.77
368.163	312.21
368.544	323.51
368.925	311.08
369.306	309.95
369.688	312.44
370.069	313.57
370.45	302.49
370.831	328.93
371.212	311.76
371.593	319.44
371.974	322.38
372.355	314.7
372.736	304.3
373.117	319.89
373.498	304.75
373.879	308.59
374.26	311.76
374.641	322.6
375.021	306.11
375.402	300.23
375.783	320.8
376.163	310.4
376.544	342.49
376.925	308.14
377.305	325.99
377.686	345.88
378.066	325.77
378.447	321.7
378.827	333.45
379.208	345.65
379.588	326.9
379.968	341.59
380.349	322.15
380.729	330.29
381.109	346.56
381.489	343.85
381.87	346.33
382.25	339.78
382.63	342.72
383.01	336.62
383.39	333
383.77	340.68
384.15	343.17
384.53	350.17
384.91	361.02
385.29	344.07
385.67	354.24
386.049	350.63
386.429	357.63
386.809	363.73
387.189	343.39
387.568	360.34
387.948	359.21
388.328	359.44
388.707	359.44
389.087	362.38
389.466	362.6
389.846	363.51
390.225	361.93
390.605	361.7
390.984	375.03
391.363	356.5
391.743	375.26
392.122	373.22
392.501	364.64
392.881	369.83
393.26	367.12
393.639	382.04
394.018	401.47
394.397	356.28
394.776	374.81
395.155	359.89
395.534	396.05
395.913	371.19
396.292	398.31
396.671	385.88
397.05	392.43
397.429	389.27
397.808	396.95
398.186	387.01
398.565	384.75
398.944	407.8
399.323	388.59
399.701	378.87
400.08	400.12
400.458	400.57
400.837	408.25
401.215	387.01
401.594	411.64
401.972	413.9
402.351	405.09
402.729	405.99
403.107	406.44
403.486	416.84
403.864	415.48
404.242	423.62
404.62	422.71
404.999	417.97
405.377	411.87
405.755	415.94
406.133	418.42
406.511	429.49
406.889	420.46
407.267	452.54
407.645	436.05
408.023	443.05
408.401	422.26
408.779	446.9
409.156	444.86
409.534	433.11
409.912	433.34
410.29	453.22
410.667	457.52
411.045	462.26
411.422	469.95
411.8	476.95
412.178	456.61
412.555	485.54
412.933	486.44
413.31	475.82
413.687	455.26
414.065	472.88
414.442	479.66
414.819	502.26
415.197	471.53
415.574	505.65
415.951	527.34
416.328	504.52
416.705	511.75
417.082	514.46
417.46	523.5
417.837	509.94
418.214	527.57
418.591	509.27
418.967	493.67
419.344	520.79
419.721	534.8
420.098	543.39
420.475	544.07
420.852	546.78
421.228	538.42
421.605	531.86
421.982	526.67
422.358	569.15
422.735	555.37
423.111	559.21
423.488	575.03
423.864	568.47
424.241	565.31
424.617	539.32
424.994	559.89
425.37	550.85
425.746	575.03
426.123	561.47
426.499	574.58
426.875	607.34
427.251	578.64
427.627	610.28
428.003	623.16
428.379	597.17
428.756	604.63
429.132	596.04
429.507	603.05
429.883	631.07
430.259	610.96
430.635	609.83
431.011	646.89
431.387	657.74
431.763	640.11
432.138	622.48
432.514	651.18
432.89	669.94
433.265	669.94
433.641	673.56
434.016	678.08
434.392	665.65
434.767	671.52
435.143	679.66
435.518	708.81
435.894	684.85
436.269	698.87
436.644	698.41
437.02	716.72
437.395	701.58
437.77	719.66
438.145	753.78
438.52	734.12
438.895	742.71
439.271	754.91
439.646	745.19
440.021	756.72
440.395	778.41
440.77	771.86
441.145	756.27
441.52	786.55
441.895	770.05
442.27	785.19
442.645	775.47
443.019	778.64
443.394	789.48
443.769	819.77
444.143	798.52
444.518	817.51
444.892	809.6
445.267	790.39
445.641	807.79
446.016	818.18
446.39	846.66
446.764	805.53
447.139	819.54
447.513	839.2
447.887	845.08
448.262	829.48
448.636	842.14
449.01	861.12
449.384	870.61
449.758	860.67
450.132	880.56
450.506	854.79
450.88	891.18
451.254	880.1
451.628	885.75
452.002	902.25
452.376	916.71
452.75	911.29
453.123	904.28
453.497	904.06
453.871	907.45
454.244	954.68
454.618	948.58
454.992	975.92
455.365	979.99
455.739	986.99
456.112	989.25
456.486	1019.76
456.859	1002.81
457.232	1033.09
457.606	1008.91
457.979	1015.24
458.352	1061.34
458.725	1055.92
459.099	1075.58
459.472	1093.88
459.845	1108.57
460.218	1101.79
460.591	1117.39
460.964	1100.89
461.337	1128.46
461.71	1144.5
462.083	1158.29
462.456	1143.83
462.829	1172.3
463.201	1181.79
463.574	1210.04
463.947	1193.77
464.32	1242.35
464.692	1220.89
465.065	1240.77
465.438	1266.99
465.81	1291.39
466.183	1295.23
466.555	1339.07
466.928	1340.2
467.3	1335.46
467.672	1345.63
468.045	1379.75
468.417	1379.53
468.789	1414.33
469.161	1408
469.534	1455.91
469.906	1471.73
470.278	1514.21
470.65	1510.14
471.022	1546.98
471.394	1568.9
471.766	1530.71
472.138	1597.15
472.51	1654.32
472.882	1667.88
473.253	1680.08
473.625	1692.96
473.997	1774.09
474.369	1767.09
474.74	1769.8
475.112	1827.42
475.484	1833.3
475.855	1888.21
476.227	1914.88
476.598	1976.35
476.97	1997.36
477.341	2047.3
477.713	2056.12
478.084	2099.05
478.455	2170.92
478.827	2175.44
479.198	2269.22
479.569	2273.97
479.94	2368.65
480.311	2396
480.682	2434.87
481.053	2528.65
481.424	2554.86
481.795	2599.15
482.166	2661.75
482.537	2722.99
482.908	2753.5
483.279	2788.3
483.65	2857.68
484.021	2940.61
484.391	3011.8
484.762	2968.41
485.133	3087.28
485.503	3121.85
485.874	3225.58
486.244	3292.7
486.615	3368.4
486.985	3406.14
487.356	3487.72
487.726	3482.07
488.097	3595.29
488.467	3602.52
488.837	3684.55
489.207	3794.38
489.578	3847.48
489.948	3908.05
490.318	3983.53
490.688	3970.64
491.058	4111.43
491.428	4162.28
491.798	4220.58
492.168	4323.18
492.538	4326.12
492.908	4446.56
493.278	4506.9
493.648	4544.87
494.017	4645.88
494.387	4674.58
494.757	4771.3
495.126	4786.22
495.496	4825.99
495.866	4894.24
496.235	4968.36
496.605	5006.1
496.974	5011.07
497.344	5095.81
497.713	5158.86
498.082	5196.15
498.452	5280.21
498.821	5279.31
499.19	5338.29
499.559	5482.69
499.928	5455.8
500.298	5496.25
500.667	5572.18
501.036	5556.59
501.405	5597.04
501.774	5634.33
502.143	5704.84
502.512	5697.6
502.88	5797.49
503.249	5785.06
503.618	5856.7
503.987	5914.1
504.356	5906.86
504.724	5984.83
505.093	6037.26
505.462	6056.92
505.83	6157.25
506.199	6133.98
506.567	6219.17
506.936	6238.38
507.304	6316.57
507.672	6287.87
508.041	6350.02
508.409	6448.09
508.777	6426.62
509.145	6474.53
509.514	6549.11
509.882	6604.02
510.25	6555.43
510.618	6612.61
510.986	6583.46
511.354	6730.57
511.722	6800.4
512.09	6817.12
512.458	6795.2
512.826	6901.87
513.193	6891.92
513.561	6938.7
513.929	7039.72
514.297	7045.82
514.664	7072.48
515.032	7072.71
515.4	7108.64
515.767	7130.79
516.135	7147.06
516.502	7176.44
516.869	7266.83
517.237	7234.06
517.604	7252.59
517.972	7362.42
518.339	7406.49
518.706	7339.37
519.073	7394.51
519.44	7454.62
519.808	7497.56
520.175	7472.47
520.542	7569.65
520.909	7614.16
521.276	7627.27
521.643	7664.33
522.009	7707.95
522.376	7784.56
522.743	7784.78
523.11	7829.07
523.477	7883.76
523.843	7912.69
524.21	8034.94
524.577	8038.79
524.943	8067.26
525.31	8154.71
525.676	8209.85
526.043	8224.32
526.409	8235.16
526.776	8295.05
527.142	8353.81
527.508	8357.2
527.874	8425.22
528.241	8458.89
528.607	8484.65
528.973	8586.12
529.339	8568.26
529.705	8716.96
530.071	8742.27
530.437	8756.51
530.803	8710.63
531.169	8859.56
531.535	8850.29
531.901	8892.1
532.267	8943.39
532.632	9041.25
532.998	9021.81
533.364	9045.31
533.73	9074.92
534.095	9135.93
534.461	9193.56
534.826	9183.39
535.192	9210.51
535.557	9349.03
535.923	9329.6
536.288	9373.67
536.653	9363.95
537.019	9420.9
537.384	9466.09
537.749	9521.68
538.114	9551.29
538.479	9590.16
538.845	9601.23
539.21	9660.21
539.575	9671.06
539.94	9657.5
540.305	9757.84
540.67	9778.18
541.034	9924.39
541.399	9892.97
541.764	9902.47
542.129	10000.54
542.494	9995.8
542.858	10059.98
543.223	10101.1
543.587	10120.09
543.952	10125.28
544.316	10197.83
544.681	10199.18
545.045	10289.57
545.41	10332.28
545.774	10368.22
546.138	10373.41
546.503	10405.96
546.867	10418.84
547.231	10569.79
547.595	10568.89
547.959	10596.68
548.324	10654.31
548.688	10680.98
549.052	10713.74
549.416	10674.2
549.779	10799.39
550.143	10774.31
550.507	10854.76
550.871	10843.01
551.235	10921.2
551.599	10938.14
551.962	11025.6
552.326	10970.23
552.689	11062.44
553.053	10930.24
553.417	11082.1
553.78	11190.34
554.143	11139.5
554.507	11186.27
554.87	11201.19
555.234	11388.08
555.597	11273.73
555.96	11341.98
556.323	11396.44
556.686	11359.38
557.05	11434.85
557.413	11489.54
557.776	11584.46
558.139	11548.75
558.502	11642.53
558.865	11645.7
559.228	11734.51
559.59	11779.93
559.953	11768.41
560.316	11926.82
560.679	11846.6
561.041	11942.86
561.404	12000.49
561.767	12071.22
562.129	12060.83
562.492	12139.69
562.854	12109.64
563.217	12069.41
563.579	12190.77
563.941	12212.46
564.304	12296.98
564.666	12322.29
565.028	12355.73
565.39	12413.81
565.753	12415.62
566.115	12512.34
566.477	12539.23
566.839	12602.51
567.201	12636.18
567.563	12645.22
567.925	12775.61
568.287	12811.77
568.648	12804.08
569.01	12901.48
569.372	12879.79
569.734	12859.9
570.095	13029.84
570.457	13092.21
570.819	13138.76
571.18	13142.83
571.542	13258.08
571.903	13272.32
572.265	13361.81
572.626	13392.32
572.987	13518.42
573.349	13603.16
573.71	13549.83
574.071	13776.26
574.432	13749.14
574.794	13812.42
575.155	13902.13
575.516	13961.57
575.877	14090.15
576.238	14169.92
576.599	14309.13
576.96	14337.15
577.32	14432.06
577.681	14610.14
578.042	14717.93
578.403	14750.47
578.763	14835.44
579.124	15019.39
579.485	15140.97
579.845	15307.52
580.206	15422.77
580.566	15516.1
580.927	15798.81
581.287	15942.31
581.648	16037.45
582.008	16192.02
582.368	16406.48
582.728	16623.42
583.089	16785
583.449	16975.5
583.809	17198.54
584.169	17327.81
584.529	17591.98
584.889	17904.06
585.249	18048.47
585.609	18094.57
585.969	18507.89
586.329	18590.15
586.688	18940.87
587.048	19135.9
587.408	19249.34
587.768	19677.58
588.127	19868.76
588.487	20035.31
588.846	20518.91
589.206	20698.57
589.565	20868.96
589.925	21336.97
590.284	21454.93
590.643	21800.01
591.003	22221.01
591.362	22508.91
591.721	22749.59
592.08	22979.41
592.44	23393.86
592.799	23567.87
593.158	23865.94
593.517	24127.85
593.876	24365.14
594.235	24686.71
594.593	25068.62
594.952	25284.21
595.311	25495.73
595.67	25935.72
596.029	26335.48
596.387	26649.82
596.746	26912.64
597.104	26962.58
597.463	27316.25
597.822	27673.52
598.18	27775.44
598.538	28172.95
598.897	28495.65
599.255	28551.24
599.613	29237.78
599.972	29277.1
600.33	29683.87
600.688	29726.13
601.046	30229.61
601.404	30647.91
601.762	30732.43
602.12	31172.19
602.478	31392.97
602.836	31720.65
603.194	31691.95
603.552	31953.86
603.91	32106.4
604.268	32546.39
604.625	32602.89
604.983	33033.61
605.341	33075.64
605.698	33520.83
606.056	33712.01
606.413	33896.86
606.771	34252.33
607.128	34434.25
607.485	34466.57
607.843	34696.62
608.2	35042.82
608.557	35328.24
608.914	35439.42
609.272	35716.25
609.629	35860.2
609.986	36308.55
610.343	36246.63
610.7	36637.58
611.057	36648.2
611.414	36842.55
611.771	37009.1
612.127	37205.7
612.484	37439.59
612.841	37605.69
613.198	37564.79
613.554	37866.25
613.911	38257.2
614.267	38331.77
614.624	38241.61
614.98	38527.93
615.337	38778.99
615.693	38712.33
616.05	38962.94
616.406	39308.7
616.762	39107.57
617.118	39343.27
617.475	39512.76
617.831	39735.58
618.187	39721.34
618.543	40023.03
618.899	40346.86
619.255	40293.53
619.611	40510.25
619.967	40475.67
620.323	40785.5
620.678	40656.69
621.034	40651.49
621.39	40784.59
621.746	40798.83
622.101	41290.34
622.457	40923.12
622.812	41343.22
623.168	41368.3
623.523	41291.02
623.879	41523.78
624.234	41334.18
624.589	41498.92
624.945	41631.35
625.3	41624.12
625.655	41827.05
626.01	41743.89
626.365	41877.9
626.72	41881.29
627.075	41989.98
627.43	41996.76
627.785	41958.35
628.14	42083.31
628.495	42157.21
628.85	42168.96
629.205	42198.79
629.559	42275.4
629.914	42270.43
630.269	42279.02
630.623	42322.4
630.978	42185.91
631.332	42525.11
631.687	42552.45
632.041	42366.7
632.396	42455.06
632.75	42341.61
633.104	42424.1
633.459	42317.21
633.813	42469.97
634.167	42434.04
634.521	42415.28
634.875	42552
635.229	42428.84
635.583	42242.86
635.937	42246.93
636.291	42227.27
636.645	42315.85
636.999	42249.64
637.352	42451.21
637.706	42126.25
638.06	42326.02
638.413	42276.08
638.767	42074.05
639.121	42295.29
639.474	42059.59
639.828	42202.41
640.181	42277.89
640.534	42187.27
640.888	42048.29
641.241	42020.27
641.594	42122.41
641.947	42145.46
642.301	42047.38
642.654	42126.7
643.007	42058
643.36	41992.02
643.713	41976.42
644.066	42153.14
644.419	41912.02
644.771	41678.58
645.124	41292.37
645.477	41171.25
645.83	41021.42
646.182	40824.14
646.535	40793.4
646.888	40974.42
647.24	40589.79
647.593	40997.47
647.945	40769.9
648.298	40600.87
648.65	40525.62
649.002	40517.93
649.355	40599.06
649.707	40660.3
650.059	40774.2
650.411	41289.21
650.763	41248.99
651.115	41646.26
651.467	41446.49
651.819	41588.41
652.171	41445.82
652.523	41373.5
652.875	41422.99
653.227	41330.57
653.578	41463.9
653.93	41246.05
654.282	41145.71
654.633	41084.7
654.985	41285.6
655.337	41224.13
655.688	41120.18
656.039	41433.39
656.391	41022.78
656.742	40978.71
657.094	41113.17
657.445	41232.94
657.796	41091.93
658.147	41031.36
658.498	41098.48
658.849	41196.11
659.2	41069.33
659.551	41053.06
659.902	41126.05
660.253	40969.22
660.604	41065.26
660.955	40881.76
661.306	41165.15
661.656	40881.09
662.007	41041.31
662.358	40950.01
662.708	41024.36
663.059	40892.84
663.409	40605.84
663.76	40991.14
664.11	40796.12
664.461	41045.38
664.811	40967.86
665.161	40887.19
665.511	40766.74
665.862	40901.2
666.212	40969.67
666.562	40975.55
666.912	40758.83
667.262	40813.29
667.612	40834.31
667.962	40943.46
668.312	40747.98
668.662	41083.57
669.011	40798.38
669.361	40790.69
669.711	40729.9
670.06	40719.96
670.41	40653.52
670.76	40664.59
671.109	40793.86
671.459	40576.46
671.808	40571.26
672.157	40700.3
672.507	40577.82
672.856	40539.85
673.205	40507.31
673.554	40573.3
673.904	40451.72
674.253	40631.83
674.602	40457.37
674.951	39951.17
675.3	39672.98
675.649	40329.24
675.998	40296.69
676.346	40481.1
676.695	40437.93
677.044	40159.75
677.393	40277.71
677.741	40342.8
678.09	40202.23
678.438	40148
678.787	40216.24
679.135	40217.6
679.484	40016.93
679.832	40191.61
680.181	39927.66
680.529	40044.5
680.877	39879.76
681.225	39904.16
681.573	40227.77
681.922	39858.29
682.27	39622.81
682.618	39715.47
682.966	39649.93
683.314	39666.2
683.661	39535.58
684.009	39339.66
684.357	39396.38
684.705	39364.97
685.053	39236.61
685.4	39340.34
685.748	39139.89
686.095	38999.78
686.443	38909.84
686.79	38885.88
687.138	39053.56
687.485	38855.38
687.832	38797.53
688.18	38887.69
688.527	38699.67
688.874	38521.15
689.221	38492.9
689.568	38310.31
689.915	38373.58
690.262	38327.48
690.609	38209.29
690.956	38051.56
691.303	37908.28
691.65	37845.23
691.997	37792.13
692.344	37571.79
692.69	37630.32
693.037	37584.22
693.383	37328.41
693.73	37407.05
694.077	37223.78
694.423	37345.59
694.769	37087.51
695.116	36963
695.462	36995.54
695.808	36898.14
696.155	37030.34
696.501	36666.06
696.847	36676
697.193	36351.94
697.539	36514.2
697.885	36222
698.231	36182.45
698.577	36253.41
698.923	35970.48
699.269	35942.46
699.614	35878.51
699.96	35821.33
700.306	35702.01
700.651	35617.72
700.997	35510.38
701.342	35399.42
701.688	35344.96
702.033	35174.34
702.379	35254.79
702.724	35084.4
703.069	35203.95
703.415	34849.38
703.76	34878.76
704.105	34783.39
704.45	34674.7
704.795	34510.86
705.14	34514.93
705.485	34454.59
705.83	34248.72
706.175	34224.31
706.52	34209.62
706.865	34051.66
707.209	34022.06
707.554	33894.38
707.899	33920.59
708.243	33895.73
708.588	33852.8
708.932	33585.01
709.277	33512.69
709.621	33691.22
709.966	33311.34
710.31	33434.05
710.654	33167.84
710.998	33266.15
711.342	33266.15
711.687	33128.52
712.031	32924.23
712.375	32882.43
712.719	32742.77
713.063	32653.73
713.407	32973.72
713.75	32709.32
714.094	32730.11
714.438	32490.57
714.782	32591.13
715.125	32413.06
715.469	32534.41
715.812	32179.85
716.156	31994.77
716.499	32169.9
716.843	32045.16
717.186	31906.86
717.53	32084.48
717.873	32074.31
718.216	32020.08
718.559	31799.07
718.902	31667.32
719.246	31740.31
719.589	31660.99
719.932	31494.89
720.275	31543.03
720.617	31488.34
720.96	31380.54
721.303	31353.88
721.646	31334.44
721.989	31164.51
722.331	31226.2
722.674	31092.87
723.016	31202.02
723.359	31057.39
723.701	31085.64
724.044	30786.89
724.386	30741.47
724.729	31008.35
725.071	30934
725.413	30751.63
725.755	30782.82
726.097	30520.23
726.439	30464.64
726.782	30563.84
727.124	30628.7
727.465	30450.17
727.807	30400.46
728.149	30390.29
728.491	30308.93
728.833	30411.76
729.175	30278.88
729.516	30157.53
729.858	30115.72
730.199	30148.26
730.541	30009.73
730.882	30037.53
731.224	30180.58
731.565	29779.91
731.906	30012.45
732.248	29911.66
732.589	29779.46
732.93	29746.46
733.271	29729.97
733.612	29746.01
733.953	29733.13
734.294	29576.07
734.635	29473.7
734.976	29648.16
735.317	29415.62
735.658	29398.9
735.999	29437.77
736.339	29269.87
736.68	29421.05
737.021	29279.81
737.361	29139.7
737.702	29366.13
738.042	29120.27
738.383	29051.11
738.723	29181.51
739.063	29052.24
739.404	29115.97
739.744	28974.28
740.084	28936.32
740.424	28933.83
740.764	28759.6
741.104	28944
741.444	28742.2
741.784	28593.05
742.124	28742.2
742.464	28609.54
742.804	28458.59
743.143	28590.79
743.483	28549.66
743.823	28251.36
744.162	28411.13
744.502	28371.13
744.841	28305.37
745.181	28291.59
745.52	28229.44
745.86	28211.81
746.199	28216.56
746.538	28144.7
746.877	28231.93
747.216	28105.38
747.556	28094.53
747.895	28236.67
748.234	27964.59
748.573	28003.01
748.911	27831.71
749.25	28009.11
749.589	27869
749.928	27850.47
750.267	27801.66
750.605	27760.75
750.944	27652.96
751.283	27626.75
751.621	27815.67
751.96	27542.91
752.298	27583.81
752.636	27511.95
752.975	27354.21
753.313	27272.63
753.651	27353.98
753.989	27200.09
754.327	27158.96
754.666	27028.12
755.004	27070.6
755.342	27230.82
755.679	26981.34
756.017	26914.9
756.355	27025.86
756.693	26751.74
757.031	26861.12
757.368	26694.34
757.706	26733.89
758.044	26577.73
758.381	26567.11
758.719	26598.3
759.056	26539.32
