Data from hue_110_FLMS001491_00084.txt Node
Date: Tue Feb 07 17:01:56 GMT 2017
User: dcchb
Spectrometer: FLMS00149
Trigger mode: 0
Integration Time (sec): 2.000000E-2
Scans to average: 10
Electric dark correction enabled: true
Nonlinearity correction enabled: false
Boxcar width: 0
XAxis mode: Wavelengths
Number of Pixels in Spectrum: 2048
>>>>>Begin Spectral Data<<<<<
341.393	1.68
341.776	1.68
342.16	1.68
342.543	-65.44
342.927	-60.24
343.31	-65.89
343.693	-78.32
344.077	-31.31
344.46	-69.28
344.843	-69.28
345.226	-34.02
345.61	-35.61
345.993	-11.88
346.376	-10.07
346.759	-11.2
347.142	29.48
347.525	32.87
347.908	72.19
348.291	77.16
348.674	95.46
349.057	109.7
349.44	110.38
349.823	153.99
350.206	184.95
350.588	202.81
350.971	200.09
351.354	240.54
351.737	219.75
352.119	274.22
352.502	273.54
352.884	284.16
353.267	277.15
353.65	283.48
354.032	320.77
354.414	297.49
354.797	289.81
355.179	312.41
355.562	310.37
355.944	309.7
356.326	337.94
356.709	326.19
357.091	330.26
357.473	334.55
357.855	347.43
358.238	331.16
358.62	341.11
359.002	342.91
359.384	335.01
359.766	345.85
360.148	342.91
360.53	350.82
360.912	326.87
361.294	319.86
361.676	350.6
362.057	324.61
362.439	329.13
362.821	304.72
363.203	319.19
363.584	323.93
363.966	313.99
364.348	330.49
364.729	316.25
365.111	329.13
365.493	306.31
365.874	325.29
366.256	303.37
366.637	311.5
367.019	318.96
367.4	306.08
367.781	323.48
368.163	319.86
368.544	312.86
368.925	303.82
369.306	299.3
369.688	317.38
370.069	309.47
370.45	314.21
370.831	298.62
371.212	333.42
371.593	310.6
371.974	325.74
372.355	311.28
372.736	314.21
373.117	311.05
373.498	310.83
373.879	296.81
374.26	301.56
374.641	308.79
375.021	317.6
375.402	300.2
375.783	320.99
376.163	323.48
376.544	318.28
376.925	344.5
377.305	326.19
377.686	302.24
378.066	336.36
378.447	338.4
378.827	332.29
379.208	320.77
379.588	318.73
379.968	329.13
380.349	318.73
380.729	333.65
381.109	325.51
381.489	330.71
381.87	344.04
382.25	345.17
382.63	338.17
383.01	336.59
383.39	331.84
383.77	333.2
384.15	349.02
384.53	329.13
384.91	345.85
385.29	337.27
385.67	334.55
386.049	340.65
386.429	351.28
386.809	349.92
387.189	354.67
387.568	362.8
387.948	358.73
388.328	355.34
388.707	368.68
389.087	347.21
389.466	353.08
389.846	365.06
390.225	356.25
390.605	355.57
390.984	360.54
391.363	373.65
391.743	377.26
392.122	368.45
392.501	364.61
392.881	370.71
393.26	373.87
393.639	375.68
394.018	391.05
394.397	392.63
394.776	358.06
395.155	366.19
395.534	393.76
395.913	384.5
396.292	384.95
396.671	384.04
397.05	401.44
397.429	385.85
397.808	390.6
398.186	407.77
398.565	391.05
398.944	396.25
399.323	405.96
399.701	368.68
400.08	391.05
400.458	392.63
400.837	403.7
401.215	429.24
401.594	409.58
401.972	403.48
402.351	408.22
402.729	400.77
403.107	410.03
403.486	423.59
403.864	393.99
404.242	423.82
404.62	422.91
404.999	441.44
405.377	429.24
405.755	424.04
406.133	431.05
406.511	439.86
406.889	439.18
407.267	450.03
407.645	432.63
408.023	433.31
408.401	431.95
408.779	448.67
409.156	443.25
409.534	430.6
409.912	437.83
410.29	440.09
410.667	455
411.045	460.88
411.422	438.73
411.8	460.2
412.178	429.92
412.555	479.41
412.933	457.26
413.31	484.15
413.687	497.71
414.065	469.92
414.442	475.57
414.819	484.83
415.197	488.45
415.574	491.84
415.951	484.61
416.328	499.07
416.705	499.97
417.082	497.49
417.46	484.15
417.837	501.33
418.214	517.6
418.591	505.85
418.967	510.82
419.344	519.41
419.721	543.81
420.098	506.53
420.475	526.41
420.852	530.71
421.228	539.97
421.605	508.11
421.982	560.76
422.358	531.61
422.735	536.13
423.111	552.63
423.488	542.01
423.864	573.64
424.241	552.63
424.617	559.41
424.994	588.56
425.37	552.63
425.746	570.93
426.123	571.38
426.499	596.47
426.875	580.42
427.251	608.44
427.627	580.42
428.003	598.5
428.379	603.25
428.756	594.66
429.132	608.9
429.507	628.78
429.883	636.24
430.259	628.1
430.635	625.39
431.011	650.03
431.387	635.56
431.763	644.15
432.138	655.45
432.514	651.83
432.89	673.3
433.265	672.62
433.641	683.47
434.016	694.09
434.392	668.56
434.767	692.06
435.143	687.09
435.518	697.48
435.894	697.26
436.269	706.97
436.644	725.28
437.02	725.73
437.395	722.34
437.77	745.16
438.145	743.13
438.52	747.88
438.895	751.94
439.271	773.64
439.646	759.17
440.021	764.15
440.395	799.63
440.77	750.81
441.145	797.59
441.52	776.58
441.895	807.31
442.27	789.68
442.645	820.42
443.019	814.54
443.394	819.29
443.769	825.39
444.143	836.01
444.518	852.51
444.892	856.35
445.267	844.37
445.641	871.04
446.016	834.43
446.39	866.74
446.764	873.07
447.139	874.65
447.513	873.52
447.887	876.01
448.262	896.35
448.636	878.49
449.01	902.9
449.384	881.43
449.758	914.88
450.132	929.79
450.506	915.1
450.88	927.53
451.254	926.63
451.628	955.33
452.002	955.55
452.376	936.35
452.75	977.02
453.123	962.56
453.497	978.83
453.871	977.7
454.244	1032.16
454.618	1009.56
454.992	1034.42
455.365	1021.09
455.739	1048.66
456.112	1062.9
456.486	1083.46
456.859	1094.76
457.232	1087.3
457.606	1079.84
457.979	1109.45
458.352	1107.19
458.725	1140.63
459.099	1144.48
459.472	1157.13
459.845	1184.25
460.218	1154.87
460.591	1216.11
460.964	1206.39
461.337	1241.42
461.71	1216.34
462.083	1287.52
462.456	1269.22
462.829	1266.51
463.201	1264.47
463.574	1289.78
463.947	1325.94
464.32	1349.67
464.692	1378.14
465.065	1361.42
465.438	1408.88
465.81	1420.63
466.183	1459.72
466.555	1479.38
466.928	1487.29
467.3	1486.84
467.672	1512.6
468.045	1544.69
468.417	1567.52
468.789	1583.56
469.161	1588.31
469.534	1633.73
469.906	1687.06
470.278	1687.96
470.65	1701.07
471.022	1773.16
471.394	1784.46
471.766	1800.05
472.138	1856.1
472.51	1899.48
472.882	1945.13
473.253	1967.73
473.625	2021.74
473.997	2064.68
474.369	2104.68
474.74	2139.25
475.112	2184.67
475.484	2255.86
475.855	2307.16
476.227	2340.83
476.598	2431
476.97	2457.44
477.341	2562.52
477.713	2600.03
478.084	2640.93
478.455	2698.56
478.827	2748.05
479.198	2869.4
479.569	2920.02
479.94	3023.75
480.311	3100.36
480.682	3157.3
481.053	3281.37
481.424	3339.67
481.795	3444.3
482.166	3545.09
482.537	3620.79
482.908	3719.78
483.279	3832.54
483.65	3923.39
484.021	4021.01
484.391	4123.15
484.762	4239.31
485.133	4301.23
485.503	4387.55
485.874	4520.66
486.244	4662.12
486.615	4857.82
486.985	4924.04
487.356	5046.97
487.726	5160.64
488.097	5356.79
488.467	5380.75
488.837	5595.43
489.207	5656
489.578	5823.9
489.948	5970.11
490.318	6101.86
490.688	6129.2
491.058	6315.19
491.428	6488.52
491.798	6603.54
492.168	6813.71
492.538	6902.52
492.908	7010.08
493.278	7212.56
493.648	7304.31
494.017	7488.49
494.387	7522.84
494.757	7708.14
495.126	7818.88
495.496	7889.83
495.866	8057.74
496.235	8161.92
496.605	8320.11
496.974	8505.19
497.344	8575.69
497.713	8668.57
498.082	8803.03
498.452	8962.8
498.821	9037.38
499.19	9072.18
499.559	9178.39
499.928	9431.04
500.298	9488.66
500.667	9581.77
501.036	9719.39
501.405	9793.06
501.774	9832.61
502.143	9977.46
502.512	10038.03
502.88	10133.39
503.249	10167.06
503.618	10302.65
503.987	10412.25
504.356	10438.69
504.724	10601.4
505.093	10644.34
505.462	10729.08
505.83	10745.13
506.199	10889.76
506.567	11075.29
506.936	11007.72
507.304	11197.77
507.672	11192.57
508.041	11289.29
508.409	11385.34
508.777	11512.79
509.145	11565.44
509.514	11586.91
509.882	11617.42
510.25	11759.79
510.618	11827.13
510.986	11794.37
511.354	11957.52
511.722	12047.01
512.09	12032.32
512.458	12100.57
512.826	12185.09
513.193	12308.25
513.561	12262.15
513.929	12353.67
514.297	12450.84
514.664	12441.81
515.032	12487
515.4	12550.5
515.767	12646.32
516.135	12755.47
516.502	12679.09
516.869	12786.43
517.237	12797.05
517.604	12745.53
517.972	12899.87
518.339	12941.23
518.706	12945.52
519.073	12941.91
519.44	13115.01
519.808	13146.65
520.175	13091.05
520.542	13201.33
520.909	13162.92
521.276	13246.53
521.643	13245.63
522.009	13347.09
522.376	13401.1
522.743	13357.26
523.11	13460.99
523.477	13618.95
523.843	13526.75
524.21	13720.87
524.577	13718.38
524.943	13696.01
525.31	13829.79
525.676	13814.42
526.043	13914.31
526.409	13858.72
526.776	13947.08
527.142	13962.22
527.508	13906.85
527.874	14032.27
528.241	14011.93
528.607	14065.72
528.973	14106.85
529.339	14039.5
529.705	14148.43
530.071	14167.18
530.437	14139.39
530.803	14095.1
531.169	14170.57
531.535	14108.2
531.901	14100.52
532.267	14136.22
532.632	14131.25
532.998	14197.92
533.364	14220.74
533.73	14087.64
534.095	14233.4
534.461	14189.1
534.826	14147.75
535.192	14125.38
535.557	14226.39
535.923	14200.63
536.288	14224.81
536.653	14218.26
537.019	14065.27
537.384	14070.69
537.749	14086.51
538.114	14124.25
538.479	13959.51
538.845	14127.19
539.21	14013.06
539.575	13943.69
539.94	13981.65
540.305	13973.52
540.67	13892.61
541.034	13854.42
541.399	13911.15
541.764	13868.89
542.129	13807.87
542.494	13818.49
542.858	13815.33
543.223	13740.3
543.587	13754.54
543.952	13763.35
544.316	13721.77
544.681	13556.35
545.045	13677.71
545.41	13630.02
545.774	13604.49
546.138	13550.25
546.503	13619.63
546.867	13451.95
547.231	13572.17
547.595	13499.4
547.959	13445.17
548.324	13479.29
548.688	13372.85
549.052	13322.46
549.416	13288.34
549.779	13271.84
550.143	13267.55
550.507	13276.13
550.871	13289.47
551.235	13140.77
551.599	13187.32
551.962	13148.68
552.326	13192.07
552.689	13190.49
553.053	13064.39
553.417	13043.37
553.78	13189.58
554.143	13034.78
554.507	13074.56
554.87	13082.01
555.234	13104.16
555.597	13022.13
555.96	13039.3
556.323	13015.58
556.686	13032.98
557.05	13056.25
557.413	13073.88
557.776	13004.28
558.139	12994.79
558.502	12957.5
558.865	12980.1
559.228	13008.8
559.59	12939.65
559.953	13007.89
560.316	13087.89
560.679	13013.99
561.041	13070.72
561.404	12990.04
561.767	13074.56
562.129	13002.92
562.492	13071.39
562.854	13002.69
563.217	12922.92
563.579	13037.5
563.941	13140.32
564.304	13045.18
564.666	13123.82
565.028	13152.52
565.39	13146.42
565.753	13213.08
566.115	13203.37
566.477	13169.7
566.839	13237.49
567.201	13245.4
567.563	13170.15
567.925	13255.57
568.287	13219.19
568.648	13221.67
569.01	13277.49
569.372	13308
569.734	13286.08
570.095	13292.86
570.457	13364.72
570.819	13433.87
571.18	13390.48
571.542	13329.92
571.903	13374.44
572.265	13357.71
572.626	13463.7
572.987	13406.75
573.349	13434.32
573.71	13540.76
574.071	13441.78
574.432	13548.44
574.794	13634.09
575.155	13532.85
575.516	13462.34
575.877	13526.07
576.238	13493.53
576.599	13624.6
576.96	13537.6
577.32	13555.22
577.681	13615.79
578.042	13542.34
578.403	13631.15
578.763	13574.88
579.124	13520.65
579.485	13591.15
579.845	13637.03
580.206	13592.28
580.566	13539.63
580.927	13642
581.287	13629.35
581.648	13602.23
582.008	13650.14
582.368	13582.34
582.728	13661.89
583.089	13545.73
583.449	13583.7
583.809	13587.99
584.169	13599.29
584.529	13535.11
584.889	13640.19
585.249	13543.47
585.609	13471.61
585.969	13512.74
586.329	13408.11
586.688	13482
587.048	13454.66
587.408	13460.31
587.768	13382.12
588.127	13392.06
588.487	13450.59
588.846	13518.39
589.206	13307.77
589.565	13454.43
589.925	13450.14
590.284	13411.27
590.643	13446.98
591.003	13418.96
591.362	13559.52
591.721	13408.79
592.08	13380.76
592.44	13436.36
592.799	13476.58
593.158	13397.49
593.517	13460.76
593.876	13291.95
594.235	13312.52
594.593	13362.46
594.952	13386.19
595.311	13258.28
595.67	13228.68
596.029	13388.9
596.387	13344.61
596.746	13380.76
597.104	13279.98
597.463	13332.4
597.822	13286.98
598.18	13267.09
598.538	13248.34
598.897	13312.29
599.255	13239.52
599.613	13400.2
599.972	13332.86
600.33	13362.23
600.688	13342.57
601.046	13323.59
601.404	13395.9
601.762	13323.82
602.12	13358.84
602.478	13425.51
602.836	13387.54
603.194	13308.22
603.552	13269.81
603.91	13163.14
604.268	13321.78
604.625	13303.03
604.983	13330.37
605.341	13230.49
605.698	13365.85
606.056	13356.81
606.413	13310.48
606.771	13352.06
607.128	13393.19
607.485	13382.8
607.843	13261.45
608.2	13395.23
608.557	13425.96
608.914	13378.5
609.272	13410.14
609.629	13451.27
609.986	13422.57
610.343	13373.98
610.7	13515.22
611.057	13454.21
611.414	13405.17
611.771	13412.4
612.127	13479.07
612.484	13479.74
612.841	13609.23
613.198	13526.07
613.554	13426.19
613.911	13575.56
614.267	13560.87
614.624	13592.74
614.98	13615.79
615.337	13638.61
615.693	13650.59
616.05	13580.98
616.406	13595
616.762	13649.46
617.118	13605.62
617.475	13583.47
617.831	13751.38
618.187	13747.08
618.543	13695.33
618.899	13791.83
619.255	13644.49
619.611	13661.43
619.967	13780.98
620.323	13853.75
620.678	13783.47
621.034	13813.97
621.39	13735.56
621.746	13724.26
622.101	13864.59
622.457	13713.86
622.812	13772.84
623.168	13763.35
623.523	13781.43
623.879	13837.48
624.234	13651.49
624.589	13723.35
624.945	13802.45
625.3	13778.04
625.655	13760.42
626.01	13773.3
626.365	13681.32
626.72	13770.36
627.075	13719.96
627.43	13661.66
627.785	13626.41
628.14	13639.51
628.495	13781.43
628.85	13655.33
629.205	13533.53
629.559	13734.88
629.914	13617.82
630.269	13712.73
630.623	13618.05
630.978	13654.43
631.332	13652.4
631.687	13696.01
632.041	13604.94
632.396	13644.71
632.75	13545.28
633.104	13581.66
633.459	13618.72
633.813	13548.44
634.167	13538.27
634.521	13517.94
634.875	13567.65
635.229	13529.46
635.583	13482.46
635.937	13502.12
636.291	13481.33
636.645	13483.59
636.999	13359.07
637.352	13445.17
637.706	13305.51
638.06	13429.58
638.413	13359.07
638.767	13342.12
639.121	13393.87
639.474	13270.94
639.828	13315.23
640.181	13270.71
640.534	13330.6
640.888	13208.11
641.241	13263.7
641.594	13169.47
641.947	13286.98
642.301	13226.42
642.654	13270.94
643.007	13168.79
643.36	13258.73
643.713	13176.7
644.066	13224.38
644.419	13156.14
644.771	13074.78
645.124	12964.28
645.477	12955.24
645.83	12913.66
646.182	12861
646.535	12758.63
646.888	12792.08
647.24	12728.35
647.593	12811.74
647.945	12730.39
648.298	12731.06
648.65	12698.52
649.002	12655.81
649.355	12755.7
649.707	12664.4
650.059	12779.65
650.411	12916.14
650.763	12886.31
651.115	13039.98
651.467	13041.79
651.819	12991.85
652.171	12948.91
652.523	12947.33
652.875	12981.68
653.227	12898.06
653.578	13037.72
653.93	13053.54
654.282	12939.42
654.633	12911.85
654.985	12979.42
655.337	12943.26
655.688	12997.05
656.039	13033.88
656.391	13023.26
656.742	12950.27
657.094	12916.14
657.445	12999.31
657.796	13007.67
658.147	12894.22
658.498	13047.89
658.849	12988.68
659.2	12997.72
659.551	12950.49
659.902	13056.7
660.253	13022.13
660.604	13105.97
660.955	13008.8
661.306	13065.07
661.656	13032.52
662.007	12991.62
662.358	13041.79
662.708	13084.5
663.059	13019.64
663.409	12983.94
663.76	13067.1
664.11	13049.7
664.461	13080.66
664.811	13167.44
665.161	13010.83
665.511	13046.08
665.862	13079.75
666.212	13062.58
666.562	13086.31
666.912	13070.94
667.262	13077.95
667.612	13066.2
667.962	13097.16
668.312	13073.65
668.662	13129.7
669.011	13097.61
669.361	13100.55
669.711	13036.59
670.06	13023.71
670.41	13040.21
670.76	12949.81
671.109	13050.15
671.459	13073.88
671.808	12960.44
672.157	13083.14
672.507	12942.13
672.856	12945.3
673.205	12975.35
673.554	12953.43
673.904	12945.52
674.253	12962.02
674.602	12952.75
674.951	12765.86
675.3	12707.34
675.649	12943.04
675.998	12892.64
676.346	12922.02
676.695	12865.75
677.044	12809.48
677.393	12837.28
677.741	12753.89
678.09	12791.85
678.438	12746.88
678.787	12810.84
679.135	12765.64
679.484	12723.15
679.832	12722.48
680.181	12742.59
680.529	12733.55
680.877	12715.02
681.225	12696.26
681.573	12750.27
681.922	12620.11
682.27	12603.38
682.618	12550.05
682.966	12546.89
683.314	12569.94
683.661	12603.84
684.009	12524.52
684.357	12420.56
684.705	12442.71
685.053	12419.89
685.4	12378.76
685.748	12252.88
686.095	12292.21
686.443	12289.95
686.79	12254.24
687.138	12302.83
687.485	12297.85
687.832	12233
688.18	12242.49
688.527	12152.77
688.874	12071.42
689.221	12087.92
689.568	12083.85
689.915	11954.81
690.262	12097.86
690.609	12020.57
690.956	11926.11
691.303	11886.34
691.65	11822.84
691.997	11850.41
692.344	11732.9
692.69	11696.29
693.037	11741.49
693.383	11615.61
693.73	11622.62
694.077	11541.72
694.423	11473.7
694.769	11571.55
695.116	11471.66
695.462	11367.94
695.808	11394.83
696.155	11390.08
696.501	11340.59
696.847	11277.99
697.193	11217.66
697.539	11114.83
697.885	11120.26
698.231	11150.54
698.577	11085.68
698.923	11086.81
699.269	11085.23
699.614	10928.85
699.96	10990.77
700.306	10951.22
700.651	10916.42
700.997	10831.68
701.342	10802.98
701.688	10834.16
702.033	10775.41
702.379	10723.88
702.724	10642.98
703.069	10685.02
703.415	10619.03
703.76	10582.65
704.105	10523.89
704.45	10499.48
704.795	10448.41
705.14	10369.32
705.485	10369.54
705.83	10349.88
706.175	10330.9
706.52	10323.9
706.865	10264.46
707.209	10307.17
707.554	10185.82
707.899	10235.54
708.243	10061.08
708.588	10087.07
708.932	10042.77
709.277	10051.81
709.621	10050.68
709.966	9987.18
710.31	10018.37
710.654	9874.19
710.998	9927.52
711.342	9931.82
711.687	9855.43
712.031	9873.51
712.375	9756.23
712.719	9781.08
713.063	9758.71
713.407	9767.53
713.75	9713.74
714.094	9722.78
714.438	9681.2
714.782	9744.7
715.125	9675.55
715.469	9662.22
715.812	9620.86
716.156	9610.47
716.499	9627.64
716.843	9580.64
717.186	9533.18
717.53	9519.4
717.873	9576.34
718.216	9563.46
718.559	9522.56
718.902	9462.22
719.246	9497.93
719.589	9417.48
719.932	9382.68
720.275	9410.7
720.617	9390.13
720.96	9386.97
721.303	9398.27
721.646	9428.33
721.989	9305.16
722.331	9349.68
722.674	9332.96
723.016	9309.23
723.359	9316.01
723.701	9284.83
724.044	9351.04
724.386	9255.45
724.729	9246.86
725.071	9227.2
725.413	9243.92
725.755	9196.69
726.097	9206.64
726.439	9194.66
726.782	9189.46
727.124	9254.77
727.465	9211.61
727.807	9205.28
728.149	9167.54
728.491	9146.3
728.833	9174.77
729.175	9086.64
729.516	9154.21
729.858	9170.71
730.199	9135.68
730.541	9122.57
730.882	9135
731.224	9138.16
731.565	9168.45
731.906	9158.28
732.248	9212.96
732.589	9111.27
732.93	9025.62
733.271	9118.05
733.612	9135.45
733.953	9125.28
734.294	9008.68
734.635	9081.22
734.976	9142.23
735.317	9046.19
735.658	9112.63
735.999	9125.96
736.339	9149.46
736.68	9190.37
737.021	9168.9
737.361	9097.26
737.702	9125.06
738.042	9146.98
738.383	9104.49
738.723	9226.3
739.063	9134.1
739.404	9197.82
739.744	9166.64
740.084	9135.45
740.424	9166.64
740.764	9147.43
741.104	9235.34
741.444	9193.3
741.784	9220.65
742.124	9211.16
742.464	9271.49
742.804	9241.44
743.143	9223.59
743.483	9273.53
743.823	9254.32
744.162	9289.8
744.502	9319.18
744.841	9311.27
745.181	9416.12
745.52	9446.4
745.86	9487.31
746.199	9527.98
746.538	9545.38
746.877	9574.31
747.216	9666.29
747.556	9641.43
747.895	9693.4
748.234	9752.38
748.573	9729.56
748.911	9888.2
749.25	9927.07
749.589	10003.68
749.928	10073.51
750.267	10106.5
750.605	10154.18
750.944	10218.36
751.283	10272.6
751.621	10361.18
751.96	10450.45
752.298	10586.94
752.636	10666.71
752.975	10738.12
753.313	10865.12
753.651	11005.23
753.989	10979.7
754.327	11187.83
754.666	11210.2
755.004	11374.04
755.342	11459.91
755.679	11562.05
756.017	11724.54
756.355	11884.98
756.693	11910.97
757.031	12121.14
757.368	12209.04
757.706	12345.99
758.044	12414.24
758.381	12593.44
758.719	12704.17
