Data from hue_60_FLMS001491_5.txt Node
Date: Mon Feb 06 15:11:50 GMT 2017
User: dcchb
Spectrometer: FLMS00149
Trigger mode: 0
Integration Time (sec): 2.000000E-2
Scans to average: 10
Electric dark correction enabled: true
Nonlinearity correction enabled: false
Boxcar width: 0
XAxis mode: Wavelengths
Number of Pixels in Spectrum: 2048
>>>>>Begin Spectral Data<<<<<
341.393	-20.42
341.776	-20.42
342.16	-20.42
342.543	-63.13
342.927	-89.8
343.31	-60.42
343.693	-70.37
344.077	-60.87
344.46	-45.28
344.843	-53.87
345.226	-61.33
345.61	-31.04
345.993	-16.36
346.376	-6.41
346.759	18.45
347.142	20.25
347.525	39.46
347.908	51.89
348.291	59.8
348.674	102.96
349.057	113.13
349.44	113.13
349.823	165.11
350.206	172.57
350.588	182.96
350.971	210.31
351.354	258.89
351.737	251.21
352.119	249.85
352.502	267.93
352.884	297.53
353.267	285.78
353.65	295.05
354.032	312.45
354.414	327.14
354.797	331.43
355.179	329.17
355.562	312.68
355.944	349.06
356.326	335.73
356.709	331.88
357.091	341.38
357.473	354.93
357.855	363.3
358.238	354.48
358.62	353.13
359.002	343.64
359.384	350.19
359.766	356.06
360.148	359.23
360.53	337.31
360.912	340.7
361.294	351.32
361.676	357.65
362.057	323.07
362.439	326.23
362.821	348.15
363.203	343.64
363.584	330.3
363.966	324.43
364.348	326.23
364.729	354.03
365.111	347.25
365.493	352
365.874	330.53
366.256	320.13
366.637	333.92
367.019	327.14
367.4	323.3
367.781	318.78
368.163	323.3
368.544	332.34
368.925	305.67
369.306	302.73
369.688	317.42
370.069	328.95
370.45	316.29
370.831	337.76
371.212	306.8
371.593	325.1
371.974	346.12
372.355	316.52
372.736	330.98
373.117	329.17
373.498	315.16
373.879	319
374.26	324.43
374.641	310.42
375.021	316.29
375.402	325.56
375.783	316.74
376.163	317.87
376.544	310.19
376.925	365.1
377.305	340.7
377.686	341.83
378.066	329.4
378.447	337.76
378.827	306.8
379.208	343.41
379.588	328.95
379.968	319.23
380.349	337.31
380.729	353.13
381.109	327.14
381.489	326.91
381.87	335.27
382.25	350.41
382.63	339.57
383.01	330.53
383.39	324.43
383.77	360.36
384.15	343.41
384.53	353.13
384.91	349.28
385.29	347.02
385.67	341.38
386.049	342.05
386.429	340.7
386.809	352.22
387.189	348.61
387.568	352.9
387.948	363.07
388.328	368.04
388.707	363.52
389.087	371.2
389.466	349.96
389.846	359.23
390.225	364.88
390.605	375.27
390.984	383.18
391.363	354.03
391.743	372.11
392.122	372.79
392.501	370.3
392.881	379.79
393.26	384.31
393.639	370.08
394.018	373.69
394.397	381.83
394.776	382.28
395.155	390.41
395.534	368.04
395.913	384.99
396.292	409.4
396.671	403.07
397.05	385.22
397.429	364.2
397.808	377.76
398.186	371.66
398.565	412.56
398.944	398.1
399.323	384.54
399.701	394.93
400.08	376.4
400.458	387.25
400.837	395.39
401.215	410.75
401.594	402.84
401.972	394.71
402.351	392
402.729	422.73
403.107	411.2
403.486	400.36
403.864	401.94
404.242	420.7
404.62	425.21
404.999	392.9
405.377	419.57
405.755	414.37
406.133	403.52
406.511	428.83
406.889	417.98
407.267	413.46
407.645	402.39
408.023	425.67
408.401	444.2
408.779	449.17
409.156	430.64
409.534	451.43
409.912	440.81
410.29	428.15
410.667	422.28
411.045	445.1
411.422	445.78
411.8	483.29
412.178	466.8
412.555	474.48
412.933	475.83
413.31	470.41
413.687	473.8
414.065	474.93
414.442	463.41
414.819	486.46
415.197	489.39
415.574	464.08
415.951	494.59
416.328	491.65
416.705	492.56
417.082	478.77
417.46	533.23
417.837	512.9
418.214	503.63
418.591	497.76
418.967	522.16
419.344	505.89
419.721	516.51
420.098	521.48
420.475	515.61
420.852	519.45
421.228	513.57
421.605	524.2
421.982	533.91
422.358	543.18
422.735	554.25
423.111	534.14
423.488	559.9
423.864	561.48
424.241	554.02
424.617	558.54
424.994	557.64
425.37	559.9
425.746	557.64
426.123	549.96
426.499	572.56
426.875	574.59
427.251	594.48
427.627	600.58
428.003	596.28
428.379	605.78
428.756	584.98
429.132	594.02
429.507	610.29
429.883	623.18
430.259	613.23
430.635	631.09
431.011	611.2
431.387	614.36
431.763	633.12
432.138	623.18
432.514	653.91
432.89	676.96
433.265	663.63
433.641	674.25
434.016	666.11
434.392	680.12
434.767	671.99
435.143	670.86
435.518	683.97
435.894	682.38
436.269	678.77
436.644	676.51
437.02	714.25
437.395	720.35
437.77	717.64
438.145	723.29
438.52	708.37
438.895	744.75
439.271	736.85
439.646	737.3
440.021	724.19
440.395	738.2
440.77	763.06
441.145	752.44
441.52	738.65
441.895	769.61
442.27	774.13
442.645	744.53
443.019	773.68
443.394	790.18
443.769	794.7
444.143	786.79
444.518	785.66
444.892	777.07
445.267	783.85
445.641	779.1
446.016	785.43
446.39	822.49
446.764	782.95
447.139	796.28
447.513	806.67
447.887	824.75
448.262	829.05
448.636	823.4
449.01	823.85
449.384	825.43
449.758	848.71
450.132	842.6
450.506	852.77
450.88	864.53
451.254	850.51
451.628	862.49
452.002	897.07
452.376	876.28
452.75	894.36
453.123	907.01
453.497	930.74
453.871	913.11
454.244	921.25
454.618	933.9
454.992	934.35
455.365	961.7
455.739	981.13
456.112	980.91
456.486	991.3
456.859	956.27
457.232	1016.39
457.606	994.69
457.979	996.5
458.352	1039.21
458.725	1060
459.099	1037.18
459.472	1057.29
459.845	1076.27
460.218	1076.5
460.591	1098.19
460.964	1120.11
461.337	1124.41
461.71	1149.49
462.083	1169.38
462.456	1146.33
462.829	1165.53
463.201	1195.82
463.574	1188.36
463.947	1200.56
464.32	1223.84
464.692	1237.62
465.065	1245.53
465.438	1252.09
465.81	1297.28
466.183	1291.63
466.555	1342.03
466.928	1325.76
467.3	1363.5
467.672	1395.13
468.045	1394.68
468.417	1414.57
468.789	1456.83
469.161	1459.31
469.534	1520.33
469.906	1555.81
470.278	1530.27
470.65	1562.13
471.022	1609.59
471.394	1661.57
471.766	1688.01
472.138	1676.03
472.51	1746.76
472.882	1789.7
473.253	1818.4
473.625	1869.47
473.997	1916.7
474.369	1950.6
474.74	1956.02
475.112	2001.67
475.484	2080.76
475.855	2147.88
476.227	2173.64
476.598	2243.92
476.97	2243.7
477.341	2371.38
477.713	2400.3
478.084	2453.64
478.455	2525.5
478.827	2597.14
479.198	2708.09
479.569	2758.03
479.94	2853.85
480.311	2945.37
480.682	2999.84
481.053	3106.27
481.424	3235.99
481.795	3266.04
482.166	3398.24
482.537	3457.23
482.908	3561.63
483.279	3669.88
483.65	3758.01
484.021	3914.16
484.391	4028.51
484.762	4129.98
485.133	4234.83
485.503	4332.68
485.874	4468.05
486.244	4612.45
486.615	4756.85
486.985	4875.04
487.356	5028.94
487.726	5151.19
488.097	5342.6
488.467	5436.16
488.837	5607
489.207	5777.62
489.578	5906.2
489.948	5998.4
490.318	6225.74
490.688	6339.86
491.058	6590.93
491.428	6673.19
491.798	6829.34
492.168	7080.41
492.538	7193.62
492.908	7334.86
493.278	7463.9
493.648	7656.66
494.017	7904.79
494.387	8068.63
494.757	8174.84
495.126	8365.12
495.496	8524.66
495.866	8696.41
496.235	8848.27
496.605	9019.34
496.974	9211.2
497.344	9405.54
497.713	9550.85
498.082	9671.98
498.452	9932.54
498.821	10094.34
499.19	10220.21
499.559	10381.11
499.928	10497.72
500.298	10614.33
500.667	10803.02
501.036	10968.44
501.405	11135.22
501.774	11308.32
502.143	11426.06
502.512	11633.96
502.88	11824.92
503.249	11974.52
503.618	12108.98
503.987	12241.85
504.356	12414.05
504.724	12565.69
505.093	12689.75
505.462	12844.78
505.83	13090.19
506.199	13168.16
506.567	13425.1
506.936	13547.36
507.304	13744.19
507.672	13852.43
508.041	14055.36
508.409	14190.73
508.777	14450.38
509.145	14499.65
509.514	14661.9
509.882	14747.55
510.25	14859.41
510.618	15142.34
510.986	15088.78
511.354	15374.65
511.722	15548.43
512.09	15696
512.458	15737.13
512.826	16043.11
513.193	16106.16
513.561	16251.24
513.929	16392.03
514.297	16589.08
514.664	16722.64
515.032	16928.06
515.4	17174.38
515.767	17150.42
516.135	17428.16
516.502	17312.45
516.869	17658.66
517.237	17754.93
517.604	17746.57
517.972	18083.73
518.339	18252.99
518.706	18251.19
519.073	18410.28
519.44	18574.79
519.808	18885.52
520.175	18833.09
520.542	19138.4
520.909	19323.47
521.276	19264.27
521.643	19641.66
522.009	19772.5
522.376	19938.6
522.743	20105.6
523.11	20337.01
523.477	20450.9
523.843	20638.69
524.21	20807.28
524.577	20958.23
524.943	21128.63
525.31	21190.77
525.676	21409.75
526.043	21552.12
526.409	21700.14
526.776	21958.89
527.142	21962.05
527.508	22131.31
527.874	22356.16
528.241	22577.17
528.607	22557.51
528.973	22682.71
529.339	22899.65
529.705	23087.9
530.071	23250.15
530.437	23371.05
530.803	23515
531.169	23679.29
531.535	23789.8
531.901	23696.24
532.267	23968.32
532.632	24116.12
532.998	24129
533.364	24459.61
533.73	24473.4
534.095	24677.23
534.461	24703.45
534.826	24966.94
535.192	24980.5
535.557	25100.27
535.923	25151.34
536.288	25276.54
536.653	25412.13
537.019	25364.9
537.384	25482.86
537.749	25643.31
538.114	25662.29
538.479	25686.02
538.845	26060.25
539.21	25967.37
539.575	26118.78
539.94	26123.97
540.305	26289.62
540.67	26228.38
541.034	26461.37
541.399	26532.55
541.764	26694.13
542.129	26734.13
542.494	26808.48
542.858	26861.58
543.223	26851.64
543.587	27052.76
543.952	27017.51
544.316	27196.04
544.681	27265.64
545.045	27484.16
545.41	27558.29
545.774	27704.72
546.138	27614.1
546.503	27768.45
546.867	27792.4
547.231	28005.51
547.595	28028.33
547.959	28116.69
548.324	28060.19
548.688	28197.82
549.052	28434.2
549.416	28486.62
549.779	28511.48
550.143	28454.99
550.507	28856.78
550.871	28878.03
551.235	28846.61
551.599	29012.71
551.962	29195.98
552.326	29246.6
552.689	29332.48
553.053	29315.98
553.417	29507.61
553.78	29852.92
554.143	29711.45
554.507	29865.8
554.87	29970.2
555.234	30291.1
555.597	30058.33
555.96	30280.47
556.323	30426.23
556.686	30439.79
557.05	30675.04
557.413	30702.61
557.776	30710.97
558.139	31027.8
558.502	31069.83
558.865	31112.32
559.228	31431.18
559.59	31439.54
559.953	31476.38
560.316	31943.93
560.679	31792.3
561.041	32162.91
561.404	32094.66
561.767	32350.03
562.129	32445.16
562.492	32622.56
562.854	32666.85
563.217	32665.05
563.579	32843.35
563.941	33127.41
564.304	33173.73
564.666	33525.36
565.028	33535.76
565.39	33645.81
565.753	33686.26
566.115	33827.95
566.477	34055.74
566.839	34162.18
567.201	34285.79
567.563	34426.58
567.925	34655.95
568.287	34646.46
568.648	34631.55
569.01	34859.56
569.372	35118.77
569.734	34977.07
570.095	35137.3
570.457	35449.83
570.819	35410.51
571.18	35505.65
571.542	35881.23
571.903	35852.98
572.265	35848.69
572.626	35965.07
572.987	36124.84
573.349	36285.29
573.71	36346.98
574.071	36447.09
574.432	36519.18
574.794	36785.39
575.155	36766.41
575.516	36791.49
575.877	36863.8
576.238	36905.16
576.599	37132.27
576.96	37148.99
577.32	37094.99
577.681	37238.48
578.042	37462.66
578.403	37406.62
578.763	37494.97
579.124	37532.94
579.485	37635.76
579.845	37743.56
580.206	37694.29
580.566	37662.43
580.927	37818.36
581.287	37880.5
581.648	37798.24
582.008	38067.16
582.368	37895.19
582.728	38044.56
583.089	38070.1
583.449	38071.46
583.809	38118.46
584.169	38267.38
584.529	38054.96
584.889	38419.24
585.249	38233.03
585.609	38080.27
585.969	38298.57
586.329	38242.3
586.688	38221.51
587.048	38191.68
587.408	38146.71
587.768	38092.47
588.127	38285.91
588.487	38158.01
588.846	38560.03
589.206	38228.06
589.565	38201.62
589.925	38418.57
590.284	38370.66
590.643	38421.5
591.003	38522.97
591.362	38590.99
591.721	38503.08
592.08	38545.12
592.44	38629.63
592.799	38645
593.158	38560.71
593.517	38707.6
593.876	38744.66
594.235	38659.46
594.593	38749.4
594.952	38887.71
595.311	38593.48
595.67	38782.85
596.029	39092.45
596.387	39017.19
596.746	39203.18
597.104	38883.41
597.463	38956.41
597.822	39056.97
598.18	38921.6
598.538	38907.14
598.897	39224.65
599.255	38922.96
599.613	39356.85
599.972	39269.39
600.33	39351.42
600.688	39114.37
601.046	39391.2
601.404	39592.32
601.762	39501.93
602.12	39582.83
602.478	39661.47
602.836	39593.68
603.194	39488.14
603.552	39664.41
603.91	39459.22
604.268	39678.19
604.625	39588.48
604.983	39857.17
605.341	39649.72
605.698	39948.02
606.056	40023.5
606.413	39976.27
606.771	40136.71
607.128	40142.59
607.485	39990.28
607.843	40260.1
608.2	40420.1
608.557	40472.3
608.914	40412.19
609.272	40556.59
609.629	40673.42
609.986	40731.5
610.343	40669.58
610.7	40933.98
611.057	40791.39
611.414	40877.71
611.771	40859.18
612.127	40939.63
612.484	40974.21
612.841	41254.65
613.198	41033.86
613.554	41119.51
613.911	41215.1
614.267	41379.39
614.624	41179.17
614.98	41389.34
615.337	41624.13
615.693	41521.54
616.05	41511.59
616.406	41674.53
616.762	41664.58
617.118	41647.18
617.475	41677.01
617.831	41831.36
618.187	41831.58
618.543	42004.01
618.899	42109.32
619.255	42164.91
619.611	42079.03
619.967	42274.96
620.323	42320.84
620.678	42296.66
621.034	42183.89
621.39	42151.35
621.746	42212.82
622.101	42596.08
622.457	42349.08
622.812	42433.38
623.168	42382.76
623.523	42423.88
623.879	42576.2
624.234	42338.01
624.589	42684.22
624.945	42591.34
625.3	42716.76
625.655	42595.86
626.01	42549.3
626.365	42638.57
626.72	42681.28
627.075	42601.96
627.43	42589.98
627.785	42624.56
628.14	42703.88
628.495	42736.64
628.85	42701.84
629.205	42439.48
629.559	42802.18
629.914	42723.76
630.269	42727.15
630.623	42575.97
630.978	42523.99
631.332	42639.47
631.687	42700.26
632.041	42507.72
632.396	42654.61
632.75	42457.33
633.104	42624.78
633.459	42352.47
633.813	42552.47
634.167	42380.27
634.521	42407.39
634.875	42474.5
635.229	42436.09
635.583	42295.53
635.937	42260.72
636.291	42240.39
636.645	42299.82
636.999	42129.43
637.352	42226.15
637.706	42121.52
638.06	42290.1
638.413	42206.04
638.767	42048.98
639.121	42101.41
639.474	41856.89
639.828	41808.08
640.181	42023.44
640.534	42023.44
640.888	41855.54
641.241	41640.63
641.594	41827.74
641.947	41905.25
642.301	41757.24
642.654	41771.7
643.007	41850.34
643.36	41797.46
643.713	41646.28
644.066	41876.33
644.419	41548.88
644.771	41272.73
645.124	41018.27
645.477	40884.04
645.83	40728.11
646.182	40531.5
646.535	40405.41
646.888	40514.78
647.24	40288.8
647.593	40613.99
647.945	40385.07
648.298	40251.29
648.65	40355.92
649.002	40096.49
649.355	40233.89
649.707	40245.18
650.059	40414.22
650.411	40934.88
650.763	40761.1
651.115	41230.47
651.467	41030.93
651.819	41130.81
652.171	40982.34
652.523	40887.65
652.875	40976.69
653.227	40772.18
653.578	40928.56
653.93	40804.27
654.282	40717.04
654.633	40791.16
654.985	40720.65
655.337	40794.55
655.688	40750.93
656.039	40894.66
656.391	40444.95
656.742	40629.58
657.094	40717.71
657.445	40769.92
657.796	40553.43
658.147	40549.81
658.498	40508
658.849	40647.89
659.2	40403.15
659.551	40357.72
659.902	40574.67
660.253	40412.41
660.604	40499.64
660.955	40336.03
661.306	40569.92
661.656	40422.13
662.007	40335.58
662.358	40472.52
662.708	40442.24
663.059	40347.1
663.409	40198.63
663.76	40468.46
664.11	40272.53
664.461	40522.01
664.811	40328.12
665.161	40355.46
665.511	40261.23
665.862	40258.07
666.212	40471.39
666.562	40374.9
666.912	40277.5
667.262	40283.38
667.612	40270.04
667.962	40324.05
668.312	40191.4
668.662	40424.62
669.011	40230.5
669.361	40117.96
669.711	40170.61
670.06	40031.63
670.41	40032.53
670.76	40153.66
671.109	40218.97
671.459	40071.18
671.808	39978.07
672.157	40086.77
672.507	39819.21
672.856	39698.08
673.205	39944.63
673.554	39891.75
673.904	39866.21
674.253	40123.38
674.602	39961.8
674.951	39364.76
675.3	39273.91
675.649	39757.06
675.998	39688.14
676.346	39884.52
676.695	39954.12
677.044	39684.97
677.393	39988.92
677.741	39776.04
678.09	39567.69
678.438	39506.9
678.787	39690.85
679.135	39642.04
679.484	39409.73
679.832	39547.12
680.181	39273.23
680.529	39478.88
680.877	39350.07
681.225	39274.59
681.573	39580.8
681.922	39242.95
682.27	39114.37
682.618	39143.52
682.966	39042.73
683.314	39070.53
683.661	38974.94
684.009	38804.77
684.357	38836.41
684.705	38764.55
685.053	38828.27
685.4	38694.49
685.748	38504.89
686.095	38569.07
686.443	38327.72
686.79	38306.03
687.138	38287.72
687.485	38252.47
687.832	38064
688.18	38137.67
688.527	38013.38
688.874	37935.64
689.221	37937.22
689.568	37785.14
689.915	37762.31
690.262	37578.36
690.609	37638.25
690.956	37517.57
691.303	37452.04
691.65	37285.94
691.997	37245.49
692.344	37008.43
692.69	37125.72
693.037	37034.42
693.383	36762.56
693.73	36896.35
694.077	36675.34
694.423	36649.35
694.769	36429.47
695.116	36493.19
695.462	36407.77
695.808	36323.03
696.155	36282.8
696.501	36157.61
696.847	36051.17
697.193	35920.33
697.539	35907.45
697.885	35730.05
698.231	35672.2
698.577	35665.19
698.923	35653.44
699.269	35381.36
699.614	35297.52
699.96	35173
700.306	35201.48
700.651	35044.42
700.997	34984.76
701.342	34890.52
701.688	34906.79
702.033	34777.98
702.379	34835.61
702.724	34691.88
703.069	34776.18
703.415	34426.81
703.76	34397.43
704.105	34439.46
704.45	34274.04
704.795	34038.34
705.14	33913.83
705.485	33968.51
705.83	33850.78
706.175	33882.87
706.52	33761.97
706.865	33695.53
707.209	33601.97
707.554	33556.55
707.899	33537.56
708.243	33388.87
708.588	33360.62
708.932	32975.77
709.277	33111.14
709.621	33079.05
709.966	32889.22
710.31	33048.31
710.654	32650.81
710.998	32713.86
711.342	32759.05
711.687	32653.97
712.031	32524.26
712.375	32428.67
712.719	32382.79
713.063	32317.26
713.407	32395.9
713.75	32147.09
714.094	32217.83
714.438	32122.69
714.782	32065.29
715.125	31838.4
715.469	31980.32
715.812	31813.99
716.156	31722.7
716.499	31715.69
716.843	31804.95
717.186	31486.54
717.53	31715.92
717.873	31751.85
718.216	31501.23
718.559	31325.19
718.902	31048.59
719.246	31254.69
719.589	31130.62
719.932	31049.49
720.275	31061.25
720.617	31107.8
720.96	31030.29
721.303	31022.15
721.646	30870.52
721.989	30801.59
722.331	30807.24
722.674	30706.68
723.016	30760.69
723.359	30728.6
723.701	30780.12
724.044	30574.7
724.386	30375.61
724.729	30493.8
725.071	30357.76
725.413	30329.74
725.755	30305.33
726.097	30181.04
726.439	30076.41
726.782	30054.04
727.124	30204.09
727.465	29993.25
727.807	29996.87
728.149	29856.08
728.491	29792.8
728.833	29867.38
729.175	29806.14
729.516	29710.77
729.858	29722.75
730.199	29791.45
730.541	29638.68
730.882	29520.49
731.224	29631.45
731.565	29434.4
731.906	29490.67
732.248	29400.5
732.589	29338.8
732.93	29093.16
733.271	29245.7
733.612	29242.08
733.953	29087.29
734.294	29139.04
734.635	28961.41
734.976	28880.96
735.317	28975.65
735.658	28966.39
735.999	28859.04
736.339	28751.93
736.68	28961.64
737.021	28864.47
737.361	28778.37
737.702	28873.96
738.042	28643.91
738.383	28604.59
738.723	28701.53
739.063	28547.87
739.404	28517.13
739.744	28384.25
740.084	28438.72
740.424	28414.31
740.764	28309.91
741.104	28477.36
741.444	28152.4
741.784	28231.04
742.124	28231.49
742.464	28124.6
742.804	28120.53
743.143	27930.03
743.483	28072.62
743.823	27905.17
744.162	27840.31
744.502	27777.26
744.841	27797.38
745.181	27904.72
745.52	27767.32
745.86	27747.66
746.199	27593.99
746.538	27585.86
746.877	27652.3
747.216	27602.35
747.556	27596.7
747.895	27541.11
748.234	27301.57
748.573	27383.38
748.911	27215.7
749.25	27207.11
749.589	27087.11
749.928	27200.78
750.267	27153.33
750.605	27120.11
750.944	27027
751.283	26849.6
751.621	26960.34
751.96	26778.65
752.298	26812.54
752.636	26844.63
752.975	26628.37
753.313	26657.75
753.651	26723.51
753.989	26617.75
754.327	26493.68
754.666	26347.92
755.004	26508.14
755.342	26449.39
755.679	26388.15
756.017	26222.05
756.355	26261.37
756.693	26174.59
757.031	26163.97
