Data from hue_60_FLMS001491_77.txt Node
Date: Mon Feb 06 15:17:54 GMT 2017
User: dcchb
Spectrometer: FLMS00149
Trigger mode: 0
Integration Time (sec): 2.000000E-2
Scans to average: 10
Electric dark correction enabled: true
Nonlinearity correction enabled: false
Boxcar width: 0
XAxis mode: Wavelengths
Number of Pixels in Spectrum: 2048
>>>>>Begin Spectral Data<<<<<
341.393	-15.1
341.776	-15.1
342.16	-15.1
342.543	-52.61
342.927	-97.13
343.31	-72.95
343.693	-76.11
344.077	-50.58
344.46	-53.06
344.843	-57.36
345.226	-30.69
345.61	-25.95
345.993	-20.07
346.376	-3.12
346.759	1.85
347.142	25.58
347.525	27.16
347.908	53.83
348.291	80.04
348.674	99.93
349.057	101.51
349.44	127.95
349.823	138.8
350.206	159.13
350.588	203.2
350.971	189.87
351.354	234.16
351.737	231.22
352.119	257.21
352.502	247.27
352.884	284.33
353.267	274.61
353.65	300.15
354.032	329.53
354.414	316.64
354.797	306.02
355.179	339.24
355.562	303.31
355.944	341.28
356.326	335.85
356.709	337.89
357.091	356.19
357.473	327.94
357.855	351.22
358.238	356.19
358.62	341.05
359.002	322.07
359.384	356.19
359.766	340.37
360.148	334.95
360.53	332.24
360.912	344.44
361.294	314.38
361.676	353.25
362.057	331.33
362.439	343.08
362.821	350.77
363.203	330.88
363.584	333.82
363.966	330.66
364.348	334.04
364.729	317.55
365.111	316.64
365.493	319.13
365.874	295.85
366.256	318.45
366.637	321.84
367.019	331.79
367.4	317.1
367.781	319.58
368.163	320.71
368.544	323.88
368.925	313.25
369.306	325.01
369.688	327.49
370.069	295.85
370.45	312.35
370.831	329.75
371.212	322.97
371.593	323.65
371.974	332.46
372.355	299.92
372.736	318.68
373.117	318.23
373.498	316.42
373.879	321.84
374.26	300.6
374.641	322.29
375.021	296.98
375.402	324.78
375.783	305.57
376.163	325.46
376.544	343.31
376.925	316.42
377.305	324.1
377.686	322.52
378.066	329.07
378.447	312.58
378.827	330.43
379.208	343.54
379.588	310.54
379.968	344.44
380.349	354.38
380.729	313.71
381.109	331.33
381.489	332.91
381.87	344.21
382.25	323.65
382.63	343.54
383.01	344.44
383.39	354.38
383.77	331.11
384.15	348.96
384.53	340.37
384.91	351.22
385.29	355.74
385.67	353.48
386.049	332.69
386.429	348.96
386.809	344.67
387.189	346.47
387.568	352.12
387.948	354.61
388.328	359.81
388.707	336.3
389.087	370.65
389.466	344.89
389.846	352.8
390.225	359.58
390.605	346.7
390.984	339.69
391.363	370.43
391.743	357.1
392.122	369.52
392.501	355.29
392.881	377.89
393.26	381.73
393.639	363.42
394.018	380.15
394.397	361.16
394.776	364.33
395.155	389.86
395.534	368.17
395.913	358
396.292	406.81
396.671	390.77
397.05	384.67
397.429	395.29
397.808	400.48
398.186	384.44
398.565	402.07
398.944	388.28
399.323	396.87
399.701	387.83
400.08	371.56
400.458	386.47
400.837	388.51
401.215	395.51
401.594	416.3
401.972	390.09
402.351	376.08
402.729	422.86
403.107	412.69
403.486	407.94
403.864	411.56
404.242	406.81
404.62	398.45
404.999	410.43
405.377	421.27
405.755	412.01
406.133	413.36
406.511	416.08
406.889	425.79
407.267	443.42
407.645	416.53
408.023	445
408.401	442.52
408.779	426.25
409.156	443.19
409.534	443.87
409.912	445.68
410.29	445.45
410.667	454.27
411.045	446.36
411.422	462.4
411.8	435.96
412.178	459.69
412.555	447.94
412.933	455.17
413.31	449.07
413.687	461.5
414.065	449.75
414.442	488.39
414.819	492.91
415.197	487.94
415.574	465.34
415.951	466.02
416.328	486.58
416.705	486.36
417.082	463.08
417.46	482.29
417.837	514.38
418.214	497.2
418.591	513.93
418.967	493.59
419.344	513.25
419.721	512.35
420.098	517.32
420.475	527.71
420.852	502.63
421.228	524.1
421.605	527.71
421.982	509.41
422.358	523.42
422.735	532.91
423.111	518.67
423.488	514.61
423.864	530.65
424.241	543.08
424.617	546.47
424.994	548.5
425.37	566.13
425.746	560.71
426.123	560.03
426.499	568.39
426.875	569.52
427.251	545.56
427.627	597.31
428.003	583.3
428.379	586.47
428.756	587.15
429.132	581.5
429.507	603.42
429.883	588.05
430.259	605.68
430.635	599.12
431.011	636.18
431.387	619.46
431.763	639.8
432.138	629.18
432.514	645.9
432.89	634.38
433.265	649.29
433.641	642.29
434.016	655.17
434.392	637.09
434.767	671.21
435.143	656.07
435.518	673.02
435.894	673.92
436.269	688.16
436.644	698.56
437.02	709.4
437.395	679.8
437.77	687.26
438.145	669.4
438.52	705.33
438.895	721.15
439.271	721.61
439.646	728.84
440.021	743.07
440.395	732
440.77	730.19
441.145	733.13
441.52	750.08
441.895	762.96
442.27	758.89
442.645	764.32
443.019	743.53
443.394	765.22
443.769	748.27
444.143	757.99
444.518	772.45
444.892	788.5
445.267	773.58
445.641	778.1
446.016	776.97
446.39	779
446.764	801.6
447.139	809.96
447.513	822.85
447.887	780.59
448.262	801.6
448.636	812.22
449.01	807.7
449.384	825.33
449.758	835.27
450.132	844.99
450.506	854.26
450.88	841.83
451.254	862.39
451.628	879.12
452.002	864.43
452.376	880.47
452.75	856.97
453.123	870.98
453.497	901.49
453.871	909.17
454.244	926.8
454.618	922.05
454.992	935.16
455.365	921.15
455.739	964.99
456.112	968.38
456.486	965.21
456.859	981.49
457.232	989.85
457.606	978.32
457.979	1025.1
458.352	998.66
458.725	1034.14
459.099	1021.26
459.472	1035.27
459.845	1079.34
460.218	1064.42
460.591	1082.05
460.964	1090.18
461.337	1129.73
461.71	1126.57
462.083	1132.89
462.456	1136.51
462.829	1136.51
463.201	1172.21
463.574	1179.45
463.947	1203.63
464.32	1240.01
464.692	1220.12
465.065	1230.52
465.438	1249.05
465.81	1266.45
466.183	1293.34
466.555	1333.11
466.928	1293.34
467.3	1328.14
467.672	1338.31
468.045	1382.15
468.417	1401.81
468.789	1428.48
469.161	1452.21
469.534	1452.89
469.906	1494.92
470.278	1537.86
470.65	1561.58
471.022	1558.87
471.394	1633.45
471.766	1608.59
472.138	1653.11
472.51	1713.9
472.882	1719.77
473.253	1739.88
473.625	1817.85
473.997	1861.91
474.369	1852.65
474.74	1928.13
475.112	1955.02
475.484	1993.66
475.855	2059.42
476.227	2077.05
476.598	2166.31
476.97	2223.49
477.341	2291.06
477.713	2356.14
478.084	2333.09
478.455	2456.25
478.827	2496.93
479.198	2599.97
479.569	2625.74
479.94	2757.48
480.311	2805.17
480.682	2895.79
481.053	2959.96
481.424	3057.59
481.795	3118.6
482.166	3266.17
482.537	3313.63
482.908	3444.47
483.279	3495.09
483.65	3623.45
484.021	3747.97
484.391	3859.83
484.762	3933.05
485.133	4024.8
485.503	4129.88
485.874	4265.69
486.244	4399.7
486.615	4473.37
486.985	4641.05
487.356	4783.87
487.726	4915.17
488.097	5050.53
488.467	5123.98
488.837	5296.4
489.207	5457.53
489.578	5626.34
489.948	5746.33
490.318	5889.38
490.688	5939.55
491.058	6188.35
491.428	6328.24
491.798	6466.99
492.168	6654.1
492.538	6807.1
492.908	6966.64
493.278	7118.73
493.648	7214.99
494.017	7420.86
494.387	7655.21
494.757	7707.41
495.126	7931.36
495.496	7996.22
495.866	8227.4
496.235	8393.95
496.605	8504.45
496.974	8696.99
497.344	8888.17
497.713	9009.75
498.082	9171.55
498.452	9265.11
498.821	9449.29
499.19	9583.07
499.559	9844.3
499.928	9888.14
500.298	10023.51
500.667	10230.06
501.036	10263.05
501.405	10493.33
501.774	10643.15
502.143	10790.72
502.512	10981.9
502.88	11135.34
503.249	11223.93
503.618	11344.15
503.987	11546.63
504.356	11649.68
504.724	11873.4
505.093	11911.59
505.462	12051.93
505.83	12159.27
506.199	12326.5
506.567	12563.33
506.936	12624.12
507.304	12949.08
507.672	13032.69
508.041	13130.09
508.409	13238.79
508.777	13373.02
509.145	13642.85
509.514	13584.54
509.882	13798.55
510.25	13905.89
510.618	14159.67
510.986	14208.48
511.354	14414.8
511.722	14571.18
512.09	14776.15
512.458	14795.59
512.826	14880.56
513.193	15118.51
513.561	15209.13
513.929	15421.33
514.297	15526.41
514.664	15698.39
515.032	15852.96
515.4	15963.24
515.767	16079.85
516.135	16204.59
516.502	16201.2
516.869	16494.98
517.237	16691.81
517.604	16614.29
517.972	16907.85
518.339	16971.35
518.706	17095.41
519.073	17209.08
519.44	17451.33
519.808	17572.24
520.175	17698.11
520.542	17861.95
520.909	18011.09
521.276	18047.7
521.643	18273.46
522.009	18411.08
522.376	18558.88
522.743	18722.49
523.11	18907.57
523.477	19025.3
523.843	19223.04
524.21	19371.28
524.577	19510.72
524.943	19573.54
525.31	19715.23
525.676	19975.56
526.043	20209.45
526.409	20257.81
526.776	20483.35
527.142	20507.75
527.508	20761.98
527.874	20958.14
528.241	21006.95
528.607	21040.62
528.973	21382.08
529.339	21391.34
529.705	21525.58
530.071	21699.36
530.437	21838.11
530.803	21955.4
531.169	22102.29
531.535	22088.5
531.901	22253.69
532.267	22329.85
532.632	22393.58
532.998	22577.75
533.364	22714.93
533.73	22813.23
534.095	22992.43
534.461	22951.98
534.826	23083.96
535.192	23182.26
535.557	23488.46
535.923	23457.73
536.288	23539.99
536.653	23639.42
537.019	23568.69
537.384	23740.21
537.749	23911.28
538.114	23954.21
538.479	23951.73
538.845	24144.04
539.21	24220.65
539.575	24191.04
539.94	24472.62
540.305	24526.18
540.67	24457.7
541.034	24616.8
541.399	24717.58
541.764	24803.23
542.129	24960.06
542.494	24898.14
542.858	25136.56
543.223	25118.93
543.587	25212.94
543.952	25267.17
544.316	25289.09
544.681	25411.35
545.045	25406.15
545.41	25661.74
545.774	25690.44
546.138	25794.62
546.503	25707.39
546.867	25893.15
547.231	26003.65
547.595	26216.53
547.959	26113.25
548.324	26208.17
548.688	26292.23
549.052	26365
549.416	26398.22
549.779	26534.71
550.143	26637.31
550.507	26815.83
550.871	26802.28
551.235	26795.5
551.599	27049.5
551.962	27110.74
552.326	27218.08
552.689	27371.53
553.053	27359.55
553.417	27351.41
553.78	27799.31
554.143	27663.72
554.507	27858.74
554.87	27834.11
555.234	28140.09
555.597	27920.44
555.96	28252.41
556.323	28342.12
556.686	28283.37
557.05	28522.23
557.413	28683.36
557.776	28614.21
558.139	28932.84
558.502	28900.53
558.865	28955.21
559.228	29279.27
559.59	29378.7
559.953	29373.06
560.316	29766.04
560.679	29628.42
561.041	29911.8
561.404	29980.72
561.767	30158.57
562.129	30040.83
562.492	30427.04
562.854	30520.82
563.217	30568.28
563.579	30514.27
563.941	30781.38
564.304	30953.8
564.666	31139.11
565.028	31056.85
565.39	31192.89
565.753	31458.65
566.115	31588.59
566.477	31786.1
566.839	31778.87
567.201	32036.94
567.563	32097.28
567.925	32328.46
568.287	32239.65
568.648	32430.6
569.01	32424.05
569.372	32844.83
569.734	32688
570.095	32783.59
570.457	33081.43
570.819	33118.49
571.18	33173.41
571.542	33338.83
571.903	33311.48
572.265	33567.07
572.626	33598.93
572.987	33652.72
573.349	33788.08
573.71	33875.31
574.071	34007.96
574.432	34062.2
574.794	34322.98
575.155	34209.76
575.516	34188.3
575.877	34336.77
576.238	34483.88
576.599	34590.09
576.96	34555.74
577.32	34678
577.681	34734.27
578.042	34771.33
578.403	34934.49
578.763	34928.62
579.124	34985.56
579.485	35189.4
579.845	35261.49
580.206	35169.29
580.566	35157.76
580.927	35209.96
581.287	35525.89
581.648	35302.39
582.008	35534.48
582.368	35347.59
582.728	35722.72
583.089	35466.91
583.449	35543.06
583.809	35638.65
584.169	35555.04
584.529	35501.93
584.889	35827.12
585.249	35467.36
585.609	35547.58
585.969	35661.93
586.329	35726.79
586.688	35750.06
587.048	35775.37
587.408	35654.25
587.768	35810.85
588.127	35769.27
588.487	35573.8
588.846	35913.67
589.206	35722.04
589.565	35678.65
589.925	36073.22
590.284	35892.21
590.643	35838.2
591.003	36067.57
591.362	36134.46
591.721	35981.92
592.08	35974.69
592.44	36078.64
592.799	36067.79
593.158	36118.41
593.517	35999.55
593.876	36072.09
594.235	36069.6
594.593	36069.15
594.952	36285.64
595.311	36180.11
595.67	36251.97
596.029	36519.99
596.387	36437.5
596.746	36631.62
597.104	36322.93
597.463	36369.71
597.822	36454.68
598.18	36463.94
598.538	36339.88
598.897	36703.94
599.255	36436.15
599.613	36792.3
599.972	36674.56
600.33	36823.25
600.688	36712.3
601.046	36803.14
601.404	36888.56
601.762	36821.9
602.12	36997.49
602.478	36945.06
602.836	37074.55
603.194	36918.17
603.552	37013.53
603.91	36885.63
604.268	37163.58
604.625	36916.13
604.983	37242.9
605.341	37073.87
605.698	37266.63
606.056	37301.21
606.413	37315.22
606.771	37471.37
607.128	37507.98
607.485	37369
607.843	37434.09
608.2	37691.03
608.557	37831.36
608.914	37578.49
609.272	37893.51
609.629	37894.87
609.986	38044.24
610.343	37933.06
610.7	38130.11
611.057	38155.2
611.414	38202.2
611.771	38148.64
612.127	38383.67
612.484	38339.15
612.841	38462.53
613.198	38340.96
613.554	38394.29
613.911	38729.87
614.267	38615.07
614.624	38750.21
614.98	38708.86
615.337	38807.61
615.693	38856.65
616.05	38824.33
616.406	39106.81
616.762	38928.06
617.118	39057.09
617.475	38901.39
617.831	39095.29
618.187	39200.14
618.543	39375.05
618.899	39467.25
619.255	39516.52
619.611	39305.22
619.967	39516.52
620.323	39545.22
620.678	39601.04
621.034	39491.21
621.39	39459.8
621.746	39369.18
622.101	39742.95
622.457	39526.01
622.812	39693.24
623.168	39758.54
623.523	39831.99
623.879	39878.09
624.234	39640.13
624.589	39745.44
624.945	39747.7
625.3	39993.79
625.655	39834.93
626.01	39935.49
626.365	39944.3
626.72	39962.83
627.075	40049.16
627.43	39963.96
627.785	39792.89
628.14	39955.38
628.495	39884.42
628.85	40049.61
629.205	39974.58
629.559	40124.19
629.914	40039.67
630.269	39966.68
630.623	39900.91
630.978	39884.42
631.332	40040.12
631.687	40093.45
632.041	39899.11
632.396	39934.59
632.75	39857.75
633.104	40062.04
633.459	39820.92
633.813	39888.49
634.167	39780.01
634.521	39786.11
634.875	39866.34
635.229	39775.04
635.583	39554.26
635.937	39701.37
636.291	39580.02
636.645	39688.49
636.999	39471.32
637.352	39653.01
637.706	39358.56
638.06	39661.15
638.413	39449.85
638.767	39269.74
639.121	39493.92
639.474	39292.12
639.828	39377.31
640.181	39452.34
640.534	39359.23
640.888	39269.29
641.241	39172.12
641.594	39161.95
641.947	39334.6
642.301	39221.61
642.654	39162.85
643.007	39195.4
643.36	39004.67
643.713	39049.41
644.066	39215.06
644.419	39003.76
644.771	38724.9
645.124	38381.63
645.477	38386.38
645.83	38210.56
646.182	37964.92
646.535	37828.88
646.888	37920.4
647.24	37678.6
647.593	37904.58
647.945	37876.56
648.298	37660.3
648.65	37714.76
649.002	37528.1
649.355	37661.2
649.707	37705.49
650.059	37958.59
650.411	38163.56
650.763	38193.84
651.115	38612.36
651.467	38577.11
651.819	38477.9
652.171	38337.11
652.523	38313.61
652.875	38428.86
653.227	38255.76
653.578	38490.78
653.93	38250.34
654.282	38317.45
654.633	38113.39
654.985	38280.39
655.337	38255.08
655.688	38072.26
656.039	38270
656.391	38024.81
656.742	38108.87
657.094	38005.82
657.445	38222.54
657.796	38058.48
658.147	38036.78
658.498	37935.54
658.849	38110.45
659.2	38022.55
659.551	37915.2
659.902	38025.71
660.253	37865.71
660.604	37905.26
660.955	37639.73
661.306	37913.17
661.656	37868.88
662.007	37834.75
662.358	37948.88
662.708	37926.5
663.059	37964.24
663.409	37613.06
663.76	37773.06
664.11	37868.2
664.461	37797.47
664.811	37874.98
665.161	37917.92
665.511	37787.3
665.862	37925.6
666.212	37778.03
666.562	37943.45
666.912	37723.12
667.262	37736.45
667.612	37734.87
667.962	37702.1
668.312	37755.89
668.662	37858.03
669.011	37708.43
669.361	37693.74
669.711	37755.21
670.06	37574.65
670.41	37608.32
670.76	37477.25
671.109	37618.04
671.459	37626.85
671.808	37494.88
672.157	37618.49
672.507	37420.3
672.856	37465.27
673.205	37588.43
673.554	37631.6
673.904	37491.71
674.253	37557.25
674.602	37543.01
674.951	36969.47
675.3	36910.94
675.649	37324.48
675.998	37345.5
676.346	37367.87
676.695	37405.16
677.044	37102.12
677.393	37378.27
677.741	37364.03
678.09	37189.57
678.438	37197.26
678.787	37154.77
679.135	37276.8
679.484	37096.92
679.832	37118.16
680.181	36879.07
680.529	36882.46
680.877	36861.22
681.225	36820.54
681.573	37073.64
681.922	36662.13
682.27	36678.4
682.618	36643.37
682.966	36567.22
683.314	36646.54
683.661	36548.23
684.009	36323.61
684.357	36275.02
684.705	36363.61
685.053	36285.64
685.4	36325.87
685.748	36062.15
686.095	36095.14
686.443	35872.55
686.79	35831.42
687.138	35883.39
687.485	35997.74
687.832	35671.87
688.18	35906.67
688.527	35561.82
688.874	35518.88
689.221	35562.5
689.568	35510.75
689.915	35416.74
690.262	35369.51
690.609	35252.9
690.956	35082.28
691.303	35114.83
691.65	34838.45
691.997	35095.62
692.344	34815.62
692.69	34766.13
693.037	34778.56
693.383	34612.01
693.73	34704.44
694.077	34509.42
694.423	34571.11
694.769	34436.88
695.116	34249.99
695.462	34224.68
695.808	34171.12
696.155	34165.7
696.501	33911.24
696.847	33919.83
697.193	33698.59
697.539	33939.04
697.885	33576.11
698.231	33460.18
698.577	33497.47
698.923	33458.37
699.269	33264.25
699.614	33121.66
699.96	33075.33
700.306	33010.7
700.651	32859.07
700.997	32683.7
701.342	32737.94
701.688	32694.55
702.033	32539.07
702.379	32555.12
702.724	32375.24
703.069	32434.67
703.415	32105.41
703.76	32195.58
704.105	32196.03
704.45	32073.78
704.795	31947.45
705.14	31791.97
705.485	31811.86
705.83	31598.08
706.175	31673.33
706.52	31568.25
706.865	31473.34
707.209	31462.04
707.554	31478.31
707.899	31437.41
708.243	31292.78
708.588	31236.06
708.932	31035.84
709.277	31047.36
709.621	31023.86
709.966	30778.22
710.31	30894.37
710.654	30712.91
710.998	30722.4
711.342	30724.43
711.687	30587.26
712.031	30500.94
712.375	30316.08
712.719	30359.47
713.063	30372.8
713.407	30410.09
713.75	30231.79
714.094	30302.97
714.438	30159.25
714.782	30108.4
715.125	29998.35
715.469	30039.25
715.812	29888.3
716.156	29729.43
716.499	29862.99
716.843	29800.39
717.186	29585.93
717.53	29780.05
717.873	29688.98
718.216	29540.96
718.559	29490.57
718.902	29201.53
719.246	29267.07
719.589	29089.45
719.932	29047.64
720.275	29044.25
720.617	29058.94
720.96	28999.96
721.303	28987.98
721.646	29074.76
721.989	28787.08
722.331	28825.5
722.674	28768.1
723.016	28786.4
723.359	28659.63
723.701	28736.01
724.044	28546.64
724.386	28363.36
724.729	28558.16
725.071	28465.51
725.413	28447.43
725.755	28467.77
726.097	28263.03
726.439	28126.99
726.782	28226.64
727.124	28203.82
727.465	28068.23
727.807	28086.08
728.149	28020.77
728.491	28094.9
728.833	27993.2
729.175	28008.35
729.516	27792.31
729.858	27840.89
730.199	27900.1
730.541	27803.83
730.882	27660.78
731.224	27830.27
731.565	27487.91
731.906	27599.09
732.248	27578.75
732.589	27416.5
732.93	27371.53
733.271	27441.58
733.612	27388.7
733.953	27447.91
734.294	27269.61
734.635	27204.3
734.976	27249.5
735.317	27113.45
735.658	27086.34
735.999	27104.41
736.339	27003.4
736.68	27140.35
737.021	27018.77
737.361	26810.18
737.702	27060.8
738.042	26881.82
738.383	26855.61
738.723	26898.09
739.063	26745.1
739.404	26843.4
739.744	26737.19
740.084	26739.23
740.424	26649.96
740.764	26573.58
741.104	26757.98
741.444	26451.78
741.784	26456.52
742.124	26463.53
742.464	26397.99
742.804	26400.93
743.143	26286.36
743.483	26277.32
743.823	26122.52
744.162	26118.9
744.502	26149.64
744.841	26069.64
745.181	26179.24
745.52	26033.26
745.86	26030.32
746.199	25974.95
746.538	25796.2
746.877	25932.92
747.216	25903.09
747.556	25883.2
747.895	25769.31
748.234	25637.79
748.573	25747.84
748.911	25636.66
749.25	25736.77
749.589	25577.45
749.928	25553.27
750.267	25540.16
750.605	25450.22
750.944	25431.24
751.283	25315.99
751.621	25433.27
751.96	25171.13
752.298	25184.01
752.636	25209.55
752.975	25068.54
753.313	24957.58
753.651	25074.19
753.989	24911.25
754.327	24812.27
754.666	24691.82
755.004	24787.87
755.342	24760.97
755.679	24750.58
756.017	24595.33
756.355	24604.37
756.693	24408.89
