Data from hue_180_FLMS001491_00069.txt Node
Date: Tue Feb 07 16:47:20 GMT 2017
User: dcchb
Spectrometer: FLMS00149
Trigger mode: 0
Integration Time (sec): 2.000000E-2
Scans to average: 10
Electric dark correction enabled: true
Nonlinearity correction enabled: false
Boxcar width: 0
XAxis mode: Wavelengths
Number of Pixels in Spectrum: 2048
>>>>>Begin Spectral Data<<<<<
341.393	-9.35
341.776	-9.35
342.16	-9.35
342.543	-65.85
342.927	-79.18
343.31	-75.34
343.693	-69.01
344.077	-54.32
344.46	-73.53
344.843	-31.27
345.226	-57.48
345.61	-31.72
345.993	-19.29
346.376	-11.16
346.759	11.89
347.142	32.46
347.525	37.43
347.908	61.83
348.291	65.45
348.674	81.95
349.057	132.12
349.44	120.59
349.823	141.15
350.206	169.85
350.588	185
350.971	223.86
351.354	218.89
351.737	237.88
352.119	251.43
352.502	249.63
352.884	264.09
353.267	260.25
353.65	284.88
354.032	291.43
354.414	295.95
354.797	323.52
355.179	317.2
355.562	308.61
355.944	305.9
356.326	340.7
356.709	336.86
357.091	325.33
357.473	326.23
357.855	324.65
358.238	346.8
358.62	324.43
359.002	332.11
359.384	332.34
359.766	337.08
360.148	330.98
360.53	338.21
360.912	321.94
361.294	304.77
361.676	320.81
362.057	364.43
362.439	356.06
362.821	317.42
363.203	314.48
363.584	340.47
363.966	316.97
364.348	324.2
364.729	318.32
365.111	332.56
365.493	325.1
365.874	311.09
366.256	322.39
366.637	287.82
367.019	326.46
367.4	318.1
367.781	308.38
368.163	326.01
368.544	323.97
368.925	293.01
369.306	315.39
369.688	309.74
370.069	298.66
370.45	315.61
370.831	294.14
371.212	302.73
371.593	292.34
371.974	285.56
372.355	275.84
372.736	304.09
373.117	296.63
373.498	328.95
373.879	306.12
374.26	286.24
374.641	314.48
375.021	303.64
375.402	322.39
375.783	310.42
376.163	305.9
376.544	310.64
376.925	318.78
377.305	313.81
377.686	322.62
378.066	328.49
378.447	316.74
378.827	319.91
379.208	302.73
379.588	325.1
379.968	304.09
380.349	323.75
380.729	332.56
381.109	344.09
381.489	340.25
381.87	342.05
382.25	327.59
382.63	330.53
383.01	324.65
383.39	340.25
383.77	327.36
384.15	329.62
384.53	342.73
384.91	334.6
385.29	360.13
385.67	335.73
386.049	350.64
386.429	362.39
386.809	356.52
387.189	337.76
387.568	336.86
387.948	342.05
388.328	343.64
388.707	364.65
389.087	367.82
389.466	330.3
389.846	366.01
390.225	389.28
390.605	370.53
390.984	355.61
391.363	374.59
391.743	353.58
392.122	371.2
392.501	361.71
392.881	373.24
393.26	392.45
393.639	371.43
394.018	374.14
394.397	380.02
394.776	384.76
395.155	377.08
395.534	389.96
395.913	375.05
396.292	392.9
396.671	384.31
397.05	386.8
397.429	369.85
397.808	379.11
398.186	385.22
398.565	371.88
398.944	396.06
399.323	377.53
399.701	386.8
400.08	391.77
400.458	373.24
400.837	392.67
401.215	386.8
401.594	402.84
401.972	394.93
402.351	413.24
402.729	415.72
403.107	427.02
403.486	413.01
403.864	414.14
404.242	432.9
404.62	453.01
404.999	413.92
405.377	441.71
405.755	441.26
406.133	431.54
406.511	446.46
406.889	464.08
407.267	441.03
407.645	459.34
408.023	455.72
408.401	466.34
408.779	447.81
409.156	470.64
409.534	477.42
409.912	488.94
410.29	494.14
410.667	504.76
411.045	483.52
411.422	504.99
411.8	504.31
412.178	534.59
412.555	512.67
412.933	557.19
413.31	529.62
413.687	546.34
414.065	564.65
414.442	565.1
414.819	580.24
415.197	573.01
415.574	602.61
415.951	596.96
416.328	584.31
416.705	615.72
417.082	618.66
417.46	626.57
417.837	627.24
418.214	614.36
418.591	643.74
418.967	657.07
419.344	642.84
419.721	651.42
420.098	656.4
420.475	694.81
420.852	670.86
421.228	695.26
421.605	689.39
421.982	713.12
422.358	699.11
422.735	728.03
423.111	709.28
423.488	747.47
423.864	769.39
424.241	791.98
424.617	815.49
424.994	789.27
425.37	799.67
425.746	814.36
426.123	818.42
426.499	837.86
426.875	837.18
427.251	840.35
427.627	861.59
428.003	902.72
428.379	865.88
428.756	899.55
429.132	906.33
429.507	917.18
429.883	905.43
430.259	919.67
430.635	939.55
431.011	953.11
431.387	961.25
431.763	1013
432.138	989.27
432.514	1000.79
432.89	1024.97
433.265	1029.27
433.641	1049.61
434.016	1076.05
434.392	1083.73
434.767	1115.82
435.143	1118.08
435.518	1140.68
435.894	1170.05
436.269	1169.38
436.644	1192.2
437.02	1201.47
437.395	1239.88
437.77	1258.64
438.145	1272.88
438.52	1289.37
438.895	1302.03
439.271	1307.9
439.646	1303.61
440.021	1335.47
440.395	1369.6
440.77	1341.8
441.145	1361.24
441.52	1429.48
441.895	1424.74
442.27	1438.3
442.645	1435.81
443.019	1444.4
443.394	1471.74
443.769	1476.26
444.143	1476.26
444.518	1500.44
444.892	1523.72
445.267	1519.42
445.641	1553.09
446.016	1562.59
446.39	1582.02
446.764	1563.26
447.139	1564.85
447.513	1598.07
447.887	1619.76
448.262	1614.11
448.636	1653.66
449.01	1664.5
449.384	1686.88
449.758	1717.84
450.132	1697.95
450.506	1697.5
450.88	1742.47
451.254	1725.52
451.628	1744.28
452.002	1806.42
452.376	1796.48
452.75	1816.36
453.123	1807.55
453.497	1855.23
453.871	1852.07
454.244	1916.02
454.618	1906.31
454.992	1951.95
455.365	1970.26
455.739	1982.69
456.112	1995.12
456.486	2011.84
456.859	2045.74
457.232	2113.08
457.606	2048.9
457.979	2100.42
458.352	2165.51
458.725	2187.88
459.099	2186.07
459.472	2269.46
459.845	2247.54
460.218	2255.68
460.591	2292.06
460.964	2360.98
461.337	2360.08
461.71	2391.04
462.083	2432.17
462.456	2461.09
462.829	2464.26
463.201	2507.65
463.574	2544.71
463.947	2581.32
464.32	2621.77
464.692	2640.52
465.065	2660.18
465.438	2743.57
465.81	2744.93
466.183	2751.26
466.555	2824.02
466.928	2835.09
467.3	2845.94
467.672	2908.09
468.045	2998.48
468.417	3000.29
468.789	3026.95
469.161	3076.22
469.534	3151.7
469.906	3227.63
470.278	3243.22
470.65	3264.46
471.022	3288.19
471.394	3438.69
471.766	3404.35
472.138	3462.65
472.51	3540.16
472.882	3608.18
473.253	3658.58
473.625	3725.92
473.997	3810.21
474.369	3803.21
474.74	3890.66
475.112	3935.63
475.484	4028.74
475.855	4109.41
476.227	4151.22
476.598	4290.88
476.97	4321.84
477.341	4452.91
477.713	4471.44
478.084	4581.26
478.455	4678.21
478.827	4742.84
479.198	4846.12
479.569	4892.44
479.94	5068.26
480.311	5041.36
480.682	5191.19
481.053	5318.87
481.424	5449.26
481.795	5470.73
482.166	5542.59
482.537	5635.7
482.908	5815.36
483.279	5895.81
483.65	5947.1
484.021	6073.2
484.391	6129.7
484.762	6205.63
485.133	6403.14
485.503	6435
485.874	6611.27
486.244	6634.54
486.615	6823.69
486.985	6852.16
487.356	6996.12
487.726	7062.1
488.097	7267.75
488.467	7257.35
488.837	7451.7
489.207	7524.24
489.578	7667.96
489.948	7695.98
490.318	7885.13
490.688	7898.46
491.058	8065.69
491.428	8177.78
491.798	8226.37
492.168	8378.9
492.538	8510.88
492.908	8560.37
493.278	8615.06
493.648	8696.64
494.017	8761.27
494.387	8874.94
494.757	8984.31
495.126	9039.9
495.496	9112.22
495.866	9086.68
496.235	9253.91
496.605	9327.81
496.974	9434.02
497.344	9481.25
497.713	9471.3
498.082	9618.19
498.452	9618.19
498.821	9725.08
499.19	9705.2
499.559	9762.37
499.928	9854.57
500.298	9950.61
500.667	9979.54
501.036	10004.85
501.405	10135.24
501.774	10116.94
502.143	10198.07
502.512	10215.01
502.88	10248.69
503.249	10288.46
503.618	10346.08
503.987	10410.49
504.356	10401.45
504.724	10468.11
505.093	10521.67
505.462	10468.57
505.83	10570.48
506.199	10619.3
506.567	10722.12
506.936	10701.1
507.304	10789.69
507.672	10808.9
508.041	10806.41
508.409	10953.07
508.777	10937.93
509.145	11044.6
509.514	11012.96
509.882	11024.94
510.25	10993.52
510.618	11110.58
510.986	11115.56
511.354	11107.19
511.722	11191.71
512.09	11269.45
512.458	11243.69
512.826	11221.99
513.193	11267.19
513.561	11318.04
513.929	11309.45
514.297	11441.65
514.664	11432.61
515.032	11414.53
515.4	11471.03
515.767	11454.3
516.135	11501.31
516.502	11427.86
516.869	11546.73
517.237	11583.11
517.604	11470.35
517.972	11636.22
518.339	11587.63
518.706	11574.98
519.073	11624.47
519.44	11593.28
519.808	11668.76
520.175	11690.91
520.542	11720.51
520.909	11690.23
521.276	11620.63
521.643	11756.89
522.009	11769.55
522.376	11811.81
522.743	11827.4
523.11	11846.38
523.477	11889.09
523.843	11859.26
524.21	11933.39
524.577	11949.43
524.943	11927.74
525.31	11994.4
525.676	11955.99
526.043	12007.06
526.409	12014.74
526.776	12078.69
527.142	12026.49
527.508	11956.21
527.874	12095.87
528.241	12079.82
528.607	11972.48
528.973	12118.92
529.339	11978.81
529.705	12072.37
530.071	12053.38
530.437	12069.88
530.803	12082.54
531.169	12030.11
531.535	11904.46
531.901	11967.96
532.267	11984.23
532.632	11878.92
532.998	11931.8
533.364	11878.25
533.73	11777.23
534.095	11825.59
534.461	11871.02
534.826	11787.18
535.192	11746.27
535.557	11738.82
535.923	11683
536.288	11602.1
536.653	11687.97
537.019	11677.57
537.384	11558.48
537.749	11536.56
538.114	11544.24
538.479	11512.83
538.845	11511.03
539.21	11416.56
539.575	11360.29
539.94	11296.79
540.305	11370.46
540.67	11279.62
541.034	11272.16
541.399	11206.85
541.764	11169.11
542.129	11140.19
542.494	11158.72
542.858	11103.13
543.223	11060.87
543.587	11067.19
543.952	11013.41
544.316	10958.5
544.681	10895.45
545.045	10875.34
545.41	10887.76
545.774	10813.42
546.138	10788.11
546.503	10753.76
546.867	10680.76
547.231	10720.54
547.595	10582.69
547.959	10569.81
548.324	10568.9
548.688	10485.52
549.052	10452.97
549.416	10398.51
549.779	10302.02
550.143	10401.68
550.507	10397.38
550.871	10317.16
551.235	10241
551.599	10270.38
551.962	10167.33
552.326	10245.07
552.689	10175.69
553.053	10111.74
553.417	9966.21
553.78	10094.11
554.143	10036.94
554.507	10045.3
554.87	9949.48
555.234	10034
555.597	9905.19
555.96	9876.27
556.323	9874.91
556.686	9838.98
557.05	9851.86
557.413	9820.45
557.776	9760.79
558.139	9743.84
558.502	9765.99
558.865	9724.86
559.228	9745.65
559.59	9689.38
559.953	9715.37
560.316	9757.17
560.679	9681.47
561.041	9697.51
561.404	9696.16
561.767	9692.77
562.129	9665.65
562.492	9664.97
562.854	9675.82
563.217	9621.81
563.579	9590.85
563.941	9699.32
564.304	9707.91
564.666	9645.76
565.028	9654.58
565.39	9630.4
565.753	9688.93
566.115	9702.94
566.477	9656.61
566.839	9651.64
567.201	9713.33
567.563	9701.81
567.925	9684.86
568.287	9684.18
568.648	9658.87
569.01	9663.39
569.372	9660.45
569.734	9630.62
570.095	9729.38
570.457	9798.3
570.819	9710.39
571.18	9699.77
571.542	9739.55
571.903	9721.47
572.265	9700.9
572.626	9706.33
572.987	9720.56
573.349	9755.14
573.71	9775.93
574.071	9750.39
574.432	9766.21
574.794	9748.36
575.155	9777.51
575.516	9727.8
575.877	9750.17
576.238	9702.26
576.599	9764.86
576.96	9745.2
577.32	9764.63
577.681	9768.25
578.042	9745.87
578.403	9797.85
578.763	9799.88
579.124	9756.04
579.485	9758.08
579.845	9740.68
580.206	9729.38
580.566	9751.52
580.927	9703.39
581.287	9770.28
581.648	9685.76
582.008	9775.7
582.368	9686.89
582.728	9711.98
583.089	9743.61
583.449	9761.69
583.809	9696.16
584.169	9756.95
584.529	9641.47
584.889	9736.38
585.249	9722.37
585.609	9596.5
585.969	9692.77
586.329	9622.26
586.688	9599.89
587.048	9566.22
587.408	9616.16
587.768	9562.83
588.127	9591.75
588.487	9605.54
588.846	9628.14
589.206	9484.41
589.565	9472.21
589.925	9529.83
590.284	9476.28
590.643	9488.25
591.003	9565.54
591.362	9530.96
591.721	9459.78
592.08	9510.63
592.44	9548.36
592.799	9449.38
593.158	9505.2
593.517	9426.11
593.876	9452.32
594.235	9416.16
594.593	9459.1
594.952	9426.79
595.311	9463.62
595.67	9489.16
596.029	9431.98
596.387	9428.82
596.746	9473.11
597.104	9384.53
597.463	9424.07
597.822	9335.71
598.18	9330.97
598.538	9405.32
598.897	9419.1
599.255	9334.13
599.613	9458.88
599.972	9427.46
600.33	9411.65
600.688	9411.42
601.046	9386.11
601.404	9377.75
601.762	9395.37
602.12	9413.23
602.478	9349.95
602.836	9379.1
603.194	9327.81
603.552	9376.84
603.91	9297.75
604.268	9362.61
604.625	9308.6
604.983	9352.66
605.341	9281.93
605.698	9301.14
606.056	9386.79
606.413	9330.74
606.771	9320.35
607.128	9392.44
607.485	9315.83
607.843	9267.47
608.2	9342.04
608.557	9373
608.914	9326.22
609.272	9389.72
609.629	9391.31
609.986	9392.44
610.343	9397.18
610.7	9385.21
611.057	9385.21
611.414	9419.33
611.771	9382.04
612.127	9480.57
612.484	9422.27
612.841	9415.71
613.198	9455.94
613.554	9435.6
613.911	9436.5
614.267	9557.4
614.624	9424.3
614.98	9474.47
615.337	9470.63
615.693	9481.93
616.05	9478.08
616.406	9460.01
616.762	9474.69
617.118	9466.33
617.475	9465.43
617.831	9544.07
618.187	9477.18
618.543	9497.07
618.899	9533.45
619.255	9564.18
619.611	9568.7
619.967	9576.84
620.323	9566.22
620.678	9568.93
621.034	9533.68
621.39	9535.03
621.746	9430.4
622.101	9638.53
622.457	9485.54
622.812	9556.05
623.168	9587.69
623.523	9591.98
623.879	9543.39
624.234	9488.03
624.589	9538.87
624.945	9543.39
625.3	9552.88
625.655	9522.83
626.01	9588.14
626.365	9542.94
626.72	9514.69
627.075	9455.94
627.43	9503.39
627.785	9500.91
628.14	9474.92
628.495	9509.72
628.85	9461.36
629.205	9433.11
629.559	9464.07
629.914	9455.26
630.269	9509.27
630.623	9519.44
630.978	9441.02
631.332	9487.58
631.687	9493.68
632.041	9412.1
632.396	9430.63
632.75	9393.34
633.104	9395.37
633.459	9331.65
633.813	9346.79
634.167	9367.13
634.521	9283.96
634.875	9309.95
635.229	9287.81
635.583	9304.98
635.937	9284.87
636.291	9296.62
636.645	9313.57
636.999	9220.01
637.352	9225.66
637.706	9156.74
638.06	9260.24
638.413	9196.96
638.767	9188.37
639.121	9158.32
639.474	9200.35
639.828	9191.31
640.181	9156.96
640.534	9183.63
640.888	9165.1
641.241	9131.65
641.594	9105.44
641.947	9090.3
642.301	9137.3
642.654	9075.38
643.007	9176.17
643.36	9074.48
643.713	9059.11
644.066	9133.69
644.419	9063.41
644.771	9029.73
645.124	8907.03
645.477	8957.19
645.83	8837.87
646.182	8861.6
646.535	8765.56
646.888	8819.57
647.24	8774.37
647.593	8834.49
647.945	8772.79
648.298	8762.4
648.65	8714.04
649.002	8739.8
649.355	8829.74
649.707	8811.89
650.059	8840.81
650.411	8933.47
650.763	8927.82
651.115	9037.64
651.467	9001.94
651.819	8988.83
652.171	8945.22
652.523	9013.24
652.875	8970.98
653.227	8921.94
653.578	9027.02
653.93	8923.07
654.282	8981.6
654.633	8952.9
654.985	8876.74
655.337	8891.88
655.688	8942.05
656.039	9017.53
656.391	8944.31
656.742	8986.12
657.094	8988.38
657.445	9030.19
657.796	8971.43
658.147	8942.96
658.498	8906.8
658.849	9013.92
659.2	9036.97
659.551	9015.05
659.902	8963.3
660.253	9008.72
660.604	8993.13
660.955	9012.56
661.306	9031.54
661.656	8959
662.007	8994.71
662.358	9037.19
662.708	9101.6
663.059	9069.06
663.409	9016.4
663.76	9068.6
664.11	9063.86
664.461	9068.15
664.811	9040.58
665.161	9015.5
665.511	9050.07
665.862	9030.64
666.212	9000.13
666.562	9061.6
666.912	9041.71
667.262	9041.94
667.612	9124.87
667.962	9089.39
668.312	9078.55
668.662	9166
669.011	9012.56
669.361	8975.5
669.711	9060.47
670.06	8998.1
670.41	9024.31
670.76	8974.14
671.109	9066.57
671.459	9043.07
671.808	9039.23
672.157	9031.99
672.507	8929.17
672.856	8997.87
673.205	9001.49
673.554	8973.01
673.904	8935.5
674.253	8978.66
674.602	8932.56
674.951	8850.3
675.3	8880.36
675.649	8942.5
675.998	8944.99
676.346	8908.83
676.695	8977.98
677.044	8849.17
677.393	8895.5
677.741	8913.35
678.09	8869.51
678.438	8808.5
678.787	8843.07
679.135	8868.38
679.484	8798.55
679.832	8797.42
680.181	8711.78
680.529	8810.08
680.877	8712.45
681.225	8798.55
681.573	8801.27
681.922	8769.85
682.27	8618.45
682.618	8695.28
682.966	8638.78
683.314	8716.3
683.661	8673.13
684.009	8549.07
684.357	8592.68
684.705	8563.08
685.053	8561.5
685.4	8478.56
685.748	8491.67
686.095	8481.95
686.443	8504.1
686.79	8442.18
687.138	8441.95
687.485	8444.66
687.832	8396.08
688.18	8387.49
688.527	8401.73
688.874	8374.16
689.221	8334.16
689.568	8287.83
689.915	8260.49
690.262	8316.53
690.609	8269.75
690.956	8229.76
691.303	8186.59
691.65	8199.93
691.997	8158.34
692.344	8125.8
692.69	8062.98
693.037	8093.26
693.383	8048.74
693.73	8010.78
694.077	7915.19
694.423	7953.6
694.769	7896.66
695.116	7902.98
695.462	7878.35
695.808	7869.09
696.155	7844.45
696.501	7780.95
696.847	7778.02
697.193	7683.1
697.539	7734.85
697.885	7696.66
698.231	7678.13
698.577	7622.09
698.923	7675.65
699.269	7561.75
699.614	7499.15
699.96	7494.86
700.306	7468.87
700.651	7436.78
700.997	7426.16
701.342	7422.54
701.688	7373.96
702.033	7321.76
702.379	7322.66
702.724	7288.99
703.069	7257.13
703.415	7193.62
703.76	7225.94
704.105	7175.77
704.45	7163.57
704.795	7106.85
705.14	7116.79
705.485	7110.91
705.83	7024.14
706.175	7082.67
706.52	7018.49
706.865	7014.42
707.209	7004.25
707.554	6971.71
707.899	7003.12
708.243	6923.35
708.588	6893.97
708.932	6901.88
709.277	6855.55
709.621	6874.54
709.966	6762.45
710.31	6844.26
710.654	6724.94
710.998	6784.82
711.342	6745.5
711.687	6762
712.031	6721.09
712.375	6679.51
712.719	6628.44
713.063	6652.4
713.407	6676.58
713.75	6616.69
714.094	6630.7
714.438	6604.94
714.782	6611.27
715.125	6547.09
715.469	6602.91
715.812	6507.09
716.156	6540.53
716.499	6493.53
716.843	6606.07
717.186	6468.67
717.53	6515.9
717.873	6518.39
718.216	6547.77
718.559	6472.51
718.902	6432.74
719.246	6477.26
719.589	6454.66
719.932	6414.44
720.275	6471.61
720.617	6469.12
720.96	6434.55
721.303	6444.27
721.646	6421.22
721.989	6360.43
722.331	6383.25
722.674	6371.95
723.016	6442.68
723.359	6371.27
723.701	6392.52
724.044	6333.08
724.386	6344.83
724.729	6355.23
725.071	6288.11
725.413	6334.44
725.755	6305.06
726.097	6342.57
726.439	6257.83
726.782	6344.38
727.124	6330.6
727.465	6208.57
727.807	6296.7
728.149	6258.96
728.491	6249.69
728.833	6257.38
729.175	6288.79
729.516	6233.2
729.858	6227.32
730.199	6229.58
730.541	6264.84
730.882	6223.93
731.224	6275.46
731.565	6279.98
731.906	6233.88
732.248	6268.68
732.589	6216.7
732.93	6205.63
733.271	6233.65
733.612	6263.71
733.953	6275.91
734.294	6289.69
734.635	6200.88
734.976	6247.66
735.317	6249.24
735.658	6241.56
735.999	6258.06
736.339	6277.94
736.68	6284.72
737.021	6338.28
737.361	6234.33
737.702	6274.33
738.042	6315.46
738.383	6340.54
738.723	6311.61
739.063	6316.59
739.404	6359.75
739.744	6403.59
740.084	6401.33
740.424	6311.61
740.764	6366.75
741.104	6439.29
741.444	6341.44
741.784	6357.94
742.124	6394.55
742.464	6396.13
742.804	6480.2
743.143	6415.79
743.483	6483.59
743.823	6507.31
744.162	6515.9
744.502	6546.64
744.841	6532.62
745.181	6630.48
745.52	6609.91
745.86	6701.43
746.199	6667.31
746.538	6756.8
746.877	6829.11
747.216	6811.49
747.556	6892.84
747.895	6911.82
748.234	6868.44
748.573	6944.59
748.911	7019.62
749.25	7103.91
749.589	7063.91
749.928	7201.76
750.267	7315.88
750.605	7346.39
750.944	7384.13
751.283	7475.2
751.621	7545.93
751.96	7560.85
752.298	7676.32
752.636	7818.47
752.975	7845.81
753.313	7943.21
753.651	8068.4
753.989	8142.75
754.327	8273.6
754.666	8352.01
755.004	8459.58
755.342	8608.28
755.679	8682.85
756.017	8767.14
756.355	8952
756.693	9068.38
757.031	9184.98
757.368	9336.39
757.706	9461.59
758.044	9546.1
758.381	9816.61
758.719	9846.44
759.056	10016.83
759.394	10176.6
759.731	10274.22
760.068	10521.9
760.405	10603.03
760.743	10746.3
761.08	10876.24
761.417	11033.52
761.754	11251.37
762.091	11431.03
762.428	11532.95
762.765	11699.04
763.102	11890
763.438	12044.8
763.775	12176.77
764.112	12297.22
764.449	12567.72
764.785	12676.19
765.122	12719.81
765.458	12925.45
765.795	13122.73
766.131	13181.49
766.467	13360.02
