Data from hue_110_FLMS001491_00079.txt Node
Date: Tue Feb 07 17:01:49 GMT 2017
User: dcchb
Spectrometer: FLMS00149
Trigger mode: 0
Integration Time (sec): 2.000000E-2
Scans to average: 10
Electric dark correction enabled: true
Nonlinearity correction enabled: false
Boxcar width: 0
XAxis mode: Wavelengths
Number of Pixels in Spectrum: 2048
>>>>>Begin Spectral Data<<<<<
341.393	4.87
341.776	4.87
342.16	4.87
342.543	-67.89
342.927	-65.86
343.31	-87.1
343.693	-60.89
344.077	-67.22
344.46	-44.39
344.843	-50.49
345.226	-54.79
345.61	-27.44
345.993	-8.23
346.376	-7.78
346.759	5.78
347.142	22.95
347.525	39.22
347.908	61.59
348.291	66.11
348.674	105.44
349.057	107.24
349.44	130.07
349.823	158.54
350.206	156.73
350.588	221.59
350.971	224.08
351.354	229.05
351.737	252.55
352.119	263.62
352.502	268.82
352.884	268.14
353.267	288.71
353.65	291.64
354.032	300.68
354.414	322.38
354.797	319.89
355.179	326.45
355.562	313.57
355.944	339.78
356.326	324.19
356.709	332.77
357.091	353.56
357.473	363.28
357.855	346.78
358.238	338.65
358.62	342.72
359.002	340.46
359.384	339.33
359.766	343.85
360.148	339.55
360.53	362.6
360.912	341.59
361.294	322.83
361.676	320.12
362.057	362.15
362.439	332.55
362.821	322.38
363.203	336.84
363.584	330.29
363.966	343.17
364.348	334.81
364.729	323.51
365.111	346.33
365.493	328.71
365.874	343.62
366.256	327.58
366.637	332.55
367.019	309.27
367.4	308.59
367.781	325.99
368.163	343.17
368.544	300.91
368.925	320.12
369.306	297.75
369.688	326.67
370.069	352.89
370.45	333.68
370.831	299.33
371.212	325.32
371.593	301.81
371.974	310.85
372.355	314.92
372.736	329.16
373.117	324.41
373.498	309.5
373.879	320.57
374.26	336.39
374.641	336.39
375.021	320.12
375.402	318.99
375.783	326.22
376.163	345.88
376.544	347.46
376.925	330.74
377.305	339.33
377.686	342.72
378.066	322.6
378.447	348.14
378.827	349.5
379.208	336.39
379.588	337.52
379.968	312.89
380.349	353.56
380.729	346.56
381.109	352.66
381.489	353.79
381.87	364.19
382.25	361.93
382.63	353.56
383.01	351.3
383.39	338.88
383.77	356.73
384.15	361.7
384.53	378.65
384.91	356.95
385.29	393.11
385.67	368.48
386.049	358.08
386.429	371.87
386.809	391.53
387.189	370.96
387.568	372.09
387.948	351.76
388.328	380.46
388.707	368.25
389.087	366.45
389.466	368.25
389.846	375.71
390.225	371.87
390.605	394.69
390.984	396.05
391.363	380.68
391.743	394.47
392.122	402.15
392.501	401.25
392.881	403.05
393.26	404.64
393.639	386.56
394.018	406.44
394.397	418.2
394.776	427.01
395.155	404.41
395.534	406.44
395.913	402.38
396.292	402.15
396.671	394.92
397.05	393.79
397.429	410.96
397.808	441.02
398.186	398.76
398.565	411.19
398.944	430.4
399.323	408.93
399.701	418.2
400.08	436.27
400.458	453
400.837	434.47
401.215	438.76
401.594	433.11
401.972	445.77
402.351	442.6
402.729	434.69
403.107	440.79
403.486	422.26
403.864	445.09
404.242	447.57
404.62	455.03
404.999	473.79
405.377	449.61
405.755	469.72
406.133	474.92
406.511	468.14
406.889	474.69
407.267	467.01
407.645	483.28
408.023	487.35
408.401	468.59
408.779	469.72
409.156	477.63
409.534	505.42
409.912	500.23
410.29	476.72
410.667	512.66
411.045	495.93
411.422	504.29
411.8	504.29
412.178	511.98
412.555	517.85
412.933	511.75
413.31	520.79
413.687	526.21
414.065	532.99
414.442	545.65
414.819	550.4
415.197	550.4
415.574	556.95
415.951	542.03
416.328	564.86
416.705	588.59
417.082	574.35
417.46	545.65
417.837	583.61
418.214	576.38
418.591	569.38
418.967	586.55
419.344	555.14
419.721	585.2
420.098	588.13
420.475	612.09
420.852	591.52
421.228	607.12
421.605	602.15
421.982	617.96
422.358	646.21
422.735	608.7
423.111	613.9
423.488	645.53
423.864	652.09
424.241	626.55
424.617	636.27
424.994	639.43
425.37	659.54
425.746	663.16
426.123	668.36
426.499	644.18
426.875	678.08
427.251	662.71
427.627	674.23
428.003	677.85
428.379	685.31
428.756	684.18
429.132	723.95
429.507	712.65
429.883	709.94
430.259	714.68
430.635	728.7
431.011	752.2
431.387	737.51
431.763	750.39
432.138	756.49
432.514	771.41
432.89	780.22
433.265	764.63
433.641	787.68
434.016	793.78
434.392	804.85
434.767	813.44
435.143	797.62
435.518	820.9
435.894	830.84
436.269	803.72
436.644	828.35
437.02	822.93
437.395	896.15
437.77	871.06
438.145	895.7
438.52	861.12
438.895	879.2
439.271	889.14
439.646	912.65
440.021	902.48
440.395	899.99
440.77	907
441.145	911.52
441.52	935.92
441.895	944.96
442.27	952.19
442.645	935.02
443.019	956.71
443.394	925.75
443.769	950.61
444.143	990.38
444.518	965.53
444.892	976.37
445.267	990.38
445.641	993.1
446.016	1010.72
446.39	998.74
446.764	1019.31
447.139	1023.15
447.513	1010.27
447.887	1026.77
448.262	1010.72
448.636	1024.05
449.01	1055.01
449.384	1067.9
449.758	1069.03
450.132	1050.27
450.506	1103.15
450.88	1091.85
451.254	1109.93
451.628	1109.7
452.002	1107.89
452.376	1121
452.75	1124.39
453.123	1111.74
453.497	1161.45
453.871	1170.94
454.244	1193.99
454.618	1191.06
454.992	1197.16
455.365	1204.16
455.739	1232.19
456.112	1267.44
456.486	1253.88
456.859	1258.4
457.232	1276.48
457.606	1290.94
457.979	1314.89
458.352	1336.59
458.725	1342.24
459.099	1351.05
459.472	1374.33
459.845	1413.42
460.218	1405.29
460.591	1400.32
460.964	1431.05
461.337	1455.46
461.71	1497.49
462.083	1532.06
462.456	1512.63
462.829	1544.95
463.201	1579.97
463.574	1566.64
463.947	1579.52
464.32	1625.4
464.692	1658.61
465.065	1675.34
465.438	1679.86
465.81	1726.41
466.183	1749.46
466.555	1790.59
466.928	1801.66
467.3	1819.06
467.672	1823.81
468.045	1869.91
468.417	1872.85
468.789	1917.82
469.161	1932.96
469.534	1969.57
469.906	2035.1
470.278	2050.24
470.65	2082.33
471.022	2125.95
471.394	2176.57
471.766	2216.57
472.138	2215.66
472.51	2269.45
472.882	2327.75
473.253	2360.07
473.625	2377.01
473.997	2495.2
474.369	2504.24
474.74	2555.31
475.112	2622.88
475.484	2677.34
475.855	2765.25
476.227	2800.28
476.598	2884.35
476.97	2944
477.341	3014.74
477.713	3100.38
478.084	3125.47
478.455	3262.41
478.827	3322.53
479.198	3447.49
479.569	3438.23
479.94	3565.46
480.311	3665.57
480.682	3779.91
481.053	3880.48
481.424	4037.54
481.795	4078.44
482.166	4234.59
482.537	4291.31
482.908	4440.24
483.279	4555.04
483.65	4637.97
484.021	4752.09
484.391	4858.76
484.762	4955.25
485.133	5044.51
485.503	5266.88
485.874	5421.23
486.244	5407.89
486.615	5630.49
486.985	5755.91
487.356	5887.88
487.726	6020.99
488.097	6242.67
488.467	6259.85
488.837	6537.58
489.207	6641.53
489.578	6732.38
489.948	6932.37
490.318	7070.22
490.688	7201.29
491.058	7406.94
491.428	7553.15
491.798	7730.77
492.168	7870.88
492.538	8043.98
492.908	8196.75
493.278	8358.55
493.648	8448.49
494.017	8561.48
494.387	8721.48
494.757	8912.89
495.126	9093.67
495.496	9177.51
495.866	9311.75
496.235	9488.01
496.605	9594.68
496.974	9770.94
497.344	9894.56
497.713	10021.11
498.082	10059.52
498.452	10278.73
498.821	10386.29
499.19	10556.01
499.559	10647.53
499.928	10739.28
500.298	10911.03
500.667	10973.17
501.036	11107.86
501.405	11279.15
501.774	11319.83
502.143	11460.39
502.512	11572.03
502.88	11674.4
503.249	11778.35
503.618	11903.32
503.987	11851.11
504.356	12031.45
504.724	12107.15
505.093	12250.88
505.462	12317.54
505.83	12454.04
506.199	12541.27
506.567	12743.52
506.936	12680.7
507.304	12908.26
507.672	12951.88
508.041	13099.67
508.409	13148.26
508.777	13287.01
509.145	13371.53
509.514	13309.16
509.882	13448.59
510.25	13520.9
510.618	13610.84
510.986	13604.29
511.354	13767.45
511.722	13807
512.09	13971.96
512.458	13910.04
512.826	14004.05
513.193	14119.08
513.561	14183.48
513.929	14189.58
514.297	14355.91
514.664	14377.15
515.032	14404.72
515.4	14500.31
515.767	14589.35
516.135	14654.88
516.502	14487.66
516.869	14804.26
517.237	14806.07
517.604	14731.72
517.972	14861.66
518.339	14978.72
518.706	14959.73
519.073	14959.28
519.44	15072.27
519.808	15156.56
520.175	15233.62
520.542	15230.91
520.909	15378.03
521.276	15341.19
521.643	15347.29
522.009	15482.21
522.376	15596.33
522.743	15619.15
523.11	15699.38
523.477	15836.09
523.843	15844.23
524.21	15884.91
524.577	15968.75
524.943	15921.97
525.31	16047.16
525.676	16046.94
526.043	16108.86
526.409	16204.22
526.776	16277.21
527.142	16259.36
527.508	16303.65
527.874	16398.79
528.241	16334.39
528.607	16424.33
528.973	16448.73
529.339	16383.2
529.705	16539.81
530.071	16538.45
530.437	16550.65
530.803	16598.56
531.169	16608.5
531.535	16564.21
531.901	16543.19
532.267	16495.51
532.632	16615.74
532.998	16659.35
533.364	16591.1
533.73	16626.36
534.095	16694.38
534.461	16718.33
534.826	16693.47
535.192	16741.16
535.557	16790.87
535.923	16651.67
536.288	16635.85
536.653	16635.85
537.019	16527.15
537.384	16639.46
537.749	16687.15
538.114	16636.07
538.479	16540.71
538.845	16477.66
539.21	16506.13
539.575	16393.59
539.94	16430.88
540.305	16478.56
540.67	16410.32
541.034	16524.66
541.399	16361.28
541.764	16408.28
542.129	16482.86
542.494	16417.32
542.858	16329.19
543.223	16274.05
543.587	16333.71
543.952	16247.38
544.316	16228.17
544.681	16229.53
545.045	16166.93
545.41	16205.12
545.774	16161.96
546.138	16107.05
546.503	16207.16
546.867	16064.34
547.231	16188.18
547.595	16024.56
547.959	16051.68
548.324	15984.11
548.688	16008.07
549.052	15930.56
549.416	15933.72
549.779	15906.15
550.143	15927.39
550.507	15882.87
550.871	15893.27
551.235	15746.83
551.599	15871.57
551.962	15843.1
552.326	15806.27
552.689	15770.56
553.053	15711.13
553.417	15666.38
553.78	15855.08
554.143	15683.78
554.507	15691.92
554.87	15692.6
555.234	15792.25
555.597	15681.75
555.96	15676.33
556.323	15653.95
556.686	15551.36
557.05	15608.98
557.413	15642.2
557.776	15699.15
558.139	15795.64
558.502	15687.4
558.865	15562.66
559.228	15719.04
559.59	15682.2
559.953	15660.96
560.316	15772.82
560.679	15728.08
561.041	15705.25
561.404	15786.38
561.767	15774.4
562.129	15679.26
562.492	15890.78
562.854	15652.6
563.217	15745.02
563.579	15763.78
563.941	15794.29
564.304	15880.61
564.666	15980.72
565.028	15867.51
565.39	15914.06
565.753	16031.12
566.115	15973.72
566.477	16028.86
566.839	15997.67
567.201	16024.56
567.563	16004.68
567.925	16049.42
568.287	16035.64
568.648	16185.92
569.01	16064.56
569.372	16136.43
569.734	16109.08
570.095	16139.36
570.457	16256.2
570.819	16150.21
571.18	16151.57
571.542	16294.61
571.903	16279.93
572.265	16267.95
572.626	16308.62
572.987	16300.04
573.349	16367.38
573.71	16325.57
574.071	16310.43
574.432	16403.54
574.794	16402.63
575.155	16490.09
575.516	16378.45
575.877	16434.5
576.238	16512.69
576.599	16478.56
576.96	16500.03
577.32	16500.26
577.681	16544.1
578.042	16558.34
578.403	16425.68
578.763	16476.76
579.124	16439.24
579.485	16611.44
579.845	16543.65
580.206	16566.02
580.566	16504.33
580.927	16490.09
581.287	16554.04
581.648	16440.37
582.008	16602.85
582.368	16475.4
582.728	16589.52
583.089	16516.3
583.449	16552.46
583.809	16496.42
584.169	16490.77
584.529	16415.06
584.889	16539.58
585.249	16464.33
585.609	16359.24
585.969	16462.75
586.329	16414.38
586.688	16446.02
587.048	16353.14
587.408	16329.42
587.768	16311.34
588.127	16414.16
588.487	16352.92
588.846	16453.48
589.206	16345.91
589.565	16361.73
589.925	16340.49
590.284	16382.3
590.643	16294.61
591.003	16334.61
591.362	16357.21
591.721	16280.15
592.08	16275.86
592.44	16286.93
592.799	16250.55
593.158	16266.82
593.517	16218.46
593.876	16234.95
594.235	16212.58
594.593	16171.23
594.952	16247.84
595.311	16291.9
595.67	16309.53
596.029	16369.19
596.387	16279.25
596.746	16321.51
597.104	16262.07
597.463	16207.16
597.822	16257.55
598.18	16211.23
598.538	16141.17
598.897	16280.6
599.255	16074.73
599.613	16446.93
599.972	16196.09
600.33	16242.86
600.688	16133.04
601.046	16274.28
601.404	16303.43
601.762	16192.24
602.12	16311.79
602.478	16232.02
602.836	16309.75
603.194	16176.42
603.552	16144.56
603.91	16050.78
604.268	16291.9
604.625	16075.18
604.983	16200.61
605.341	16076.09
605.698	16156.09
606.056	16268.17
606.413	16238.12
606.771	16204.67
607.128	16320.38
607.485	16192.7
607.843	16231.34
608.2	16246.71
608.557	16356.76
608.914	16259.36
609.272	16375.52
609.629	16347.95
609.986	16425.68
610.343	16272.02
610.7	16388.17
611.057	16390.2
611.414	16334.61
611.771	16364.22
612.127	16397.89
612.484	16397.89
612.841	16388.4
613.198	16368.96
613.554	16432.01
613.911	16539.81
614.267	16511.78
614.624	16545.68
614.98	16521.73
615.337	16522.18
615.693	16483.99
616.05	16566.25
616.406	16564.89
616.762	16562.63
617.118	16520.14
617.475	16681.72
617.831	16621.38
618.187	16622.74
618.543	16559.92
618.899	16732.34
619.255	16707.48
619.611	16627.26
619.967	16765.11
620.323	16756.52
620.678	16662.74
621.034	16719.01
621.39	16641.5
621.746	16615.96
622.101	16822.51
622.457	16709.74
622.812	16694.15
623.168	16745.68
623.523	16724.66
623.879	16906.8
624.234	16614.83
624.589	16710.42
624.945	16730.76
625.3	16810.53
625.655	16733.47
626.01	16818.89
626.365	16807.37
626.72	16701.16
627.075	16691.21
627.43	16647.15
627.785	16681.72
628.14	16672.23
628.495	16727.37
628.85	16615.96
629.205	16601.27
629.559	16718.78
629.914	16634.94
630.269	16631.33
630.623	16525.57
630.978	16465.46
631.332	16544.55
631.687	16625.23
632.041	16517.66
632.396	16540.26
632.75	16393.37
633.104	16502.97
633.459	16390.43
633.813	16414.84
634.167	16447.83
634.521	16345.01
634.875	16415.51
635.229	16368.51
635.583	16366.02
635.937	16297.33
636.291	16309.3
636.645	16230.21
636.999	16243.54
637.352	16249.87
637.706	16215.07
638.06	16280.38
638.413	16180.94
638.767	16135.52
639.121	16174.84
639.474	16055.75
639.828	16021.4
640.181	16083.77
640.534	16181.17
640.888	16013.27
641.241	15953.61
641.594	15975.75
641.947	15999.93
642.301	15909.77
642.654	15992.47
643.007	16042.19
643.36	16068.86
643.713	15918.8
644.066	15999.93
644.419	15959.93
644.771	15867.05
645.124	15633.61
645.477	15702.31
645.83	15526.05
646.182	15458.25
646.535	15393.39
646.888	15382.32
647.24	15313.85
647.593	15495.76
647.945	15502.09
648.298	15357.46
648.65	15348.2
649.002	15346.39
649.355	15460.06
649.707	15380.97
650.059	15463.45
650.411	15706.61
650.763	15645.82
651.115	15857.56
651.467	15788.86
651.819	15830.67
652.171	15705.7
652.523	15791.8
652.875	15771.01
653.227	15669.09
653.578	15733.95
653.93	15734.63
654.282	15688.75
654.633	15647.85
654.985	15634.07
655.337	15713.16
655.688	15768.07
656.039	15804.01
656.391	15696.44
656.742	15731.24
657.094	15709.32
657.445	15733.05
657.796	15672.26
658.147	15625.03
658.498	15659.6
658.849	15804.68
659.2	15741.41
659.551	15699.38
659.902	15778.02
660.253	15711.8
660.604	15834.51
660.955	15738.7
661.306	15686.72
661.656	15725.36
662.007	15714.52
662.358	15862.31
662.708	15718.58
663.059	15806.49
663.409	15640.62
663.76	15808.75
664.11	15805.14
664.461	15789.54
664.811	15850.11
665.161	15804.23
665.511	15810.33
665.862	15775.98
666.212	15794.51
666.562	15720.17
666.912	15721.3
667.262	15859.82
667.612	15764.91
667.962	15724.01
668.312	15735.98
668.662	15838.58
669.011	15827.96
669.361	15785.02
669.711	15739.37
670.06	15744.35
670.41	15691.24
670.76	15677.46
671.109	15737.11
671.459	15700.51
671.808	15645.14
672.157	15762.88
672.507	15614.63
672.856	15609.43
673.205	15596.78
673.554	15652.37
673.904	15648.08
674.253	15719.49
674.602	15599.94
674.951	15396.78
675.3	15378.48
675.649	15604.91
675.998	15505.48
676.346	15626.61
676.695	15597.68
677.044	15401.76
677.393	15513.84
677.741	15481.53
678.09	15407.63
678.438	15417.35
678.787	15514.52
679.135	15529.21
679.484	15341.19
679.832	15311.59
680.181	15241.53
680.529	15348.2
680.877	15331.7
681.225	15273.4
681.573	15345.71
681.922	15237.24
682.27	15157.02
682.618	15182.33
682.966	15103.91
683.314	15176
683.661	15107.07
684.009	14983.46
684.357	15032.73
684.705	14976.46
685.053	15004.48
685.4	14932.84
685.748	14888.1
686.095	14775.33
686.443	14741.21
686.79	14757.93
687.138	14770.81
687.485	14809.46
687.832	14758.16
688.18	14708.89
688.527	14581.89
688.874	14570.59
689.221	14526.75
689.568	14475
689.915	14469.8
690.262	14430.93
690.609	14367.43
690.956	14364.27
691.303	14228
691.65	14188.68
691.997	14254.89
692.344	14119.3
692.69	14195.46
693.037	14110.72
693.383	13976.26
693.73	14041.11
694.077	13976.03
694.423	13884.73
694.769	13886.09
695.116	13882.93
695.462	13853.77
695.808	13755.47
696.155	13799.54
696.501	13650.62
696.847	13651.52
697.193	13532.88
697.539	13551.64
697.885	13463.5
698.231	13485.65
698.577	13444.29
698.923	13388.48
699.269	13268.48
699.614	13130.4
699.96	13240.46
700.306	13215.82
700.651	13034.59
700.997	13048.37
701.342	12951.65
701.688	13053.57
702.033	13002.27
702.379	12893.12
702.724	12806.8
703.069	12941.26
703.415	12639.12
703.76	12693.13
704.105	12688.61
704.45	12729.96
704.795	12577.65
705.14	12575.84
705.485	12496.75
705.83	12536.29
706.175	12443.19
706.52	12437.99
706.865	12371.78
707.209	12352.34
707.554	12346.47
707.899	12336.98
708.243	12224.21
708.588	12246.81
708.932	12162.07
709.277	12192.12
709.621	12077.32
709.966	11936.54
710.31	11990.09
710.654	11906.93
710.998	11901.51
711.342	11852.47
711.687	11850.89
712.031	11813.38
712.375	11885.01
712.719	11807.27
713.063	11767.28
713.407	11833.04
713.75	11667.62
714.094	11731.57
714.438	11642.53
714.782	11624
715.125	11572.7
715.469	11608.64
715.812	11558.24
716.156	11546.04
716.499	11552.59
716.843	11459.49
717.186	11481.18
717.53	11504.23
717.873	11561.18
718.216	11466.27
718.559	11412.26
718.902	11359.83
719.246	11349.66
719.589	11381.75
719.932	11296.33
720.275	11297.46
720.617	11258.36
720.96	11331.13
721.303	11283.67
721.646	11209.1
721.989	11206.61
722.331	11250.9
722.674	11169.1
723.016	11290.45
723.359	11184.01
723.701	11225.37
724.044	11119.61
724.386	11113.96
724.729	11199.38
725.071	11096.56
725.413	11152.15
725.755	11128.2
726.097	11058.37
726.439	11021.76
726.782	11047.29
727.124	11146.5
727.465	11000.97
727.807	10984.25
728.149	10927.07
728.491	10985.83
728.833	10960.74
729.175	10947.86
729.516	10928.2
729.858	10934.53
730.199	10908.77
730.541	10964.81
730.882	10885.94
731.224	10902.89
731.565	10890.91
731.906	10938.82
732.248	10924.13
732.589	10872.38
732.93	10793.97
733.271	10829.22
733.612	10883.46
733.953	10888.88
734.294	10843.01
734.635	10819.05
734.976	10901.31
735.317	10890.69
735.658	10851.82
735.999	10863.12
736.339	10809.11
736.68	10899.05
737.021	10937.24
737.361	10772.95
737.702	10954.42
738.042	10774.31
738.383	10883
738.723	10933.4
739.063	10869.9
739.404	10937.47
739.744	10911.25
740.084	10900.41
740.424	10967.97
740.764	10903.12
741.104	11029.89
741.444	11006.62
741.784	10925.49
742.124	10963
742.464	11063.34
742.804	10991.48
743.143	11086.84
743.483	11087.29
743.823	11076.45
744.162	11099.04
744.502	11169.32
744.841	11087.52
745.181	11259.04
745.52	11180.85
745.86	11285.71
746.199	11363.9
746.538	11314.63
746.877	11447.51
747.216	11481.18
747.556	11482.76
747.895	11626.49
748.234	11605.02
748.573	11670.78
748.911	11669.42
749.25	11769.31
749.589	11825.13
749.928	11951.45
750.267	12027.16
750.605	11983.77
750.944	12104.89
751.283	12205.23
751.621	12315.06
751.96	12341.5
752.298	12512.34
752.636	12638.21
752.975	12597.31
753.313	12768.15
753.651	12951.88
753.989	12947.36
754.327	13060.8
754.666	13200.68
755.004	13363.17
755.342	13543.5
755.679	13605.87
