Data from hue_34_FLMS001491_00089.txt Node
Date: Tue Feb 07 17:26:20 GMT 2017
User: dcchb
Spectrometer: FLMS00149
Trigger mode: 0
Integration Time (sec): 2.000000E-2
Scans to average: 10
Electric dark correction enabled: true
Nonlinearity correction enabled: false
Boxcar width: 0
XAxis mode: Wavelengths
Number of Pixels in Spectrum: 2048
>>>>>Begin Spectral Data<<<<<
341.393	-1.2
341.776	-1.2
342.16	-1.2
342.543	-62.67
342.927	-66.28
343.31	-72.39
343.693	-54.08
344.077	-69.67
344.46	-60.63
344.843	-52.95
345.226	-28.77
345.61	-24.48
345.993	-26.51
346.376	-7.08
346.759	4.22
347.142	23.21
347.525	29.99
347.908	74.96
348.291	88.51
348.674	83.32
349.057	92.36
349.44	141.17
349.823	156.54
350.206	168.29
350.588	189.3
350.971	207.61
351.354	198.57
351.737	259.81
352.119	246.48
352.502	268.4
352.884	263.65
353.267	280.15
353.65	305.91
354.032	312.01
354.414	318.11
354.797	309.75
355.179	316.76
355.562	328.73
355.944	328.73
356.326	343.42
356.709	329.86
357.091	330.54
357.473	352.91
357.855	346.13
358.238	345.91
358.62	339.58
359.002	367.38
359.384	352.24
359.766	347.26
360.148	353.14
360.53	340.49
360.912	334.38
361.294	337.55
361.676	320.82
362.057	339.13
362.439	328.73
362.821	315.63
363.203	317.21
363.584	324.89
363.966	326.7
364.348	307.94
364.729	332.35
365.111	300.03
365.493	323.31
365.874	304.33
366.256	307.94
366.637	308.4
367.019	308.62
367.4	320.15
367.781	310.2
368.163	328.28
368.544	296.87
368.925	316.08
369.306	323.99
369.688	300.03
370.069	307.27
370.45	327.6
370.831	322.18
371.212	314.5
371.593	319.92
371.974	319.02
372.355	321.73
372.736	326.7
373.117	332.12
373.498	333.25
373.879	316.98
374.26	325.57
374.641	302.29
375.021	324.21
375.402	333.03
375.783	325.12
376.163	349.07
376.544	345.23
376.925	316.31
377.305	312.92
377.686	339.36
378.066	328.73
378.447	328.51
378.827	331.45
379.208	331.9
379.588	330.54
379.968	340.94
380.349	355.85
380.729	349.98
381.109	334.16
381.489	338.23
381.87	343.42
382.25	349.3
382.63	354.27
383.01	338.9
383.39	352.24
383.77	345.23
384.15	339.81
384.53	359.92
384.91	357.21
385.29	351.11
385.67	337.32
386.049	348.62
386.429	356.53
386.809	342.07
387.189	358.34
387.568	355.4
387.948	364.67
388.328	354.5
388.707	350.88
389.087	334.61
389.466	345.91
389.846	340.49
390.225	358.34
390.605	355.63
390.984	361.5
391.363	360.82
391.743	394.95
392.122	359.02
392.501	384.33
392.881	363.08
393.26	369.64
393.639	372.57
394.018	375.74
394.397	386.59
394.776	383.42
395.155	398.11
395.534	384.1
395.913	383.2
396.292	383.87
396.671	390.43
397.05	384.33
397.429	385
397.808	396.53
398.186	396.53
398.565	370.99
398.944	376.42
399.323	412.57
399.701	404.44
400.08	385.68
400.458	396.3
400.837	385.23
401.215	399.01
401.594	416.64
401.972	409.18
402.351	411.44
402.729	406.25
403.107	425.45
403.486	406.7
403.864	420.26
404.242	424.33
404.62	408.96
404.999	436.3
405.377	444.66
405.755	420.26
406.133	441.05
406.511	402.4
406.889	434.04
407.267	428.84
407.645	443.76
408.023	445.34
408.401	427.49
408.779	439.47
409.156	441.05
409.534	443.31
409.912	452.12
410.29	462.52
410.667	446.47
411.045	458.9
411.422	458
411.8	459.13
412.178	458.9
412.555	468.17
412.933	458.9
413.31	469.52
413.687	470.65
414.065	482.85
414.442	486.24
414.819	492.12
415.197	490.31
415.574	478.79
415.951	493.48
416.328	480.59
416.705	493.25
417.082	484.89
417.46	479.92
417.837	505
418.214	481.95
418.591	516.07
418.967	506.36
419.344	518.11
419.721	520.37
420.098	504.1
420.475	511.78
420.852	504.77
421.228	542.74
421.605	529.63
421.982	534.15
422.358	542.97
422.735	533.93
423.111	546.36
423.488	554.49
423.864	555.4
424.241	548.84
424.617	568.95
424.994	560.59
425.37	567.37
425.746	545
426.123	575.06
426.499	573.93
426.875	574.15
427.251	596.3
427.627	577.77
428.003	583.42
428.379	588.16
428.756	596.3
429.132	602.85
429.507	611.44
429.883	592.46
430.259	628.84
430.635	636.75
431.011	625.45
431.387	643.75
431.763	629.52
432.138	629.07
432.514	628.16
432.89	636.97
433.265	645.34
433.641	681.72
434.016	658.67
434.392	673.13
434.767	676.52
435.143	668.84
435.518	676.3
435.894	664.77
436.269	685.56
436.644	706.58
437.02	711.1
437.395	681.72
437.77	708.16
438.145	733.02
438.52	714.94
438.895	734.15
439.271	728.72
439.646	732.79
440.021	741.38
440.395	750.87
440.77	733.47
441.145	743.86
441.52	746.8
441.895	760.14
442.27	760.81
442.645	744.32
443.019	760.59
443.394	761.49
443.769	797.87
444.143	793.35
444.518	786.12
444.892	795.16
445.267	779.57
445.641	801.72
446.016	811.21
446.39	799.46
446.764	794.03
447.139	829.74
447.513	809.85
447.887	839.68
448.262	834.94
448.636	816.86
449.01	825.67
449.384	840.13
449.758	853.47
450.132	883.3
450.506	841.94
450.88	855.95
451.254	854.82
451.628	863.64
452.002	883.97
452.376	888.49
452.75	888.95
453.123	898.66
453.497	902.96
453.871	902.05
454.244	953.12
454.618	927.59
454.992	937.98
455.365	965.1
455.739	952.9
456.112	969.62
456.486	974.37
456.859	979.34
457.232	1014.37
457.606	979.79
457.979	990.86
458.352	1031.77
458.725	1017.53
459.099	1049.39
459.472	1042.39
459.845	1078.09
460.218	1077.64
460.591	1078.77
460.964	1092.1
461.337	1118.54
461.71	1134.14
462.083	1127.81
462.456	1123.06
462.829	1148.37
463.201	1148.37
463.574	1143.4
463.947	1176.62
464.32	1208.71
464.692	1224.76
465.065	1210.75
465.438	1246.68
465.81	1261.59
466.183	1291.65
466.555	1287.13
466.928	1291.65
467.3	1311.08
467.672	1344.98
468.045	1343.85
468.417	1402.38
468.789	1370.29
469.161	1428.82
469.534	1399.21
469.906	1442.15
470.278	1484.41
470.65	1497.52
471.022	1507.69
471.394	1523.96
471.766	1525.09
472.138	1581.36
472.51	1603.5
472.882	1654.8
473.253	1665.42
473.625	1697.29
473.997	1731.41
474.369	1774.57
474.74	1781.13
475.112	1796.94
475.484	1833.78
475.855	1897.05
476.227	1888.69
476.598	1952.19
476.97	2003.27
477.341	2023.6
477.713	2095.47
478.084	2128.01
478.455	2170.04
478.827	2191.96
479.198	2264.05
479.569	2309.02
479.94	2371.17
480.311	2425.4
480.682	2466.98
481.053	2569.13
481.424	2618.39
481.795	2666.98
482.166	2729.35
482.537	2754.21
482.908	2844.6
483.279	2912.62
483.65	2966.41
484.021	3043.01
484.391	3123.24
484.762	3163.46
485.133	3210.01
485.503	3332.72
485.874	3385.83
486.244	3469.44
486.615	3556.22
486.985	3625.6
487.356	3692.71
487.726	3788.3
488.097	3868.3
488.467	3964.34
488.837	4048.64
489.207	4129.76
489.578	4212.93
489.948	4296.31
490.318	4364.11
490.688	4462.18
491.058	4525.23
491.428	4619.47
491.798	4727.04
492.168	4854.27
492.538	4875.51
492.908	4953.25
493.278	5072.34
493.648	5113.47
494.017	5239.34
494.387	5349.62
494.757	5372.9
495.126	5451.99
495.496	5507.81
495.866	5564.53
496.235	5610.86
496.605	5771.76
496.974	5781.7
497.344	5904.41
497.713	5967
498.082	6063.27
498.452	6158.86
498.821	6154.34
499.19	6180.11
499.559	6308.69
499.928	6417.61
500.298	6475.92
500.667	6521.34
501.036	6554.79
501.405	6665.06
501.774	6703.03
502.143	6774.21
502.512	6822.35
502.88	6865.51
503.249	6919.07
503.618	7015.56
503.987	7054.89
504.356	7118.39
504.724	7223.02
505.093	7237.25
505.462	7348.44
505.83	7382.11
506.199	7466.17
506.567	7496.91
506.936	7500.3
507.304	7617.81
507.672	7708.65
508.041	7716.34
508.409	7788.65
508.777	7870.91
509.145	7895.32
509.514	7875.43
509.882	8072.26
510.25	8044.01
510.618	8117.91
510.986	8178.7
511.354	8239.26
511.722	8340.5
512.09	8362.87
512.458	8347.51
512.826	8470.89
513.193	8489.65
513.561	8531
513.929	8535.52
514.297	8680.83
514.664	8745.46
515.032	8755.41
515.4	8812.81
515.767	8829.98
516.135	8886.7
516.502	8858.23
516.869	9041.27
517.237	9009.18
517.604	9076.98
517.972	9167.15
518.339	9228.39
518.706	9225
519.073	9256.64
519.44	9302.06
519.808	9400.36
520.175	9405.33
520.542	9528.72
520.909	9568.49
521.276	9590.19
521.643	9657.75
522.009	9761.25
522.376	9750.41
522.743	9727.13
523.11	9907.47
523.477	9981.36
523.843	10015.71
524.21	10066.56
524.577	10133
524.943	10172.32
525.31	10257.96
525.676	10300.9
526.043	10441.24
526.409	10384.06
526.776	10556.94
527.142	10598.75
527.508	10625.41
527.874	10784.5
528.241	10737.05
528.607	10788.8
528.973	10871.73
529.339	10900.66
529.705	11038.28
530.071	11112.86
530.437	11173.87
530.803	11254.77
531.169	11261.55
531.535	11230.14
531.901	11309.01
532.267	11370.7
532.632	11431.04
532.998	11464.49
533.364	11526.86
533.73	11605.95
534.095	11674.88
534.461	11684.37
534.826	11693.63
535.192	11809.34
535.557	11893.18
535.923	11864.48
536.288	11914.42
536.653	11996.45
537.019	12091.59
537.384	12096.11
537.749	12216.78
538.114	12240.06
538.479	12177.69
538.845	12292.26
539.21	12248.87
539.575	12283.45
539.94	12310.34
540.305	12516.21
540.67	12483.67
541.034	12527.74
541.399	12533.39
541.764	12550.79
542.129	12648.64
542.494	12728.63
542.858	12743.78
543.223	12865.58
543.587	12890.66
543.952	12886.6
544.316	12989.87
544.681	12964.56
545.045	13021.96
545.41	13109.42
545.774	13148.96
546.138	13239.36
546.503	13270.09
546.867	13279.81
547.231	13352.35
547.595	13422.18
547.959	13456.98
548.324	13500.59
548.688	13489.07
549.052	13469.63
549.416	13561.83
549.779	13578.78
550.143	13663.3
550.507	13813.58
550.871	13856.51
551.235	13773.8
551.599	13814.71
551.962	13959.11
552.326	14054.02
552.689	13929.96
553.053	14005.44
553.417	14024.87
553.78	14223.51
554.143	14166.11
554.507	14281.14
554.87	14326.78
555.234	14352.32
555.597	14282.94
555.96	14331.53
556.323	14513.22
556.686	14449.04
557.05	14526.33
557.413	14639.54
557.776	14715.47
558.139	14748.92
558.502	14785.3
558.865	14798.64
559.228	14928.35
559.59	14936.49
559.953	14972.87
560.316	15151.85
560.679	15117.5
561.041	15204.5
561.404	15192.3
561.767	15369.02
562.129	15282.69
562.492	15462.8
562.854	15406.08
563.217	15449.69
563.579	15515.23
563.941	15637.48
564.304	15612.4
564.666	15811.94
565.028	15752.51
565.39	15822.34
565.753	15827.31
566.115	15890.59
566.477	15910.92
566.839	16035.89
567.201	16098.26
567.563	16179.39
567.925	16314.53
568.287	16370.12
568.648	16261.2
569.01	16398.59
569.372	16514.3
569.734	16511.59
570.095	16612.15
570.457	16702.77
570.819	16680.39
571.18	16823.89
571.542	16806.04
571.903	16897.79
572.265	17053.72
572.626	17027.28
572.987	17062.98
573.349	17272.24
573.71	17320.83
574.071	17331.45
574.432	17574.83
574.794	17569.64
575.155	17630.2
575.516	17723.08
575.877	17767.15
576.238	17888.72
576.599	18001.49
576.96	18214.37
577.32	18237.87
577.681	18360.35
578.042	18509.27
578.403	18534.36
578.763	18716.27
579.124	18799.89
579.485	19029.49
579.845	19152.19
580.206	19347.67
580.566	19378.4
580.927	19551.51
581.287	19837.15
581.648	19816.81
582.008	20097.25
582.368	20157.14
582.728	20445.95
583.089	20495.44
583.449	20668.09
583.809	20894.52
584.169	21103.33
584.529	21203.21
584.889	21583.09
585.249	21642.75
585.609	21778.57
585.969	22200.93
586.329	22184.88
586.688	22566.12
587.048	22681.14
587.408	22858.09
587.768	23094.46
588.127	23414.68
588.487	23447.67
588.846	23905.29
589.206	23911.39
589.565	24268.44
589.925	24604.93
590.284	24759.28
590.643	25128.08
591.003	25307.51
591.362	25545.47
591.721	25661.18
592.08	26065.46
592.44	26314.04
592.799	26601.72
593.158	26684.43
593.517	26913.35
593.876	27226.11
594.235	27494.35
594.593	27744.28
594.952	28035.35
595.311	28150.15
595.67	28501.1
596.029	28807.08
596.387	29093.4
596.746	29441.64
597.104	29489.55
597.463	29687.06
597.822	29891.8
598.18	30085.69
598.538	30351.45
598.897	30761.61
599.255	30720.93
599.613	31332.89
599.972	31338.09
600.33	31684.52
600.688	31727.23
601.046	32013.1
601.404	32304.84
601.762	32395.01
602.12	32711.61
602.478	33044.94
602.836	33162.9
603.194	33018.04
603.552	33369.9
603.91	33616.22
604.268	33933.73
604.625	33918.36
604.983	34308.41
605.341	34166.26
605.698	34579.13
606.056	34769.41
606.413	34895.51
606.771	35131.21
607.128	35297.08
607.485	35232
607.843	35471.99
608.2	35855.48
608.557	35977.29
608.914	36039.66
609.272	36351.52
609.629	36591.51
609.986	36947.21
610.343	36695.46
610.7	37052.29
611.057	37143.13
611.414	37323.92
611.771	37367.76
612.127	37610.92
612.484	37668.09
612.841	38101.53
613.198	37990.79
613.554	38039.38
613.911	38427.17
614.267	38419.26
614.624	38510.56
614.98	38708.97
615.337	38879.81
615.693	38899.02
616.05	39032.12
616.406	39341.04
616.762	39161.16
617.118	39360.7
617.475	39466.69
617.831	39639.34
618.187	39708.94
618.543	39818.54
618.899	40076.62
619.255	40091.98
619.611	40032.1
619.967	40255.37
620.323	40413.33
620.678	40301.69
621.034	40399.77
621.39	40588.69
621.746	40469.83
622.101	40892.64
622.457	40787.56
622.812	40743.72
623.168	40936.03
623.523	41029.36
623.879	41091.96
624.234	40974.67
624.589	41155.23
624.945	41138.96
625.3	41340.54
625.655	41219.86
626.01	41356.13
626.365	41370.59
626.72	41415.34
627.075	41447.88
627.43	41460.08
627.785	41539.63
628.14	41533.98
628.495	41679.74
628.85	41599.29
629.205	41553.87
629.559	41971.93
629.914	41721.32
630.269	41731.49
630.623	41670.92
630.978	41515.45
631.332	41800.19
631.687	41877.7
632.041	41755.22
632.396	41916.57
632.75	41644.71
633.104	41806.29
633.459	41622.56
633.813	41705.05
634.167	41647.65
634.521	41677.03
634.875	41646.07
635.229	41731.04
635.583	41646.97
635.937	41584.82
636.291	41759.06
636.645	41679.51
636.999	41612.62
637.352	41811.71
637.706	41751.37
638.06	41695.78
638.413	41722.45
638.767	41530.59
639.121	41554.32
639.474	41384.15
639.828	41454.66
640.181	41579.4
640.534	41580.76
640.888	41477.48
641.241	41331.27
641.594	41263.03
641.947	41542.11
642.301	41479.97
642.654	41456.01
643.007	41473.19
643.36	41409.46
643.713	41272.97
644.066	41323.81
644.419	41119.98
644.771	40971.06
645.124	40593.66
645.477	40648.13
645.83	40414.01
646.182	40271.41
646.535	40124.52
646.888	40214.24
647.24	39989.39
647.593	40154.13
647.945	40120.91
648.298	39930.4
648.65	39889.05
649.002	39876.62
649.355	39920.46
649.707	39928.6
650.059	39970.63
650.411	40500.79
650.763	40666.43
651.115	40966.76
651.467	40785.98
651.819	40778.07
652.171	40793.43
652.523	40835.24
652.875	40793.43
653.227	40715.92
653.578	40657.39
653.93	40746.65
654.282	40503.72
654.633	40409.04
654.985	40477.74
655.337	40662.36
655.688	40568.81
656.039	40771.74
656.391	40423.73
656.742	40544.4
657.094	40494.91
657.445	40628.92
657.796	40511.63
658.147	40391.86
658.498	40478.41
658.849	40605.64
659.2	40369.26
659.551	40323.16
659.902	40426.89
660.253	40460.56
660.604	40507.56
660.955	40206.33
661.306	40511.86
661.656	40340.11
662.007	40363.61
662.358	40413.33
662.708	40451.52
663.059	40336.72
663.409	40073
663.76	40452.2
664.11	40286.55
664.461	40314.12
664.811	40391.64
665.161	40275.25
665.511	40181.02
665.862	40272.99
666.212	40392.77
666.562	40257.18
666.912	40281.58
667.262	40174.24
667.612	40283.16
667.962	40347.12
668.312	40164.52
668.662	40322.71
669.011	40280.45
669.361	40148.93
669.711	40187.57
670.06	40115.26
670.41	40136.28
670.76	40056.73
671.109	40096.73
671.459	40018.31
671.808	40018.99
672.157	39984.87
672.507	40051.53
672.856	40053.79
673.205	40062.15
673.554	40096.95
673.904	40011.76
674.253	40040.46
674.602	39998.65
674.951	39409.97
675.3	39109.41
675.649	39863.51
675.998	39886.34
676.346	39978.99
676.695	39924.76
677.044	39814.48
677.393	39788.04
677.741	39867.36
678.09	39785.32
678.438	39621.94
678.787	39757.75
679.135	39669.17
679.484	39501.26
679.832	39612.9
680.181	39430.31
680.529	39602.28
680.877	39538.55
681.225	39299.24
681.573	39609.51
681.922	39321.61
682.27	39267.15
682.618	39193.02
682.966	39036.87
683.314	39261.95
683.661	39068.05
684.009	38820.38
684.357	38821.96
684.705	38797.33
685.053	38886.59
685.4	38815.41
685.748	38600.5
686.095	38542.19
686.443	38478.01
686.79	38491.35
687.138	38574.96
687.485	38460.39
687.832	38284.12
688.18	38415.64
688.527	38166.16
688.874	38146.5
689.221	38116.67
689.568	37953.06
689.915	37942.21
690.262	38081.19
690.609	37837.35
690.956	37687.98
691.303	37678.49
691.65	37556.68
691.997	37433.52
692.344	37342
692.69	37197.6
693.037	37239.63
693.383	36886.64
693.73	37085.28
694.077	36889.35
694.423	36749.7
694.769	36736.59
695.116	36681.22
695.462	36608.68
695.808	36518.29
696.155	36641.45
696.501	36368.24
696.847	36321.69
697.193	36031.52
697.539	36267.22
697.885	35956.5
698.231	35775.49
698.577	35795.15
698.923	35819.33
699.269	35583.4
699.614	35372.33
699.96	35481.03
700.306	35458.43
700.651	35229.51
700.997	35179.12
701.342	35277.65
701.688	35018.44
702.033	34932.57
702.379	34911.55
702.724	34798.11
703.069	34812.35
703.415	34422.75
703.76	34446.71
704.105	34588.62
704.45	34447.61
704.795	34151.35
705.14	34261.18
705.485	34129.88
705.83	33977.79
706.175	34084.91
706.52	33976.44
706.865	33929.66
707.209	33847.63
707.554	33599.05
707.899	33833.62
708.243	33488.54
708.588	33503.91
708.932	33233.63
709.277	33324.93
709.621	33348.21
709.966	33129.68
710.31	33135.78
710.654	32866.64
710.998	32875
711.342	32982.11
711.687	32773.08
712.031	32768.11
712.375	32606.53
712.719	32522.46
713.063	32614.89
713.407	32564.72
713.75	32507.78
714.094	32453.31
714.438	32345.75
714.782	32356.37
715.125	32148.91
715.469	32218.29
715.812	32170.83
716.156	31877.06
716.499	32033.89
716.843	31896.27
717.186	31755.48
717.53	31932.42
717.873	31905.53
718.216	31680
718.559	31545.31
718.902	31546.9
719.246	31637.74
719.589	31335.6
719.932	31295.15
720.275	31291.76
720.617	31330.41
720.96	31167.92
721.303	31195.95
721.646	31086.57
721.989	30931.55
722.331	31072.78
722.674	30943.75
723.016	30896.97
723.359	30926.12
723.701	30881.38
724.044	30662.4
724.386	30588.05
724.729	30816.07
725.071	30753.02
725.413	30619.24
725.755	30507.38
726.097	30466.47
726.439	30348.06
726.782	30461.05
727.124	30643.87
727.465	30228.06
727.807	30205.69
728.149	30216.08
728.491	30140.15
728.833	30167.95
729.175	29989.2
729.516	29971.8
729.858	29877.56
730.199	30101.51
730.541	29880.73
730.882	29994.17
731.224	30045.02
731.565	29749.43
731.906	29811.8
732.248	29716.21
732.589	29668.75
732.93	29529.77
733.271	29490
733.612	29599.38
733.953	29524.35
734.294	29426.5
734.635	29313.06
734.976	29426.5
735.317	29245.04
735.658	29297.24
735.999	29320.29
736.339	29164.36
736.68	29265.83
737.021	29151.71
737.361	29028.77
737.702	29089.79
738.042	29083.01
738.383	29024.02
738.723	29051.59
739.063	28864.71
739.404	28951.94
739.744	28893.18
740.084	28714.65
740.424	28845.95
740.764	28652.74
741.104	28842.11
741.444	28674.66
741.784	28545.17
742.124	28666.29
742.464	28614.77
742.804	28463.36
743.143	28493.42
743.483	28473.08
743.823	28278.06
744.162	28264.04
744.502	28335.68
744.841	28256.14
745.181	28305.63
745.52	28066.31
745.86	28170.04
746.199	28137.95
746.538	28064.5
746.877	28149.7
747.216	28053.43
747.556	28037.38
747.895	28000.55
748.234	27887.78
748.573	27839.88
748.911	27788.35
749.25	27766.2
749.589	27709.71
749.928	27802.14
750.267	27848.91
750.605	27594.23
750.944	27624.97
751.283	27442.15
751.621	27547.68
751.96	27459.77
752.298	27434.24
752.636	27464.74
752.975	27274.47
753.313	27259.33
753.651	27305.65
753.989	27026.79
754.327	27093.68
754.666	26936.4
755.004	26968.03
755.342	26976.62
755.679	26979.11
756.017	26786.34
756.355	26779.34
756.693	26709.06
757.031	26753.8
757.368	26546.58
757.706	26559.91
758.044	26400.14
