Data from hue_60_FLMS001491_98.txt Node
Date: Mon Feb 06 15:18:14 GMT 2017
User: dcchb
Spectrometer: FLMS00149
Trigger mode: 0
Integration Time (sec): 2.000000E-2
Scans to average: 10
Electric dark correction enabled: true
Nonlinearity correction enabled: false
Boxcar width: 0
XAxis mode: Wavelengths
Number of Pixels in Spectrum: 2048
>>>>>Begin Spectral Data<<<<<
341.393	-18.29
341.776	-18.29
342.16	-18.29
342.543	-50.38
342.927	-74.79
343.31	-55.58
343.693	-66.65
344.077	-78.18
344.46	-65.07
344.843	-56.93
345.226	-50.15
345.61	-36.82
345.993	-17.39
346.376	-1.57
346.759	23.97
347.142	41.82
347.525	45.66
347.908	61.03
348.291	63.74
348.674	92.67
349.057	99.45
349.44	136.51
349.823	137.19
350.206	161.59
350.588	219.44
350.971	218.77
351.354	234.36
351.737	244.3
352.119	262.61
352.502	268.71
352.884	282.94
353.267	272.78
353.65	287.92
354.032	312.55
354.414	325.66
354.797	325.2
355.179	341.02
355.562	317.75
355.944	340.12
356.326	351.64
356.709	351.42
357.091	357.52
357.473	384.64
357.855	369.72
358.238	349.61
358.62	345.54
359.002	360
359.384	364.07
359.766	353.45
360.148	347.58
360.53	346.22
360.912	366.56
361.294	340.57
361.676	338.76
362.057	361.81
362.439	334.24
362.821	349.84
363.203	327.01
363.584	350.29
363.966	336.5
364.348	327.69
364.729	342.38
365.111	332.89
365.493	323.85
365.874	317.75
366.256	345.99
366.637	342.38
367.019	341.93
367.4	317.52
367.781	326.33
368.163	338.76
368.544	338.76
368.925	321.14
369.306	317.75
369.688	326.56
370.069	309.38
370.45	330.17
370.831	327.69
371.212	334.24
371.593	338.99
371.974	336.5
372.355	339.67
372.736	328.82
373.117	323.85
373.498	306.9
373.879	335.6
374.26	325.66
374.641	314.13
375.021	305.54
375.402	312.55
375.783	344.41
376.163	345.09
376.544	337.63
376.925	339.44
377.305	321.14
377.686	330.17
378.066	326.33
378.447	348.93
378.827	338.76
379.208	328.37
379.588	353.9
379.968	361.81
380.349	351.87
380.729	347.58
381.109	341.02
381.489	347.12
381.87	356.84
382.25	351.19
382.63	356.16
383.01	355.71
383.39	368.14
383.77	368.82
384.15	369.72
384.53	339.21
384.91	362.26
385.29	346.22
385.67	353
386.049	363.17
386.429	371.08
386.809	364.07
387.189	368.82
387.568	358.65
387.948	366.11
388.328	363.39
388.707	384.64
389.087	364.75
389.466	342.15
389.846	369.5
390.225	372.66
390.605	369.04
390.984	381.47
391.363	379.89
391.743	385.77
392.122	353
392.501	384.64
392.881	393.68
393.26	375.82
393.639	403.17
394.018	381.25
394.397	353.9
394.776	390.51
395.155	384.86
395.534	407.91
395.913	400.68
396.292	391.19
396.671	402.72
397.05	405.65
397.429	385.09
397.808	385.99
398.186	391.19
398.565	406.56
398.944	423.73
399.323	400.23
399.701	416.73
400.08	407.24
400.458	410.85
400.837	407.91
401.215	416.5
401.594	435.03
401.972	421.7
402.351	427.35
402.729	437.74
403.107	436.61
403.486	415.82
403.864	432.32
404.242	425.09
404.62	420.34
404.999	457.18
405.377	418.53
405.755	431.42
406.133	425.31
406.511	442.49
406.889	453.56
407.267	440
407.645	434.35
408.023	462.6
408.401	438.65
408.779	462.15
409.156	463.96
409.534	453.11
409.912	458.99
410.29	460.34
410.667	451.53
411.045	465.09
411.422	468.7
411.8	475.26
412.178	479.1
412.555	478.42
412.933	474.58
413.31	484.52
413.687	496.05
414.065	517.74
414.442	504.18
414.819	514.35
415.197	503.5
415.574	495.59
415.951	512.54
416.328	517.51
416.705	509.38
417.082	514.58
417.46	531.98
417.837	526.1
418.214	513.9
418.591	526.55
418.967	555.71
419.344	532.2
419.721	541.69
420.098	550.73
420.475	551.41
420.852	556.61
421.228	560.68
421.605	552.32
421.982	555.48
422.358	567.91
422.735	580.56
423.111	567
423.488	562.49
423.864	578.08
424.241	588.47
424.617	610.62
424.994	565.65
425.37	586.44
425.746	582.6
426.123	578.53
426.499	594.12
426.875	583.05
427.251	602.71
427.627	608.13
428.003	619.43
428.379	622.37
428.756	628.02
429.132	622.37
429.507	668.92
429.883	640.45
430.259	619.43
430.635	635.48
431.011	642.48
431.387	647
431.763	682.48
432.138	664.63
432.514	693.1
432.89	682.26
433.265	686.78
433.641	717.06
434.016	698.75
434.392	713.44
434.767	707.34
435.143	702.37
435.518	737.4
435.894	734.91
436.269	712.54
436.644	753.67
437.02	735.36
437.395	739.2
437.77	763.38
438.145	764.06
438.52	760.45
438.895	758.41
439.271	760.45
439.646	778.75
440.021	790.5
440.395	776.04
440.77	750.73
441.145	796.15
441.52	823.04
441.895	786.43
442.27	820.11
442.645	820.33
443.019	848.13
443.394	827.56
443.769	841.12
444.143	846.09
444.518	827.79
444.892	842.48
445.267	856.94
445.641	875.92
446.016	845.87
446.39	847.68
446.764	878.64
447.139	867.34
447.513	887.67
447.887	873.44
448.262	875.02
448.636	881.12
449.01	916.15
449.384	900.56
449.758	890.84
450.132	915.24
450.506	897.62
450.88	910.27
451.254	935.36
451.628	973.32
452.002	949.14
452.376	953.89
452.75	968.35
453.123	954.57
453.497	973.1
453.871	968.8
454.244	997.73
454.618	1003.6
454.992	1002.93
455.365	1026.2
455.739	1046.99
456.112	1069.59
456.486	1077.5
456.859	1062.36
457.232	1084.51
457.606	1071.4
457.979	1084.96
458.352	1116.37
458.725	1141
459.099	1143.94
459.472	1173.09
459.845	1162.7
460.218	1185.97
460.591	1201.34
460.964	1203.15
461.337	1224.39
461.71	1227.33
462.083	1271.39
462.456	1252.18
462.829	1256.7
463.201	1282.92
463.574	1273.2
463.947	1322.01
464.32	1365.63
464.692	1344.84
465.065	1372.63
465.438	1395.68
465.81	1391.39
466.183	1420.54
466.555	1451.95
466.928	1461.22
467.3	1475
467.672	1507.55
468.045	1543.02
468.417	1557.04
468.789	1560.88
469.161	1596.13
469.534	1636.13
469.906	1658.5
470.278	1659.18
470.65	1709.12
471.022	1782.11
471.394	1775.11
471.766	1826.18
472.138	1832.06
472.51	1863.02
472.882	1926.07
473.253	1956.57
473.625	1949.12
473.997	2043.8
474.369	2065.95
474.74	2102.78
475.112	2145.72
475.484	2205.83
475.855	2319.95
476.227	2314.08
476.598	2404.7
476.97	2439.27
477.341	2510.46
477.713	2581.64
478.084	2582.55
478.455	2752.26
478.827	2755.87
479.198	2872.93
479.569	2945.7
479.94	3019.6
480.311	3078.13
480.682	3192.92
481.053	3296.65
481.424	3380.49
481.795	3451
482.166	3524.67
482.537	3694.38
482.908	3766.69
483.279	3879.46
483.65	3982.51
484.021	4090.53
484.391	4186.34
484.762	4310.86
485.133	4405.32
485.503	4510.86
485.874	4617.07
486.244	4780.91
486.615	4944.97
486.985	5033.33
487.356	5238.07
487.726	5319.2
488.097	5493.88
488.467	5620.21
488.837	5772.52
489.207	5911.27
489.578	6098.38
489.948	6228.1
490.318	6419.51
490.688	6529.79
491.058	6744.92
491.428	6919.61
491.798	7066.27
492.168	7286.83
492.538	7390.1
492.908	7490.21
493.278	7741.96
493.648	7847.04
494.017	8110.31
494.387	8214.49
494.757	8416.74
495.126	8561.14
495.496	8699.67
495.866	8886.56
496.235	9089.49
496.605	9214.91
496.974	9412.65
497.344	9559.31
497.713	9753.43
498.082	9870.94
498.452	10151.84
498.821	10253.08
499.19	10373.3
499.559	10531.04
499.928	10692.61
500.298	10834.98
500.667	11067.75
501.036	11153.62
501.405	11391.8
501.774	11492.14
502.143	11756.09
502.512	11862.98
502.88	12020.72
503.249	12165.34
503.618	12385.9
503.987	12443.3
504.356	12637.42
504.724	12749.51
505.093	12909.51
505.462	12986.57
505.83	13166.45
506.199	13365.99
506.567	13664.29
506.936	13702.93
507.304	13914.45
507.672	13960.33
508.041	14191.05
508.409	14376.36
508.777	14530.48
509.145	14711.94
509.514	14731.83
509.882	14960.07
510.25	15027.87
510.618	15174.08
510.986	15411.81
511.354	15531.58
511.722	15594.18
512.09	15838.24
512.458	15955.07
512.826	16179.25
513.193	16285.01
513.561	16328.85
513.929	16525.91
514.297	16741.27
514.664	16924.54
515.032	17082.5
515.4	17289.73
515.767	17327.92
516.135	17475.71
516.502	17459.89
516.869	17815.36
517.237	17916.61
517.604	17945.98
517.972	18241.12
518.339	18366.54
518.706	18501
519.073	18518.17
519.44	18752.74
519.808	19049.23
520.175	18951.15
520.542	19207.19
520.909	19371.48
521.276	19393.18
521.643	19566.96
522.009	19777.57
522.376	20008.75
522.743	20157.68
523.11	20348.63
523.477	20510.44
523.843	20629.3
524.21	20964.89
524.577	21078.56
524.943	21213.24
525.31	21258.44
525.676	21574.81
526.043	21717.41
526.409	21761.02
526.776	22060.9
527.142	22121.47
527.508	22277.62
527.874	22465.86
528.241	22615.01
528.607	22803.26
528.973	23024.95
529.339	22909.24
529.705	23220.19
530.071	23293.64
530.437	23505.38
530.803	23565.04
531.169	23716.68
531.535	23810.46
531.901	23807.07
532.267	24039.83
532.632	24246.61
532.998	24299.04
533.364	24424.91
533.73	24445.93
534.095	24726.82
534.461	24799.81
534.826	24908.51
535.192	25018.11
535.557	25316.41
535.923	25193.93
536.288	25329.97
536.653	25409.97
537.019	25472.34
537.384	25616.97
537.749	25655.61
538.114	25743.74
538.479	25918.88
538.845	25966.34
539.21	25916.17
539.575	26029.61
539.94	26188.03
540.305	26409.26
540.67	26339.21
541.034	26458.75
541.399	26463.5
541.764	26668.69
542.129	26801.8
542.494	26868.23
542.858	26872.3
543.223	26975.35
543.587	27165.85
543.952	27140.77
544.316	27285.62
544.681	27150.03
545.045	27395.45
545.41	27543.24
545.774	27682.68
546.138	27723.35
546.503	27774.2
546.867	27834.08
547.231	28082.67
547.595	28110.01
547.959	28108.43
548.324	28181.42
548.688	28159.27
549.052	28312.94
549.416	28404.24
549.779	28508.19
550.143	28566.49
550.507	28775.08
550.871	28840.61
551.235	28848.97
551.599	28966.26
551.962	29136.42
552.326	29231.11
552.689	29386.81
553.053	29228.4
553.417	29429.3
553.78	29830.87
554.143	29742.73
554.507	29817.08
554.87	30031.31
555.234	30175.94
555.597	30104.99
555.96	30123.97
556.323	30322.15
556.686	30457.97
557.05	30641.24
557.413	30717.85
557.776	30777.51
558.139	30971.4
558.502	31081.46
558.865	31220.66
559.228	31345.18
559.59	31615.91
559.953	31597.15
560.316	31832.17
560.679	31928.89
561.041	32087.98
561.404	32148.55
561.767	32376.34
562.129	32205.27
562.492	32631.02
562.854	32658.36
563.217	32738.36
563.579	32765.25
563.941	33111.01
564.304	33199.37
564.666	33403.88
565.028	33422.19
565.39	33621.05
565.753	33746.02
566.115	33948.73
566.477	34050.87
566.839	34016.97
567.201	34291.54
567.563	34317.08
567.925	34480.92
568.287	34543.96
568.648	34748.7
569.01	34930.62
569.372	35042.71
569.734	34993.9
570.095	35268.92
570.457	35442.02
570.819	35489.7
571.18	35501.68
571.542	35713.43
571.903	35884.95
572.265	35949.8
572.626	35916.36
572.987	36071.61
573.349	36236.8
573.71	36429.79
574.071	36312.73
574.432	36511.6
574.794	36655.55
575.155	36640.18
575.516	36752.04
575.877	36804.7
576.238	36806.96
576.599	37002.88
576.96	37001.53
577.32	37089.43
577.681	37264.35
578.042	37294.17
578.403	37415.75
578.763	37307.51
579.124	37415.53
579.485	37588.4
579.845	37671.57
580.206	37596.54
580.566	37726.03
580.927	37602.64
581.287	37979.58
581.648	37748.63
582.008	37974.83
582.368	37853.93
582.728	38013.25
583.089	37915.63
583.449	37983.65
583.809	37936.19
584.169	38103.87
584.529	38044.66
584.889	38312.91
585.249	38220.93
585.609	38021.84
585.969	38309.74
586.329	38144.55
586.688	38205.34
587.048	38287.14
587.408	38147.26
587.768	38230.2
588.127	38221.61
588.487	38166.02
588.846	38448.95
589.206	38244.21
589.565	38117.88
589.925	38387.03
590.284	38344.77
590.643	38330.98
591.003	38437.42
591.362	38503.41
591.721	38424.54
592.08	38502.28
592.44	38560.81
592.799	38554.71
593.158	38523.75
593.517	38517.19
593.876	38711.31
594.235	38554.93
594.593	38583.41
594.952	38639.45
595.311	38645.33
595.67	38716.28
596.029	38998.31
596.387	38917.18
596.746	39038.99
597.104	38714.48
597.463	38815.94
597.822	38952.66
598.18	38863.85
598.538	38805.1
598.897	39040.57
599.255	38857.75
599.613	39358.08
599.972	39269.26
600.33	39185.88
600.688	39070.63
601.046	39231.75
601.404	39473.55
601.762	39306.33
602.12	39580.89
602.478	39586.54
602.836	39519.43
603.194	39503.61
603.552	39565.08
603.91	39359.43
604.268	39648.01
604.625	39593.55
604.983	39744.51
605.341	39555.58
605.698	39769.36
606.056	39831.96
606.413	39798.29
606.771	40035.8
607.128	40071.95
607.485	39813.88
607.843	40011.62
608.2	40186.53
608.557	40308.56
608.914	40239.41
609.272	40508.1
609.629	40549.68
609.986	40631.49
610.343	40556.24
610.7	40743.12
611.057	40764.14
611.414	40632.39
611.771	40783.57
612.127	40932.95
612.484	41030.8
612.841	41095.43
613.198	40915.32
613.554	41174.52
613.911	41205.48
614.267	41314.63
614.624	41158.48
614.98	41339.94
615.337	41611.35
615.693	41428.3
616.05	41462.65
616.406	41662.42
616.762	41588.07
617.118	41580.62
617.475	41721.18
617.831	41861.29
618.187	41823.77
618.543	41813.6
618.899	42154.16
619.255	42065.57
619.611	42083.65
619.967	42156.87
620.323	42295.63
620.678	42191
621.034	42018.8
621.39	42146.25
621.746	42019.02
622.101	42597.99
622.457	42171.79
622.812	42349.86
623.168	42509.86
623.523	42446.36
623.879	42606.13
624.234	42381.27
624.589	42442.97
624.945	42519.12
625.3	42533.59
625.655	42701.04
626.01	42599.12
626.365	42688.38
626.72	42665.11
627.075	42701.72
627.43	42484.09
627.785	42570.65
628.14	42706.69
628.495	42735.84
628.85	42694.26
629.205	42553.7
629.559	42815.84
629.914	42668.04
630.269	42604.77
630.623	42637.54
630.978	42611.78
631.332	42666.69
631.687	42804.76
632.041	42592.11
632.396	42728.16
632.75	42487.71
633.104	42660.59
633.459	42498.78
633.813	42546.24
634.167	42491.78
634.521	42524.77
634.875	42536.3
635.229	42492
635.583	42245.23
635.937	42365.91
636.291	42344.21
636.645	42323.2
636.999	42214.27
637.352	42376.3
637.706	42167.04
638.06	42303.99
638.413	42296.08
638.767	42202.07
639.121	42123.2
639.474	42037.78
639.828	41993.26
640.181	42094.73
640.534	42119.81
640.888	42036.2
641.241	41796.66
641.594	41862.64
641.947	42030.32
642.301	41877.56
642.654	41856.54
643.007	41914.17
643.36	41854.96
643.713	41851.12
644.066	41921.17
644.419	41541.75
644.771	41378.14
645.124	41005.04
645.477	40997.13
645.83	40786.96
646.182	40647.31
646.535	40475.56
646.888	40626.29
647.24	40378.39
647.593	40446.41
647.945	40554.43
648.298	40431.72
648.65	40389.01
649.002	40163.7
649.355	40230.37
649.707	40335.68
650.059	40393.98
650.411	40910.35
650.763	41007.75
651.115	41338.59
651.467	41182.21
651.819	41225.82
652.171	41057.01
652.523	40923.91
652.875	41095.43
653.227	40980.18
653.578	41167.75
653.93	41127.29
654.282	41069.22
654.633	40829.9
654.985	40970.69
655.337	40876.91
655.688	41021.76
656.039	41096.79
656.391	40696.35
656.742	40753.97
657.094	40792.84
657.445	40866.74
657.796	40765.27
658.147	40612.96
658.498	40669.23
658.849	40810.69
659.2	40634.2
659.551	40606.18
659.902	40711.26
660.253	40541.1
660.604	40757.13
660.955	40621.77
661.306	40736.34
661.656	40565.05
662.007	40550.36
662.358	40639.17
662.708	40670.36
663.059	40622.9
663.409	40397.82
663.76	40664.26
664.11	40648.66
664.461	40596.69
664.811	40706.06
665.161	40641.21
665.511	40429.23
665.862	40508.78
666.212	40500.19
666.562	40623.8
666.912	40492.06
667.262	40446.18
667.612	40385.84
667.962	40553.52
668.312	40513.75
668.662	40538.61
669.011	40406.18
669.361	40473.53
669.711	40334.77
670.06	40227.66
670.41	40134.55
670.76	40138.85
671.109	40310.37
671.459	40264.04
671.808	40233.08
672.157	40252.52
672.507	40048.45
672.856	40066.98
673.205	40111.73
673.554	40191.27
673.904	40003.93
674.253	40335.9
674.602	40087.55
674.951	39527.34
675.3	39407.11
675.649	40081.22
675.998	40048.9
676.346	39979.53
676.695	40195.57
677.044	39884.16
677.393	40039.19
677.741	40046.42
678.09	39853.88
678.438	39897.5
678.787	39909.02
679.135	39885.29
679.484	39580.22
679.832	39770.72
680.181	39457.96
680.529	39698.18
680.877	39613.66
681.225	39457.96
681.573	39749.7
681.922	39480.11
682.27	39290.51
682.618	39286.89
682.966	39291.64
683.314	39309.71
683.661	39074.24
684.009	38915.83
684.357	38882.61
684.705	39002.15
685.053	38798.09
685.4	38874.47
685.748	38625.44
686.095	38592.22
686.443	38464.09
686.79	38540.7
687.138	38551.77
687.485	38530.98
687.832	38220.7
688.18	38439.23
688.527	38188.16
688.874	38113.81
689.221	38205.56
689.568	38025.45
689.915	38028.62
690.262	37939.36
690.609	37739.13
690.956	37757.89
691.303	37824.78
691.65	37575.3
691.997	37565.58
692.344	37375.53
692.69	37455.07
693.037	37398.8
693.383	36995.43
693.73	37239.94
694.077	36942.32
694.423	36965.6
694.769	36916.33
695.116	36799.05
695.462	36681.99
695.808	36594.31
696.155	36582.33
696.501	36519.51
696.847	36516.57
697.193	36243.13
697.539	36338.72
697.885	36105.28
698.231	36030.48
698.577	35898.28
698.923	35938.73
699.269	35641.34
699.614	35597.5
699.96	35557.05
700.306	35609.93
700.651	35414.68
700.997	35326.99
701.342	35256.49
701.688	35154.8
702.033	35002.94
702.379	34953.22
702.724	35016.04
703.069	34928.14
703.415	34587.35
703.76	34616.28
704.105	34580.57
704.45	34527.02
704.795	34386.23
705.14	34336.74
705.485	34366.12
705.83	34053.58
706.175	34160.25
706.52	34097.42
706.865	33948.95
707.209	33962.28
707.554	33715.96
707.899	33666.7
708.243	33687.49
708.588	33654.27
708.932	33317.1
709.277	33256.99
709.621	33331.57
709.966	33139.48
710.31	33228.52
710.654	32907.4
710.998	33009.99
711.342	33003.21
711.687	32972.71
712.031	32893.84
712.375	32643.22
712.719	32627.18
713.063	32665.37
713.407	32650
713.75	32440.97
714.094	32407.98
714.438	32397.13
714.782	32413.17
715.125	32165.95
715.469	32292.27
715.812	32115.33
716.156	32013.86
716.499	31971.38
716.843	31955.11
717.186	31784.94
717.53	31946.29
717.873	31843.24
718.216	31805.96
718.559	31683.47
718.902	31412.3
719.246	31490.94
719.589	31460.43
719.932	31304.73
720.275	31349.47
720.617	31175.01
720.96	31175.24
721.303	31199.65
721.646	31124.85
721.989	30954
722.331	31168.69
722.674	31117.61
723.016	31034.68
723.359	30844.85
723.701	30913.33
724.044	30758.53
724.386	30578.42
724.729	30744.74
725.071	30710.39
725.413	30650.73
725.755	30596.05
726.097	30533.22
726.439	30352.89
726.782	30328.26
727.124	30481.25
727.465	30166.9
727.807	30234.7
728.149	30159.45
728.491	30065.44
728.833	30153.57
729.175	29947.7
729.516	30113.35
729.858	29915.84
730.199	29966.68
730.541	30013.91
730.882	29878.32
731.224	29871.77
731.565	29673.81
731.906	29782.51
732.248	29557.66
732.589	29608.05
732.93	29517.88
733.271	29489.86
733.612	29545
733.953	29588.84
734.294	29281.28
734.635	29447.83
734.976	29422.74
735.317	29143.65
735.658	29127.84
735.999	29197.66
736.339	29175.52
736.68	29290.32
737.021	29083.09
737.361	28910.89
737.702	29074.5
738.042	28927.16
738.383	28875.64
738.723	28994.51
739.063	28823.89
739.404	28877.9
739.744	28718.36
740.084	28605.59
740.424	28762.87
740.764	28641.52
741.104	28689.2
741.444	28417.35
741.784	28396.78
742.124	28496.89
742.464	28442.43
742.804	28375.99
743.143	28317.46
743.483	28357.69
743.823	28121.99
744.162	28136.45
744.502	28272.49
744.841	28056.9
745.181	28107.98
745.52	28102.33
745.86	28093.74
746.199	27979.39
746.538	27832.28
746.877	27917.92
747.216	27858.26
747.556	27836.12
747.895	27847.19
748.234	27609.68
748.573	27569.91
748.911	27602.23
749.25	27442.23
749.589	27503.25
749.928	27484.26
750.267	27482.23
750.605	27329.01
750.944	27350.48
751.283	27293.76
751.621	27363.14
751.96	27095.57
752.298	27050.15
752.636	27106.65
752.975	26822.59
753.313	26845.64
753.651	27012.86
753.989	26737.62
754.327	26795.69
754.666	26491.07
755.004	26572.2
755.342	26750.27
755.679	26490.62
756.017	26484.74
756.355	26486.1
756.693	26338.08
