Data from hue_180_FLMS001491_00054.txt Node
Date: Tue Feb 07 16:47:10 GMT 2017
User: dcchb
Spectrometer: FLMS00149
Trigger mode: 0
Integration Time (sec): 2.000000E-2
Scans to average: 10
Electric dark correction enabled: true
Nonlinearity correction enabled: false
Boxcar width: 0
XAxis mode: Wavelengths
Number of Pixels in Spectrum: 2048
>>>>>Begin Spectral Data<<<<<
341.393	-4.84
341.776	-4.84
342.16	-4.84
342.543	-74.9
342.927	-51.17
343.31	-59.53
343.693	-69.25
344.077	-62.92
344.46	-54.79
344.843	-52.53
345.226	-32.87
345.61	-31.96
345.993	-19.08
346.376	-16.6
346.759	-0.78
347.142	33.35
347.525	39.22
347.908	50.3
348.291	64.08
348.674	97.98
349.057	115.38
349.44	125.77
349.823	131.2
350.206	158.09
350.588	207.35
350.971	209.84
351.354	216.84
351.737	244.19
352.119	240.8
352.502	261.36
352.884	281.93
353.267	274.02
353.65	290.97
354.032	308.14
354.414	283.96
354.797	317.86
355.179	296.16
355.562	340.46
355.944	321.7
356.326	310.63
356.709	326.45
357.091	316.95
357.473	343.62
357.855	334.36
358.238	307.24
358.62	344.75
359.002	339.78
359.384	347.69
359.766	325.54
360.148	330.29
360.53	338.88
360.912	328.03
361.294	346.56
361.676	330.74
362.057	336.62
362.439	309.72
362.821	312.44
363.203	331.64
363.584	313.57
363.966	316.05
364.348	314.02
364.729	309.72
365.111	308.82
365.493	333.45
365.874	327.8
366.256	319.89
366.637	291.87
367.019	317.18
367.4	316.5
367.781	306.33
368.163	297.75
368.544	311.08
368.925	308.14
369.306	294.13
369.688	287.58
370.069	312.89
370.45	320.12
370.831	297.75
371.212	288.71
371.593	289.84
371.974	319.44
372.355	301.14
372.736	316.5
373.117	328.93
373.498	299.78
373.879	311.98
374.26	307.01
374.641	307.69
375.021	301.14
375.402	313.11
375.783	315.37
376.163	324.64
376.544	330.51
376.925	331.87
377.305	334.58
377.686	326.45
378.066	318.31
378.447	334.36
378.827	319.44
379.208	340.23
379.588	296.39
379.968	314.24
380.349	329.16
380.729	330.29
381.109	333.23
381.489	320.57
381.87	328.71
382.25	328.71
382.63	318.08
383.01	343.85
383.39	346.33
383.77	303.17
384.15	333.23
384.53	334.58
384.91	332.55
385.29	321.7
385.67	355.82
386.049	336.84
386.429	355.37
386.809	343.39
387.189	348.82
387.568	343.39
387.948	340.01
388.328	345.2
388.707	356.05
389.087	368.03
389.466	345.88
389.846	351.3
390.225	359.21
390.605	358.54
390.984	342.94
391.363	375.48
391.743	374.81
392.122	368.48
392.501	368.25
392.881	373.45
393.26	370.74
393.639	361.02
394.018	361.7
394.397	396.27
394.776	388.14
395.155	384.98
395.534	352.43
395.913	383.62
396.292	392.21
396.671	376.16
397.05	388.82
397.429	386.56
397.808	377.29
398.186	398.08
398.565	392.21
398.944	388.82
399.323	398.53
399.701	393.79
400.08	400.12
400.458	399.89
400.837	406.44
401.215	397.4
401.594	401.47
401.972	415.94
402.351	412.77
402.729	436.95
403.107	421.36
403.486	405.31
403.864	430.4
404.242	420
404.62	441.25
404.999	418.42
405.377	455.48
405.755	453.67
406.133	428.36
406.511	442.83
406.889	436.05
407.267	451.41
407.645	460.68
408.023	453.22
408.401	460.23
408.779	460.23
409.156	499.55
409.534	475.14
409.912	474.46
410.29	504.52
410.667	507.23
411.045	506.1
411.422	494.13
411.8	544.07
412.178	524.63
412.555	515.37
412.933	538.64
413.31	563.95
413.687	547.68
414.065	554.91
414.442	583.61
414.819	561.92
415.197	565.99
415.574	582.71
415.951	603.73
416.328	596.27
416.705	609.6
417.082	612.09
417.46	620
417.837	627.46
418.214	645.76
418.591	634.23
418.967	634.69
419.344	668.58
419.721	660.45
420.098	643.5
420.475	670.84
420.852	685.31
421.228	713.78
421.605	719.66
421.982	734.35
422.358	716.04
422.735	735.25
423.111	726.66
423.488	765.08
423.864	759.88
424.241	775.02
424.617	776.6
424.994	783.61
425.37	803.95
425.746	800.33
426.123	813.44
426.499	823.83
426.875	832.87
427.251	873.32
427.627	852.31
428.003	893.66
428.379	900.67
428.756	874.68
429.132	880.56
429.507	901.12
429.883	914
430.259	952.64
430.635	965.07
431.011	954.9
431.387	964.17
431.763	1025.86
432.138	997.84
432.514	985.41
432.89	995.13
433.265	1015.92
433.641	1063.15
434.016	1085.97
434.392	1093.43
434.767	1121
435.143	1121.45
435.518	1148.8
435.894	1169.36
436.269	1172.75
436.644	1182.69
437.02	1196.71
437.395	1201.45
437.77	1227.67
438.145	1244.84
438.52	1303.37
438.895	1293.88
439.271	1278.06
439.646	1330.49
440.021	1374.78
440.395	1363.71
440.77	1335.23
441.145	1389.47
441.52	1414.33
441.895	1410.26
442.27	1432.41
442.645	1407.77
443.019	1460.43
443.394	1466.98
443.769	1478.28
444.143	1499.3
444.518	1497.71
444.892	1511.5
445.267	1528.45
445.641	1570.03
446.016	1559.18
446.39	1551.05
446.764	1572.29
447.139	1582.68
447.513	1607.99
447.887	1622.23
448.262	1611.38
448.636	1655
449.01	1662.68
449.384	1701.55
449.758	1690.93
450.132	1703.13
450.506	1727.99
450.88	1737.71
451.254	1722.57
451.628	1739.06
452.002	1772.74
452.376	1791.27
452.75	1831.04
453.123	1859.74
453.497	1859.74
453.871	1861.77
454.244	1877.82
454.618	1947.65
454.992	1948.1
455.365	1953.97
455.739	1972.5
456.112	2036.91
456.486	2028.32
456.859	2043.92
457.232	2092.5
457.606	2097.93
457.979	2116
458.352	2192.84
458.725	2229.9
459.099	2189.67
459.472	2257.24
459.845	2279.16
460.218	2311.25
460.591	2287.98
460.964	2340.63
461.337	2352.38
461.71	2418.82
462.083	2455.66
462.456	2482.32
462.829	2491.14
463.201	2507.18
463.574	2563.9
463.947	2565.94
464.32	2656.1
464.692	2638.02
465.065	2696.55
465.438	2726.38
465.81	2788.3
466.183	2793.05
466.555	2819.94
466.928	2872.37
467.3	2862.88
467.672	2916.89
468.045	3026.04
468.417	3034.62
468.789	3035.53
469.161	3115.07
469.534	3153.04
469.906	3204.79
470.278	3261.28
470.65	3334.05
471.022	3377.21
471.394	3421.51
471.766	3500.83
472.138	3533.37
472.51	3557.77
472.882	3665.12
473.253	3658.79
473.625	3762.06
473.997	3868.73
474.369	3859.69
474.74	3957.99
475.112	4026.24
475.484	4108.27
475.855	4152.11
476.227	4227.36
476.598	4306
476.97	4426
477.341	4492.66
477.713	4604.3
478.084	4569.27
478.455	4742.38
478.827	4826.89
479.198	4975.14
479.569	4969.26
479.94	5140.78
480.311	5194.34
480.682	5301.46
481.053	5437.95
481.424	5539.19
481.795	5605.86
482.166	5681.56
482.537	5769.24
482.908	5925.62
483.279	6002.46
483.65	6109.35
484.021	6232.05
484.391	6314.09
484.762	6383.46
485.133	6409
485.503	6568.54
485.874	6679.27
486.244	6815.32
486.615	6930.34
486.985	7011.24
487.356	7167.85
487.726	7211.24
488.097	7450.55
488.467	7465.24
488.837	7674.05
489.207	7717.21
489.578	7916.3
489.948	7929.64
490.318	8108.39
490.688	8155.84
491.058	8270.87
491.428	8400.36
491.798	8457.08
492.168	8621.82
492.538	8586.34
492.908	8732.78
493.278	8851.19
493.648	8842.38
494.017	9017.97
494.387	9087.8
494.757	9140
495.126	9304.06
495.496	9234.69
495.866	9319.43
496.235	9496.83
496.605	9584.96
496.974	9602.13
497.344	9666.77
497.713	9723.26
498.082	9891.62
498.452	9968.9
498.821	9952.41
499.19	9998.96
499.559	10092.97
499.928	10170.03
500.298	10103.14
500.667	10245.96
501.036	10285.51
501.405	10355.79
501.774	10364.37
502.143	10432.4
502.512	10447.54
502.88	10576.35
503.249	10563.01
503.618	10662.45
503.987	10632.16
504.356	10649.11
504.724	10666.97
505.093	10767.08
505.462	10793.52
505.83	10824.25
506.199	10899.95
506.567	11006.62
506.936	10962.1
507.304	11010.69
507.672	11151.7
508.041	11098.37
508.409	11226.72
508.777	11285.03
509.145	11283.22
509.514	11240.06
509.882	11264.01
510.25	11332.26
510.618	11287.06
510.986	11374.29
511.354	11426.72
511.722	11562.99
512.09	11548.98
512.458	11435.53
512.826	11559.6
513.193	11652.93
513.561	11644.34
513.929	11585.36
514.297	11763.89
514.664	11834.62
515.032	11742.19
515.4	11768.41
515.767	11855.18
516.135	11856.31
516.502	11784.68
516.869	11914.39
517.237	11932.47
517.604	11858.57
517.972	11888.4
518.339	11895.63
518.706	11862.41
519.073	11911.68
519.44	11909.87
519.808	11999.59
520.175	11928.18
520.542	12005.01
520.909	12066.48
521.276	12066.25
521.643	12187.38
522.009	12174.27
522.376	12139.24
522.743	12208.17
523.11	12225.34
523.477	12351.44
523.843	12255.85
524.21	12348.5
524.577	12314.83
524.943	12294.49
525.31	12353.47
525.676	12404.55
526.043	12394.6
526.409	12366.58
526.776	12470.53
527.142	12448.39
527.508	12446.13
527.874	12423.53
528.241	12495.84
528.607	12385.56
528.973	12472.12
529.339	12413.13
529.705	12411.33
530.071	12415.39
530.437	12368.39
530.803	12444.55
531.169	12410.2
531.535	12348.5
531.901	12412.68
532.267	12387.82
532.632	12314.83
532.998	12380.14
533.364	12309.86
533.73	12284.32
534.095	12363.87
534.461	12318
534.826	12253.82
535.192	12205.46
535.557	12157.55
535.923	12156.19
536.288	12191.44
536.653	12140.37
537.019	11988.74
537.384	12049.98
537.749	12049.98
538.114	11984.67
538.479	11950.1
538.845	11898.35
539.21	11880.27
539.575	11806.37
539.94	11788.52
540.305	11834.62
540.67	11740.16
541.034	11655.41
541.399	11673.27
541.764	11644.34
542.129	11604.79
542.494	11563.21
542.858	11490.22
543.223	11516.43
543.587	11453.84
543.952	11432.59
544.316	11384.23
544.681	11261.3
545.045	11239.38
545.41	11353.5
545.774	11165.48
546.138	11164.13
546.503	11140.17
546.867	11047.75
547.231	11048.42
547.595	11085.94
547.959	11024.47
548.324	10962.55
548.688	10968.2
549.052	10926.17
549.416	10829.67
549.779	10833.74
550.143	10778.6
550.507	10753.52
550.871	10758.71
551.235	10714.65
551.599	10656.12
551.962	10609.34
552.326	10610.24
552.689	10579.28
553.053	10515.78
553.417	10421.1
553.78	10524.6
554.143	10389.23
554.507	10434.2
554.87	10459.29
555.234	10422
555.597	10299.97
555.96	10316.01
556.323	10334.32
556.686	10264.49
557.05	10279.4
557.413	10288.22
557.776	10250.93
558.139	10234.66
558.502	10271.72
558.865	10215.9
559.228	10203.47
559.59	10172.29
559.953	10174.1
560.316	10191.5
560.679	10169.8
561.041	10191.95
561.404	10161.44
561.767	10234.89
562.129	10144.95
562.492	10122.35
562.854	10111.27
563.217	10095
563.579	10037.38
563.941	10107.88
564.304	10191.05
564.666	10121.67
565.028	10104.27
565.39	10046.87
565.753	10138.17
566.115	10136.81
566.477	10117.6
566.839	10139.75
567.201	10142.69
567.563	10094.32
567.925	10117.15
568.287	10183.14
568.648	10164.61
569.01	10189.92
569.372	10164.15
569.734	10165.74
570.095	10159.86
570.457	10223.36
570.819	10141.56
571.18	10130.26
571.542	10211.84
571.903	10247.77
572.265	10166.87
572.626	10208.9
572.987	10157.15
573.349	10170.71
573.71	10265.39
574.071	10214.55
574.432	10224.72
574.794	10272.17
575.155	10195.11
575.516	10203.02
575.877	10230.37
576.238	10168.67
576.599	10269.46
576.96	10267.88
577.32	10212.74
577.681	10219.75
578.042	10224.72
578.403	10225.85
578.763	10210.71
579.124	10261.33
579.485	10282.12
579.845	10266.98
580.206	10229.01
580.566	10190.37
580.927	10159.18
581.287	10201.21
581.648	10200.08
582.008	10246.19
582.368	10236.47
582.728	10155.34
583.089	10208.22
583.449	10205.06
583.809	10193.53
584.169	10180.88
584.529	10089.81
584.889	10120.99
585.249	10103.59
585.609	10101.1
585.969	10166.87
586.329	10080.77
586.688	10075.34
587.048	10053.65
587.408	10091.39
587.768	10035.34
588.127	10039.41
588.487	10029.24
588.846	10079.18
589.206	10017.72
589.565	9940.43
589.925	10019.52
590.284	9989.02
590.643	10011.62
591.003	10001.67
591.362	10046.64
591.721	9953.09
592.08	10007.77
592.44	9980.88
592.799	10032.18
593.158	9956.93
593.517	9962.8
593.876	9911.5
594.235	9972.97
594.593	9933.43
594.952	9931.39
595.311	9905.63
595.67	9972.52
596.029	9925.52
596.387	9974.33
596.746	9971.84
597.104	9862.01
597.463	9874.44
597.822	9895.46
598.18	9929.13
598.538	9834.67
598.897	9979.75
599.255	9766.42
599.613	9928.68
599.972	9818.85
600.33	9900.21
600.688	9771.62
601.046	9862.69
601.404	9868.34
601.762	9852.52
602.12	9894.78
602.478	9853.43
602.836	9798.74
603.194	9812.75
603.552	9868.57
603.91	9790.6
604.268	9862.47
604.625	9787.21
604.983	9814.33
605.341	9764.84
605.698	9830.83
606.056	9770.04
606.413	9814.11
606.771	9861.34
607.128	9763.03
607.485	9812.75
607.843	9777.95
608.2	9780.21
608.557	9861.34
608.914	9846.2
609.272	9898.4
609.629	9780.21
609.986	9899.53
610.343	9880.09
610.7	9851.17
611.057	9845.97
611.414	9958.51
611.771	9839.87
612.127	9884.16
612.484	9890.04
612.841	9948.11
613.198	9890.94
613.554	9899.3
613.911	9971.84
614.267	9920.77
614.624	9930.49
614.98	9969.81
615.337	9961
615.693	9982.46
616.05	9933.43
616.406	9962.58
616.762	9984.5
617.118	9890.26
617.475	10020.88
617.831	10041.45
618.187	9947.21
618.543	10022.91
618.899	10084.61
619.255	9999.19
619.611	10027.89
619.967	10125.74
620.323	9973.42
620.678	10050.71
621.034	10064.95
621.39	10000.09
621.746	9978.85
622.101	10087.09
622.457	10012.52
622.812	10064.27
623.168	10065.85
623.523	10102.91
623.879	10055.23
624.234	9985.18
624.589	9989.24
624.945	10023.59
625.3	10058.62
625.655	10028.79
626.01	9990.37
626.365	10064.72
626.72	10057.49
627.075	10050.03
627.43	10006.19
627.785	10009.81
628.14	10020.2
628.495	10025.4
628.85	9970.71
629.205	10004.84
629.559	9964.16
629.914	9945.63
630.269	10026.76
630.623	9984.05
630.978	9931.62
631.332	9922.13
631.687	9928.45
632.041	9941.33
632.396	9900.21
632.75	9848.91
633.104	9850.49
633.459	9883.48
633.813	9861.34
634.167	9854.11
634.521	9833.77
634.875	9889.13
635.229	9842.81
635.583	9767.78
635.937	9730.94
636.291	9786.76
636.645	9766.42
636.999	9714.22
637.352	9778.18
637.706	9700.89
638.06	9741.11
638.413	9716.03
638.767	9667.22
639.121	9683.26
639.474	9642.81
639.828	9650.72
640.181	9652.53
640.534	9698.86
640.888	9690.72
641.241	9521.68
641.594	9614.56
641.947	9589.03
642.301	9574.56
642.654	9583.38
643.007	9585.41
643.36	9556.49
643.713	9551.97
644.066	9643.72
644.419	9541.57
644.771	9532.98
645.124	9393.33
645.477	9414.12
645.83	9363.72
646.182	9309.03
646.535	9238.08
646.888	9347.23
647.24	9174.12
647.593	9205.53
647.945	9262.71
648.298	9214.35
648.65	9170.73
649.002	9187
649.355	9243.05
649.707	9222.03
650.059	9323.72
650.411	9366.66
650.763	9432.2
651.115	9443.49
651.467	9427.45
651.819	9430.39
652.171	9470.16
652.523	9373.44
652.875	9476.04
653.227	9411.41
653.578	9496.15
653.93	9434.68
654.282	9428.35
654.633	9403.95
654.985	9362.37
655.337	9407.79
655.688	9438.97
656.039	9522.14
656.391	9441.69
656.742	9428.35
657.094	9390.39
657.445	9414.34
657.796	9432.87
658.147	9426.09
658.498	9442.59
658.849	9465.19
659.2	9413.44
659.551	9456.6
659.902	9475.13
660.253	9486.21
660.604	9415.02
660.955	9434
661.306	9460.9
661.656	9422.03
662.007	9455.92
662.358	9480.1
662.708	9459.77
663.059	9476.26
663.409	9421.12
663.76	9448.24
664.11	9463.38
664.461	9496.15
664.811	9444.62
665.161	9456.38
665.511	9474.68
665.862	9524.4
666.212	9361.91
666.562	9521.46
666.912	9441.69
667.262	9504.06
667.612	9479.2
667.962	9474.23
668.312	9437.17
668.662	9507.67
669.011	9495.92
669.361	9436.49
669.711	9560.78
670.06	9517.84
670.41	9477.62
670.76	9435.36
671.109	9460.44
671.459	9465.87
671.808	9432.87
672.157	9459.31
672.507	9366.66
672.856	9354.23
673.205	9437.85
673.554	9441.01
673.904	9367.56
674.253	9457.73
674.602	9339.99
674.951	9286.89
675.3	9237.62
675.649	9339.99
675.998	9267.23
676.346	9396.94
676.695	9387
677.044	9344.29
677.393	9287.79
677.741	9311.29
678.09	9269.94
678.438	9283.27
678.787	9324.18
679.135	9316.04
679.484	9263.39
679.832	9233.1
680.181	9234.91
680.529	9207.12
680.877	9151.75
681.225	9115.14
681.573	9177.96
681.922	9150.62
682.27	9123.73
682.618	9103.39
682.966	9068.82
683.314	9095.48
683.661	9062.26
684.009	9006.22
684.357	9019.1
684.705	8970.51
685.053	8980
685.4	8954.69
685.748	8966.45
686.095	8878.99
686.443	8807.81
686.79	8836.96
687.138	8916.05
687.485	8862.49
687.832	8810.06
688.18	8800.57
688.527	8785.88
688.874	8693.23
689.221	8730.52
689.568	8716.96
689.915	8669.28
690.262	8660.69
690.609	8621.82
690.956	8636.06
691.303	8547.7
691.65	8500.02
691.997	8524.65
692.344	8472.67
692.69	8529.17
693.037	8466.12
693.383	8352.9
693.73	8370.3
694.077	8342.51
694.423	8319.23
694.769	8272.9
695.116	8262.96
695.462	8250.98
695.808	8206.69
696.155	8230.19
696.501	8196.75
696.847	8195.17
697.193	8053.47
697.539	8093.02
697.885	8063.42
698.231	8005.11
698.577	7973.48
698.923	8022.97
699.269	7946.81
699.614	7859.13
699.96	7853.48
700.306	7839.24
700.651	7808.51
700.997	7768.51
701.342	7748.85
701.688	7760.15
702.033	7711.34
702.379	7656.2
702.724	7660.94
703.069	7648.74
703.415	7588.85
703.76	7621.85
704.105	7581.4
704.45	7493.04
704.795	7484.68
705.14	7485.81
705.485	7438.35
705.83	7381.63
706.175	7467.28
706.52	7365.58
706.865	7366.26
707.209	7312.93
707.554	7253.27
707.899	7298.01
708.243	7314.74
708.588	7254.63
708.932	7257.79
709.277	7198.13
709.621	7206.04
709.966	7082.43
710.31	7142.31
710.654	7087.17
710.998	7079.26
711.342	7074.52
711.687	7058.02
712.031	6995.2
712.375	7041.98
712.719	6996.33
713.063	7025.48
713.407	6998.36
713.75	7001.52
714.094	6965.82
714.438	6959.04
714.782	6902.77
715.125	6938.93
715.469	6909.78
715.812	6932.37
716.156	6893.05
716.499	6890.79
716.843	6877.23
717.186	6783.45
717.53	6810.34
717.873	6828.2
718.216	6846.5
718.559	6777.8
718.902	6832.49
719.246	6784.81
719.589	6769.67
719.932	6713.17
720.275	6712.94
720.617	6732.61
720.96	6700.29
721.303	6761.31
721.646	6726.28
721.989	6672.49
722.331	6714.75
722.674	6669.1
723.016	6712.27
723.359	6676.79
723.701	6675.43
724.044	6656.22
724.386	6627.3
724.729	6632.04
725.071	6592.04
725.413	6628.88
725.755	6639.27
726.097	6641.76
726.439	6546.17
726.782	6567.41
727.124	6629.11
727.465	6571.25
727.807	6578.03
728.149	6557.69
728.491	6544.36
728.833	6597.02
729.175	6541.42
729.516	6579.16
729.858	6580.29
730.199	6616.22
730.541	6573.51
730.882	6533.74
731.224	6562.67
731.565	6563.12
731.906	6585.94
732.248	6609.67
732.589	6549.11
732.93	6523.12
733.271	6553.63
733.612	6546.4
733.953	6593.4
734.294	6532.38
734.635	6517.92
734.976	6609.44
735.317	6546.17
735.658	6558.15
735.999	6561.99
736.339	6565.38
736.68	6640.86
737.021	6620.97
737.361	6576.68
737.702	6530.8
738.042	6583.23
738.383	6556.34
738.723	6594.98
739.063	6637.69
739.404	6658.26
739.744	6628.2
740.084	6661.19
740.424	6654.42
740.764	6605.15
741.104	6637.24
741.444	6634.75
741.784	6627.3
742.124	6781.42
742.464	6760.85
742.804	6689.89
743.143	6739.38
743.483	6757.01
743.823	6775.32
744.162	6793.17
744.502	6837.24
744.841	6916.56
745.181	6913.62
745.52	6899.61
745.86	6941.41
746.199	7017.34
746.538	6990.9
746.877	7063.22
747.216	7111.58
747.556	7116.78
747.895	7186.6
748.234	7192.25
748.573	7269.54
748.911	7316.77
749.25	7352.7
749.589	7432.7
749.928	7460.27
750.267	7592.47
750.605	7645.12
750.944	7673.82
751.283	7699.81
751.621	7858.9
751.96	7921.5
752.298	7990.2
752.636	8069.75
752.975	8184.77
753.313	8183.41
753.651	8386.57
753.989	8383.64
754.327	8502.73
754.666	8573.24
755.004	8799.67
755.342	8864.07
755.679	8998.08
756.017	9089.15
756.355	9237.85
756.693	9327.34
757.031	9487.34
757.368	9565.3
757.706	9751.96
758.044	9886.87
758.381	10061.56
758.719	10157.37
759.056	10373.19
759.394	10506.07
759.731	10574.09
760.068	10718.72
760.405	10925.72
760.743	11017.92
761.08	11268.08
761.417	11363.9
761.754	11584.68
762.091	11654.06
762.428	11864.9
762.765	12050.21
763.102	12198.68
763.438	12279.8
763.775	12447.71
764.112	12692
