Data from hue_220_FLMS001491_00086.txt Node
Date: Tue Feb 07 16:40:04 GMT 2017
User: dcchb
Spectrometer: FLMS00149
Trigger mode: 0
Integration Time (sec): 2.000000E-2
Scans to average: 10
Electric dark correction enabled: true
Nonlinearity correction enabled: false
Boxcar width: 0
XAxis mode: Wavelengths
Number of Pixels in Spectrum: 2048
>>>>>Begin Spectral Data<<<<<
341.393	5.72
341.776	5.72
342.16	5.72
342.543	-46.48
342.927	-57.78
343.31	-80.61
343.693	-56.88
344.077	-72.47
344.46	-45.13
344.843	-58.68
345.226	-39.02
345.61	-38.35
345.993	-20.72
346.376	-25.69
346.759	1.88
347.142	3.46
347.525	40.75
347.908	78.26
348.291	88.43
348.674	87.53
349.057	137.24
349.44	144.25
349.823	155.09
350.206	194.19
350.588	207.97
350.971	220.4
351.354	224.25
351.737	240.74
352.119	257.69
352.502	257.01
352.884	276.45
353.267	307.41
353.65	280.29
354.032	293.85
354.414	336.33
354.797	337.46
355.179	328.65
355.562	349.21
355.944	320.06
356.326	325.94
356.709	321.42
357.091	332.49
357.473	351.47
357.855	329.78
358.238	337.01
358.62	339.04
359.002	330.01
359.384	332.04
359.766	351.93
360.148	355.09
360.53	332.49
360.912	334.3
361.294	351.25
361.676	332.27
362.057	347.41
362.439	332.94
362.821	324.13
363.203	355.09
363.584	324.13
363.966	329.33
364.348	327.52
364.729	317.8
365.111	343.79
365.493	328.42
365.874	322.1
366.256	319.84
366.637	306.5
367.019	319.84
367.4	308.09
367.781	340.85
368.163	309.44
368.544	323.45
368.925	311.93
369.306	330.46
369.688	318.48
370.069	308.54
370.45	330.01
370.831	306.28
371.212	326.84
371.593	328.2
371.974	322.1
372.355	321.64
372.736	313.28
373.117	314.19
373.498	300.18
373.879	326.39
374.26	337.01
374.641	321.87
375.021	324.36
375.402	317.35
375.783	304.24
376.163	324.58
376.544	317.8
376.925	320.06
377.305	363.9
377.686	326.62
378.066	336.33
378.447	315.32
378.827	329.55
379.208	325.49
379.588	331.14
379.968	343.56
380.349	336.78
380.729	336.11
381.109	350.8
381.489	343.79
381.87	346.05
382.25	332.72
382.63	321.19
383.01	347.18
383.39	344.24
383.77	354.19
384.15	372.04
384.53	365.48
384.91	365.26
385.29	346.28
385.67	363
386.049	347.41
386.429	339.04
386.809	358.25
387.189	366.84
387.568	341.76
387.948	339.95
388.328	363
388.707	348.99
389.087	346.28
389.466	356.22
389.846	359.16
390.225	372.94
390.605	365.26
390.984	353.51
391.363	379.04
391.743	370.46
392.122	367.07
392.501	396.44
392.881	383.79
393.26	370.91
393.639	392.83
394.018	376.33
394.397	388.99
394.776	382.43
395.155	393.96
395.534	391.02
395.913	400.06
396.292	420.17
396.671	408.42
397.05	377.01
397.429	398.25
397.808	415.88
398.186	395.77
398.565	410.91
398.944	400.96
399.323	396.67
399.701	419.27
400.08	403.9
400.458	422.21
400.837	412.49
401.215	418.36
401.594	426.5
401.972	412.72
402.351	421.08
402.729	415.43
403.107	441.64
403.486	438.48
403.864	427.4
404.242	448.87
404.62	451.58
404.999	456.78
405.377	457.01
405.755	448.65
406.133	469.89
406.511	460.85
406.889	481.41
407.267	489.1
407.645	471.47
408.023	494.29
408.401	485.26
408.779	494.75
409.156	483.22
409.534	493.62
409.912	515.54
410.29	528.64
410.667	534.29
411.045	513.73
411.422	535.65
411.8	517.35
412.178	527.74
412.555	561.41
412.933	569.55
413.31	578.59
413.687	586.72
414.065	570.23
414.442	599.38
414.819	610.45
415.197	614.07
415.574	593.73
415.951	649.32
416.328	628.98
416.705	636.66
417.082	655.65
417.46	672.37
417.837	656.1
418.214	668.98
418.591	681.86
418.967	703.78
419.344	701.97
419.721	709.43
420.098	703.55
420.475	709.2
420.852	737.68
421.228	756.43
421.605	745.14
421.982	772.48
422.358	789.43
422.735	790.56
423.111	798.47
423.488	834.4
423.864	816.55
424.241	859.26
424.617	854.74
424.994	865.58
425.37	901.74
425.746	871.01
426.123	906.26
426.499	906.94
426.875	927.5
427.251	949.42
427.627	971.34
428.003	953.72
428.379	981.06
428.756	986.26
429.132	991.46
429.507	1027.39
429.883	998.24
430.259	1046.82
430.635	1040.5
431.011	1046.14
431.387	1086.37
431.763	1091.34
432.138	1109.87
432.514	1142.87
432.89	1150.32
433.265	1172.24
433.641	1185.58
434.016	1173.83
434.392	1218.12
434.767	1249.08
435.143	1256.53
435.518	1261.28
435.894	1275.29
436.269	1324.78
436.644	1351.9
437.02	1355.52
437.395	1366.59
437.77	1387.38
438.145	1392.8
438.52	1422.18
438.895	1465.34
439.271	1474.38
439.646	1502.63
440.021	1509.41
440.395	1546.7
440.77	1555.28
441.145	1564.1
441.52	1602.74
441.895	1606.58
442.27	1629.86
442.645	1629.63
443.019	1659.91
443.394	1657.88
443.769	1673.92
444.143	1657.43
444.518	1712.12
444.892	1699.69
445.267	1719.57
445.641	1763.87
446.016	1765.22
446.39	1800.02
446.764	1772.68
447.139	1770.19
447.513	1833.92
447.887	1824.2
448.262	1830.76
448.636	1834.6
449.01	1876.41
449.384	1892.45
449.758	1916.4
450.132	1931.55
450.506	1929.29
450.88	1957.31
451.254	1951.66
451.628	1979.68
452.002	1988.72
452.376	2026.01
452.75	1983.75
453.123	2009.06
453.497	2068.04
453.871	2073.01
454.244	2119.79
454.618	2136.51
454.992	2158.43
455.365	2157.75
455.739	2220.13
456.112	2206.57
456.486	2260.35
456.859	2259.67
457.232	2301.25
457.606	2314.81
457.979	2350.29
458.352	2355.26
458.725	2429.16
459.099	2392.55
459.472	2461.25
459.845	2458.54
460.218	2467.58
460.591	2514.13
460.964	2521.13
461.337	2561.81
461.71	2615.14
462.083	2635.26
462.456	2615.14
462.829	2646.1
463.201	2688.81
463.574	2705.08
463.947	2748.92
464.32	2767.68
464.692	2817.62
465.065	2793.44
465.438	2883.38
465.81	2894.68
466.183	2905.08
466.555	2992.76
466.928	2984.4
467.3	2984.62
467.672	3023.04
468.045	3107.33
468.417	3110.95
468.789	3124.06
469.161	3154.11
469.534	3225.07
469.906	3306.42
470.278	3287.89
470.65	3317.95
471.022	3404.95
471.394	3442.47
471.766	3439.53
472.138	3487.21
472.51	3525.63
472.882	3569.24
473.253	3654.44
473.625	3672.74
473.997	3715
474.369	3770.82
474.74	3825.96
475.112	3870.48
475.484	3916.8
475.855	3970.59
476.227	3934.43
476.598	4059.4
476.97	4079.74
477.341	4214.42
477.713	4241.09
478.084	4259.62
478.455	4361.54
478.827	4403.34
479.198	4526.05
479.569	4466.39
479.94	4656.22
480.311	4612.83
480.682	4700.51
481.053	4860.06
481.424	4859.6
481.795	4948.87
482.166	4990.9
482.537	5014.85
482.908	5101.86
483.279	5190.44
483.65	5189.54
484.021	5331
484.391	5382.3
484.762	5405.8
485.133	5453.71
485.503	5537.33
485.874	5605.8
486.244	5613.48
486.615	5697.77
486.985	5796.98
487.356	5897.99
487.726	5921.72
488.097	6025
488.467	6034.26
488.837	6164.43
489.207	6222.28
489.578	6234.03
489.948	6342.28
490.318	6411.88
490.688	6346.8
491.058	6462.95
491.428	6549.28
491.798	6577.3
492.168	6696.84
492.538	6683.06
492.908	6776.62
493.278	6853
493.648	6839.21
494.017	6927.12
494.387	6991.3
494.757	7017.29
495.126	7136.61
495.496	7111.97
495.866	7087.12
496.235	7162.14
496.605	7224.51
496.974	7201.24
497.344	7307.22
497.713	7346.77
498.082	7359.65
498.452	7445.98
498.821	7499.76
499.19	7397.84
499.559	7541.57
499.928	7586.76
500.298	7582.47
500.667	7580.44
501.036	7575.92
501.405	7702.69
501.774	7581.11
502.143	7695.24
502.512	7670.83
502.88	7769.81
503.249	7748.79
503.618	7767.55
503.987	7793.54
504.356	7922.35
504.724	7871.95
505.093	7906.08
505.462	7895.46
505.83	7936.81
506.199	7996.92
506.567	8074.43
506.936	8063.81
507.304	8038.96
507.672	8125.73
508.041	8129.8
508.409	8195.34
508.777	8187.43
509.145	8231.72
509.514	8182.45
509.882	8228.33
510.25	8204.6
510.618	8210.7
510.986	8248.22
511.354	8276.69
511.722	8328.44
512.09	8345.84
512.458	8289.12
512.826	8356.01
513.193	8390.36
513.561	8348.1
513.929	8478.27
514.297	8524.59
514.664	8471.71
515.032	8440.98
515.4	8527.76
515.767	8532.05
516.135	8481.66
516.502	8439.62
516.869	8607.08
517.237	8564.14
517.604	8513.97
517.972	8597.13
518.339	8594.65
518.706	8551.94
519.073	8506.97
519.44	8600.3
519.808	8618.38
520.175	8605.95
520.542	8650.46
520.909	8594.65
521.276	8658.15
521.643	8637.36
522.009	8697.92
522.376	8647.98
522.743	8712.38
523.11	8728.2
523.477	8757.81
523.843	8745.83
524.21	8843.23
524.577	8903.34
524.943	8838.26
525.31	8821.76
525.676	8852.95
526.043	8833.28
526.409	8872.83
526.776	8898.82
527.142	8866.96
527.508	8870.57
527.874	8918.71
528.241	8929.1
528.607	8869.44
528.973	8914.86
529.339	8860.63
529.705	8919.16
530.071	8887.75
530.437	8929.33
530.803	8934.07
531.169	8941.3
531.535	8842.32
531.901	8908.76
532.267	8799.16
532.632	8805.26
532.998	8852.04
533.364	8913.51
533.73	8844.81
534.095	8889.33
534.461	8848.65
534.826	8914.41
535.192	8866.05
535.557	8850.91
535.923	8842.32
536.288	8817.69
536.653	8818.14
537.019	8760.29
537.384	8768.88
537.749	8730.24
538.114	8734.76
538.479	8704.02
538.845	8722.1
539.21	8646.85
539.575	8617.92
539.94	8626.74
540.305	8700.63
540.67	8593.74
541.034	8592.16
541.399	8584.7
541.764	8562.33
542.129	8537.93
542.494	8501.77
542.858	8488.43
543.223	8480.53
543.587	8463.58
543.952	8455.22
544.316	8423.35
544.681	8395.56
545.045	8366.18
545.41	8387.19
545.774	8335.9
546.138	8336.35
546.503	8310.13
546.867	8317.59
547.231	8365.73
547.595	8276.69
547.959	8222.23
548.324	8207.76
548.688	8291.6
549.052	8231.04
549.416	8182.23
549.779	8170.48
550.143	8136.35
550.507	8188.1
550.871	8081.89
551.235	8023.36
551.599	8075.56
551.962	8015.45
552.326	7997.37
552.689	8082.34
553.053	7955.57
553.417	7952.86
553.78	8047.32
554.143	7952.86
554.507	7924.61
554.87	7960.77
555.234	7998.05
555.597	7858.85
555.96	7908.11
556.323	7847.77
556.686	7885.96
557.05	7885.74
557.413	7843.71
557.776	7833.54
558.139	7895.68
558.502	7834.44
558.865	7849.81
559.228	7848.9
559.59	7912.18
559.953	7797.83
560.316	7903.82
560.679	7879.19
561.041	7885.29
561.404	7864.5
561.767	7899.75
562.129	7859.75
562.492	7877.6
562.854	7931.39
563.217	7842.58
563.579	7901.56
563.941	7908.34
564.304	7919.18
564.666	7941.56
565.028	7886.64
565.39	7898.62
565.753	7921.67
566.115	7975.91
566.477	7974.32
566.839	7950.6
567.201	7971.61
567.563	7962.8
567.925	8054.1
568.287	8052.51
568.648	7958.28
569.01	8044.38
569.372	8041.89
569.734	8049.8
570.095	8077.37
570.457	8087.99
570.819	8111.04
571.18	8058.62
571.542	8124.15
571.903	8075.79
572.265	8135.22
572.626	8146.07
572.987	8128.67
573.349	8153.3
573.71	8243.47
574.071	8186.75
574.432	8168.22
574.794	8246.63
575.155	8281.21
575.516	8278.95
575.877	8229.01
576.238	8268.33
576.599	8332.05
576.96	8335.44
577.32	8342.68
577.681	8336.8
578.042	8367.76
578.403	8337.93
578.763	8369.34
579.124	8434.43
579.485	8434.65
579.845	8443.24
580.206	8426.29
580.566	8480.07
580.927	8509.23
581.287	8474.42
581.648	8479.62
582.008	8523.91
582.368	8486.63
582.728	8526.85
583.089	8506.51
583.449	8580.18
583.809	8586.06
584.169	8621.54
584.529	8548.77
584.889	8657.7
585.249	8624.7
585.609	8564.14
585.969	8664.02
586.329	8678.03
586.688	8666.96
587.048	8700.18
587.408	8671.03
587.768	8662.67
588.127	8672.84
588.487	8673.97
588.846	8782.21
589.206	8764.36
589.565	8706.73
589.925	8827.18
590.284	8756
590.643	8770.24
591.003	8809.1
591.362	8878.93
591.721	8840.06
592.08	8887.75
592.44	8857.46
592.799	8872.83
593.158	8892.94
593.517	8886.16
593.876	8930.46
594.235	8964.81
594.593	8905.37
594.952	8883.45
595.311	8919.84
595.67	8920.74
596.029	9013.39
596.387	9032.83
596.746	8942.43
597.104	8943.79
597.463	8942.89
597.822	8998.93
598.18	8924.81
598.538	9007.07
598.897	9041.64
599.255	8944.92
599.613	9072.6
599.972	9023.56
600.33	9005.71
600.688	8930.23
601.046	8994.86
601.404	9042.32
601.762	9063.11
602.12	9130.23
602.478	9064.92
602.836	9084.58
603.194	9035.54
603.552	9095.42
603.91	9054.07
604.268	9033.96
604.625	9049.78
604.983	9032.15
605.341	9064.24
605.698	9069.21
606.056	9160.96
606.413	9141.07
606.771	9120.96
607.128	9167.51
607.485	9076.89
607.843	9112.6
608.2	9186.5
608.557	9148.76
608.914	9117.35
609.272	9214.29
609.629	9145.14
609.986	9271.47
610.343	9156.44
610.7	9194.63
611.057	9226.72
611.414	9227.17
611.771	9267.4
612.127	9275.98
612.484	9227.4
612.841	9328.86
613.198	9240.96
613.554	9248.64
613.911	9360.73
614.267	9387.39
614.624	9329.77
614.98	9335.19
615.337	9381.97
615.693	9326.61
616.05	9364.8
616.406	9409.54
616.762	9356.43
617.118	9356.43
617.475	9351.69
617.831	9330.9
618.187	9413.61
618.543	9320.73
618.899	9436.21
619.255	9421.07
619.611	9388.3
619.967	9475.98
620.323	9444.12
620.678	9398.24
621.034	9383.55
621.39	9425.36
621.746	9462.19
622.101	9466.04
622.457	9353.72
622.812	9413.83
623.168	9413.16
623.523	9431.69
623.879	9489.31
624.234	9394.17
624.589	9475.08
624.945	9441.4
625.3	9451.57
625.655	9410.67
626.01	9436.43
626.365	9410.22
626.72	9478.69
627.075	9418.35
627.43	9366.83
627.785	9399.15
628.14	9466.94
628.495	9413.16
628.85	9393.95
629.205	9389.43
629.559	9392.14
629.914	9390.33
630.269	9374.06
630.623	9348.07
630.978	9400.95
631.332	9376.77
631.687	9367.06
632.041	9334.06
632.396	9355.3
632.75	9301.97
633.104	9317.34
633.459	9224.46
633.813	9230.11
634.167	9235.76
634.521	9228.98
634.875	9285.7
635.229	9226.95
635.583	9175.87
635.937	9182.43
636.291	9205.93
636.645	9257
636.999	9159.83
637.352	9215.87
637.706	9125.25
638.06	9137.01
638.413	9177.46
638.767	9123.67
639.121	9119.83
639.474	9129.32
639.828	9138.36
640.181	9069.89
640.534	9103.11
640.888	9030.79
641.241	9008.42
641.594	9035.31
641.947	9133.16
642.301	9040.28
642.654	8973.39
643.007	8989.44
643.36	9046.39
643.713	8951.93
644.066	9017.01
644.419	8993.51
644.771	8933.62
645.124	8850.46
645.477	8901.76
645.83	8806.39
646.182	8739.28
646.535	8781.99
646.888	8748.32
647.24	8721.42
647.593	8739.05
647.945	8703.34
648.298	8692.27
648.65	8723.91
649.002	8626.74
649.355	8727.52
649.707	8748.09
650.059	8772.95
650.411	8776.34
650.763	8863.11
651.115	8992.15
651.467	8884.13
651.819	8944.92
652.171	8889.78
652.523	8841.65
652.875	8848.43
653.227	8792.61
653.578	8896.33
653.93	8903.79
654.282	8829.67
654.633	8840.74
654.985	8809.56
655.337	8841.42
655.688	8954.19
656.039	8856.11
656.391	8860.18
656.742	8850.69
657.094	8894.3
657.445	8951.47
657.796	8849.78
658.147	8854.98
658.498	8865.6
658.849	8912.38
659.2	8952.83
659.551	8915.09
659.902	8984.02
660.253	8880.74
660.604	8912.6
660.955	8848.65
661.306	8935.43
661.656	8902.66
662.007	8850.46
662.358	8924.13
662.708	8976.33
663.059	8966.16
663.409	8857.69
663.76	9002.32
664.11	8936.56
664.461	8973.39
664.811	8917.58
665.161	8957.58
665.511	8892.94
665.862	9049.78
666.212	8981.08
666.562	9028.76
666.912	8988.08
667.262	8953.73
667.612	8974.98
667.962	9076.67
668.312	8936.11
668.662	8974.07
669.011	9000.96
669.361	8904.7
669.711	8968.87
670.06	8928.2
670.41	8922.77
670.76	8914.19
671.109	8955.77
671.459	8943.79
671.808	8897.69
672.157	8957.12
672.507	8820.4
672.856	8810.91
673.205	8823.79
673.554	8943.34
673.904	8850.46
674.253	8861.08
674.602	8898.59
674.951	8800.52
675.3	8683.23
675.649	8809.33
675.998	8827.41
676.346	8825.15
676.695	8862.44
677.044	8781.53
677.393	8825.83
677.741	8799.84
678.09	8787.64
678.438	8754.19
678.787	8820.18
679.135	8812.72
679.484	8694.31
679.832	8773.63
680.181	8685.04
680.529	8723.91
680.877	8701.76
681.225	8702.21
681.573	8741.31
681.922	8662.67
682.27	8593.74
682.618	8563.24
682.966	8631.93
683.314	8604.36
683.661	8491.82
684.009	8519.17
684.357	8523.01
684.705	8483.24
685.053	8471.49
685.4	8475.1
685.748	8441.66
686.095	8389.68
686.443	8430.13
686.79	8392.39
687.138	8358.04
687.485	8403.92
687.832	8359.4
688.18	8362.56
688.527	8246.18
688.874	8244.37
689.221	8270.36
689.568	8200.76
689.915	8164.38
690.262	8217.71
690.609	8176.13
690.956	8153.75
691.303	8124.15
691.65	8145.62
691.997	8073.53
692.344	8058.62
692.69	8009.13
693.037	7999.41
693.383	7889.58
693.73	7928.9
694.077	7878.96
694.423	7844.84
694.769	7853.42
695.116	7853.42
695.462	7876.93
695.808	7766.19
696.155	7789.7
696.501	7733.43
696.847	7672.19
697.193	7622.7
697.539	7717.38
697.885	7593.77
698.231	7626.31
698.577	7504.73
698.923	7554.67
699.269	7439.2
699.614	7476.26
699.96	7415.47
700.306	7465.64
700.651	7444.85
700.997	7326.88
701.342	7361.01
701.688	7305.87
702.033	7283.49
702.379	7255.02
702.724	7243.95
703.069	7239.65
703.415	7174.12
703.76	7186.32
704.105	7158.98
704.45	7151.52
704.795	7067.23
705.14	7031.52
705.485	7047.79
705.83	7008.25
706.175	7022.03
706.52	7029.72
706.865	6973.45
707.209	6978.87
707.554	6924.18
707.899	6943.39
708.243	6876.95
708.588	6885.77
708.932	6803.28
709.277	6823.17
709.621	6827.01
709.966	6773.9
710.31	6787.69
710.654	6733.9
710.998	6724.87
711.342	6718.31
711.687	6739.55
712.031	6686.45
712.375	6627.92
712.719	6619.11
713.063	6624.76
713.407	6688.93
713.75	6649.84
714.094	6584.76
714.438	6559.45
714.782	6629.73
715.125	6561.93
715.469	6564.64
715.812	6523.06
716.156	6517.41
716.499	6505.66
716.843	6526.9
717.186	6520.58
717.53	6484.87
717.873	6534.36
718.216	6524.19
718.559	6463.4
718.902	6417.3
719.246	6445.32
719.589	6402.16
719.932	6377.3
720.275	6401.03
720.617	6410.07
720.96	6369.17
721.303	6380.47
721.646	6388.38
721.989	6370.75
722.331	6346.34
722.674	6374.37
723.016	6345.89
723.359	6328.94
723.701	6340.92
724.044	6308.38
724.386	6263.18
724.729	6342.5
725.071	6288.72
725.413	6274.93
725.755	6330.75
726.097	6269.96
726.439	6247.14
726.782	6245.1
727.124	6255.5
727.465	6236.97
727.807	6319.9
728.149	6274.93
728.491	6243.07
728.833	6255.5
729.175	6232.22
729.516	6243.3
729.858	6258.66
730.199	6197.42
730.541	6205.11
730.882	6213.47
731.224	6211.88
731.565	6236.29
731.906	6197.65
732.248	6214.82
732.589	6191.77
732.93	6215.95
733.271	6136.86
733.612	6185.44
733.953	6220.25
734.294	6193.13
734.635	6192.45
734.976	6235.61
735.317	6223.41
735.658	6249.4
735.999	6221.6
736.339	6214.37
736.68	6250.53
737.021	6242.39
737.361	6270.19
737.702	6283.75
738.042	6309.28
738.383	6221.38
738.723	6288.72
739.063	6248.49
739.404	6336.18
739.744	6274.48
740.084	6292.11
740.424	6287.14
740.764	6298.44
741.104	6366.91
741.444	6342.73
741.784	6363.97
742.124	6358.1
742.464	6394.03
742.804	6369.17
743.143	6472.22
743.483	6504.31
743.823	6479
744.162	6495.49
744.502	6533.23
744.841	6534.36
745.181	6578.2
745.52	6561.25
745.86	6659.33
746.199	6657.07
746.538	6665.43
746.877	6721.25
747.216	6765.32
747.556	6818.65
747.895	6879.21
748.234	6842.38
748.573	6951.53
748.911	7051.18
749.25	7016.38
749.589	7045.99
749.928	7119.21
750.267	7222.25
750.605	7233.55
750.944	7298.41
751.283	7338.63
751.621	7464.06
751.96	7558.29
752.298	7689.59
752.636	7719.19
752.975	7794.22
753.313	7877.15
753.651	7984.27
753.989	8127.99
754.327	8153.08
754.666	8282.11
755.004	8394.88
755.342	8518.04
755.679	8670.35
756.017	8778.14
756.355	8938.37
756.693	9007.74
757.031	9174.52
757.368	9276.44
757.706	9395.76
758.044	9609.31
758.381	9693.6
758.719	9872.13
759.056	9986.25
759.394	10134.49
759.731	10298.33
760.068	10442.96
760.405	10638.43
760.743	10753.23
761.08	11011.53
761.417	11095.6
761.754	11278.64
762.091	11443.39
762.428	11548.47
762.765	11660.55
763.102	11869.59
763.438	12084.72
763.775	12241.1
764.112	12455.11
764.449	12616.24
764.785	12800.19
765.122	12799.96
765.458	12915.44
765.795	13262.55
766.131	13338.02
766.467	13484.01
766.804	13626.15
767.14	13708.18
767.476	13867.05
767.812	13999.7
768.148	14284.67
768.485	14326.93
768.821	14327.6
