Data from hue_120_FLMS001491_00067.txt Node
Date: Tue Feb 07 16:59:49 GMT 2017
User: dcchb
Spectrometer: FLMS00149
Trigger mode: 0
Integration Time (sec): 2.000000E-2
Scans to average: 10
Electric dark correction enabled: true
Nonlinearity correction enabled: false
Boxcar width: 0
XAxis mode: Wavelengths
Number of Pixels in Spectrum: 2048
>>>>>Begin Spectral Data<<<<<
341.393	-6.06
341.776	-6.06
342.16	-6.06
342.543	-71.59
342.927	-67.98
343.31	-59.62
343.693	-64.81
344.077	-73.18
344.46	-82.44
344.843	-60.52
345.226	-52.84
345.61	-17.36
345.993	-21.2
346.376	2.08
346.759	13.38
347.142	40.49
347.525	34.84
347.908	60.61
348.291	69.42
348.674	100.15
349.057	111
349.44	111.9
349.823	143.77
350.206	179.25
350.588	199.81
350.971	204.78
351.354	219.02
351.737	254.95
352.119	251.34
352.502	271
352.884	274.16
353.267	261.05
353.65	295.63
354.032	293.82
354.414	317.77
354.797	322.97
355.179	315.97
355.562	330.66
355.944	327.94
356.326	338.79
356.709	338.56
357.091	336.53
357.473	344.21
357.855	358
358.238	347.83
358.62	339.47
359.002	348.73
359.384	323.2
359.766	342.18
360.148	337.66
360.53	337.21
360.912	331.33
361.294	334.27
361.676	306.25
362.057	319.36
362.439	335.17
362.821	318.45
363.203	301.28
363.584	322.29
363.966	333.37
364.348	327.72
364.729	338.79
365.111	344.21
365.493	327.27
365.874	314.16
366.256	332.69
366.637	314.61
367.019	311.67
367.4	334.27
367.781	302.63
368.163	329.53
368.544	300.37
368.925	317.77
369.306	336.76
369.688	291.79
370.069	318.45
370.45	297.66
370.831	299.7
371.212	300.15
371.593	302.41
371.974	333.37
372.355	313.25
372.736	333.82
373.117	332.46
373.498	310.09
373.879	334.5
374.26	314.38
374.641	309.41
375.021	326.36
375.402	330.2
375.783	320.26
376.163	346.02
376.544	313.03
376.925	316.42
377.305	318
377.686	330.43
378.066	321.84
378.447	346.02
378.827	334.27
379.208	307.6
379.588	335.63
379.968	358.68
380.349	341.05
380.729	332.69
381.109	345.12
381.489	354.38
381.87	343.08
382.25	360.94
382.63	344.44
383.01	361.39
383.39	357.55
383.77	361.61
384.15	362.97
384.53	349.64
384.91	346.7
385.29	354.16
385.67	327.72
386.049	358.68
386.429	385.57
386.809	361.16
387.189	352.8
387.568	352.35
387.948	380.6
388.328	372.46
388.707	369.75
389.087	364.1
389.466	342.63
389.846	363.65
390.225	373.37
390.605	359.35
390.984	401.84
391.363	381.28
391.743	388.96
392.122	391.44
392.501	377.21
392.881	373.59
393.26	391.9
393.639	400.26
394.018	380.37
394.397	409.3
394.776	390.31
395.155	403.65
395.534	387.38
395.913	381.28
396.292	426.7
396.671	390.77
397.05	387.6
397.429	418.34
397.808	423.53
398.186	414.27
398.565	408.85
398.944	403.2
399.323	408.85
399.701	398
400.08	399.81
400.458	401.39
400.837	409.07
401.215	428.05
401.594	445.68
401.972	407.72
402.351	444.78
402.729	439.13
403.107	447.04
403.486	448.62
403.864	426.47
404.242	421.73
404.62	436.19
404.999	434.16
405.377	444.78
405.755	453.59
406.133	436.87
406.511	455.62
406.889	461.5
407.267	469.18
407.645	440.71
408.023	435.29
408.401	455.85
408.779	478
409.156	466.24
409.534	462.18
409.912	475.96
410.29	466.02
410.667	471.44
411.045	506.47
411.422	506.24
411.8	479.35
412.178	513.93
412.555	522.06
412.933	517.32
413.31	516.64
413.687	509.41
414.065	520.03
414.442	527.03
414.819	543.76
415.197	522.74
415.574	564.32
415.951	556.86
416.328	562.74
416.705	550.76
417.082	543.98
417.46	562.06
417.837	574.49
418.214	565.23
418.591	574.26
418.967	566.13
419.344	562.51
419.721	559.58
420.098	575.62
420.475	558.45
420.852	561.38
421.228	592.12
421.605	597.99
421.982	602.06
422.358	599.35
422.735	615.17
423.111	595.28
423.488	619.24
423.864	614.94
424.241	639.12
424.617	625.34
424.994	616.52
425.37	635.73
425.746	633.92
426.123	659.23
426.499	648.61
426.875	659.91
427.251	673.7
427.627	654.94
428.003	670.99
428.379	680.7
428.756	640.48
429.132	680.25
429.507	684.09
429.883	696.3
430.259	700.14
430.635	713.7
431.011	718.22
431.387	751.66
431.763	739.46
432.138	755.95
432.514	749.4
432.89	741.49
433.265	780.81
433.641	757.31
434.016	759.34
434.392	778.55
434.767	799.34
435.143	815.16
435.518	788.27
435.894	826.69
436.269	826.46
436.644	836.4
437.02	818.1
437.395	821.04
437.77	835.05
438.145	850.42
438.52	859.23
438.895	865.33
439.271	866.23
439.646	867.82
440.021	870.08
440.395	899.23
440.77	890.41
441.145	887.93
441.52	934.71
441.895	903.75
442.27	928.15
442.645	924.31
443.019	919.79
443.394	899.23
443.769	954.82
444.143	953.01
444.518	969.51
444.892	946.68
445.267	963.18
445.641	992.56
446.016	979.9
446.39	1017.19
446.764	1010.41
447.139	977.64
447.513	993.46
447.887	1005.67
448.262	1037.98
448.636	1016.06
449.01	1017.87
449.384	1033.01
449.758	1071.43
450.132	1058.77
450.506	1061.26
450.88	1063.07
451.254	1077.3
451.628	1096.96
452.002	1094.48
452.376	1103.97
452.75	1136.96
453.123	1138.54
453.497	1157.75
453.871	1144.87
454.244	1164.98
454.618	1172.67
454.992	1201.14
455.365	1187.36
455.739	1230.97
456.112	1250.4
456.486	1247.24
456.859	1262.38
457.232	1281.36
457.606	1274.13
457.979	1281.14
458.352	1303.28
458.725	1323.62
459.099	1351.65
459.472	1379.44
459.845	1402.04
460.218	1411.3
460.591	1409.27
460.964	1404.53
461.337	1430.74
461.71	1483.85
462.083	1498.08
462.456	1489.95
462.829	1531.3
463.201	1538.76
463.574	1536.5
463.947	1576.5
464.32	1586.44
464.692	1618.76
465.065	1616.95
465.438	1640
465.81	1690.62
466.183	1713.67
466.555	1748.47
466.928	1765.19
467.3	1781.69
467.672	1833.44
468.045	1837.96
468.417	1847.68
468.789	1894.68
469.161	1916.15
469.534	1954.34
469.906	1992.76
470.278	2012.19
470.65	2073.21
471.022	2102.59
471.394	2139.2
471.766	2169.48
472.138	2189.36
472.51	2261.9
472.882	2299.19
473.253	2364.95
473.625	2405.18
473.997	2435.23
474.369	2522.46
474.74	2514.78
475.112	2552.29
475.484	2671.38
475.855	2714.55
476.227	2772.85
476.598	2848.33
476.97	2921.32
477.341	2995.67
477.713	3068.44
478.084	3090.58
478.455	3202.44
478.827	3274.98
479.198	3405.6
479.569	3424.13
479.94	3586.84
480.311	3651.02
480.682	3722.2
481.053	3865.7
481.424	3957.68
481.795	4030.22
482.166	4142.31
482.537	4268.18
482.908	4375.75
483.279	4477.66
483.65	4591.79
484.021	4750.65
484.391	4822.06
484.762	4942.51
485.133	5057.31
485.503	5202.17
485.874	5299.34
486.244	5448.71
486.615	5570.74
486.985	5723.28
487.356	5893.67
487.726	6025.87
488.097	6221.35
488.467	6339.31
488.837	6485.07
489.207	6620.89
489.578	6759.41
489.948	6904.04
490.318	7063.81
490.688	7182.23
491.058	7379.06
491.428	7517.58
491.798	7662.21
492.168	7901.53
492.538	7994.86
492.908	8121.86
493.278	8333.61
493.648	8465.36
494.017	8553.26
494.387	8763.2
494.757	8910.77
495.126	9106.24
495.496	9190.99
495.866	9272.57
496.235	9461.04
496.605	9578.55
496.974	9715.95
497.344	9868.71
497.713	9989.61
498.082	10147.12
498.452	10239.32
498.821	10356.15
499.19	10492.87
499.559	10615.36
499.928	10752.3
500.298	10895.58
500.667	11015.8
501.036	11039.75
501.405	11168.11
501.774	11319.97
502.143	11354.09
502.512	11470.25
502.88	11610.36
503.249	11727.87
503.618	11816.91
503.987	11801.99
504.356	12000.18
504.724	12140.51
505.093	12150.68
505.462	12204.47
505.83	12378.7
506.199	12511.35
506.567	12695.3
506.936	12694.85
507.304	12804.23
507.672	12900.49
508.041	12929.19
508.409	13051
508.777	13101.17
509.145	13239.02
509.514	13292.8
509.882	13369.63
510.25	13457.09
510.618	13482.4
510.986	13552.91
511.354	13685.56
511.722	13714.03
512.09	13894.37
512.458	13735.5
512.826	13927.81
513.193	14074.47
513.561	14015.04
513.929	14161.03
514.297	14174.13
514.664	14313.34
515.032	14398.08
515.4	14463.39
515.767	14436.27
516.135	14499.77
516.502	14448.02
516.869	14665.42
517.237	14682.37
517.604	14633.78
517.972	14730.05
518.339	14791.74
518.706	14791.74
519.073	14921.91
519.44	14903.38
519.808	15071.06
520.175	15021.79
520.542	15111.28
520.909	15311.73
521.276	15152.86
521.643	15288
522.009	15287.78
522.376	15452.07
522.743	15486.64
523.11	15564.6
523.477	15682.34
523.843	15667.43
524.21	15773.19
524.577	15747.42
524.943	15844.15
525.31	15878.49
525.676	15936.8
526.043	15967.98
526.409	16014.08
526.776	16088.43
527.142	16101.54
527.508	16178.6
527.874	16259.05
528.241	16264.02
528.607	16177.24
528.973	16247.52
529.339	16244.14
529.705	16303.34
530.071	16363.91
530.437	16340.86
530.803	16410.68
531.169	16434.64
531.535	16275.09
531.901	16373.85
532.267	16328.88
532.632	16343.57
532.998	16489.1
533.364	16457.01
533.73	16410.91
534.095	16477.35
534.461	16481.87
534.826	16454.98
535.192	16388.54
535.557	16437.58
535.923	16463.11
536.288	16402.55
536.653	16330.01
537.019	16303.12
537.384	16364.36
537.749	16367.52
538.114	16382.21
538.479	16330.46
538.845	16254.76
539.21	16273.74
539.575	16294.98
539.94	16246.17
540.305	16189.45
540.67	16150.8
541.034	16172.27
541.399	16180.63
541.764	16122.1
542.129	16113.52
542.494	16094.53
542.858	16071.71
543.223	15991.71
543.587	16080.07
543.952	15961.2
544.316	15950.36
544.681	15909.23
545.045	15910.13
545.41	15800.08
545.774	15864.94
546.138	15834.65
546.503	15857.7
546.867	15703.36
547.231	15865.84
547.595	15717.82
547.959	15805.73
548.324	15688.44
548.688	15612.74
549.052	15584.94
549.416	15665.39
549.779	15591.27
550.143	15549.46
550.507	15616.58
550.871	15557.37
551.235	15519.86
551.599	15489.8
551.962	15462.46
552.326	15368.45
552.689	15483.93
553.053	15312.18
553.417	15372.07
553.78	15595.11
554.143	15410.26
554.507	15335.91
554.87	15277.61
555.234	15450.03
555.597	15264.05
555.96	15347.21
556.323	15295.23
556.686	15243.26
557.05	15349.92
557.413	15395.34
557.776	15252.3
558.139	15339.07
558.502	15318.96
558.865	15319.41
559.228	15296.59
559.59	15289.81
559.953	15219.08
560.316	15362.8
560.679	15307.21
561.041	15364.84
561.404	15398.51
561.767	15395.34
562.129	15352.41
562.492	15437.83
562.854	15391.95
563.217	15323.03
563.579	15403.93
563.941	15478.05
564.304	15391.05
564.666	15498.84
565.028	15394.44
565.39	15518.05
565.753	15523.25
566.115	15508.79
566.477	15558.5
566.839	15570.93
567.201	15689.12
567.563	15612.97
567.925	15746.07
568.287	15603.47
568.648	15732.28
569.01	15681.66
569.372	15850.47
569.734	15718.95
570.095	15722.79
570.457	15793.53
570.819	15819.51
571.18	15774.09
571.542	15804.82
571.903	15861.55
572.265	15889.57
572.626	15878.04
572.987	15770.93
573.349	15859.96
573.71	15839.17
574.071	15968.44
574.432	15899.51
574.794	16039.17
575.155	15962.11
575.516	15896.8
575.877	16064.93
576.238	16031.94
576.599	16081.88
576.96	16096.12
577.32	16034.65
577.681	16083.01
578.042	16111.26
578.403	16032.62
578.763	16061.77
579.124	16051.82
579.485	16175.44
579.845	16157.36
580.206	16133.18
580.566	16043.46
580.927	16080.3
581.287	16190.13
581.648	16022.67
582.008	16130.69
582.368	16019.73
582.728	16127.75
583.089	16077.36
583.449	16062.44
583.809	16105.38
584.169	16097.47
584.529	16046.85
584.889	16138.38
585.249	16027.19
585.609	15907.65
585.969	16033.29
586.329	15985.38
586.688	15977.93
587.048	16008.89
587.408	15963.92
587.768	15962.79
588.127	15974.76
588.487	15881.66
588.846	16032.39
589.206	15898.38
589.565	15861.32
589.925	15926.18
590.284	15932.28
590.643	15933.41
591.003	15947.19
591.362	15954.65
591.721	15914.88
592.08	15847.99
592.44	15937.48
592.799	15950.81
593.158	15937.02
593.517	15931.83
593.876	15911.71
594.235	15775.22
594.593	15857.93
594.952	15776.35
595.311	15777.03
595.67	15781.1
596.029	15821.32
596.387	15928.21
596.746	15880.75
597.104	15808.44
597.463	15825.61
597.822	15810.25
598.18	15863.13
598.538	15753.07
598.897	15819.51
599.255	15767.09
599.613	15896.57
599.972	15776.58
600.33	15883.01
600.688	15751.72
601.046	15797.14
601.404	15893.18
601.762	15860.64
602.12	15883.01
602.478	15949.68
602.836	15937.48
603.194	15786.75
603.552	15832.85
603.91	15814.99
604.268	15810.02
604.625	15797.82
604.983	15847.99
605.341	15708.1
605.698	15805.73
606.056	15844.6
606.413	15783.81
606.771	15874.65
607.128	15858.83
607.485	15808.67
607.843	15817.48
608.2	15918.04
608.557	15897.7
608.914	15913.07
609.272	16015.21
609.629	15958.49
609.986	16061.09
610.343	15982.9
610.7	16071.48
611.057	16028.1
611.414	16086.17
611.771	16038.49
612.127	16080.3
612.484	16126.4
612.841	16060.19
613.198	16060.86
613.554	16047.76
613.911	16177.47
614.267	16130.47
614.624	16126.4
614.98	16097.47
615.337	16146.06
615.693	16136.34
616.05	16176.34
616.406	16186.28
616.762	16205.94
617.118	16181.76
617.475	16193.29
617.831	16261.08
618.187	16356
618.543	16268.54
618.899	16376.56
619.255	16384.02
619.611	16265.38
619.967	16393.96
620.323	16325.04
620.678	16300.63
621.034	16330.01
621.39	16348.54
621.746	16345.15
622.101	16473.73
622.457	16312.38
622.812	16352.61
623.168	16431.47
623.523	16335.43
623.879	16372.27
624.234	16314.19
624.589	16382.44
624.945	16363.45
625.3	16388.09
625.655	16373.85
626.01	16272.83
626.365	16388.54
626.72	16242.55
627.075	16373.4
627.43	16332.27
627.785	16314.87
628.14	16301.31
628.495	16367.07
628.85	16324.81
629.205	16232.38
629.559	16391.25
629.914	16295.66
630.269	16275.77
630.623	16201.88
630.978	16210.92
631.332	16223.8
631.687	16308.54
632.041	16208.2
632.396	16184.02
632.75	16137.7
633.104	16120.52
633.459	16110.35
633.813	16117.81
634.167	16076
634.521	16015.67
634.875	16051.37
635.229	16082.56
635.583	15958.04
635.937	15998.94
636.291	15945.39
636.645	15925.05
636.999	15873.3
637.352	15982.67
637.706	15866.97
638.06	15883.47
638.413	15824.26
638.767	15844.82
639.121	15815.67
639.474	15783.13
639.828	15777.71
640.181	15840.08
640.534	15836.91
640.888	15701.32
641.241	15614.55
641.594	15749.68
641.947	15755.79
642.301	15689.8
642.654	15704.94
643.007	15803.24
643.36	15673.08
643.713	15572.97
644.066	15724.15
644.419	15539.07
644.771	15552.63
645.124	15426.3
645.477	15404.61
645.83	15268.57
646.182	15142.02
646.535	15139.98
646.888	15143.6
647.24	15081.23
647.593	15207.1
647.945	15136.37
648.298	15036.48
648.65	15084.39
649.002	15060.44
649.355	15082.13
649.707	15025.41
650.059	15200.77
650.411	15429.24
650.763	15345.18
651.115	15441.44
651.467	15464.95
651.819	15483.03
652.171	15405.96
652.523	15352.41
652.875	15380.88
653.227	15230.15
653.578	15522.57
653.93	15382.69
654.282	15323.26
654.633	15292.97
654.985	15400.09
655.337	15440.31
655.688	15459.52
656.039	15532.74
656.391	15360.32
656.742	15437.38
657.094	15462.69
657.445	15544.27
657.796	15461.56
658.147	15362.8
658.498	15406.87
658.849	15527.09
659.2	15376.36
659.551	15376.36
659.902	15399.64
660.253	15398.51
660.604	15348.79
660.955	15330.71
661.306	15450.26
661.656	15385.85
662.007	15422.01
662.358	15499.3
662.708	15465.62
663.059	15475.34
663.409	15317.38
663.76	15505.85
664.11	15512.85
664.461	15459.52
664.811	15472.18
665.161	15502.91
665.511	15428.56
665.862	15442.8
666.212	15531.84
666.562	15593.3
666.912	15442.35
667.262	15458.84
667.612	15470.82
667.962	15488
668.312	15398.96
668.662	15451.61
669.011	15463.36
669.361	15417.04
669.711	15390.82
670.06	15495
670.41	15381.11
670.76	15343.82
671.109	15443.03
671.459	15417.94
671.808	15360.99
672.157	15330.94
672.507	15248.68
672.856	15309.47
673.205	15321
673.554	15299.98
673.904	15229.47
674.253	15305.63
674.602	15302.69
674.951	15124.39
675.3	15021.12
675.649	15200.55
675.998	15223.82
676.346	15142.92
676.695	15270.83
677.044	15177.95
677.393	15198.06
677.741	15189.25
678.09	15142.47
678.438	15073.09
678.787	15132.75
679.135	15048.46
679.484	15003.49
679.832	15003.04
680.181	14940.89
680.529	14933.44
680.877	14860.22
681.225	14946.77
681.573	14967.33
681.922	14939.31
682.27	14824.96
682.618	14917.39
682.966	14766.89
683.314	14834.91
683.661	14779.77
684.009	14651.18
684.357	14695.93
684.705	14660.67
685.053	14673.1
685.4	14657.06
685.748	14552.2
686.095	14539.1
686.443	14505.42
686.79	14375.26
687.138	14467.91
687.485	14548.36
687.832	14401.47
688.18	14457.97
688.527	14346.33
688.874	14210.29
689.221	14283.96
689.568	14189.95
689.915	14177.52
690.262	14205.54
690.609	14126.9
690.956	14071.08
691.303	14003.97
691.65	14002.84
691.997	13897.3
692.344	13876.51
692.69	13833.58
693.037	13768.27
693.383	13757.42
693.73	13857.53
694.077	13678.55
694.423	13674.03
694.769	13644.2
695.116	13613.24
695.462	13537.31
695.808	13596.07
696.155	13559.91
696.501	13440.59
696.847	13369.18
697.193	13322.63
697.539	13312.46
697.885	13268.17
698.231	13228.85
698.577	13098.68
698.923	13085.35
699.269	13093.71
699.614	13015.52
699.96	12942.98
700.306	12937.33
700.651	12904.34
700.997	12810.33
701.342	12779.82
701.688	12728.97
702.033	12733.04
702.379	12672.7
702.724	12594.74
703.069	12634.96
703.415	12411.24
703.76	12486.49
704.105	12471.13
704.45	12428.64
704.795	12357.23
705.14	12313.16
705.485	12271.13
705.83	12206.05
706.175	12223
706.52	12150.91
706.865	12100.97
707.209	12036.79
707.554	12019.61
707.899	12088.31
708.243	11972.16
708.588	11957.47
708.932	11851.71
709.277	11924.7
709.621	11849.22
709.966	11843.35
710.31	11843.35
710.654	11702.79
710.998	11773.97
711.342	11761.32
711.687	11602.22
712.031	11662.33
712.375	11586.18
712.719	11617.14
713.063	11510.02
713.407	11678.61
713.75	11623.92
714.094	11559.06
714.438	11508.21
714.782	11471.38
715.125	11486.07
715.469	11426.18
715.812	11366.52
716.156	11265.06
716.499	11292.63
716.843	11299.63
717.186	11267.32
717.53	11313.87
717.873	11313.64
718.216	11280.65
718.559	11156.59
718.902	11193.19
719.246	11249.69
719.589	11180.31
719.932	11124.95
720.275	11085.85
720.617	11129.24
720.96	11062.12
721.303	11062.35
721.646	11132.63
721.989	11056.47
722.331	11057.15
722.674	11016.48
723.016	11041.33
723.359	10978.28
723.701	11086.76
724.044	11011.5
724.386	10941.68
724.729	11018.96
725.071	10962.92
725.413	10972.41
725.755	11009.7
726.097	10874.33
726.439	10807.22
726.782	10872.75
727.124	10954.56
727.465	10879.3
727.807	10822.58
728.149	10843.15
728.491	10912.75
728.833	10834.56
729.175	10805.41
729.516	10799.08
729.858	10836.14
730.199	10851.28
730.541	10778.74
730.882	10808.57
731.224	10881.79
731.565	10744.17
731.906	10769.48
732.248	10778.06
732.589	10734.9
732.93	10643.83
733.271	10713.66
733.612	10759.53
733.953	10727.67
734.294	10698.97
734.635	10663.04
734.976	10751.17
735.317	10644.73
735.658	10686.54
735.999	10737.39
736.339	10659.88
736.68	10727.67
737.021	10728.57
737.361	10597.96
737.702	10785.07
738.042	10727.44
738.383	10712.08
738.723	10779.19
739.063	10734.45
739.404	10770.61
739.744	10741.23
740.084	10725.86
740.424	10739.2
740.764	10783.71
741.104	10815.35
741.444	10776.93
741.784	10790.04
742.124	10810.38
742.464	10882.02
742.804	10857.16
743.143	10886.54
743.483	10834.33
743.823	10839.31
744.162	10944.39
744.502	10942.35
744.841	10909.13
745.181	10990.49
745.52	11006.08
745.86	11118.62
746.199	11071.84
746.538	11134.44
746.877	11290.82
747.216	11239.07
747.556	11323.59
747.895	11367.65
748.234	11352.51
748.573	11342.12
748.911	11402
749.25	11545.05
749.589	11590.25
749.928	11643.8
750.267	11873.85
750.605	11893.29
750.944	11863.91
751.283	11964.7
751.621	12103.68
751.96	12137.58
752.298	12223.68
752.636	12397
752.975	12425.03
753.313	12446.04
753.651	12669.54
753.989	12622.54
754.327	12837.22
754.666	12907.27
755.004	13080.15
755.342	13240.82
755.679	13415.73
756.017	13473.13
