Data from hue_220_FLMS001491_00021.txt Node
Date: Tue Feb 07 16:39:10 GMT 2017
User: dcchb
Spectrometer: FLMS00149
Trigger mode: 0
Integration Time (sec): 2.000000E-2
Scans to average: 10
Electric dark correction enabled: true
Nonlinearity correction enabled: false
Boxcar width: 0
XAxis mode: Wavelengths
Number of Pixels in Spectrum: 2048
>>>>>Begin Spectral Data<<<<<
341.393	-10.68
341.776	-10.68
342.16	-10.68
342.543	-58.13
342.927	-46.83
343.31	-53.84
343.693	-81.18
344.077	-62.65
344.46	-85.25
344.843	-68.98
345.226	-37.34
345.61	-40.51
345.993	-4.12
346.376	-4.8
346.759	12.6
347.142	11.69
347.525	29.77
347.908	54.41
348.291	93.27
348.674	112.93
349.057	124.01
349.44	133.5
349.823	121.52
350.206	173.72
350.588	172.59
350.971	190.67
351.354	203.78
351.737	225.7
352.119	240.84
352.502	260.73
352.884	265.93
353.267	260.73
353.65	309.54
354.032	306.83
354.414	270.9
354.797	290.56
355.179	337.34
355.562	325.81
355.944	331.46
356.326	341.4
356.709	311.57
357.091	343.44
357.473	319.94
357.855	313.61
358.238	341.18
358.62	341.63
359.002	335.53
359.384	333.49
359.766	338.69
360.148	332.36
360.53	359.26
360.912	347.05
361.294	326.71
361.676	322.65
362.057	336.66
362.439	333.72
362.821	333.72
363.203	323.1
363.584	314.74
363.966	319.71
364.348	307.05
364.729	324.91
365.111	296.21
365.493	335.08
365.874	314.29
366.256	312.03
366.637	292.37
367.019	330.78
367.4	328.75
367.781	300.5
368.163	292.59
368.544	299.14
368.925	317.22
369.306	316.09
369.688	295.3
370.069	298.24
370.45	321.74
370.831	304.79
371.212	307.51
371.593	321.74
371.974	299.14
372.355	314.06
372.736	298.01
373.117	312.03
373.498	318.58
373.879	294.63
374.26	311.12
374.641	330.33
375.021	300.73
375.402	314.74
375.783	309.54
376.163	296.43
376.544	316.09
376.925	331.01
377.305	319.94
377.686	332.14
378.066	310.22
378.447	326.71
378.827	338.24
379.208	319.94
379.588	326.49
379.968	319.03
380.349	332.36
380.729	312.48
381.109	318.35
381.489	333.72
381.87	287.85
382.25	323.32
382.63	327.17
383.01	329.43
383.39	323.78
383.77	338.01
384.15	339.37
384.53	331.46
384.91	342.08
385.29	341.4
385.67	328.52
386.049	357.67
386.429	352.48
386.809	333.49
387.189	340.5
387.568	359.93
387.948	363.1
388.328	336.88
388.707	348.18
389.087	362.42
389.466	348.63
389.846	363.78
390.225	372.14
390.605	379.59
390.984	353.61
391.363	375.53
391.743	369.2
392.122	358.8
392.501	361.52
392.881	356.54
393.26	347.05
393.639	364.91
394.018	386.6
394.397	378.46
394.776	382.98
395.155	374.17
395.534	382.31
395.913	359.93
396.292	382.98
396.671	374.62
397.05	385.92
397.429	367.17
397.808	399.93
398.186	371.69
398.565	381.18
398.944	410.1
399.323	376.2
399.701	410.1
400.08	376.88
400.458	410.55
400.837	415.3
401.215	399.03
401.594	418.01
401.972	406.03
402.351	419.14
402.729	407.84
403.107	403.55
403.486	405.58
403.864	407.39
404.242	407.62
404.62	411.01
404.999	428.86
405.377	427.73
405.755	422.98
406.133	436.54
406.511	418.24
406.889	456.43
407.267	439.93
407.645	442.87
408.023	480.38
408.401	458.01
408.779	460.95
409.156	470.67
409.534	479.48
409.912	478.8
410.29	476.99
410.667	509.53
411.045	493.72
411.422	507.27
411.8	515.64
412.178	542.3
412.555	556.31
412.933	539.14
413.31	532.13
413.687	558.8
414.065	578.23
414.442	586.14
414.819	601.51
415.197	588.85
415.574	611.68
415.951	608.06
416.328	593.83
416.705	599.25
417.082	616.88
417.46	644.67
417.837	655.52
418.214	619.36
418.591	648.06
418.967	637.44
419.344	670.66
419.721	697.78
420.098	689.42
420.475	670.89
420.852	693.48
421.228	696.87
421.605	729.19
421.982	726.48
422.358	763.54
422.735	769.87
423.111	773.48
423.488	781.17
423.864	796.53
424.241	799.24
424.617	813.93
424.994	839.92
425.37	829.53
425.746	858.45
426.123	870.66
426.499	860.26
426.875	876.08
427.251	922.41
427.627	923.08
428.003	916.08
428.379	937.77
428.756	967.38
429.132	970.54
429.507	961.5
429.883	996.98
430.259	1003.31
430.635	1011.67
431.011	1018.67
431.387	1045.34
431.763	1048.05
432.138	1044.44
432.514	1067.03
432.89	1095.73
433.265	1117.65
433.641	1107.26
434.016	1158.56
434.392	1120.37
434.767	1197.65
435.143	1180.93
435.518	1208.73
435.894	1210.76
436.269	1268.38
436.644	1287.14
437.02	1280.81
437.395	1318.1
437.77	1341.15
438.145	1326.69
438.52	1362.39
438.895	1405.1
439.271	1392.45
439.646	1472.9
440.021	1444.2
440.395	1492.33
440.77	1480.58
441.145	1490.3
441.52	1529.85
441.895	1546.57
442.27	1550.64
442.645	1574.14
443.019	1600.35
443.394	1592.44
443.769	1602.39
444.143	1598.09
444.518	1654.36
444.892	1665.66
445.267	1674.48
445.641	1686.23
446.016	1699.11
446.39	1723.97
446.764	1754.02
447.139	1713.57
447.513	1751.99
447.887	1742.04
448.262	1778.2
448.636	1785.66
449.01	1795.15
449.384	1811.87
449.758	1823.17
450.132	1848.03
450.506	1838.77
450.88	1878.31
451.254	1872.44
451.628	1909.27
452.002	1935.49
452.376	1939.33
452.75	1961.47
453.123	2008.03
453.497	2013
453.871	2008.7
454.244	2044.64
454.618	2053.9
454.992	2068.59
455.365	2053.22
455.739	2149.04
456.112	2152.43
456.486	2136.38
456.859	2195.82
457.232	2201.69
457.606	2190.85
457.979	2246.66
458.352	2295.93
458.725	2311.52
459.099	2307.68
459.472	2336.15
459.845	2347.9
460.218	2365.31
460.591	2379.09
460.964	2379.77
461.337	2448.47
461.71	2513.78
462.083	2536.15
462.456	2532.76
462.829	2549.71
463.201	2603.04
463.574	2592.42
463.947	2600.78
464.32	2689.82
464.692	2677.39
465.065	2698.86
465.438	2743.37
465.81	2787.89
466.183	2811.85
466.555	2852.98
466.928	2862.24
467.3	2886.65
467.672	2924.61
468.045	2983.59
468.417	2958.74
468.789	2963.03
469.161	3058.17
469.534	3092.74
469.906	3123.48
470.278	3120.31
470.65	3186.53
471.022	3244.83
471.394	3287.54
471.766	3290.25
472.138	3324.6
472.51	3387.43
472.882	3447.08
473.253	3450.25
473.625	3498.38
473.997	3581.54
474.369	3565.05
474.74	3615.89
475.112	3684.14
475.484	3790.8
475.855	3783.12
476.227	3805.27
476.598	3900.63
476.97	3912.16
477.341	4020.18
477.713	4052.04
478.084	4084.36
478.455	4170.46
478.827	4256.33
479.198	4280.28
479.569	4299.94
479.94	4424.91
480.311	4428.53
480.682	4515.08
481.053	4596.88
481.424	4654.28
481.795	4736.77
482.166	4732.25
482.537	4786.71
482.908	4881.17
483.279	4910.1
483.65	5031
484.021	5063.31
484.391	5107.61
484.762	5172.69
485.133	5177.89
485.503	5259.24
485.874	5327.71
486.244	5374.27
486.615	5503.3
486.985	5517.09
487.356	5617.2
487.726	5605.45
488.097	5737.65
488.467	5715.5
488.837	5797.76
489.207	5912.33
489.578	5918.66
489.948	6035.27
490.318	6056.51
490.688	6101.03
491.058	6179.44
491.428	6197.07
491.798	6234.13
492.168	6372.66
492.538	6370.85
492.908	6418.08
493.278	6519.32
493.648	6542.37
494.017	6571.52
494.387	6613.33
494.757	6672.76
495.126	6699.88
495.496	6688.36
495.866	6778.52
496.235	6808.35
496.605	6809.48
496.974	6855.13
497.344	6954.56
497.713	6974.9
498.082	6985.75
498.452	7041.11
498.821	7054
499.19	7067.78
499.559	7106.65
499.928	7178.74
500.298	7187.78
500.667	7177.38
501.036	7229.58
501.405	7293.54
501.774	7277.72
502.143	7308.9
502.512	7348.45
502.88	7344.16
503.249	7294.67
503.618	7409.92
503.987	7435.68
504.356	7452.85
504.724	7436.13
505.093	7450.82
505.462	7463.02
505.83	7445.17
506.199	7571.27
506.567	7663.24
506.936	7587.54
507.304	7629.35
507.672	7660.31
508.041	7663.02
508.409	7695.33
508.777	7716.12
509.145	7787.54
509.514	7739.85
509.882	7795.9
510.25	7762.68
510.618	7742.79
510.986	7856.01
511.354	7829.12
511.722	7874.99
512.09	7884.26
512.458	7875.89
512.826	7925.61
513.193	7885.16
513.561	7872.05
513.929	7922.45
514.297	7959.28
514.664	7998.38
515.032	7993.41
515.4	7998.15
515.767	8014.87
516.135	7984.37
516.502	7958.6
516.869	7993.18
517.237	8017.13
517.604	8020.75
517.972	8065.95
518.339	7987.53
518.706	8062.78
519.073	8014.65
519.44	8093.74
519.808	8087.19
520.175	8048.32
520.542	8131.03
520.909	8091.93
521.276	8023.24
521.643	8119.73
522.009	8100.97
522.376	8146.17
522.743	8129.22
523.11	8191.82
523.477	8263.68
523.843	8220.52
524.21	8245.6
524.577	8208.77
524.943	8174.19
525.31	8201.08
525.676	8264.36
526.043	8261.42
526.409	8243.57
526.776	8324.7
527.142	8258.94
527.508	8183.23
527.874	8223.46
528.241	8267.52
528.607	8293.74
528.973	8262.1
529.339	8243.57
529.705	8251.48
530.071	8262.33
530.437	8286.73
530.803	8235.21
531.169	8214.42
531.535	8197.69
531.901	8221.65
532.267	8257.81
532.632	8236.79
532.998	8188.43
533.364	8233.17
533.73	8206.73
534.095	8256
534.461	8170.58
534.826	8177.13
535.192	8175.32
535.557	8169.45
535.923	8137.58
536.288	8185.04
536.653	8130.13
537.019	8016.23
537.384	8059.84
537.749	8047.42
538.114	8009.45
538.479	7942.56
538.845	8030.47
539.21	7931.49
539.575	7931.94
539.94	7926.97
540.305	7926.06
540.67	7816.91
541.034	7917.7
541.399	7906.85
541.764	7842.22
542.129	7860.75
542.494	7785.73
542.858	7784.37
543.223	7775.33
543.587	7780.76
543.952	7719.74
544.316	7747.31
544.681	7701.89
545.045	7673.64
545.41	7641.32
545.774	7691.94
546.138	7586.64
546.503	7627.54
546.867	7513.64
547.231	7560.65
547.595	7496.92
547.959	7494.44
548.324	7498.96
548.688	7375.79
549.052	7439.07
549.416	7375.79
549.779	7374.21
550.143	7389.13
550.507	7412.63
550.871	7385.06
551.235	7330.82
551.599	7244.5
551.962	7280.66
552.326	7229.13
552.689	7275.91
553.053	7202.01
553.417	7233.43
553.78	7279.75
554.143	7185.97
554.507	7187.33
554.87	7186.42
555.234	7174.67
555.597	7147.33
555.96	7117.27
556.323	7101.45
556.686	7043.83
557.05	7091.06
557.413	7134.45
557.776	7121.79
558.139	7095.58
558.502	7051.74
558.865	7024.84
559.228	7062.36
559.59	7025.3
559.953	7071.85
560.316	7108.91
560.679	7048.57
561.041	7058.74
561.404	7028.23
561.767	7052.64
562.129	7063.03
562.492	7106.2
562.854	7068.01
563.217	7029.82
563.579	7039.08
563.941	7111.17
564.304	7144.16
564.666	7067.33
565.028	7098.97
565.39	7095.8
565.753	7142.13
566.115	7082.24
566.477	7143.26
566.839	7159.3
567.201	7096.03
567.563	7131.28
567.925	7166.76
568.287	7117.95
568.648	7128.57
569.01	7192.52
569.372	7199.98
569.734	7127.89
570.095	7197.27
570.457	7203.14
570.819	7187.55
571.18	7237.49
571.542	7186.42
571.903	7223.48
572.265	7230.49
572.626	7252.86
572.987	7260.77
573.349	7307.77
573.71	7330.6
574.071	7303.71
574.432	7333.99
574.794	7389.58
575.155	7310.71
575.516	7312.97
575.877	7408.79
576.238	7371.73
576.599	7385.51
576.96	7423.48
577.32	7409.69
577.681	7449.01
578.042	7434.55
578.403	7444.72
578.763	7489.01
579.124	7472.74
579.485	7495.34
579.845	7581.89
580.206	7534.89
580.566	7529.69
580.927	7582.79
581.287	7570.37
581.648	7579.86
582.008	7611.04
582.368	7576.69
582.728	7632.06
583.089	7627.54
583.449	7692.17
583.809	7731.04
584.169	7622.79
584.529	7632.96
584.889	7695.33
585.249	7677.48
585.609	7635.22
585.969	7747.76
586.329	7757.25
586.688	7755.45
587.048	7792.06
587.408	7787.76
587.768	7771.72
588.127	7797.48
588.487	7762
588.846	7834.77
589.206	7868.89
589.565	7854.65
589.925	7878.83
590.284	7858.27
590.643	7894.2
591.003	7944.82
591.362	7903.69
591.721	7923.8
592.08	7932.16
592.44	7954.54
592.799	7938.72
593.158	7936.46
593.517	7977.13
593.876	7973.07
594.235	7978.26
594.593	7907.98
594.952	7933.75
595.311	7929.45
595.67	7997.93
596.029	8054.87
596.387	8105.04
596.746	8072.27
597.104	8015.1
597.463	8038.15
597.822	8031.14
598.18	8066.4
598.538	8073.63
598.897	8078.83
599.255	8014.42
599.613	8091.26
599.972	8067.98
600.33	8142.78
600.688	8122.22
601.046	8152.72
601.404	8119.96
601.762	8109.56
602.12	8158.15
602.478	8133.97
602.836	8160.63
603.194	8132.16
603.552	8105.49
603.91	8149.33
604.268	8197.47
604.625	8123.8
604.983	8144.36
605.341	8081.54
605.698	8161.54
606.056	8167.64
606.413	8176.23
606.771	8175.77
607.128	8190.91
607.485	8137.58
607.843	8223.91
608.2	8241.99
608.557	8222.78
608.914	8217.35
609.272	8251.25
609.629	8278.14
609.986	8253.74
610.343	8268.65
610.7	8284.02
611.057	8296.9
611.414	8254.19
611.771	8288.99
612.127	8268.88
612.484	8317.69
612.841	8326.96
613.198	8339.84
613.554	8330.8
613.911	8375.54
614.267	8364.24
614.624	8367.86
614.98	8315.88
615.337	8390.46
615.693	8346.62
616.05	8355.43
616.406	8361.98
616.762	8416.22
617.118	8358.37
617.475	8379.16
617.831	8399.04
618.187	8426.16
618.543	8405.15
618.899	8430.68
619.255	8400.63
619.611	8405.6
619.967	8462.09
620.323	8431.13
620.678	8467.07
621.034	8410.12
621.39	8425.94
621.746	8408.08
622.101	8533.05
622.457	8413.28
622.812	8480.62
623.168	8487.86
623.523	8438.14
623.879	8485.37
624.234	8413.28
624.589	8500.96
624.945	8417.58
625.3	8435.43
625.655	8474.3
626.01	8495.09
626.365	8437.91
626.72	8480.17
627.075	8432.94
627.43	8513.17
627.785	8467.29
628.14	8441.53
628.495	8498.25
628.85	8470.68
629.205	8473.17
629.559	8479.95
629.914	8472.49
630.269	8447.18
630.623	8371.02
630.978	8372.6
631.332	8434.52
631.687	8400.4
632.041	8372.6
632.396	8355.88
632.75	8359.95
633.104	8407.41
633.459	8345.94
633.813	8295.09
634.167	8380.51
634.521	8353.62
634.875	8281.53
635.229	8328.09
635.583	8217.81
635.937	8210.35
636.291	8298.03
636.645	8256.68
636.999	8248.31
637.352	8292.83
637.706	8213.06
638.06	8233.63
638.413	8251.48
638.767	8203.57
639.121	8232.95
639.474	8123.57
639.828	8124.93
640.181	8169.67
640.534	8146.85
640.888	8150.24
641.241	8157.47
641.594	8120.63
641.947	8160.41
642.301	8165.6
642.654	8142.55
643.007	8130.8
643.36	8131.48
643.713	8083.12
644.066	8116.11
644.419	8077.02
644.771	8028.66
645.124	7982.78
645.477	7893.75
645.83	7868.44
646.182	7899.17
646.535	7828.89
646.888	7849.45
647.24	7855.1
647.593	7867.76
647.945	7871.83
648.298	7825.5
648.65	7748.44
649.002	7793.18
649.355	7846.97
649.707	7782.56
650.059	7916.57
650.411	7921.32
650.763	7965.61
651.115	8017.59
651.467	8005.38
651.819	8017.13
652.171	8019.39
652.523	7934.42
652.875	7980.75
653.227	7932.62
653.578	8011.71
653.93	7993.86
654.282	7987.3
654.633	7977.13
654.985	7976.91
655.337	8018.26
655.688	7940.75
656.039	8036.12
656.391	7956.8
656.742	7987.08
657.094	7988.66
657.445	7970.13
657.796	8016.91
658.147	8028.43
658.498	8016.91
658.849	8000.41
659.2	8021.88
659.551	8010.58
659.902	8049
660.253	8035.44
660.604	8080.86
660.955	8003.35
661.306	8050.35
661.656	8003.35
662.007	8068.43
662.358	8057.36
662.708	8022.56
663.059	8136
663.409	8029.79
663.76	8096
664.11	8104.14
664.461	8108.43
664.811	8069.79
665.161	8129.22
665.511	8011.48
665.862	8070.24
666.212	8105.27
666.562	8125.61
666.912	8103.91
667.262	8077.92
667.612	8103.91
667.962	8096
668.312	8096.68
668.662	8098.71
669.011	8064.36
669.361	8086.74
669.711	8076.12
670.06	8049.68
670.41	8045.61
670.76	8007.64
671.109	8091.48
671.459	8061.88
671.808	8007.64
672.157	8060.3
672.507	7980.75
672.856	7952.95
673.205	7985.04
673.554	7950.92
673.904	8033.18
674.253	8026.17
674.602	7902.79
674.951	7865.27
675.3	7874.99
675.649	7977.81
675.998	7902.33
676.346	7929.9
676.695	7961.32
677.044	7883.13
677.393	7992.5
677.741	7938.94
678.09	7925.16
678.438	7906.4
678.787	7886.06
679.135	7878.61
679.484	7819.4
679.832	7880.41
680.181	7772.62
680.529	7834.77
680.877	7764.49
681.225	7873.63
681.573	7896.01
681.922	7750.7
682.27	7722.9
682.618	7716.12
682.966	7717.48
683.314	7676.13
683.661	7764.71
684.009	7674.54
684.357	7646.07
684.705	7630.25
685.053	7656.01
685.4	7648.78
685.748	7613.75
686.095	7603.13
686.443	7559.07
686.79	7482.68
687.138	7564.72
687.485	7519.52
687.832	7486.53
688.18	7508.9
688.527	7502.8
688.874	7416.92
689.221	7447.66
689.568	7384.83
689.915	7384.38
690.262	7407.66
690.609	7325.17
690.956	7270.03
691.303	7273.65
691.65	7259.41
691.997	7203.6
692.344	7226.65
692.69	7186.65
693.037	7184.84
693.383	7120.89
693.73	7061.9
694.077	7089.25
694.423	7133.32
694.769	7033.88
695.116	7048.57
695.462	7029.59
695.808	6994.79
696.155	6976.03
696.501	6907.78
696.847	6967.22
697.193	6950.27
697.539	6866.66
697.885	6860.55
698.231	6821.01
698.577	6823.27
698.923	6844.28
699.269	6789.14
699.614	6734.23
699.96	6718.86
700.306	6700.78
700.651	6622.37
700.997	6675.47
701.342	6576.95
701.688	6622.37
702.033	6517.06
702.379	6588.24
702.724	6548.47
703.069	6560
703.415	6457.85
703.76	6462.37
704.105	6415.82
704.45	6387.12
704.795	6373.11
705.14	6305.31
705.485	6398.87
705.83	6347.8
706.175	6332.88
706.52	6247.01
706.865	6324.52
707.209	6235.71
707.554	6251.76
707.899	6264.86
708.243	6204.75
708.588	6173.79
708.932	6157.52
709.277	6170.63
709.621	6113
709.966	6102.83
710.31	6155.94
710.654	6079.78
710.998	6073.23
711.342	6050.63
711.687	6034.59
712.031	6035.27
712.375	6014.93
712.719	6035.72
713.063	5959.56
713.407	5945.1
713.75	5985.77
714.094	5914.82
714.438	5932.22
714.782	5929.28
715.125	5929.05
715.469	5918.43
715.812	5919.56
716.156	5888.38
716.499	5807.47
716.843	5852.67
717.186	5880.69
717.53	5877.76
717.873	5866.23
718.216	5849.06
718.559	5814.25
718.902	5851.09
719.246	5825.33
719.589	5819
719.932	5734.48
720.275	5737.87
720.617	5773.13
720.96	5773.13
721.303	5761.83
721.646	5793.69
721.989	5745.56
722.331	5738.55
722.674	5691.77
723.016	5737.42
723.359	5727.93
723.701	5757.53
724.044	5675.05
724.386	5695.16
724.729	5689.74
725.071	5696.74
725.413	5687.03
725.755	5671.66
726.097	5662.39
726.439	5622.17
726.782	5665.11
727.124	5727.48
727.465	5692
727.807	5614.03
728.149	5672.34
728.491	5641.6
728.833	5670.3
729.175	5683.18
729.516	5632.34
729.858	5656.52
730.199	5690.87
730.541	5638.67
730.882	5651.55
731.224	5680.92
731.565	5618.78
731.906	5657.87
732.248	5678.89
732.589	5631.43
732.93	5622.85
733.271	5624.65
733.612	5598.44
733.953	5646.57
734.294	5666.91
734.635	5615.16
734.976	5646.12
735.317	5610.64
735.658	5632.79
735.999	5699.45
736.339	5704.43
736.68	5673.47
737.021	5673.69
737.361	5679.57
737.702	5698.32
738.042	5664.88
738.383	5665.78
738.723	5716.4
739.063	5767.02
739.404	5748.49
739.744	5711.66
740.084	5714.6
740.424	5743.3
740.764	5716.4
741.104	5787.81
741.444	5711.21
741.784	5762.28
742.124	5769.28
742.464	5832.56
742.804	5817.87
743.143	5825.33
743.483	5894.03
743.823	5844.08
744.162	5919.79
744.502	5928.83
744.841	6000.24
745.181	5973.12
745.52	5963.4
745.86	5999.56
746.199	6079.78
746.538	6083.85
746.877	6141.7
747.216	6204.75
747.556	6151.65
747.895	6274.35
748.234	6294.69
748.573	6308.93
748.911	6382.15
749.25	6462.82
749.589	6469.38
749.928	6507.12
750.267	6611.3
750.605	6633.44
750.944	6718.86
751.283	6772.65
751.621	6861.68
751.96	6928.12
752.298	7046.76
752.636	7116.59
752.975	7158.85
753.313	7299.41
753.651	7361.11
753.989	7426.87
754.327	7549.8
754.666	7603.13
755.004	7782.79
755.342	7925.38
755.679	8096.45
756.017	8115.89
756.355	8264.36
756.693	8406.05
757.031	8543.45
757.368	8620.96
757.706	8857.34
758.044	8902.31
758.381	9116.31
758.719	9206.03
759.056	9411.22
759.394	9556.3
759.731	9689.41
760.068	9851.44
760.405	9933.02
760.743	10107.7
761.08	10284.87
761.417	10433.57
761.754	10586.78
762.091	10780.9
762.428	10864.97
762.765	11083.49
763.102	11358.51
763.438	11442.81
763.775	11604.16
764.112	11770.48
764.449	11988.33
764.785	12132.05
765.122	12250.24
765.458	12354.42
765.795	12532.04
766.131	12703.11
766.467	12912.6
766.804	13014.52
767.14	13123.89
767.476	13264.68
767.812	13362.98
768.148	13509.42
768.485	13669.64
768.821	13673.48
