Data from hue_28_FLMS001491_00012.txt Node
Date: Tue Feb 07 17:16:55 GMT 2017
User: dcchb
Spectrometer: FLMS00149
Trigger mode: 0
Integration Time (sec): 2.000000E-2
Scans to average: 10
Electric dark correction enabled: true
Nonlinearity correction enabled: false
Boxcar width: 0
XAxis mode: Wavelengths
Number of Pixels in Spectrum: 2048
>>>>>Begin Spectral Data<<<<<
341.393	-5.41
341.776	-5.41
342.16	-5.41
342.543	-52.19
342.927	-56.93
343.31	-53.77
343.693	-46.54
344.077	-76.14
344.46	-63.49
344.843	-48.12
345.226	-24.62
345.61	-44.96
345.993	-33.88
346.376	-5.64
346.759	16.06
347.142	17.19
347.525	41.37
347.908	56.96
348.291	59.45
348.674	89.96
349.057	116.17
349.44	126.56
349.823	154.81
350.206	164.53
350.588	212.89
350.971	218.09
351.354	223.74
351.737	224.87
352.119	248.82
352.502	261.02
352.884	281.36
353.267	307.58
353.65	307.35
354.032	299.22
354.414	319.33
354.797	319.1
355.179	325.88
355.562	345.77
355.944	335.82
356.326	319.33
356.709	349.16
357.091	338.76
357.473	340.8
357.855	349.61
358.238	349.61
358.62	342.6
359.002	357.97
359.384	335.37
359.766	363.39
360.148	357.74
360.53	346.22
360.912	332.43
361.294	353.45
361.676	339.44
362.057	331.08
362.439	340.57
362.821	326.33
363.203	336.73
363.584	319.55
363.966	337.86
364.348	311.42
364.729	317.52
365.111	318.88
365.493	344.19
365.874	340.57
366.256	310.97
366.637	318.2
367.019	328.59
367.4	325.2
367.781	323.85
368.163	330.4
368.544	313
368.925	315.94
369.306	336.5
369.688	330.17
370.069	347.12
370.45	325.88
370.831	335.15
371.212	323.62
371.593	324.75
371.974	315.26
372.355	327.01
372.736	313.23
373.117	333.79
373.498	315.03
373.879	329.27
374.26	322.27
374.641	319.78
375.021	323.4
375.402	321.14
375.783	336.5
376.163	327.46
376.544	327.69
376.925	340.34
377.305	332.43
377.686	341.47
378.066	329.5
378.447	319.1
378.827	331.08
379.208	348.48
379.588	353.45
379.968	333.34
380.349	355.71
380.729	321.59
381.109	340.12
381.489	334.02
381.87	341.93
382.25	341.93
382.63	334.69
383.01	332.89
383.39	331.3
383.77	359.1
384.15	366.56
384.53	353.9
384.91	330.17
385.29	358.2
385.67	340.34
386.049	365.43
386.429	367.91
386.809	367.24
387.189	357.97
387.568	350.29
387.948	355.26
388.328	357.52
388.707	362.49
389.087	384.41
389.466	384.18
389.846	354.36
390.225	383.73
390.605	365.65
390.984	362.72
391.363	362.04
391.743	382.15
392.122	380.57
392.501	380.34
392.881	398.2
393.26	370.17
393.639	382.15
394.018	382.83
394.397	379.67
394.776	385.77
395.155	383.96
395.534	388.03
395.913	389.16
396.292	379.89
396.671	391.87
397.05	362.04
397.429	395.71
397.808	387.8
398.186	393.22
398.565	385.31
398.944	383.73
399.323	394.35
399.701	403.62
400.08	416.5
400.458	422.83
400.837	400.23
401.215	405.65
401.594	405.43
401.972	385.09
402.351	386.9
402.729	418.08
403.107	427.57
403.486	429.16
403.864	430.06
404.242	400.23
404.62	446.1
404.999	435.93
405.377	420.79
405.755	433.45
406.133	443.84
406.511	416.73
406.889	445.2
407.267	442.04
407.645	439.55
408.023	453.56
408.401	438.65
408.779	424.41
409.156	433.68
409.534	457.86
409.912	445.43
410.29	443.62
410.667	472.54
411.045	456.95
411.422	442.04
411.8	450.4
412.178	456.73
412.555	481.13
412.933	468.48
413.31	467.8
413.687	494.69
414.065	478.19
414.442	490.62
414.819	475.93
415.197	478.19
415.574	493.56
415.951	475.71
416.328	487.01
416.705	491.53
417.082	491.53
417.46	487.68
417.837	510.51
418.214	508.25
418.591	527.91
418.967	518.64
419.344	517.29
419.721	508.7
420.098	510.28
420.475	520.9
420.852	547.57
421.228	541.92
421.605	531.3
421.982	528.36
422.358	534.92
422.735	533.56
423.111	549.38
423.488	547.34
423.864	535.82
424.241	571.52
424.617	552.09
424.994	567.91
425.37	559.1
425.746	557.51
426.123	573.56
426.499	558.64
426.875	576.72
427.251	578.53
427.627	585.76
428.003	582.82
428.379	596.38
428.756	576.27
429.132	603.84
429.507	615.14
429.883	607.46
430.259	610.85
430.635	630.73
431.011	629.6
431.387	630.73
431.763	632.54
432.138	616.5
432.514	656.27
432.89	633.44
433.265	653.56
433.641	666.44
434.016	668.02
434.392	661.92
434.767	689.71
435.143	668.7
435.518	670.73
435.894	686.1
436.269	689.94
436.644	677.28
437.02	711.41
437.395	699.88
437.77	717.06
438.145	704.18
438.52	727
438.895	731.07
439.271	725.42
439.646	734.46
440.021	754.8
440.395	736.72
440.77	733.78
441.145	718.64
441.52	742.14
441.895	736.04
442.27	740.11
442.645	752.76
443.019	764.06
443.394	762.71
443.769	735.59
444.143	769.26
444.518	776.04
444.892	761.8
445.267	804.96
445.641	782.82
446.016	786.43
446.39	799.54
446.764	816.72
447.139	820.78
447.513	783.72
447.887	792.99
448.262	819.2
448.636	824.85
449.01	864.4
449.384	842.03
449.758	816.72
450.132	847.9
450.506	836.38
450.88	812.42
451.254	850.61
451.628	850.16
452.002	862.36
452.376	888.35
452.75	882.02
453.123	881.8
453.497	887.67
453.871	882.7
454.244	881.12
454.618	915.7
454.992	918.41
455.365	929.26
455.739	934.68
456.112	957.96
456.486	950.27
456.859	952.76
457.232	1021
457.606	996.37
457.979	996.6
458.352	995.47
458.725	996.82
459.099	1010.84
459.472	1049.03
459.845	1050.61
460.218	1055.13
460.591	1065.97
460.964	1056.48
461.337	1083.38
461.71	1096.26
462.083	1135.13
462.456	1117.5
462.829	1093.32
463.201	1145.75
463.574	1147.78
463.947	1181.45
464.32	1182.58
464.692	1202.92
465.065	1159.76
465.438	1200.21
465.81	1218.97
466.183	1237.95
466.555	1255.35
466.928	1254.22
467.3	1251.28
467.672	1283.82
468.045	1304.39
468.417	1321.11
468.789	1328.11
469.161	1329.7
469.534	1333.09
469.906	1386.19
470.278	1395.68
470.65	1416.25
471.022	1455.12
471.394	1470.03
471.766	1500.99
472.138	1493.76
472.51	1529.69
472.882	1545.74
473.253	1585.06
473.625	1585.51
473.997	1631.84
474.369	1638.84
474.74	1672.29
475.112	1710.25
475.484	1733.53
475.855	1753.19
476.227	1801.1
476.598	1830.25
476.97	1828.67
477.341	1900.98
477.713	1921.09
478.084	1960.41
478.455	2040.64
478.827	2018.94
479.198	2071.15
479.569	2085.61
479.94	2152.5
480.311	2177.81
480.682	2241.31
481.053	2318.6
481.424	2342.55
481.795	2376.22
482.166	2392.04
482.537	2470.46
482.908	2470.01
483.279	2534.41
483.65	2592.26
484.021	2653.96
484.391	2700.06
484.762	2732.15
485.133	2777.79
485.503	2832.93
485.874	2902.99
486.244	2936.21
486.615	3009.65
486.985	3065.02
487.356	3068.86
487.726	3119.71
488.097	3208.74
488.467	3258.69
488.837	3356.08
489.207	3347.04
489.578	3457.78
489.948	3472.69
490.318	3515.63
490.688	3579.13
491.058	3648.51
491.428	3695.28
491.798	3767.82
492.168	3827.26
492.538	3863.19
492.908	3889.86
493.278	3961.04
493.648	3964.2
494.017	4041.94
494.387	4034.48
494.757	4102.96
495.126	4210.3
495.496	4232.45
495.866	4240.58
496.235	4331.65
496.605	4388.15
496.974	4414.36
497.344	4422.04
497.713	4539.78
498.082	4536.84
498.452	4548.14
498.821	4583.62
499.19	4616.39
499.559	4679.44
499.928	4735.03
500.298	4765.76
500.667	4848.02
501.036	4779.1
501.405	4882.6
501.774	4871.52
502.143	4935.7
502.512	4936.61
502.88	4970.73
503.249	4990.39
503.618	5082.82
503.987	5114.68
504.356	5097.06
504.724	5093.44
505.093	5134.12
505.462	5189.48
505.83	5215.02
506.199	5270.84
506.567	5322.81
506.936	5339.08
507.304	5394.22
507.672	5355.13
508.041	5401
508.409	5483.03
508.777	5497.27
509.145	5587.89
509.514	5531.85
509.882	5584.95
510.25	5577.49
510.618	5630.83
510.986	5621.34
511.354	5713.31
511.722	5707.21
512.09	5723.93
512.458	5741.78
512.826	5771.39
513.193	5838.05
513.561	5843.7
513.929	5858.84
514.297	5934.55
514.664	5888.22
515.032	5967.54
515.4	5961.89
515.767	6053.87
516.135	6036.92
516.502	6082.34
516.869	6139.74
517.237	6158.27
517.604	6127.31
517.972	6153.52
518.339	6203.24
518.706	6229.45
519.073	6200.76
519.44	6244.6
519.808	6312.16
520.175	6309.45
520.542	6359.17
520.909	6393.52
521.276	6402.78
521.643	6456.12
522.009	6479.62
522.376	6537.02
522.743	6524.81
523.11	6633.74
523.477	6676.67
523.843	6657.24
524.21	6722.78
524.577	6746.28
524.943	6814.75
525.31	6796.45
525.676	6891.36
526.043	6919.38
526.409	6912.6
526.776	6965.25
527.142	7018.36
527.508	7059.04
527.874	7115.76
528.241	7100.17
528.607	7121.86
528.973	7246.38
529.339	7200.95
529.705	7288.18
530.071	7275.98
530.437	7297
530.803	7327.73
531.169	7370.67
531.535	7398.24
531.901	7400.05
532.267	7460.61
532.632	7469.65
532.998	7529.99
533.364	7656.76
533.73	7592.58
534.095	7666.03
534.461	7680.72
534.826	7688.63
535.192	7741.28
535.557	7797.32
535.923	7908.51
536.288	7863.31
536.653	7917.09
537.019	7894.5
537.384	7941.05
537.749	7990.31
538.114	8039.35
538.479	8054.27
538.845	8056.53
539.21	8056.07
539.575	8109.63
539.94	8156.18
540.305	8161.61
540.67	8191.44
541.034	8266.69
541.399	8288.16
541.764	8291.32
542.129	8351.43
542.494	8391.21
542.858	8364.77
543.223	8394.14
543.587	8436.4
543.952	8500.36
544.316	8491.54
544.681	8500.58
545.045	8608.6
545.41	8655.61
545.774	8650.63
546.138	8725.43
546.503	8699.22
546.867	8729.95
547.231	8835.49
547.595	8827.13
547.959	8908.03
548.324	8882.72
548.688	8882.04
549.052	8937.86
549.416	8912.32
549.779	8922.72
550.143	9043.17
550.507	9096.72
550.871	9056.27
551.235	9095.14
551.599	9188.02
551.962	9150.96
552.326	9242.03
552.689	9259.43
553.053	9207.23
553.417	9263.5
553.78	9337.17
554.143	9293.1
554.507	9365.42
554.87	9381.24
555.234	9509.59
555.597	9443.38
555.96	9537.39
556.323	9521.8
556.686	9479.31
557.05	9618.29
557.413	9631.17
557.776	9614.68
558.139	9729.02
558.502	9694.22
558.865	9638.86
559.228	9769.25
559.59	9815.35
559.953	9810.6
560.316	10002.01
560.679	9913.43
561.041	10000.43
561.404	10009.02
561.767	10025.97
562.129	10090.14
562.492	10195.23
562.854	10116.13
563.217	10174.21
563.579	10180.31
563.941	10248.11
564.304	10314.32
564.666	10325.39
565.028	10308.9
565.39	10382.11
565.753	10444.26
566.115	10463.47
566.477	10477.25
566.839	10504.37
567.201	10571.94
567.563	10609
567.925	10695.78
568.287	10699.85
568.648	10769.9
569.01	10734.65
569.372	10846.06
569.734	10768.54
570.095	10835.66
570.457	10928.54
570.819	10936
571.18	10941.65
571.542	11033.85
571.903	11079.04
572.265	11151.36
572.626	11183
572.987	11294.86
573.349	11227.29
573.71	11373.73
574.071	11406.27
574.432	11474.74
574.794	11653.49
575.155	11651.23
575.516	11724.68
575.877	11752.25
576.238	11818.01
576.599	11918.34
576.96	12012.35
577.32	12036.53
577.681	12182.74
578.042	12296.87
578.403	12385.45
578.763	12421.16
579.124	12588.38
579.485	12706.57
579.845	12801.26
580.206	12865.66
580.566	13029.73
580.927	13206.22
581.287	13316.27
581.648	13404.41
582.008	13612.54
582.368	13741.35
582.728	13925.52
583.089	14028.12
583.449	14202.58
583.809	14437.37
584.169	14607.54
584.529	14685.5
584.889	15065.61
585.249	15063.8
585.609	15246.62
585.969	15632.82
586.329	15769.54
586.688	16030.1
587.048	16242.3
587.408	16434.16
587.768	16675.28
588.127	16918.67
588.487	17076.63
588.846	17444.08
589.206	17610.4
589.565	17834.57
589.925	18173.1
590.284	18443.6
590.643	18738.96
591.003	19120.64
591.362	19341.2
591.721	19605.15
592.08	19805.6
592.44	20155.64
592.799	20440.15
593.158	20510.44
593.517	20988.16
593.876	21349.96
594.235	21485.78
594.593	21895.71
594.952	22171.86
595.311	22391.06
595.67	22696.14
596.029	23127.77
596.387	23458.61
596.746	23734.53
597.104	23972.04
597.463	24228.98
597.822	24556.66
598.18	24781.06
598.538	24979.24
598.897	25516.41
599.255	25584.88
599.613	26236.84
599.972	26273
600.33	26628.92
600.688	26847.9
601.046	27221.22
601.404	27620.53
601.762	27859.17
602.12	28173.74
602.478	28511.35
602.836	28640.39
603.194	28714.29
603.552	29137.33
603.91	29320.37
604.268	29671.1
604.625	29788.38
604.983	30273.57
605.341	30258.43
605.698	30525.31
606.056	31004.85
606.413	31141.79
606.771	31479.19
607.128	31761.66
607.485	31767.09
607.843	32158.26
608.2	32427.18
608.557	32673.51
608.914	32789.21
609.272	33176.99
609.629	33385.58
609.986	33743.53
610.343	33797.09
610.7	34044.54
611.057	34125.22
611.414	34441.59
611.771	34514.13
612.127	34910.73
612.484	34948.47
612.841	35258.3
613.198	35405.86
613.554	35465.07
613.911	35903.25
614.267	35990.25
614.624	36111.38
614.98	36323.8
615.337	36485.16
615.693	36580.97
616.05	36730.57
616.406	37118.81
616.762	37071.13
617.118	37110.9
617.475	37525.13
617.831	37570.78
618.187	37729.64
618.543	37831.79
618.899	38279.01
619.255	38253.47
619.611	38280.59
619.967	38489.4
620.323	38767.58
620.678	38576.85
621.034	38613.91
621.39	38818.88
621.746	38789.05
622.101	39300.68
622.457	39182.26
622.812	39168.93
623.168	39367.11
623.523	39567.34
623.879	39619.31
624.234	39508.58
624.589	39790.83
624.945	39801.68
625.3	39898.63
625.655	40025.85
626.01	40071.28
626.365	40180.43
626.72	40093.42
627.075	40233.08
627.43	40337.03
627.785	40130.26
628.14	40429.91
628.495	40596.23
628.85	40376.58
629.205	40460.19
629.559	40676.23
629.914	40641.88
630.269	40674.65
630.623	40494.54
630.978	40590.59
631.332	40752.84
631.687	40908.54
632.041	40717.14
632.396	40843.01
632.75	40903.12
633.104	40847.3
633.459	40780.41
633.813	40774.31
634.167	40865.61
634.521	40852.05
634.875	40943.12
635.229	40875.1
635.583	40672.17
635.937	40785.16
636.291	40903.57
636.645	40921.88
636.999	40626.74
637.352	40911.48
637.706	40756
638.06	40984.93
638.413	40798.04
638.767	40768.43
639.121	40934.53
639.474	40637.59
639.828	40650.24
640.181	40638.72
640.534	40687.31
640.888	40615.9
641.241	40619.74
641.594	40683.69
641.947	40707.42
642.301	40558.27
642.654	40701.09
643.007	40707.19
643.36	40760.98
643.713	40725.5
644.066	40779.96
644.419	40497.71
644.771	40218.84
645.124	39929.13
645.477	39989.47
645.83	39700.89
646.182	39539.77
646.535	39441.01
646.888	39537.28
647.24	39382.93
647.593	39676.03
647.945	39638.97
648.298	39325.08
648.65	39216.61
649.002	39260.45
649.355	39482.37
649.707	39285.08
650.059	39560.56
650.411	39978.4
650.763	40017.72
651.115	40541.55
651.467	40205.96
651.819	40354.21
652.171	40168.68
652.523	40209.13
652.875	40138.85
653.227	39933.65
653.578	40380.42
653.93	40024.95
654.282	40010.04
654.633	39990.38
654.985	39918.06
655.337	39998.96
655.688	40113.76
656.039	40142.24
656.391	39784.5
656.742	40045.74
657.094	40159.86
657.445	40150.14
657.796	40050.49
658.147	39993.76
658.498	40015.69
658.849	40062.01
659.2	39903.82
659.551	39876.25
659.902	40050.94
660.253	39863.37
660.604	39956.25
660.955	39821.79
661.306	39990.38
661.656	39874.67
662.007	39841.23
662.358	40032.86
662.708	39927.78
663.059	39940.88
663.409	39689.37
663.76	39952.86
664.11	39923.26
664.461	39915.12
664.811	39913.99
665.161	39864.73
665.511	39840.55
665.862	39860.43
666.212	40031.28
666.562	39917.38
666.912	39799.65
667.262	39736.14
667.612	39804.39
667.962	39911.06
668.312	39758.52
668.662	40167.55
669.011	39951.51
669.361	39868.12
669.711	39890.94
670.06	39828.57
670.41	39616.83
670.76	39730.27
671.109	39807.78
671.459	39715.35
671.808	39585.87
672.157	39788.12
672.507	39365.76
672.856	39422.48
673.205	39499.54
673.554	39679.2
673.904	39493.44
674.253	39634.23
674.602	39505.64
674.951	38941.82
675.3	38882.16
675.649	39466.32
675.998	39370.05
676.346	39444.63
676.695	39641.68
677.044	39113.79
677.393	39452.54
677.741	39357.17
678.09	39441.24
678.438	39228.59
678.787	39358.53
679.135	39384.29
679.484	38988.14
679.832	39326.21
680.181	39044.64
680.529	39170.74
680.877	38947.92
681.225	39048.25
681.573	39372.09
681.922	38823.4
682.27	38836.06
682.618	38886.9
682.966	38775.04
683.314	38822.04
683.661	38646.91
684.009	38542.96
684.357	38444.65
684.705	38371.89
685.053	38449.85
685.4	38366.69
685.748	38229.74
686.095	38238.33
686.443	38170.76
686.79	38021.16
687.138	38121.5
687.485	38106.36
687.832	37913.82
688.18	37905.01
688.527	37686.25
688.874	37703.88
689.221	37689.19
689.568	37666.59
689.915	37433.83
690.262	37569.42
690.609	37376.21
690.956	37341.41
691.303	37216.66
691.65	37009.89
691.997	37047.18
692.344	36910.46
692.69	36927.86
693.037	36894.19
693.383	36713.85
693.73	36771.02
694.077	36535.78
694.423	36523.12
694.769	36454.87
695.116	36385.27
695.462	36383.92
695.808	36244.03
696.155	36257.82
696.501	36000.2
696.847	35957.71
697.193	35615.12
697.539	35893.53
697.885	35635.69
698.231	35623.71
698.577	35549.59
698.923	35489.93
699.269	35355.69
699.614	35110.05
699.96	35182.14
700.306	35167.68
700.651	35009.04
700.997	34945.99
701.342	34748.03
701.688	34760.68
702.033	34651.76
702.379	34534.02
702.724	34471.42
703.069	34659.44
703.415	34189.17
703.76	34292.9
704.105	34332.67
704.45	34191.43
704.795	34005.45
705.14	33845
705.485	33892.23
705.83	33727.49
706.175	33714.83
706.52	33717.32
706.865	33655.63
707.209	33527.04
707.554	33363.66
707.899	33523.65
708.243	33351.23
708.588	33317.33
708.932	33045.7
709.277	33090.9
709.621	33035.08
709.966	32752.83
710.31	32806.84
710.654	32731.36
710.998	32684.8
711.342	32760.28
711.687	32595.77
712.031	32446.17
712.375	32335.89
712.719	32316.45
713.063	32196.68
713.407	32379.28
713.75	32184.48
714.094	32186.29
714.438	31989.23
714.782	32078.04
715.125	31830.82
715.469	31895.22
715.812	31760.99
716.156	31782
716.499	31738.16
716.843	31582.01
717.186	31442.13
717.53	31588.79
717.873	31706.53
718.216	31549.47
718.559	31290.72
718.902	31238.51
719.246	31303.6
719.589	31145.86
719.932	31091.63
720.275	31131.4
720.617	31009.37
720.96	30979.09
721.303	30932.08
721.646	31016.6
721.989	30775.7
722.331	30867.68
722.674	30667.91
723.016	30883.27
723.359	30736.16
723.701	30699.32
724.044	30480.34
724.386	30409.61
724.729	30589.94
725.071	30427.91
725.413	30353.34
725.755	30332.1
726.097	30278.77
726.439	30143.63
726.782	30160.13
727.124	30276.96
727.465	30038.55
727.807	29987.93
728.149	30008.72
728.491	29934.14
728.833	29814.82
729.175	29740.7
729.516	29762.4
729.858	29760.81
730.199	29697.09
730.541	29762.85
730.882	29627.71
731.224	29706.58
731.565	29523.98
731.906	29532.12
732.248	29615.96
732.589	29480.37
732.93	29225.69
733.271	29361.28
733.612	29333.93
733.953	29442.4
734.294	29202.18
734.635	29157.67
734.976	29274.95
735.317	29084
735.658	29027.73
735.999	29048.29
736.339	29070.44
736.68	29136.42
737.021	28995.41
737.361	28760.16
737.702	28936.88
738.042	28889.65
738.383	28749.31
738.723	28880.61
739.063	28764.23
739.404	28709.54
739.744	28724.91
740.084	28490.79
740.424	28578.25
740.764	28567.62
741.104	28662.31
741.444	28364.69
741.784	28430
742.124	28440.4
742.464	28409.44
742.804	28399.95
743.143	28251.25
743.483	28216.45
743.823	28088.77
744.162	28081.76
744.502	28147.97
744.841	27983.23
745.181	28123.34
745.52	27936
745.86	28036.79
746.199	27941.2
746.538	27884.25
746.877	27945.04
747.216	27878.83
747.556	27779.17
747.895	27804.25
748.234	27629.12
748.573	27676.8
748.911	27682.68
749.25	27601.77
749.589	27408.11
749.928	27531.95
750.267	27561.55
750.605	27394.32
750.944	27376.47
751.283	27364.04
751.621	27465.96
751.96	27229.35
752.298	27170.15
752.636	27123.82
752.975	27032.98
753.313	27083.82
753.651	27166.76
753.989	27085.63
754.327	26988.68
754.666	26813.32
755.004	26788.69
755.342	26799.08
755.679	26729.93
756.017	26617.85
756.355	26697.62
756.693	26528.81
757.031	26554.57
757.368	26450.17
757.706	26390.73
758.044	26294.69
758.381	26349.15
758.719	26126.33
759.056	26220.12
759.394	26089.5
759.731	25999.78
760.068	25962.72
