Data from hue_170_FLMS001491_00051.txt Node
Date: Tue Feb 07 16:48:52 GMT 2017
User: dcchb
Spectrometer: FLMS00149
Trigger mode: 0
Integration Time (sec): 2.000000E-2
Scans to average: 10
Electric dark correction enabled: true
Nonlinearity correction enabled: false
Boxcar width: 0
XAxis mode: Wavelengths
Number of Pixels in Spectrum: 2048
>>>>>Begin Spectral Data<<<<<
341.393	-8.56
341.776	-8.56
342.16	-8.56
342.543	-56.47
342.927	-77.03
343.31	-79.52
343.693	-63.47
344.077	-67.54
344.46	-42.46
344.843	-44.04
345.226	-44.04
345.61	-43.59
345.993	-19.86
346.376	-8.33
346.759	29.86
347.142	34.38
347.525	55.85
347.908	54.94
348.291	69.18
348.674	80.03
349.057	88.61
349.44	123.19
349.823	141.72
350.206	152.57
350.588	199.12
350.971	203.41
351.354	219.91
351.737	243.86
352.119	241.15
352.502	249.97
352.884	281.15
353.267	280.25
353.65	292
354.032	296.74
354.414	321.6
354.797	285.67
355.179	315.73
355.562	327.7
355.944	328.61
356.326	318.44
356.709	336.29
357.091	352.79
357.473	348.27
357.855	329.29
358.238	352.34
358.62	313.47
359.002	346.69
359.384	333.35
359.766	348.04
360.148	349.4
360.53	347.36
360.912	341.49
361.294	340.58
361.676	326.12
362.057	346.23
362.439	329.74
362.821	329.74
363.203	332.67
363.584	358.89
363.966	333.8
364.348	350.3
364.729	339
365.111	314.6
365.493	322.05
365.874	324.99
366.256	325.22
366.637	287.48
367.019	313.24
367.4	325.67
367.781	310.08
368.163	321.6
368.544	322.73
368.925	317.31
369.306	324.31
369.688	317.08
370.069	311.43
370.45	324.31
370.831	295.61
371.212	310.98
371.593	302.85
371.974	340.58
372.355	317.76
372.736	306.01
373.117	342.17
373.498	299.46
373.879	308.04
374.26	324.54
374.641	310.3
375.021	305.33
375.402	339.45
375.783	318.66
376.163	311.88
376.544	340.58
376.925	316.63
377.305	328.61
377.686	331.32
378.066	332.9
378.447	347.59
378.827	315.05
379.208	346.46
379.588	352.56
379.968	330.19
380.349	339.68
380.729	334.03
381.109	343.07
381.489	322.51
381.87	336.52
382.25	337.87
382.63	338.1
383.01	362.5
383.39	329.51
383.77	342.62
384.15	334.71
384.53	342.39
384.91	358.66
385.29	343.3
385.67	358.44
386.049	358.66
386.429	353.01
386.809	362.5
387.189	344.88
387.568	372.45
387.948	356.18
388.328	382.62
388.707	371.54
389.087	355.27
389.466	361.37
389.846	343.97
390.225	339.68
390.605	379.91
390.984	383.07
391.363	376.74
391.743	375.39
392.122	375.16
392.501	385.33
392.881	367.25
393.26	384.42
393.639	373.35
394.018	389.4
394.397	380.13
394.776	393.92
395.155	377.42
395.534	398.44
395.913	373.8
396.292	386.01
396.671	360.47
397.05	400.02
397.429	404.09
397.808	393.69
398.186	388.27
398.565	406.57
398.944	400.02
399.323	414.25
399.701	396.4
400.08	409.06
400.458	389.85
400.837	391.43
401.215	413.58
401.594	412.9
401.972	410.19
402.351	406.35
402.729	437.76
403.107	442.28
403.486	450.41
403.864	419.68
404.242	432.33
404.62	423.07
404.999	431.66
405.377	440.69
405.755	436.63
406.133	413.35
406.511	444.31
406.889	456.74
407.267	432.11
407.645	455.38
408.023	463.07
408.401	467.36
408.779	470.98
409.156	466.46
409.534	483.18
409.912	468.72
410.29	473.01
410.667	494.03
411.045	494.03
411.422	509.39
411.8	499.22
412.178	506.68
412.555	527.47
412.933	535.38
413.31	535.83
413.687	540.35
414.065	563.18
414.442	551.65
414.819	557.75
415.197	521.82
415.574	548.94
415.951	570.18
416.328	547.81
416.705	569.5
417.082	573.8
417.46	569.28
417.837	597.53
418.214	585.32
418.591	594.59
418.967	607.92
419.344	598.88
419.721	596.4
420.098	608.15
420.475	638.66
420.852	613.8
421.228	637.75
421.605	629.84
421.982	648.37
422.358	656.06
422.735	664.87
423.111	641.14
423.488	664.64
423.864	666.23
424.241	684.98
424.617	685.43
424.994	727.47
425.37	689.73
425.746	701.25
426.123	723.17
426.499	726.56
426.875	743.51
427.251	720.91
427.627	743.96
428.003	767.92
428.379	773.12
428.756	777.86
429.132	768.14
429.507	788.03
429.883	814.7
430.259	811.53
430.635	835.49
431.011	822.83
431.387	811.76
431.763	847.92
432.138	836.16
432.514	833.45
432.89	865.09
433.265	904.19
433.641	910.06
434.016	903.06
434.392	918.65
434.767	953
435.143	935.37
435.518	977.63
435.894	935.82
436.269	959.1
436.644	990.51
437.02	988.02
437.395	982.83
437.77	1011.98
438.145	1038.87
438.52	1066.67
438.895	1049.04
439.271	1045.42
439.646	1069.6
440.021	1063.73
440.395	1103.95
440.77	1095.14
441.145	1105.54
441.52	1104.86
441.895	1098.53
442.27	1163.39
442.645	1151.18
443.019	1143.95
443.394	1156.83
443.769	1174.46
444.143	1170.17
444.518	1205.19
444.892	1207
445.267	1204.74
445.641	1213.33
446.016	1218.75
446.39	1261.24
446.764	1254.01
447.139	1272.76
447.513	1263.05
447.887	1272.09
448.262	1268.47
448.636	1272.99
449.01	1315.93
449.384	1319.54
449.758	1311.18
450.132	1335.36
450.506	1344.63
450.88	1352.99
451.254	1346.21
451.628	1365.64
452.002	1356.15
452.376	1410.16
452.75	1447.22
453.123	1419.65
453.497	1428.01
453.871	1484.28
454.244	1465.75
454.618	1520.44
454.992	1520.89
455.365	1535.13
455.739	1551.17
456.112	1565.18
456.486	1584.85
456.859	1626.2
457.232	1620.78
457.606	1610.83
457.979	1678.85
458.352	1696.71
458.725	1709.14
459.099	1748
459.472	1774.44
459.845	1785.97
460.218	1743.71
460.591	1804.95
460.964	1809.92
461.337	1884.05
461.71	1878.62
462.083	1920.88
462.456	1922.24
462.829	1956.81
463.201	2009.01
463.574	1966.76
463.947	2038.39
464.32	2071.84
464.692	2085.85
465.065	2098.96
465.438	2162.23
465.81	2197.71
466.183	2220.31
466.555	2271.61
466.928	2312.06
467.3	2281.55
467.672	2376.91
468.045	2383.24
468.417	2455.78
468.789	2445.84
469.161	2482.67
469.534	2571.03
469.906	2618.72
470.278	2596.8
470.65	2622.56
471.022	2696
471.394	2825.26
471.766	2829.11
472.138	2848.09
472.51	2954.98
472.882	2994.07
473.253	3034.52
473.625	3056.67
473.997	3139.61
474.369	3242.65
474.74	3260.96
475.112	3305.25
475.484	3358.36
475.855	3472.03
476.227	3526.94
476.598	3645.81
476.97	3709.99
477.341	3811.91
477.713	3880.6
478.084	3954.95
478.455	4092.35
478.827	4107.94
479.198	4275.17
479.569	4317.88
479.94	4449.18
480.311	4514.94
480.682	4662.05
481.053	4797.64
481.424	4876.51
481.795	4958.99
482.166	5100.46
482.537	5165.77
482.908	5322.37
483.279	5417.96
483.65	5532.09
484.021	5708.8
484.391	5791.29
484.762	5920.78
485.133	6031.28
485.503	6108.57
485.874	6247.77
486.244	6370.03
486.615	6527.99
486.985	6652.06
487.356	6808.66
487.726	6887.08
488.097	7062.89
488.467	7191.03
488.837	7334.75
489.207	7527.51
489.578	7654.52
489.948	7750.78
490.318	7945.58
490.688	7931.12
491.058	8173.37
491.428	8287.04
491.798	8472.8
492.168	8595.96
492.538	8750.53
492.908	8820.59
493.278	8992.11
493.648	9047.93
494.017	9209.5
494.387	9343.74
494.757	9442.94
495.126	9578.31
495.496	9607.23
495.866	9766.78
496.235	9776.95
496.605	9994.34
496.974	9997.28
497.344	10178.74
497.713	10254
498.082	10366.99
498.452	10548.45
498.821	10608.56
499.19	10595.46
499.559	10686.53
499.928	10889.91
500.298	10884.71
500.667	11056.23
501.036	11045.39
501.405	11186.4
501.774	11117.02
502.143	11321.54
502.512	11305.49
502.88	11467.3
503.249	11424.81
503.618	11561.31
503.987	11625.71
504.356	11625.71
504.724	11778.02
505.093	11796.78
505.462	11893.95
505.83	11904.57
506.199	12087.85
506.567	12157.9
506.936	12159.48
507.304	12276.54
507.672	12336.65
508.041	12276.99
508.409	12455.75
508.777	12521.73
509.145	12526.7
509.514	12602.86
509.882	12719.47
510.25	12636.53
510.618	12682.41
510.986	12729.19
511.354	12783.65
511.722	12940.7
512.09	12950.87
512.458	12928.28
512.826	13144.77
513.193	13066.13
513.561	13132.56
513.929	13185.67
514.297	13146.35
514.664	13266.57
515.032	13289.17
515.4	13366.23
515.767	13382.05
516.135	13464.53
516.502	13288.94
516.869	13465.66
517.237	13492.78
517.604	13398.77
517.972	13570.97
518.339	13596.96
518.706	13689.61
519.073	13600.8
519.44	13693
519.808	13669.5
520.175	13663.17
520.542	13762.83
520.909	13918.08
521.276	13836.5
521.643	13894.35
522.009	13932.09
522.376	13953.79
522.743	14076.27
523.11	14106.78
523.477	14139.54
523.843	14088.47
524.21	14207.11
524.577	14228.35
524.943	14301.12
525.31	14255.7
525.676	14338.63
526.043	14363.49
526.409	14379.99
526.776	14436.48
527.142	14447.11
527.508	14472.19
527.874	14516.03
528.241	14503.6
528.607	14447.33
528.973	14490.95
529.339	14507.44
529.705	14490.95
530.071	14631.51
530.437	14634.45
530.803	14577.5
531.169	14620.43
531.535	14536.14
531.901	14424.06
532.267	14611.17
532.632	14556.26
532.998	14583.83
533.364	14624.95
533.73	14593.09
534.095	14641
534.461	14547.44
534.826	14570.27
535.192	14497.27
535.557	14570.94
535.923	14452.53
536.288	14426.32
536.653	14380.67
537.019	14295.92
537.384	14372.76
537.749	14403.49
538.114	14296.6
538.479	14241.46
538.845	14233.55
539.21	14169.83
539.575	14233.55
539.94	14229.48
540.305	14173.44
540.67	13998.98
541.034	14068.13
541.399	14071.75
541.764	14067.68
542.129	14076.72
542.494	13976.84
542.858	13963.73
543.223	13949.49
543.587	13947.23
543.952	13717.41
544.316	13822.49
544.681	13778.65
545.045	13771.19
545.41	13723.74
545.774	13762.15
546.138	13648.71
546.503	13632.44
546.867	13528.26
547.231	13509.5
547.595	13523.97
547.959	13494.36
548.324	13385.89
548.688	13378.21
549.052	13379.11
549.416	13359.68
549.779	13266.57
550.143	13282.39
550.507	13292.33
550.871	13278.78
551.235	13266.8
551.599	13148.84
551.962	13178.89
552.326	13167.14
552.689	13178.89
553.053	13022.06
553.417	13039.01
553.78	13181.38
554.143	13003.98
554.507	13087.14
554.87	12957.65
555.234	13046.46
555.597	12884.21
555.96	12810.54
556.323	12916.07
556.686	12841.5
557.05	12927.15
557.413	12843.53
557.776	12850.31
558.139	12891.44
558.502	12868.39
558.865	12846.24
559.228	12853.7
559.59	12856.87
559.953	12805.12
560.316	12874.04
560.679	12866.81
561.041	12853.02
561.404	12854.15
561.767	12850.99
562.129	12752.24
562.492	12883.08
562.854	12805.12
563.217	12733.7
563.579	12815.51
563.941	12851.89
564.304	12842.4
564.666	12878.11
565.028	12890.99
565.39	12930.99
565.753	12928.28
566.115	12920.37
566.477	12898.22
566.839	12965.11
567.201	12939.58
567.563	12873.14
567.925	13030.65
568.287	12969.18
568.648	12922.17
569.01	13001.27
569.372	13004.43
569.734	13027.48
570.095	13025.67
570.457	13049.18
570.819	13069.74
571.18	13032.91
571.542	13087.82
571.903	13072
572.265	13105.45
572.626	13100.47
572.987	13144.32
573.349	13224.54
573.71	13141.83
574.071	13209.62
574.432	13188.61
574.794	13177.31
575.155	13208.95
575.516	13104.54
575.877	13208.27
576.238	13167.82
576.599	13164.65
576.96	13134.6
577.32	13222.73
577.681	13222.73
578.042	13221.83
578.403	13204.65
578.763	13181.83
579.124	13264.76
579.485	13225.22
579.845	13285.55
580.206	13227.93
580.566	13148.16
580.927	13220.92
581.287	13274.03
581.648	13186.35
582.008	13265.44
582.368	13274.93
582.728	13235.61
583.089	13124.43
583.449	13134.6
583.809	13133.47
584.169	13218.21
584.529	13046.92
584.889	13226.8
585.249	13087.37
585.609	13122.17
585.969	13196.97
586.329	13105.22
586.688	13159.23
587.048	13134.6
587.408	13054.83
587.768	13039.01
588.127	13057.09
588.487	12978.44
588.846	13125.11
589.206	13036.97
589.565	12977.54
589.925	13015.05
590.284	12976.86
590.643	12972.79
591.003	13012.12
591.362	13009.18
591.721	12952.46
592.08	12954.49
592.44	12968.27
592.799	12973.92
593.158	12970.76
593.517	12957.65
593.876	12942.51
594.235	12949.97
594.593	12863.87
594.952	12950.2
595.311	12877.66
595.67	12964.66
596.029	13023.64
596.387	13008.05
596.746	13010.53
597.104	12914.72
597.463	12899.12
597.822	12964.89
598.18	12970.08
598.538	12835.17
598.897	12921.04
599.255	12821.16
599.613	12982.74
599.972	12911.55
600.33	12827.04
600.688	12758.34
601.046	12909.52
601.404	12932.34
601.762	12889.41
602.12	12941.61
602.478	12874.49
602.836	12886.92
603.194	12797.88
603.552	12872.91
603.91	12780.48
604.268	12889.41
604.625	12817.54
604.983	12836.75
605.341	12850.31
605.698	12866.58
606.056	12942.74
606.413	12785
606.771	12996.75
607.128	12826.58
607.485	12847.37
607.843	12879.69
608.2	12932.12
608.557	12947.26
608.914	12891.67
609.272	13020.25
609.629	12952.91
609.986	12947.48
610.343	12869.75
610.7	13002.4
611.057	13072.68
611.414	12957.2
611.771	13035.39
612.127	13054.37
612.484	13081.04
612.841	13138.44
613.198	12965.34
613.554	13047.59
613.911	13156.52
614.267	13111.77
614.624	13075.39
614.98	13086.24
615.337	13060.02
615.693	13095.73
616.05	13144.77
616.406	13198.33
616.762	13110.42
617.118	13132.79
617.475	13037.2
617.831	13127.59
618.187	13155.39
618.543	13171.89
618.899	13220.47
619.255	13121.27
619.611	13216.86
619.967	13209.85
620.323	13240.81
620.678	13230.87
621.034	13182.96
621.39	13221.83
621.746	13179.34
622.101	13255.27
622.457	13149.74
622.812	13191.77
623.168	13238.32
623.523	13280.13
623.879	13271.77
624.234	13218.21
624.589	13256.85
624.945	13243.75
625.3	13202.62
625.655	13283.29
626.01	13253.01
626.365	13226.8
626.72	13223.41
627.075	13210.75
627.43	13185.9
627.785	13156.07
628.14	13235.16
628.495	13160.81
628.85	13116.75
629.205	13152.68
629.559	13237.65
629.914	13104.32
630.269	13174.6
630.623	13059.8
630.978	13119.01
631.332	13090.98
631.687	13154.48
632.041	13089.18
632.396	13110.42
632.75	13077.65
633.104	13057.09
633.459	12987.48
633.813	12976.64
634.167	13043.08
634.521	12932.8
634.875	13044.88
635.229	12995.17
635.583	12896.41
635.937	12881.5
636.291	12851.89
636.645	12817.32
636.999	12822.97
637.352	12865.23
637.706	12832.01
638.06	12825.23
638.413	12765.57
638.767	12780.94
639.121	12719.69
639.474	12726.25
639.828	12707.04
640.181	12730.09
640.534	12830.88
640.888	12722.41
641.241	12689.86
641.594	12730.77
641.947	12764.44
642.301	12685.8
642.654	12699.81
643.007	12671.79
643.36	12651.67
643.713	12629.98
644.066	12678.56
644.419	12589.98
644.771	12614.16
645.124	12418.01
645.477	12497.1
645.83	12350.44
646.182	12214.17
646.535	12310.21
646.888	12220.05
647.24	12189.09
647.593	12266.6
647.945	12196.32
648.298	12205.13
648.65	12138.92
649.002	12051.69
649.355	12244.45
649.707	12231.57
650.059	12276.77
650.411	12437.89
650.763	12409.19
651.115	12484.9
651.467	12554.05
651.819	12502.75
652.171	12510.21
652.523	12429.98
652.875	12422.07
653.227	12350.21
653.578	12502.52
653.93	12510.89
654.282	12366.03
654.633	12391.79
654.985	12434.28
655.337	12413.04
655.688	12460.94
656.039	12521.05
656.391	12471.34
656.742	12432.24
657.094	12428.63
657.445	12458.46
657.796	12489.64
658.147	12449.87
658.498	12415.07
658.849	12510.66
659.2	12510.43
659.551	12404.22
659.902	12508.17
660.253	12471.79
660.604	12469.53
660.955	12467.5
661.306	12519.7
661.656	12476.31
662.007	12497.33
662.358	12520.38
662.708	12526.03
663.059	12439.02
663.409	12407.84
663.76	12556.99
664.11	12464.79
664.461	12512.47
664.811	12482.64
665.161	12483.99
665.511	12449.87
665.862	12481.51
666.212	12546.14
666.562	12524.22
666.912	12465.24
667.262	12555.63
667.612	12504.78
667.962	12522.41
668.312	12505.24
668.662	12522.64
669.011	12535.29
669.361	12448.97
669.711	12503.2
670.06	12520.6
670.41	12401.96
670.76	12453.03
671.109	12504.56
671.459	12403.09
671.808	12426.82
672.157	12524.22
672.507	12402.19
672.856	12396.76
673.205	12340.27
673.554	12459.59
673.904	12405.35
674.253	12465.92
674.602	12453.49
674.951	12220.72
675.3	12128.52
675.649	12349.31
675.998	12296.43
676.346	12288.74
676.695	12366.03
677.044	12221.85
677.393	12315.18
677.741	12282.42
678.09	12329.2
678.438	12222.98
678.787	12265.24
679.135	12191.12
679.484	12154.28
679.832	12141.4
680.181	12154.28
680.529	12224.11
680.877	11997
681.225	12070.22
681.573	12209.88
681.922	12060.73
682.27	12068.19
682.618	12089.88
682.966	12029.77
683.314	12025.7
683.661	11940.28
684.009	11961.97
684.357	11853.28
684.705	11939.6
685.053	11856.21
685.4	11865.48
685.748	11730.57
686.095	11762.43
686.443	11739.38
686.79	11740.06
687.138	11778.7
687.485	11771.47
687.832	11656.9
688.18	11703
688.527	11588.65
688.874	11558.14
689.221	11593.17
689.568	11468.2
689.915	11438.15
690.262	11411.03
690.609	11434.08
690.956	11324.93
691.303	11295.1
691.65	11327.19
691.997	11287.64
692.344	11198.6
692.69	11212.39
693.037	11206.97
693.383	10988.44
693.73	11086.06
694.077	11005.84
694.423	10959.29
694.769	10971.94
695.116	10952.96
695.462	10941.21
695.808	10884.04
696.155	10890.82
696.501	10767.88
696.847	10797.03
697.193	10686.07
697.539	10678.39
697.885	10681.78
698.231	10621.9
698.577	10625.96
698.923	10507.1
699.269	10506.64
699.614	10459.64
699.96	10420.32
700.306	10460.32
700.651	10379.19
700.997	10300.32
701.342	10278.4
701.688	10209.03
702.033	10194.34
702.379	10195.69
702.724	10159.76
703.069	10162.47
703.415	10091.74
703.76	9962.03
704.105	10032.08
704.45	9959.31
704.795	9906.21
705.14	9900.78
705.485	9906.66
705.83	9837.06
706.175	9886.32
706.52	9799.77
706.865	9771.07
707.209	9737.17
707.554	9763.39
707.899	9688.14
708.243	9649.49
708.588	9632.54
708.932	9543.96
709.277	9505.54
709.621	9510.51
709.966	9476.84
710.31	9506.22
710.654	9421.93
710.998	9453.34
711.342	9422.83
711.687	9440.91
712.031	9314.13
712.375	9297.18
712.719	9254.25
713.063	9296.73
713.407	9314.13
713.75	9267.58
714.094	9266.45
714.438	9221.03
714.782	9175.38
715.125	9177.87
715.469	9224.42
715.812	9181.26
716.156	9148.04
716.499	9069.17
716.843	9093.35
717.186	9072.33
717.53	9145.78
717.873	9115.95
718.216	9044.76
718.559	9048.83
718.902	8920.25
719.246	9000.02
719.589	8983.75
719.932	8911.88
720.275	8979.23
720.617	8924.77
720.96	8974.93
721.303	8894.48
721.646	8912.79
721.989	8908.27
722.331	8873.47
722.674	8918.21
723.016	8842.96
723.359	8856.74
723.701	8886.57
724.044	8835.73
724.386	8842.51
724.729	8850.64
725.071	8841.15
725.413	8843.64
725.755	8819.68
726.097	8790.08
726.439	8741.95
726.782	8812.9
727.124	8732.45
727.465	8797.76
727.807	8783.07
728.149	8717.31
728.491	8751.66
728.833	8751.66
729.175	8685.22
729.516	8706.92
729.858	8745.34
730.199	8716.18
730.541	8694.26
730.882	8691.33
731.224	8761.83
731.565	8687.71
731.906	8687.94
732.248	8677.09
732.589	8701.72
732.93	8717.77
733.271	8664.43
733.612	8717.09
733.953	8736.07
734.294	8656.52
734.635	8640.93
734.976	8716.41
735.317	8662.85
735.658	8716.41
735.999	8643.87
736.339	8661.27
736.68	8703.98
737.021	8732.45
737.361	8718.9
737.702	8742.62
738.042	8694.04
738.383	8724.54
738.723	8763.19
739.063	8731.32
739.404	8754.37
739.744	8764.77
740.084	8755.96
740.424	8801.6
740.764	8757.76
741.104	8863.07
741.444	8746.24
741.784	8803.19
742.124	8892.22
742.464	8910.75
742.804	8856.74
743.143	8915.05
743.483	8879.12
743.823	8910.3
744.162	8932.45
744.502	8990.53
744.841	9014.71
745.181	9128.15
745.52	9089.96
745.86	9134.03
746.199	9134.48
746.538	9161.14
746.877	9293.34
747.216	9213.12
747.556	9324.75
747.895	9326.56
748.234	9364.08
748.573	9468.71
748.911	9509.16
749.25	9538.53
749.589	9582.83
749.928	9682.03
750.267	9760.45
750.605	9844.06
750.944	9892.65
751.283	10009.03
751.621	10061.01
751.96	10131.97
752.298	10238.86
752.636	10346.42
752.975	10431.39
753.313	10527.21
753.651	10636.58
753.989	10687.43
754.327	10780.54
754.666	10855.79
755.004	11037.93
755.342	11178.72
755.679	11306.85
756.017	11316.57
756.355	11610.12
756.693	11680.17
757.031	11838.14
757.368	11959.26
757.706	12177.79
