Data from hue_22_FLMS001491_00074.txt Node
Date: Tue Feb 07 17:10:37 GMT 2017
User: dcchb
Spectrometer: FLMS00149
Trigger mode: 0
Integration Time (sec): 2.000000E-2
Scans to average: 10
Electric dark correction enabled: true
Nonlinearity correction enabled: false
Boxcar width: 0
XAxis mode: Wavelengths
Number of Pixels in Spectrum: 2048
>>>>>Begin Spectral Data<<<<<
341.393	-7.29
341.776	-7.29
342.16	-7.29
342.543	-65.37
342.927	-59.49
343.31	-68.76
343.693	-75.76
344.077	-57.91
344.46	-54.97
344.843	-56.33
345.226	-37.57
345.61	-30.34
345.993	-17.68
346.376	-3.9
346.759	22.99
347.142	21.64
347.525	52.6
347.908	46.04
348.291	62.77
348.674	97.12
349.057	100.05
349.44	126.49
349.823	139.37
350.206	171.24
350.588	193.16
350.971	212.59
351.354	212.37
351.737	232.25
352.119	264.8
352.502	277.68
352.884	267.28
353.267	284.23
353.65	303.66
354.032	311.57
354.414	316.55
354.797	323.78
355.179	328.07
355.562	326.26
355.944	309.99
356.326	326.26
356.709	327.17
357.091	349.54
357.473	344.12
357.855	335.3
358.238	348.63
358.62	338.24
359.002	352.7
359.384	352.48
359.766	351.12
360.148	346.83
360.53	334.17
360.912	334.17
361.294	320.61
361.676	318.58
362.057	349.54
362.439	327.62
362.821	327.84
363.203	335.08
363.584	314.74
363.966	309.77
364.348	315.19
364.729	320.39
365.111	312.25
365.493	301.63
365.874	317.9
366.256	305.02
366.637	324
367.019	305.92
367.4	314.29
367.781	344.12
368.163	325.13
368.544	305.02
368.925	321.97
369.306	307.96
369.688	334.85
370.069	306.15
370.45	325.36
370.831	318.81
371.212	300.73
371.593	320.84
371.974	322.87
372.355	335.3
372.736	326.26
373.117	323.78
373.498	317.45
373.879	299.14
374.26	306.6
374.641	334.85
375.021	313.38
375.402	318.81
375.783	319.26
376.163	309.31
376.544	336.88
376.925	321.52
377.305	324.91
377.686	335.75
378.066	324.45
378.447	326.26
378.827	336.43
379.208	320.61
379.588	319.48
379.968	336.66
380.349	306.38
380.729	343.66
381.109	347.5
381.489	342.08
381.87	322.87
382.25	342.08
382.63	336.66
383.01	352.25
383.39	336.43
383.77	358.35
384.15	356.77
384.53	360.61
384.91	344.34
385.29	356.54
385.67	332.36
386.049	349.09
386.429	331.91
386.809	375.53
387.189	352.25
387.568	320.16
387.948	364.23
388.328	363.55
388.707	354.06
389.087	365.81
389.466	353.38
389.846	356.09
390.225	371.01
390.605	370.1
390.984	357.9
391.363	390.44
391.743	369.43
392.122	361.97
392.501	369.2
392.881	380.72
393.26	375.53
393.639	360.84
394.018	368.52
394.397	388.86
394.776	351.8
395.155	381.63
395.534	380.95
395.913	354.74
396.292	397.67
396.671	378.69
397.05	402.64
397.429	392.48
397.808	397.9
398.186	403.32
398.565	378.92
398.944	402.64
399.323	418.92
399.701	414.85
400.08	387.5
400.458	399.03
400.837	391.35
401.215	402.19
401.594	407.16
401.972	394.28
402.351	415.75
402.729	412.36
403.107	410.33
403.486	399.03
403.864	395.64
404.242	403.32
404.62	424.57
404.999	431.57
405.377	418.92
405.755	430.89
406.133	439.48
406.511	408.29
406.889	440.16
407.267	426.82
407.645	397.45
408.023	438.58
408.401	437.67
408.779	422.53
409.156	453.26
409.534	434.96
409.912	444.68
410.29	446.71
410.667	448.75
411.045	434.96
411.422	461.63
411.8	446.03
412.178	457.33
412.555	462.53
412.933	448.52
413.31	458.46
413.687	471.12
414.065	473.15
414.442	472.93
414.819	468.41
415.197	459.37
415.574	471.8
415.951	472.7
416.328	490.55
416.705	507.05
417.082	493.72
417.46	511.79
417.837	497.11
418.214	469.54
418.591	494.62
418.967	498.24
419.344	512.7
419.721	533.26
420.098	519.25
420.475	503.21
420.852	534.17
421.228	530.33
421.605	531.23
421.982	526.48
422.358	505.92
422.735	517.44
423.111	540.49
423.488	552.47
423.864	524
424.241	520.38
424.617	527.39
424.994	550.89
425.37	546.14
425.746	564
426.123	543.21
426.499	587.72
426.875	556.77
427.251	561.06
427.627	574.17
428.003	587.27
428.379	576.43
428.756	582.53
429.132	578.01
429.507	571
429.883	593.83
430.259	631.34
430.635	607.84
431.011	624.79
431.387	606.48
431.763	641.28
432.138	602.64
432.514	617.55
432.89	627.5
433.265	644.67
433.641	668.85
434.016	644.45
434.392	658.91
434.767	662.52
435.143	672.47
435.518	693.48
435.894	672.47
436.269	692.13
436.644	698.23
437.02	691.68
437.395	687.16
437.77	720.38
438.145	709.08
438.52	738
438.895	731.9
439.271	720.15
439.646	730.32
440.021	723.99
440.395	745.23
440.77	756.31
441.145	752.69
441.52	729.42
441.895	753.14
442.27	758.57
442.645	754.95
443.019	749.75
443.394	761.51
443.769	787.04
444.143	777.78
444.518	788.85
444.892	792.92
445.267	779.36
445.641	774.16
446.016	790.43
446.39	807.83
446.764	803.76
447.139	810.54
447.513	803.76
447.887	818.45
448.262	802.41
448.636	804.67
449.01	812.35
449.384	827.72
449.758	821.62
450.132	856.42
450.506	843.31
450.88	838.57
451.254	851.67
451.628	850.77
452.002	872.69
452.376	893.03
452.75	885.57
453.123	875.85
453.497	895.51
453.871	901.39
454.244	904.55
454.618	942.29
454.992	936.64
455.365	941.16
455.739	943.65
456.112	959.24
456.486	955.4
456.859	969.86
457.232	999.01
457.606	967.6
457.979	992.23
458.352	1016.64
458.725	1028.84
459.099	1028.39
459.472	1028.84
459.845	1055.51
460.218	1062.74
460.591	1055.51
460.964	1072.46
461.337	1081.05
461.71	1090.76
462.083	1106.36
462.456	1111.1
462.829	1112
463.201	1161.04
463.574	1158.78
463.947	1155.17
464.32	1189.06
464.692	1196.07
465.065	1197.65
465.438	1240.14
465.81	1230.65
466.183	1231.78
466.555	1265.9
466.928	1267.03
467.3	1293.47
467.672	1277.65
468.045	1326.46
468.417	1317.87
468.789	1335.05
469.161	1367.82
469.534	1401.71
469.906	1394.26
470.278	1411.88
470.65	1431.54
471.022	1441.26
471.394	1445.33
471.766	1497.53
472.138	1511.09
472.51	1530.75
472.882	1563.97
473.253	1582.27
473.625	1624.76
473.997	1631.31
474.369	1644.42
474.74	1654.59
475.112	1702.27
475.484	1739.78
475.855	1735.49
476.227	1754.25
476.598	1819.56
476.97	1863.85
477.341	1862.27
477.713	1922.38
478.084	1914.92
478.455	1986.56
478.827	2015.71
479.198	2067.69
479.569	2067.23
479.94	2127.35
480.311	2165.08
480.682	2186.55
481.053	2262.03
481.424	2295.25
481.795	2326.66
482.166	2328.02
482.537	2391.97
482.908	2441.01
483.279	2445.98
483.65	2481.69
484.021	2561.68
484.391	2601.01
484.762	2604.39
485.133	2612.76
485.503	2690.49
485.874	2763.49
486.244	2823.82
486.615	2841.9
486.985	2866.99
487.356	2938.62
487.726	2979.98
488.097	3023.59
488.467	3017.04
488.837	3128.45
489.207	3159.63
489.578	3211.61
489.948	3257.26
490.318	3258.16
490.688	3301.55
491.058	3359.86
491.428	3414.54
491.798	3452.28
492.168	3526.18
492.538	3556.46
492.908	3593.3
493.278	3659.96
493.648	3657.7
494.017	3716.46
494.387	3739.51
494.757	3766.17
495.126	3805.95
495.496	3805.49
495.866	3902.89
496.235	3917.81
496.605	3942.66
496.974	4005.94
497.344	4026.05
497.713	4058.37
498.082	4110.57
498.452	4124.13
498.821	4124.13
499.19	4172.94
499.559	4195.54
499.928	4227.4
500.298	4299.49
500.667	4341.98
501.036	4319.83
501.405	4322.99
501.774	4349.21
502.143	4438.92
502.512	4435.08
502.88	4481.18
503.249	4475.31
503.618	4498.81
503.987	4505.36
504.356	4583.1
504.724	4625.13
505.093	4609.54
505.462	4622.87
505.83	4653.38
506.199	4680.72
506.567	4698.58
506.936	4694.28
507.304	4816.99
507.672	4769.99
508.041	4846.14
508.409	4859.93
508.777	4897.89
509.145	4896.31
509.514	4921.85
509.882	4925.92
510.25	4980.38
510.618	5013.6
510.986	4951.23
511.354	4994.39
511.722	5032.58
512.09	5117.32
512.458	5055.86
512.826	5128.17
513.193	5194.16
513.561	5174.04
513.929	5204.1
514.297	5276.41
514.664	5292.23
515.032	5285.45
515.4	5335.62
515.767	5310.99
516.135	5388.28
516.502	5336.75
516.869	5395.51
517.237	5418.11
517.604	5429.41
517.972	5448.84
518.339	5450.2
518.706	5505.34
519.073	5525.22
519.44	5564.54
519.808	5617.42
520.175	5616.29
520.542	5636.41
520.909	5656.52
521.276	5655.39
521.643	5703.07
522.009	5769.74
522.376	5713.69
522.743	5789.4
523.11	5844.76
523.477	5852.44
523.843	5905.55
524.21	5962.05
524.577	5951.65
524.943	5987.58
525.31	5962.72
525.676	6088.82
526.043	6093.79
526.409	6091.53
526.776	6152.55
527.142	6204.53
527.508	6176.5
527.874	6279.55
528.241	6272.55
528.607	6299.44
528.973	6308.7
529.339	6356.61
529.705	6441.13
530.071	6464.18
530.437	6456.27
530.803	6527.23
531.169	6529.94
531.535	6560.67
531.901	6604.52
532.267	6585.76
532.632	6656.72
532.998	6633.67
533.364	6676.6
533.73	6709.15
534.095	6786.21
534.461	6808.8
534.826	6803.83
535.192	6873.44
535.557	6902.36
535.923	6864.85
536.288	6893.55
536.653	6981
537.019	6987.1
537.384	6970.61
537.749	7040.89
538.114	7051.06
538.479	7055.8
538.845	7068.91
539.21	7074.33
539.575	7120.66
539.94	7181.22
540.305	7213.54
540.67	7242.92
541.034	7293.09
541.399	7294.21
541.764	7350.71
542.129	7350.48
542.494	7398.85
542.858	7377.6
543.223	7385.06
543.587	7490.82
543.952	7471.84
544.316	7492.85
544.681	7430.71
545.045	7569.24
545.41	7594.09
545.774	7644.26
546.138	7669.57
546.503	7661.44
546.867	7593.87
547.231	7731.04
547.595	7754.54
547.959	7752.73
548.324	7788.67
548.688	7786.63
549.052	7857.59
549.416	7812.85
549.779	7869.79
550.143	7885.84
550.507	7952.95
550.871	7993.63
551.235	7977.36
551.599	8032.5
551.962	8060.52
552.326	8128.32
552.689	8180.97
553.053	8095.78
553.417	8138.94
553.78	8246.28
554.143	8234.76
554.507	8195.43
554.87	8218.71
555.234	8331.02
555.597	8256
555.96	8366.5
556.323	8338.03
556.686	8386.16
557.05	8453.96
557.413	8430.68
557.776	8462.55
558.139	8462.32
558.502	8505.48
558.865	8478.82
559.228	8610.11
559.59	8609.89
559.953	8632.48
560.316	8711.13
560.679	8750.22
561.041	8790.67
561.404	8789.09
561.767	8839.26
562.129	8818.02
562.492	8964.68
562.854	8905.02
563.217	8899.14
563.579	8939.82
563.941	8988.18
564.304	9072.93
564.666	9085.35
565.028	9086.48
565.39	9093.49
565.753	9132.36
566.115	9210.77
566.477	9213.03
566.839	9289.64
567.201	9279.25
567.563	9334.84
567.925	9434.27
568.287	9426.81
568.648	9398.79
569.01	9503.87
569.372	9547.04
569.734	9540.94
570.095	9631.1
570.457	9559.69
570.819	9688.5
571.18	9696.19
571.542	9735.73
571.903	9773.7
572.265	9826.8
572.626	9917.42
572.987	9856.63
573.349	9993.58
573.71	10068.38
574.071	9957.65
574.432	10157.64
574.794	10173.69
575.155	10171.2
575.516	10220.47
575.877	10297.53
576.238	10314.47
576.599	10473.11
576.96	10463.85
577.32	10581.36
577.681	10666.56
578.042	10784.52
578.403	10785.65
578.763	10889.83
579.124	11018.86
579.485	11129.37
579.845	11212.98
580.206	11346.54
580.566	11392.64
580.927	11465.63
581.287	11626.3
581.648	11739.3
582.008	11890.48
582.368	11989.68
582.728	12123.47
583.089	12278.26
583.449	12422.67
583.809	12515.32
584.169	12781.08
584.529	12871.02
584.889	13179.26
585.249	13284.34
585.609	13447.27
585.969	13628.74
586.329	13797.09
586.688	14066.47
587.048	14200.47
587.408	14445.89
587.768	14659.9
588.127	14797.29
588.487	15087.23
588.846	15384.85
589.206	15532.19
589.565	15797.49
589.925	16092.18
590.284	16338.04
590.643	16564.93
591.003	16930.57
591.362	17199.04
591.721	17438.58
592.08	17766.93
592.44	18063.65
592.799	18295.51
593.158	18597.65
593.517	18852.33
593.876	19180.23
594.235	19445.99
594.593	19746.77
594.952	20084.39
595.311	20351.72
595.67	20690.02
596.029	21047.75
596.387	21350.79
596.746	21708.3
597.104	21898.12
597.463	22273.03
597.822	22546.7
598.18	22886.57
598.538	23115.72
598.897	23613.33
599.255	23632.77
599.613	24357.72
599.972	24524.72
600.33	24925.84
600.688	25190.24
601.046	25558.14
601.404	25808.98
601.762	26009.43
602.12	26491.45
602.478	26729.18
602.836	27129.85
603.194	27193.8
603.552	27620.01
603.91	27873.33
604.268	28166.21
604.625	28347.67
604.983	28858.62
605.341	28941.78
605.698	29215.9
606.056	29694.98
606.413	29850.23
606.771	30122.09
607.128	30395.53
607.485	30631
607.843	30889.75
608.2	31250.2
608.557	31528.61
608.914	31714.59
609.272	32117.07
609.629	32376.27
609.986	32698.74
610.343	32782.36
610.7	33270.48
611.057	33374.89
611.414	33446.75
611.771	33610.36
612.127	34103.68
612.484	34207.86
612.841	34485.36
613.198	34602.42
613.554	34850.55
613.911	35069.08
614.267	35307.49
614.624	35496.86
614.98	35676.29
615.337	35968.94
615.693	36022.73
616.05	36179.78
616.406	36488.93
616.762	36672.43
617.118	36664.29
617.475	36876.04
617.831	37076.26
618.187	37313.76
618.543	37455.91
618.899	37800.08
619.255	37935.67
619.611	37912.17
619.967	38173.18
620.323	38316.22
620.678	38334.75
621.034	38444.81
621.39	38636.22
621.746	38663.11
622.101	39260.38
622.457	38886.15
622.812	39306.71
623.168	39286.82
623.523	39343.32
623.879	39619.69
624.234	39435.52
624.589	39547.6
624.945	39752.57
625.3	39951.21
625.655	39898.78
626.01	39902.17
626.365	40048.16
626.72	40188.94
627.075	40270.98
627.43	40227.81
627.785	40320.01
628.14	40491.99
628.495	40544.87
628.85	40487.47
629.205	40548.03
629.559	40737.18
629.914	40526.56
630.269	40738.31
630.623	40691.75
630.978	40749.38
631.332	40970.84
631.687	41138.97
632.041	40884.29
632.396	41037.96
632.75	40843.16
633.104	41121.12
633.459	40922.26
633.813	40997.28
634.167	40987.57
634.521	40992.76
634.875	41182.59
635.229	41115.02
635.583	40973.78
635.937	41124.74
636.291	41058.98
636.645	41039.09
636.999	41016.27
637.352	41187.34
637.706	40929.71
638.06	41142.82
638.413	41087.9
638.767	40849.94
639.121	41164.28
639.474	40839.77
639.828	41024.63
640.181	41031.41
640.534	41107.34
640.888	41070.05
641.241	40919.09
641.594	40891.07
641.947	40995.25
642.301	41010.39
642.654	41095.36
643.007	41136.04
643.36	41016.27
643.713	40902.37
644.066	41103.5
644.419	40767.46
644.771	40599.1
645.124	40262.39
645.477	40172.9
645.83	39968.16
646.182	39924.77
646.535	40029.85
646.888	39818.78
647.24	39745.34
647.593	39921.38
647.945	39944.66
648.298	39705.57
648.65	39621.73
649.002	39492.92
649.355	39911.44
649.707	39828.27
650.059	39932.45
650.411	40317.53
650.763	40284.76
651.115	40778.53
651.467	40658.31
651.819	40691.3
652.171	40443.85
652.523	40575.6
652.875	40479.78
653.227	40453.8
653.578	40707.12
653.93	40488.82
654.282	40452.89
654.633	40260.35
654.985	40421.48
655.337	40415.15
655.688	40503.06
656.039	40575.15
656.391	40192.33
656.742	40352.55
657.094	40388.26
657.445	40406.56
657.796	40337.19
658.147	40413.12
658.498	40357.3
658.849	40417.86
659.2	40380.8
659.551	40395.94
659.902	40442.95
660.253	40209.96
660.604	40450.41
660.955	40137.65
661.306	40326.11
661.656	40176.51
662.007	40332.44
662.358	40253.12
662.708	40171.99
663.059	40275.72
663.409	39998.44
663.76	40299
664.11	40233.91
664.461	40270.98
664.811	40317.3
665.161	40200.02
665.511	40245.21
665.862	40016.52
666.212	40186.46
666.562	40219.68
666.912	40104.43
667.262	40139.68
667.612	40106.23
667.962	40127.25
668.312	40081.38
668.662	40267.59
669.011	40066.23
669.361	40078.89
669.711	40040.47
670.06	40127.02
670.41	39993.92
670.76	39949.4
671.109	40133.8
671.459	39894.94
671.808	39926.8
672.157	40059.91
672.507	39848.16
672.856	39801.38
673.205	39885
673.554	39903.3
673.904	39912.57
674.253	40056.52
674.602	39989.63
674.951	39388.96
675.3	39258.12
675.649	39828.27
675.998	39800.93
676.346	39676.64
676.695	39893.58
677.044	39514.16
677.393	39805.22
677.741	39681.84
678.09	39638.68
678.438	39431.45
678.787	39705.57
679.135	39630.99
679.484	39416.76
679.832	39586.47
680.181	39291.34
680.529	39468.51
680.877	39352.58
681.225	39147.39
681.573	39465.57
681.922	39213.15
682.27	39106.26
682.618	39280.49
682.966	39175.18
683.314	38978.35
683.661	38969.54
684.009	38722.99
684.357	38814.06
684.705	38695.2
685.053	38816.78
685.4	38724.12
685.748	38486.84
686.095	38482.1
686.443	38264.47
686.79	38497.01
687.138	38408.65
687.485	38295.21
687.832	38259.05
688.18	38242.33
688.527	38051.15
688.874	38052.5
689.221	38012.28
689.568	37861.32
689.915	37773.41
690.262	37794.43
690.609	37655.9
690.956	37457.49
691.303	37538.39
691.65	37391.28
691.997	37386.76
692.344	37093.21
692.69	37149.93
693.037	37133.43
693.383	36954.45
693.73	37133.66
694.077	36756.04
694.423	36844.4
694.769	36702.48
695.116	36567.57
695.462	36581.35
695.808	36370.51
696.155	36472.2
696.501	36190.63
696.847	36242.61
697.193	36109.73
697.539	36127.13
697.885	35722.85
698.231	35672
698.577	35748.61
698.923	35805.78
699.269	35553.13
699.614	35521.95
699.96	35432.23
700.306	35388.39
700.651	35224.1
700.997	34961.28
701.342	35045.35
701.688	34993.37
702.033	34787.05
702.379	34873.6
702.724	34749.76
703.069	34804.45
703.415	34386.16
703.76	34507.96
704.105	34511.8
704.45	34336.22
704.795	34191.13
705.14	34107.75
705.485	34068.65
705.83	34040.4
706.175	34007.41
706.52	33843.8
706.865	33803.8
707.209	33730.81
707.554	33656.23
707.899	33645.84
708.243	33530.36
708.588	33489.23
708.932	33127.66
709.277	33150.94
709.621	33218.73
709.966	33079.3
710.31	33049.47
710.654	32660.1
710.998	32907.33
711.342	32864.62
711.687	32673.66
712.031	32514.12
712.375	32515.25
712.719	32540.56
713.063	32436.15
713.407	32469.37
713.75	32389.6
714.094	32282.26
714.438	32232.99
714.782	32221.47
715.125	32221.47
715.469	32312.54
715.812	32054.92
716.156	32011.08
716.499	31817.64
716.843	31899.44
717.186	31758.43
717.53	31749.17
717.873	31841.59
718.216	31820.58
718.559	31579
718.902	31400.25
719.246	31608.6
719.589	31404.77
719.932	31219.91
720.275	31265.79
720.617	31240.48
720.96	31116.64
721.303	31128.62
721.646	31085.45
721.989	30754.84
722.331	31132.23
722.674	30880.26
723.016	30991.67
723.359	30855.86
723.701	30946.25
724.044	30592.59
724.386	30511.68
724.729	30594.39
725.071	30515.53
725.413	30521.17
725.755	30597.33
726.097	30413.83
726.439	30264.23
726.782	30388.75
727.124	30392.14
727.465	30127.96
727.807	30280.96
728.149	30054.97
728.491	29989.44
728.833	30077.57
729.175	30045.26
729.516	30125.03
729.858	30014.97
730.199	29953.05
730.541	29910.57
730.882	29800.97
731.224	29864.02
731.565	29672.38
731.906	29697.92
732.248	29716.9
732.589	29453.86
732.93	29463.58
733.271	29519.39
733.612	29571.6
733.953	29490.92
734.294	29400.07
734.635	29198.72
734.976	29380.64
735.317	29179.06
735.658	29078.05
735.999	29235.56
736.339	29072.63
736.68	29161.89
737.021	29116.47
737.361	29025.4
737.702	29099.74
738.042	28850.94
738.383	28978.39
738.723	28922.57
739.063	28907.66
739.404	29009.8
739.744	28867.66
740.084	28744.72
740.424	28727.55
740.764	28696.14
741.104	28817.94
741.444	28535.01
741.784	28479.65
742.124	28534.79
742.464	28631.96
742.804	28598.97
743.143	28439.87
743.483	28465.18
743.823	28170.28
744.162	28195.59
744.502	28361.46
744.841	28215.02
745.181	28282.36
745.52	28242.14
745.86	28212.99
746.199	28076.04
746.538	27963.73
746.877	28175.7
747.216	28107
747.556	27982.71
747.895	27951.52
748.234	27849.38
748.573	27831.53
748.911	27797.63
749.25	27756.5
749.589	27646
749.928	27747.69
750.267	27730.74
750.605	27586.11
750.944	27568.03
751.283	27523.97
751.621	27516.73
751.96	27452.56
752.298	27377.75
752.636	27441.03
752.975	27269.28
753.313	27150.19
753.651	27267.7
753.989	27060.47
754.327	27081.49
754.666	26979.8
755.004	26923.98
755.342	26979.12
755.679	26919.46
756.017	26886.24
756.355	26830.2
756.693	26855.96
757.031	26820.71
757.368	26504.78
757.706	26678.56
758.044	26446.48
758.381	26534.16
758.719	26423.88
759.056	26382.3
759.394	26369.19
759.731	26184.34
760.068	26235.86
760.405	26065.47
