Data from hue_200_FLMS001491_00042.txt Node
Date: Tue Feb 07 16:43:20 GMT 2017
User: dcchb
Spectrometer: FLMS00149
Trigger mode: 0
Integration Time (sec): 2.000000E-2
Scans to average: 10
Electric dark correction enabled: true
Nonlinearity correction enabled: false
Boxcar width: 0
XAxis mode: Wavelengths
Number of Pixels in Spectrum: 2048
>>>>>Begin Spectral Data<<<<<
341.393	-12.01
341.776	-12.01
342.16	-12.01
342.543	-59.46
342.927	-63.53
343.31	-73.02
343.693	-67.6
344.077	-65.79
344.46	-61.72
344.843	-55.39
345.226	-40.25
345.61	-34.15
345.993	-31.21
346.376	-20.82
346.759	7.2
347.142	10.14
347.525	81.33
347.908	52.85
348.291	85.62
348.674	86.98
349.057	125.84
349.44	134.43
349.823	144.37
350.206	181.44
350.588	181.66
350.971	251.04
351.354	227.54
351.737	243.13
352.119	276.35
352.502	250.59
352.884	265.05
353.267	300.75
353.65	277.93
354.032	277.7
354.414	336.23
354.797	319.74
355.179	305.95
355.562	319.51
355.944	330.58
356.326	340.98
356.709	325.16
357.091	343.92
357.473	344.37
357.855	332.84
358.238	344.6
358.62	345.5
359.002	354.76
359.384	342.34
359.766	340.53
360.148	353.18
360.53	373.97
360.912	321.55
361.294	342.11
361.676	291.72
362.057	301.88
362.439	323.35
362.821	335.33
363.203	336.69
363.584	342.56
363.966	305.73
364.348	333.3
364.729	319.51
365.111	313.64
365.493	341.66
365.874	314.09
366.256	299.4
366.637	338.49
367.019	333.52
367.4	315.9
367.781	299.4
368.163	329.68
368.544	314.99
368.925	302.56
369.306	321.09
369.688	313.64
370.069	314.77
370.45	307.31
370.831	313.64
371.212	335.78
371.593	311.6
371.974	311.38
372.355	319.51
372.736	327.65
373.117	324.71
373.498	317.7
373.879	288.78
374.26	319.29
374.641	325.39
375.021	320.64
375.402	311.6
375.783	330.36
376.163	318.61
376.544	333.97
376.925	350.02
377.305	325.61
377.686	338.72
378.066	336.46
378.447	330.13
378.827	350.25
379.208	311.6
379.588	314.09
379.968	315.44
380.349	325.61
380.729	337.82
381.109	333.07
381.489	335.78
381.87	325.61
382.25	326.06
382.63	344.14
383.01	340.98
383.39	342.11
383.77	344.14
384.15	333.3
384.53	330.36
384.91	332.17
385.29	343.92
385.67	349.34
386.049	347.08
386.429	353.63
386.809	356.35
387.189	338.04
387.568	344.14
387.948	363.8
388.328	348.66
388.707	358.61
389.087	367.87
389.466	371.71
389.846	355.22
390.225	376.69
390.605	365.61
390.984	380.53
391.363	382.56
391.743	366.97
392.122	376.69
392.501	381.66
392.881	385.27
393.26	378.72
393.639	388.21
394.018	380.75
394.397	395.22
394.776	383.24
395.155	390.47
395.534	380.3
395.913	397.93
396.292	402.67
396.671	411.71
397.05	417.36
397.429	387.98
397.808	404.71
398.186	410.81
398.565	414.42
398.944	421.66
399.323	425.05
399.701	406.51
400.08	427.76
400.458	423.92
400.837	420.07
401.215	425.27
401.594	426.18
401.972	421.66
402.351	447.19
402.729	436.12
403.107	440.86
403.486	447.87
403.864	451.71
404.242	444.25
404.62	467.98
404.999	478.6
405.377	459.39
405.755	459.17
406.133	459.17
406.511	474.54
406.889	485.38
407.267	502.11
407.645	501.2
408.023	480.86
408.401	490.35
408.779	499.39
409.156	500.07
409.534	516.57
409.912	527.19
410.29	527.87
410.667	530.13
411.045	558.38
411.422	555.44
411.8	548.66
412.178	568.09
412.555	606.96
412.933	602.44
413.31	619.16
413.687	619.16
414.065	632.72
414.442	632.95
414.819	648.99
415.197	670.91
415.574	660.97
415.951	678.15
416.328	696.22
416.705	680.41
417.082	699.39
417.46	726.73
417.837	719.73
418.214	720.86
418.591	751.14
418.967	745.94
419.344	741.87
419.721	784.36
420.098	758.6
420.475	808.09
420.852	811.93
421.228	814.64
421.605	831.36
421.982	840.85
422.358	874.3
422.735	860.51
423.111	873.85
423.488	890.34
423.864	931.25
424.241	935.09
424.617	943
424.994	975.54
425.37	992.71
425.746	1018.7
426.123	1010.79
426.499	1048.08
426.875	1059.6
427.251	1061.86
427.627	1082.43
428.003	1095.99
428.379	1107.97
428.756	1137.12
429.132	1151.35
429.507	1167.62
429.883	1126.27
430.259	1182.54
430.635	1211.01
431.011	1225.7
431.387	1230.45
431.763	1242.42
432.138	1264.12
432.514	1270.9
432.89	1317.45
433.265	1338.47
433.641	1365.81
434.016	1368.07
434.392	1427.05
434.767	1440.39
435.143	1442.19
435.518	1492.14
435.894	1480.38
436.269	1526.26
436.644	1565.81
437.02	1596.54
437.395	1628.4
437.77	1633.6
438.145	1655.3
438.52	1688.74
438.895	1725.8
439.271	1738.46
439.646	1796.76
440.021	1806.03
440.395	1840.6
440.77	1818.68
441.145	1853.26
441.52	1907.27
441.895	1906.59
442.27	1955.85
442.645	1953.14
443.019	2004.21
443.394	2014.16
443.769	2029.07
444.143	2060.93
444.518	2092.8
444.892	2033.59
445.267	2116.3
445.641	2137.99
446.016	2149.75
446.39	2152.46
446.764	2187.94
447.139	2166.92
447.513	2230.65
447.887	2211.67
448.262	2255.73
448.636	2252.34
449.01	2276.97
449.384	2316.75
449.758	2334.37
450.132	2379.12
450.506	2368.95
450.88	2374.15
451.254	2427.25
451.628	2427.25
452.002	2445.78
452.376	2494.37
452.75	2483.75
453.123	2519.45
453.497	2544.09
453.871	2575.95
454.244	2646.46
454.618	2607.13
454.992	2684.19
455.365	2688.49
455.739	2753.12
456.112	2764.64
456.486	2795.83
456.859	2792.89
457.232	2860.01
457.606	2836.73
457.979	2962.15
458.352	2954.24
458.725	2991.98
459.099	3032.89
459.472	3067.01
459.845	3089.83
460.218	3143.84
460.591	3178.19
460.964	3187.46
461.337	3256.16
461.71	3304.97
462.083	3362.82
462.456	3326.66
462.829	3372.99
463.201	3409.15
463.574	3438.75
463.947	3491.63
464.32	3534.12
464.692	3617.5
465.065	3617.28
465.438	3675.58
465.81	3721.46
466.183	3732.75
466.555	3825.41
466.928	3852.07
467.3	3901.79
467.672	3914.45
468.045	3995.8
468.417	4008.91
468.789	4088.68
469.161	4107.66
469.534	4165.74
469.906	4265.17
470.278	4270.82
470.65	4277.15
471.022	4416.13
471.394	4480.31
471.766	4545.16
472.138	4551.72
472.51	4643.01
472.882	4730.69
473.253	4781.54
473.625	4818.15
473.997	4882.78
474.369	4920.97
474.74	4973.4
475.112	5075.77
475.484	5200.51
475.855	5208.2
476.227	5308.53
476.598	5384.91
476.97	5407.29
477.341	5555.98
477.713	5647.96
478.084	5613.84
478.455	5844.11
478.827	5821.74
479.198	6005.01
479.569	6003.43
479.94	6167.72
480.311	6173.14
480.682	6325.91
481.053	6466.69
481.424	6543.98
481.795	6559.8
482.166	6651.55
482.537	6753.69
482.908	6901.49
483.279	6928.38
483.65	7080.01
484.021	7159.56
484.391	7238.43
484.762	7277.29
485.133	7419.89
485.503	7464.63
485.874	7609.04
486.244	7627.57
486.615	7840.67
486.985	7881.35
487.356	8000.21
487.726	8063.94
488.097	8222.58
488.467	8222.35
488.837	8354.55
489.207	8434.1
489.578	8604.04
489.948	8658.73
490.318	8776.92
490.688	8741.66
491.058	8897.14
491.428	8962.9
491.798	9046.74
492.168	9195.89
492.538	9199.96
492.908	9319.95
493.278	9407.86
493.648	9423
494.017	9508.65
494.387	9527.4
494.757	9656.89
495.126	9650.34
495.496	9726.72
495.866	9834.97
496.235	9833.16
496.605	9973.95
496.974	9955.19
497.344	10069.09
497.713	10053.04
498.082	10145.47
498.452	10235.18
498.821	10237.89
499.19	10281.74
499.559	10306.14
499.928	10334.39
500.298	10424.33
500.667	10550.2
501.036	10402.41
501.405	10562.63
501.774	10543.42
502.143	10593.59
502.512	10655.51
502.88	10730.09
503.249	10664.55
503.618	10711.33
503.987	10753.36
504.356	10814.15
504.724	10801.72
505.093	10848.27
505.462	10880.36
505.83	10964.43
506.199	11003.75
506.567	11113.8
506.936	11048.49
507.304	11142.28
507.672	11115.84
508.041	11099.79
508.409	11215.95
508.777	11270.41
509.145	11309.96
509.514	11279.9
509.882	11320.58
510.25	11243.74
510.618	11321.26
510.986	11354.93
511.354	11383.4
511.722	11417.07
512.09	11478.99
512.458	11483.74
512.826	11571.87
513.193	11551.98
513.561	11569.84
513.929	11637.41
514.297	11624.75
514.664	11686.9
515.032	11694.81
515.4	11741.13
515.767	11750.62
516.135	11714.92
516.502	11602.6
516.869	11753.56
517.237	11801.02
517.604	11681.92
517.972	11827.23
518.339	11794.92
518.706	11808.47
519.073	11790.17
519.44	11754.46
519.808	11905.42
520.175	11773.67
520.542	11970.5
520.909	11918.75
521.276	11847.34
521.643	11984.29
522.009	11961.47
522.376	11983.16
522.743	11944.74
523.11	12103.83
523.477	12070.16
523.843	12095.25
524.21	12142.48
524.577	12129.37
524.943	12181.35
525.31	12151.97
525.676	12205.75
526.043	12200.1
526.409	12237.84
526.776	12227.22
527.142	12129.14
527.508	12202.59
527.874	12144.74
528.241	12297.95
528.607	12202.81
528.973	12208.46
529.339	12132.31
529.705	12250.5
530.071	12280.33
530.437	12207.11
530.803	12243.72
531.169	12197.39
531.535	12144.74
531.901	12157.62
532.267	12147
532.632	12078.98
532.998	12063.38
533.364	12125.53
533.73	12012.09
534.095	12038.53
534.461	11988.13
534.826	11976.61
535.192	11901.81
535.557	11923.05
535.923	11884.41
536.288	11900.68
536.653	11839.66
537.019	11751.75
537.384	11726.67
537.749	11690.96
538.114	11683.51
538.479	11656.16
538.845	11691.19
539.21	11546.33
539.575	11537.52
539.94	11423.85
540.305	11553.57
540.67	11467.69
541.034	11416.62
541.399	11413.46
541.764	11373.01
542.129	11321.03
542.494	11265.89
542.858	11297.3
543.223	11186.57
543.587	11140.24
543.952	11148.83
544.316	11059.12
544.681	11007.14
545.045	11013.02
545.41	10959.91
545.774	10930.53
546.138	10888.95
546.503	10816.18
546.867	10762.63
547.231	10800.14
547.595	10735.51
547.959	10636.53
548.324	10577.55
548.688	10552.91
549.052	10571.67
549.416	10516.53
549.779	10473.37
550.143	10382.07
550.507	10385.69
550.871	10361.73
551.235	10365.35
551.599	10383.2
551.962	10293.03
552.326	10272.92
552.689	10227.5
553.053	10168.74
553.417	10138.91
553.78	10204
554.143	9994.29
554.507	10078.58
554.87	10034.96
555.234	9987.51
555.597	9975.75
555.96	9975.53
556.323	9921.97
556.686	9920.84
557.05	9900.28
557.413	9834.06
557.776	9813.27
558.139	9797.68
558.502	9818.92
558.865	9740.05
559.228	9806.95
559.59	9752.03
559.953	9693.05
560.316	9780.05
560.679	9743.9
561.041	9801.52
561.404	9739.83
561.767	9727.85
562.129	9694.41
562.492	9648.53
562.854	9680.4
563.217	9628.87
563.579	9637.23
563.941	9698.7
564.304	9661.41
564.666	9667.06
565.028	9620.06
565.39	9651.24
565.753	9617.12
566.115	9661.86
566.477	9690.11
566.839	9602.21
567.201	9649.89
567.563	9636.1
567.925	9690.79
568.287	9692.82
568.648	9633.84
569.01	9673.62
569.372	9721.52
569.734	9693.28
570.095	9729.66
570.457	9690.34
570.819	9690.34
571.18	9694.41
571.542	9706.61
571.903	9686.04
572.265	9696.21
572.626	9743.22
572.987	9703.45
573.349	9747.06
573.71	9709.09
574.071	9780.51
574.432	9741.86
574.794	9784.35
575.155	9717.23
575.516	9719.49
575.877	9780.28
576.238	9744.12
576.599	9765.82
576.96	9720.17
577.32	9766.04
577.681	9687.85
578.042	9831.35
578.403	9798.36
578.763	9789.54
579.124	9743.67
579.485	9771.69
579.845	9767.4
580.206	9761.75
580.566	9767.62
580.927	9710
581.287	9808.08
581.648	9719.49
582.008	9757.46
582.368	9737.12
582.728	9702.32
583.089	9687.63
583.449	9671.58
583.809	9729.66
584.169	9706.38
584.529	9666.61
584.889	9714.74
585.249	9694.63
585.609	9640.4
585.969	9641.07
586.329	9645.82
586.688	9675.88
587.048	9659.15
587.408	9687.17
587.768	9596.33
588.127	9648.31
588.487	9630.23
588.846	9665.03
589.206	9658.02
589.565	9639.49
589.925	9673.16
590.284	9599.04
590.643	9604.46
591.003	9594.75
591.362	9655.99
591.721	9559.04
592.08	9617.8
592.44	9587.29
592.799	9549.33
593.158	9516.78
593.517	9522.21
593.876	9504.58
594.235	9582.32
594.593	9540.51
594.952	9574.18
595.311	9488.08
595.67	9529.89
596.029	9566.95
596.387	9498.25
596.746	9503.68
597.104	9558.59
597.463	9540.51
597.822	9522.21
598.18	9432.94
598.538	9470.46
598.897	9467.75
599.255	9383
599.613	9579.83
599.972	9530.79
600.33	9444.47
600.688	9485.82
601.046	9482.21
601.404	9510
601.762	9469.33
602.12	9532.6
602.478	9532.83
602.836	9480.63
603.194	9451.93
603.552	9489.44
603.91	9441.76
604.268	9479.04
604.625	9374.41
604.983	9485.82
605.341	9413.51
605.698	9454.86
606.056	9448.08
606.413	9442.66
606.771	9459.16
607.128	9437.46
607.485	9397.01
607.843	9450.57
608.2	9511.81
608.557	9488.76
608.914	9464.13
609.272	9476.56
609.629	9490.34
609.986	9519.27
610.343	9468.2
610.7	9519.95
611.057	9547.74
611.414	9493.28
611.771	9499.16
612.127	9534.41
612.484	9578.02
612.841	9516.11
613.198	9451.25
613.554	9552.04
613.911	9575.31
614.267	9552.71
614.624	9519.72
614.98	9543.68
615.337	9565.6
615.693	9552.49
616.05	9519.72
616.406	9657.8
616.762	9662.77
617.118	9618.93
617.475	9620.06
617.831	9655.09
618.187	9655.31
618.543	9593.84
618.899	9707.06
619.255	9613.73
619.611	9635.65
619.967	9690.56
620.323	9694.18
620.678	9655.31
621.034	9651.92
621.39	9596.1
621.746	9594.07
622.101	9732.6
622.457	9666.16
622.812	9751.35
623.168	9671.58
623.523	9660.73
623.879	9608.08
624.234	9545.26
624.589	9562.43
624.945	9607.85
625.3	9647.18
625.655	9621.64
626.01	9588.87
626.365	9585.93
626.72	9621.19
627.075	9631.58
627.43	9544.13
627.785	9546.39
628.14	9609.89
628.495	9561.3
628.85	9624.58
629.205	9517.69
629.559	9579.83
629.914	9525.6
630.269	9569.66
630.623	9506.39
630.978	9495.54
631.332	9546.16
631.687	9542.09
632.041	9451.93
632.396	9509.78
632.75	9451.02
633.104	9446.05
633.459	9416
633.813	9418.71
634.167	9497.58
634.521	9431.36
634.875	9367.86
635.229	9395.43
635.583	9295.09
635.937	9421.87
636.291	9330.57
636.645	9359.95
636.999	9337.35
637.352	9355.43
637.706	9258.71
638.06	9327.86
638.413	9334.42
638.767	9295.55
639.121	9272.72
639.474	9167.41
639.828	9220.07
640.181	9157.25
640.534	9290.12
640.888	9253.74
641.241	9185.27
641.594	9230.01
641.947	9223.01
642.301	9258.26
642.654	9231.37
643.007	9185.49
643.36	9151.82
643.713	9219.16
644.066	9147.75
644.419	9064.14
644.771	9151.14
645.124	9029.56
645.477	9024.59
645.83	8966.29
646.182	8923.13
646.535	8891.94
646.888	8902.11
647.24	8830.02
647.593	8907.99
647.945	8870.7
648.298	8867.08
648.65	8843.58
649.002	8828.89
649.355	8875.44
649.707	8860.53
650.059	8903.24
650.411	8987.08
650.763	9006.06
651.115	9092.61
651.467	9069.79
651.819	9082.22
652.171	9043.58
652.523	9084.93
652.875	9051.49
653.227	9021.2
653.578	9034.54
653.93	9105.27
654.282	8989.57
654.633	9006.51
654.985	9057.59
655.337	8995.44
655.688	9103.46
656.039	9066.63
656.391	8987.76
656.742	9063.24
657.094	8995.44
657.445	9127.42
657.796	9078.6
658.147	9057.59
658.498	9083.8
658.849	9070.24
659.2	9134.42
659.551	9107.08
659.902	9075.44
660.253	9095.33
660.604	9064.37
660.955	9127.87
661.306	9078.15
661.656	9180.07
662.007	9075.21
662.358	9118.6
662.708	9109.34
663.059	9110.01
663.409	9119.73
663.76	9122.67
664.11	9122.67
664.461	9165.15
664.811	9138.71
665.161	9154.31
665.511	9125.38
665.862	9140.97
666.212	9201.99
666.562	9150.92
666.912	9194.98
667.262	9137.36
667.612	9146.85
667.962	9159.05
668.312	9165.38
668.662	9132.16
669.011	9156.57
669.361	9134.87
669.711	9105.27
670.06	9213.74
670.41	9077.25
670.76	9044.03
671.109	9050.58
671.459	9135.55
671.808	9110.01
672.157	9101.2
672.507	9077.7
672.856	9078.83
673.205	9094.65
673.554	9067.08
673.904	9067.3
674.253	9153.18
674.602	8999.06
674.951	8940.08
675.3	8874.54
675.649	9013.97
675.998	8994.76
676.346	8996.35
676.695	9037.02
677.044	8990.92
677.393	8970.13
677.741	8896.91
678.09	8970.58
678.438	8924.48
678.787	8966.74
679.135	8957.7
679.484	8921.55
679.832	8874.09
680.181	8845.61
680.529	8835.22
680.877	8821.43
681.225	8773.53
681.573	8843.13
681.922	8795.67
682.27	8744.6
682.618	8759.52
682.966	8728.33
683.314	8784.15
683.661	8705.51
684.009	8657.82
684.357	8657.6
684.705	8611.27
685.053	8644.49
685.4	8587.09
685.748	8633.19
686.095	8548.67
686.443	8525.85
686.79	8506.41
687.138	8469.35
687.485	8489.92
687.832	8478.62
688.18	8435.68
688.527	8425.96
688.874	8444.04
689.221	8365.4
689.568	8381.9
689.915	8333.54
690.262	8357.04
690.609	8251.73
690.956	8276.82
691.303	8305.29
691.65	8189.81
691.997	8219.64
692.344	8165.63
692.69	8142.13
693.037	8149.59
693.383	8068.91
693.73	8086.31
694.077	8033.66
694.423	8046.77
694.769	7941.01
695.116	7970.38
695.462	7934.68
695.808	7894.91
696.155	7883.15
696.501	7851.06
696.847	7844.29
697.193	7781.01
697.539	7823.04
697.885	7727.68
698.231	7633.44
698.577	7728.13
698.923	7698.3
699.269	7586.44
699.614	7570.85
699.96	7561.58
700.306	7508.93
700.651	7428.7
700.997	7418.31
701.342	7420.79
701.688	7407.69
702.033	7363.62
702.379	7350.74
702.724	7333.34
703.069	7360.46
703.415	7220.8
703.76	7263.74
704.105	7164.3
704.45	7206.79
704.795	7125.43
705.14	7136.28
705.485	7134.02
705.83	7129.73
706.175	7120.01
706.52	6995.27
706.865	7040.46
707.209	7006.12
707.554	7002.73
707.899	6970.18
708.243	6904.65
708.588	6971.77
708.932	6924.76
709.277	6924.08
709.621	6916.63
709.966	6828.49
710.31	6863.07
710.654	6804.09
710.998	6786.23
711.342	6752.11
711.687	6759.79
712.031	6739
712.375	6693.81
712.719	6724.99
713.063	6684.77
713.407	6760.92
713.75	6723.18
714.094	6711.89
714.438	6625.79
714.782	6630.08
715.125	6650.64
715.469	6663.3
715.812	6600.93
716.156	6509.63
716.499	6531.33
716.843	6574.04
717.186	6454.27
717.53	6536.98
717.873	6514.38
718.216	6517.54
718.559	6514.6
718.902	6481.16
719.246	6522.51
719.589	6491.55
719.932	6433.47
720.275	6452.01
720.617	6467.37
720.96	6495.17
721.303	6454.72
721.646	6432.57
721.989	6386.92
722.331	6383.76
722.674	6419.69
723.016	6414.94
723.359	6402.97
723.701	6397.32
724.044	6337.66
724.386	6344.66
724.729	6404.32
725.071	6362.74
725.413	6400.48
725.755	6355.74
726.097	6311.22
726.439	6326.59
726.782	6313.7
727.124	6319.58
727.465	6346.02
727.807	6312.35
728.149	6313.48
728.491	6263.76
728.833	6343.99
729.175	6334.49
729.516	6318.45
729.858	6266.25
730.199	6280.48
730.541	6282.07
730.882	6362.29
731.224	6280.03
731.565	6286.59
731.906	6331.33
732.248	6360.48
732.589	6285.91
732.93	6302.18
733.271	6360.93
733.612	6292.01
733.953	6331.56
734.294	6287.49
734.635	6314.83
734.976	6311.9
735.317	6261.73
735.658	6305.79
735.999	6320.48
736.339	6345.79
736.68	6378.56
737.021	6346.25
737.361	6318.68
737.702	6363.19
738.042	6376.3
738.383	6319.81
738.723	6374.72
739.063	6327.26
739.404	6336.08
739.744	6332.23
740.084	6375.4
740.424	6383.08
740.764	6360.71
741.104	6428.28
741.444	6427.6
741.784	6463.53
742.124	6438.67
742.464	6446.81
742.804	6482.29
743.143	6510.31
743.483	6513.02
743.823	6597.54
744.162	6559.12
744.502	6641.83
744.841	6587.6
745.181	6714.15
745.52	6671.43
745.86	6760.02
746.199	6751.88
746.538	6800.7
746.877	6858.77
747.216	6911.65
747.556	6927.25
747.895	6961.82
748.234	7011.99
748.573	7042.27
748.911	7065.55
749.25	7141.93
749.589	7218.09
749.928	7262.15
750.267	7363.39
750.605	7435.71
750.944	7513.45
751.283	7623.95
751.621	7690.39
751.96	7731.97
752.298	7803.38
752.636	7871.18
752.975	8016.94
753.313	8099.19
753.651	8265.52
753.989	8288.34
754.327	8423.25
754.666	8548.9
755.004	8661.66
755.342	8794.54
755.679	8876.35
756.017	9007.64
756.355	9194.31
756.693	9250.8
757.031	9500.96
757.368	9568.31
757.706	9779.83
758.044	9878.13
758.381	10058.24
758.719	10194.96
759.056	10387.5
759.394	10564.67
759.731	10633.59
760.068	10770.54
760.405	10949.29
760.743	11183.41
761.08	11317.64
761.417	11426.11
761.754	11609.38
762.091	11861.13
762.428	11960.56
762.765	12138.86
763.102	12358.06
763.438	12437.61
763.775	12669.92
764.112	12918.05
764.449	13096.58
764.785	13088.44
765.122	13387.64
765.458	13472.61
