Data from hue_20_FLMS001491_61.txt Node
Date: Mon Feb 06 15:34:27 GMT 2017
User: dcchb
Spectrometer: FLMS00149
Trigger mode: 0
Integration Time (sec): 2.000000E-2
Scans to average: 10
Electric dark correction enabled: true
Nonlinearity correction enabled: false
Boxcar width: 0
XAxis mode: Wavelengths
Number of Pixels in Spectrum: 2048
>>>>>Begin Spectral Data<<<<<
341.393	-1.12
341.776	-1.12
342.16	-1.12
342.543	-58.52
342.927	-49.48
343.31	-81.57
343.693	-61.91
344.077	-67.1
344.46	-56.03
344.843	-65.52
345.226	-36.82
345.61	-27.1
345.993	-12.19
346.376	-19.87
346.759	13.12
347.142	20.8
347.525	45.89
347.908	69.16
348.291	80.24
348.674	101.71
349.057	97.19
349.44	102.84
349.823	129.28
350.206	178.99
350.588	215.83
350.971	195.72
351.354	223.51
351.737	227.8
352.119	241.14
352.502	268.93
352.884	264.19
353.267	261.7
353.65	307.8
354.032	279.78
354.414	321.36
354.797	317.97
355.179	319.55
355.562	325.88
355.944	333.79
356.326	353
356.709	325.66
357.091	322.49
357.473	366.11
357.855	359.78
358.238	348.03
358.62	329.95
359.002	329.95
359.384	345.77
359.766	357.29
360.148	338.76
360.53	333.79
360.912	314.36
361.294	338.31
361.676	344.64
362.057	343.06
362.439	327.92
362.821	330.4
363.203	333.79
363.584	331.76
363.966	293.34
364.348	337.18
364.729	323.62
365.111	327.46
365.493	331.76
365.874	327.24
366.256	332.89
366.637	321.59
367.019	324.98
367.4	327.24
367.781	298.31
368.163	291.76
368.544	299.89
368.925	325.2
369.306	320.91
369.688	315.49
370.069	331.76
370.45	320.68
370.831	305.54
371.212	326.11
371.593	307.12
371.974	298.54
372.355	299.22
372.736	340.57
373.117	284.3
373.498	308.03
373.879	306.45
374.26	294.24
374.641	319.1
375.021	306.22
375.402	313.68
375.783	318.42
376.163	331.53
376.544	332.89
376.925	316.62
377.305	330.63
377.686	317.97
378.066	322.94
378.447	346.9
378.827	338.31
379.208	320.46
379.588	329.72
379.968	332.21
380.349	343.73
380.729	341.47
381.109	366.11
381.489	340.12
381.87	327.01
382.25	354.13
382.63	330.85
383.01	341.93
383.39	328.37
383.77	344.86
384.15	331.08
384.53	339.89
384.91	327.46
385.29	357.52
385.67	344.41
386.049	346.22
386.429	329.95
386.809	336.73
387.189	353.45
387.568	346.45
387.948	357.52
388.328	357.29
388.707	346.45
389.087	345.77
389.466	336.28
389.846	370.17
390.225	348.93
390.605	343.28
390.984	369.5
391.363	347.12
391.743	378.76
392.122	341.7
392.501	365.2
392.881	390.74
393.26	378.99
393.639	368.59
394.018	362.94
394.397	375.82
394.776	389.16
395.155	392.77
395.534	372.43
395.913	378.08
396.292	371.98
396.671	384.86
397.05	381.02
397.429	399.55
397.808	385.31
398.186	376.28
398.565	372.89
398.944	379.89
399.323	389.83
399.701	384.64
400.08	390.74
400.458	388.03
400.837	395.48
401.215	405.65
401.594	392.09
401.972	396.61
402.351	400.23
402.729	406.33
403.107	419.66
403.486	419.44
403.864	428.7
404.242	398.87
404.62	406.78
404.999	404.3
405.377	419.21
405.755	435.71
406.133	421.7
406.511	399.33
406.889	407.24
407.267	395.94
407.645	426.22
408.023	417.63
408.401	407.24
408.779	416.27
409.156	441.13
409.534	429.38
409.912	416.73
410.29	447.23
410.667	441.58
411.045	449.04
411.422	451.98
411.8	431.87
412.178	468.93
412.555	437.06
412.933	434.35
413.31	437.52
413.687	456.05
414.065	464.18
414.442	469.83
414.819	451.98
415.197	465.99
415.574	469.15
415.951	464.41
416.328	468.7
416.705	458.31
417.082	492.66
417.46	469.15
417.837	491.75
418.214	488.14
418.591	511.41
418.967	494.46
419.344	498.31
419.721	507.8
420.098	483.84
420.475	501.7
420.852	508.48
421.228	524.07
421.605	493.79
421.982	504.41
422.358	514.8
422.735	491.53
423.111	498.08
423.488	508.93
423.864	495.14
424.241	529.04
424.617	540.11
424.994	539.66
425.37	540.34
425.746	552.77
426.123	545.54
426.499	557.29
426.875	514.58
427.251	540.56
427.627	573.78
428.003	550.51
428.379	565.2
428.756	570.62
429.132	568.36
429.507	576.27
429.883	576.5
430.259	592.09
430.635	585.99
431.011	586.21
431.387	594.8
431.763	601.58
432.138	602.03
432.514	621.24
432.89	604.29
433.265	584.18
433.641	624.63
434.016	625.08
434.392	670.73
434.767	637.96
435.143	637.06
435.518	639.09
435.894	663.27
436.269	666.89
436.644	655.14
437.02	666.66
437.395	665.08
437.77	660.56
438.145	667.12
438.52	688.13
438.895	690.84
439.271	684.52
439.646	682.93
440.021	709.37
440.395	673.44
440.77	695.82
441.145	704.18
441.52	692.65
441.895	728.36
442.27	722.71
442.645	731.52
443.019	712.09
443.394	695.36
443.769	712.76
444.143	726.32
444.518	738.53
444.892	743.27
445.267	720.22
445.641	744.85
446.016	732.65
446.39	753.44
446.764	756.15
447.139	753.89
447.513	764.06
447.887	778.07
448.262	780.56
448.636	783.95
449.01	782.59
449.384	780.78
449.758	791.63
450.132	801.8
450.506	814
450.88	785.98
451.254	824.85
451.628	830.5
452.002	822.37
452.376	827.79
452.75	843.16
453.123	828.69
453.497	853.55
453.871	819.43
454.244	862.59
454.618	841.8
454.992	851.52
455.365	890.84
455.739	891.52
456.112	922.7
456.486	882.25
456.859	915.24
457.232	929.26
457.606	929.93
457.979	931.06
458.352	925.87
458.725	951.63
459.099	958.86
459.472	958.63
459.845	970.61
460.218	995.47
460.591	997.28
460.964	995.24
461.337	1008.35
461.71	1022.36
462.083	1039.31
462.456	1039.99
462.829	1042.7
463.201	1062.59
463.574	1071.85
463.947	1049.93
464.32	1101.23
464.692	1085.18
465.065	1118.85
465.438	1116.59
465.81	1130.15
466.183	1148.91
466.555	1155.46
466.928	1158.4
467.3	1173.54
467.672	1213.32
468.045	1209.47
468.417	1250.15
468.789	1227.33
469.161	1236.37
469.534	1259.87
469.906	1274.78
470.278	1312.3
470.65	1328.34
471.022	1359.98
471.394	1374.67
471.766	1335.8
472.138	1358.17
472.51	1417.6
472.882	1412.18
473.253	1434.33
473.625	1440.43
473.997	1477.72
474.369	1517.49
474.74	1501.9
475.112	1545.96
475.484	1531.95
475.855	1598.62
476.227	1594.1
476.598	1663.93
476.97	1671.38
477.341	1705.05
477.713	1698.27
478.084	1743.25
478.455	1787.54
478.827	1780.08
479.198	1852.39
479.569	1851.72
479.94	1919.29
480.311	1930.81
480.682	1986.4
481.053	1993.18
481.424	2033.63
481.795	2120.86
482.166	2064.59
482.537	2140.07
482.908	2186.62
483.279	2220.52
483.65	2245.38
484.021	2278.37
484.391	2321.99
484.762	2366.96
485.133	2366.51
485.503	2399.27
485.874	2484.47
486.244	2477.69
486.615	2566.95
486.985	2599.72
487.356	2635.65
487.726	2680.17
488.097	2710.9
488.467	2759.04
488.837	2780.05
489.207	2815.99
489.578	2882.42
489.948	2918.13
490.318	2950.9
490.688	2996.77
491.058	3028.86
491.428	3065.24
491.798	3115.41
492.168	3147.95
492.538	3182.53
492.908	3234.73
493.278	3269.08
493.648	3298.91
494.017	3316.99
494.387	3332.81
494.757	3421.85
495.126	3459.36
495.496	3421.62
495.866	3432.01
496.235	3504.1
496.605	3538
496.974	3575.51
497.344	3632.24
497.713	3622.07
498.082	3662.52
498.452	3693.25
498.821	3696.64
499.19	3747.71
499.559	3792.46
499.928	3812.12
500.298	3818.9
500.667	3846.01
501.036	3867.48
501.405	3878.33
501.774	3922.85
502.143	3946.13
502.512	3963.75
502.88	4026.12
503.249	4052.34
503.618	4060.25
503.987	4021.38
504.356	4030.64
504.724	4094.6
505.093	4091.88
505.462	4123.07
505.83	4187.93
506.199	4204.42
506.567	4238.55
506.936	4232.22
507.304	4243.29
507.672	4253.24
508.041	4293.91
508.409	4328.71
508.777	4379.33
509.145	4356.74
509.514	4330.52
509.882	4485.77
510.25	4446.9
510.618	4435.15
510.986	4470.63
511.354	4516.05
511.722	4547.01
512.09	4566.9
512.458	4552.66
512.826	4603.28
513.193	4645.77
513.561	4627.92
513.929	4668.59
514.297	4730.29
514.664	4748.14
515.032	4675.6
515.4	4757.86
515.767	4801.47
516.135	4787.01
516.502	4770.96
516.869	4857.29
517.237	4864.07
517.604	4834.69
517.972	4871.07
518.339	4876.04
518.706	4911.75
519.073	4940.68
519.44	4954.91
519.808	4988.58
520.175	4977.51
520.542	5041.69
520.909	5099.32
521.276	5109.26
521.643	5163.04
522.009	5155.36
522.376	5211.63
522.743	5191.29
523.11	5216.37
523.477	5235.13
523.843	5296.6
524.21	5318.97
524.577	5411.85
524.943	5361
525.31	5429.25
525.676	5453.88
526.043	5455.01
526.409	5477.61
526.776	5498.4
527.142	5561
527.508	5556.7
527.874	5633.76
528.241	5652.97
528.607	5650.04
528.973	5664.5
529.339	5700.43
529.705	5743.82
530.071	5766.19
530.437	5837.37
530.803	5805.74
531.169	5853.87
531.535	5869.24
531.901	5852.97
532.267	5903.59
532.632	5976.35
532.998	6005.51
533.364	5966.41
533.73	6024.26
534.095	6088.89
534.461	6103.36
534.826	6174.54
535.192	6130.7
535.557	6163.02
535.923	6176.8
536.288	6205.27
536.653	6190.36
537.019	6247.08
537.384	6331.6
537.749	6303.8
538.114	6354.65
538.479	6315.78
538.845	6410.69
539.21	6353.75
539.575	6398.72
539.94	6471.48
540.305	6479.84
540.67	6482.1
541.034	6508.09
541.399	6536.79
541.764	6569.33
542.129	6532.05
542.494	6623.57
542.858	6650.01
543.223	6642.33
543.587	6700.4
543.952	6742.89
544.316	6687.75
544.681	6720.52
545.045	6793.73
545.41	6845.26
545.774	6834.18
546.138	6798.93
546.503	6911.92
546.867	6875.54
547.231	6936.78
547.595	6927.52
547.959	7001.64
548.324	6957.12
548.688	7010.23
549.052	7019.94
549.416	7080.96
549.779	7086.83
550.143	7095.87
550.507	7142.88
550.871	7140.39
551.235	7219.71
551.599	7230.11
551.962	7267.85
552.326	7258.81
552.689	7301.29
553.053	7242.54
553.417	7303.1
553.78	7360.95
554.143	7383.55
554.507	7477.56
554.87	7404.34
555.234	7532.02
555.597	7498.35
555.96	7456.54
556.323	7566.82
556.686	7530.66
557.05	7585.58
557.413	7583.09
557.776	7624.9
558.139	7713.26
558.502	7724.1
558.865	7743.77
559.228	7748.51
559.59	7806.36
559.953	7771.56
560.316	7941.27
560.679	7852.69
561.041	7882.74
561.404	7965
561.767	8011.1
562.129	7929.3
562.492	7967.71
562.854	8011.1
563.217	8024.44
563.579	8074.83
563.941	8158.22
564.304	8131.78
564.666	8213.36
565.028	8249.51
565.39	8262.85
565.753	8285.67
566.115	8317.31
566.477	8355.95
566.839	8362.73
567.201	8401.6
567.563	8427.36
567.925	8535.16
568.287	8502.16
568.648	8556.4
569.01	8516.85
569.372	8634.59
569.734	8584.42
570.095	8654.7
570.457	8689.5
570.819	8731.99
571.18	8729.95
571.542	8778.99
571.903	8815.38
572.265	8822.16
572.626	8899.44
572.987	8920.46
573.349	8995.48
573.71	9017.63
574.071	9060.57
574.432	9051.53
574.794	9220.34
575.155	9189.6
575.516	9213.33
575.877	9327
576.238	9406.09
576.599	9525.87
576.96	9512.76
577.32	9587.56
577.681	9619.2
578.042	9764.28
578.403	9675.01
578.763	9785.29
579.124	9962.92
579.485	10053.08
579.845	10063.25
580.206	10191.38
580.566	10264.38
580.927	10352.06
581.287	10500.3
581.648	10492.62
582.008	10753.63
582.368	10783.46
582.728	10896.68
583.089	11074.75
583.449	11217.35
583.809	11303.67
584.169	11502.08
584.529	11637.9
584.889	11817.56
585.249	11882.87
585.609	12021.17
585.969	12314.49
586.329	12347.94
586.688	12653.92
587.048	12893.46
587.408	12943.18
587.768	13222.27
588.127	13448.93
588.487	13522.14
588.846	13894.34
589.206	13988.57
589.565	14272.63
589.925	14563.02
590.284	14816.57
590.643	14964.14
591.003	15278.93
591.362	15483
591.721	15670.34
592.08	15969.54
592.44	16219.47
592.799	16443.88
593.158	16737.43
593.517	16974.03
593.876	17334.93
594.235	17496.96
594.593	17785.76
594.952	18142.36
595.311	18264.84
595.67	18638.85
596.029	18978.5
596.387	19385.27
596.746	19598.59
597.104	19736.9
597.463	19978.02
597.822	20492.36
598.18	20503.43
598.538	20915.17
598.897	21340.02
599.255	21469.51
599.613	22089.15
599.972	22118.3
600.33	22427.22
600.688	22604.84
601.046	23010.48
601.404	23278.27
601.762	23468.55
602.12	23982.89
602.478	24160.73
602.836	24400.05
603.194	24540.84
603.552	24925.23
603.91	25101.73
604.268	25409.97
604.625	25589.62
604.983	26008.37
605.341	26107.12
605.698	26498.07
606.056	26771.74
606.413	26923.83
606.771	27152.07
607.128	27510.03
607.485	27602.68
607.843	27963.57
608.2	28273.17
608.557	28557.46
608.914	28757.22
609.272	28970.1
609.629	29246.7
609.986	29501.84
610.343	29568.73
610.7	30001.94
611.057	30006.68
611.414	30256.62
611.771	30363.74
612.127	30876.49
612.484	31016.6
612.841	31110.61
613.198	31378.4
613.554	31497.04
613.911	31783.59
614.267	31909.68
614.624	31986.52
614.98	32233.06
615.337	32523.9
615.693	32501.08
616.05	32621.3
616.406	32988.75
616.762	33003.44
617.118	33219.03
617.475	33405.69
617.831	33560.94
618.187	33755.28
618.543	33878.45
618.899	34204.76
619.255	34217.42
619.611	34403.86
619.967	34556.62
620.323	34746.45
620.678	34716.16
621.034	34654.7
621.39	34802.26
621.746	34934.24
622.101	35423.49
622.457	35124.06
622.812	35350.72
623.168	35633.43
623.523	35533.77
623.879	35908.22
624.234	35714.56
624.589	35898.96
624.945	36158.39
625.3	36169.23
625.655	36224.82
626.01	36165.16
626.365	36326.74
626.72	36346.86
627.075	36387.98
627.43	36450.36
627.785	36482.44
628.14	36616.68
628.495	36759.27
628.85	36702.78
629.205	36580.52
629.559	36971.47
629.914	36731.7
630.269	36865.49
630.623	36750.01
630.978	36881.08
631.332	37004.92
631.687	37135.08
632.041	36948.87
632.396	37053.96
632.75	36906.39
633.104	37047.63
633.459	36931.02
633.813	36961.75
634.167	37061.86
634.521	37074.75
634.875	37178.7
635.229	37128.3
635.583	36968.53
635.937	37077.46
636.291	37092.6
636.645	37080.4
636.999	37106.84
637.352	37267.51
637.706	37092.37
638.06	37165.36
638.413	37190.45
638.767	36947.52
639.121	37191.13
639.474	36960.85
639.828	37035.88
640.181	37035.65
640.534	37143.44
640.888	37057.34
641.241	36801.76
641.594	37036.55
641.947	36992.26
642.301	36965.37
642.654	37081.52
643.007	37037.68
643.36	36913.39
643.713	36859.61
644.066	37108.19
644.419	36882.89
644.771	36638.6
645.124	36258.5
645.477	36259.63
645.83	36065.28
646.182	35991.16
646.535	35884.49
646.888	36067.31
647.24	35888.79
647.593	36020.08
647.945	35975.57
648.298	35858.05
648.65	35769.7
649.002	35715.01
649.355	35825.29
649.707	35758.62
650.059	35938.05
650.411	36393.86
650.763	36364.03
651.115	36632.27
651.467	36612.38
651.819	36593.4
652.171	36557.02
652.523	36623.68
652.875	36438.38
653.227	36220.98
653.578	36676.34
653.93	36428.66
654.282	36296.46
654.633	36343.69
654.985	36418.27
655.337	36507.08
655.688	36399.51
656.039	36500.3
656.391	36313.64
656.742	36332.84
657.094	36378.94
657.445	36522.22
657.796	36245.16
658.147	36338.95
658.498	36209.01
658.849	36347.98
659.2	36303.01
659.551	36208.1
659.902	36378.94
660.253	36249.91
660.604	36245.39
660.955	36091.49
661.306	36250.13
661.656	36131.27
662.007	36159.97
662.358	36274.77
662.708	36183.02
663.059	36088.1
663.409	35803.14
663.76	36326.97
664.11	36307.76
664.461	36205.84
664.811	36284.03
665.161	36227.54
665.511	36146.41
665.862	36223.47
666.212	36256.69
666.562	36246.97
666.912	36111.83
667.262	36157.71
667.612	36209.46
667.962	36149.35
668.312	36182.34
668.662	36196.12
669.011	36076.58
669.361	36044.49
669.711	35971.27
670.06	36053.53
670.41	35913.87
670.76	35926.75
671.109	35973.53
671.459	36117.71
671.808	35971.95
672.157	36164.94
672.507	35817.83
672.856	35790.03
673.205	35826.64
673.554	36059.18
673.904	35786.42
674.253	36036.35
674.602	35809.69
674.951	35392.53
675.3	35197.28
675.649	35856.7
675.998	35668.91
676.346	35700.54
676.695	35793.42
677.044	35467.1
677.393	35753.42
677.741	35687.66
678.09	35727.44
678.438	35491.28
678.787	35698.06
679.135	35651.51
679.484	35405.18
679.832	35582.58
680.181	35273.89
680.529	35436.14
680.877	35515.24
681.225	35381.23
681.573	35476.6
681.922	35285.41
682.27	35098.3
682.618	35098.07
682.966	35112.54
683.314	35152.08
683.661	35002.26
684.009	34868.02
684.357	34860.11
684.705	34834.58
685.053	34856.5
685.4	34710.51
685.748	34649.5
686.095	34671.19
686.443	34504.87
686.79	34443.85
687.138	34583.74
687.485	34499.22
687.832	34376.29
688.18	34448.15
688.527	34224.65
688.874	34172
689.221	34166.12
689.568	33998.44
689.915	34029.85
690.262	34021.04
690.609	33882.29
690.956	33812.91
691.303	33788.05
691.65	33488.85
691.997	33547.15
692.344	33347.84
692.69	33368.85
693.037	33341.06
693.383	33148.75
693.73	33214.06
694.077	33029.65
694.423	32938.36
694.769	32871.24
695.116	32758.25
695.462	32785.37
695.808	32734.07
696.155	32648.42
696.501	32480.97
696.847	32549.67
697.193	32216.79
697.539	32432.38
697.885	32199.85
698.231	32151.49
698.577	32104.93
698.923	32054.54
699.269	31842.11
699.614	31778.61
699.96	31678.28
700.306	31632.4
700.651	31629.01
700.997	31489.58
701.342	31507.66
701.688	31406.19
702.033	31329.13
702.379	31291.17
702.724	31232.41
703.069	31182.25
703.415	30897.51
703.76	31083.94
704.105	30977.96
704.45	30867.9
704.795	30672.2
705.14	30647.12
705.485	30532.09
705.83	30413
706.175	30404.41
706.52	30221.82
706.865	30339.33
707.209	30212.1
707.554	30138.66
707.899	30225.21
708.243	29943.18
708.588	30020.24
708.932	29738.44
709.277	29725.79
709.621	29768.72
709.966	29507.03
710.31	29502.74
710.654	29390.88
710.998	29360.6
711.342	29444.44
711.687	29411.67
712.031	29214.39
712.375	29096.65
712.719	29151.79
713.063	29143.2
713.407	29283.09
713.75	28872.93
714.094	28958.57
714.438	28914.96
714.782	29066.59
715.125	28700.28
715.469	28843.32
715.812	28642.88
716.156	28537.57
716.499	28564.69
716.843	28691.24
717.186	28408.98
717.53	28474.29
717.873	28573.95
718.216	28379.83
718.559	28261.42
718.902	28131.7
719.246	28135.32
719.589	28185.71
719.932	28063.68
720.275	27983.01
720.617	27830.02
720.96	27868.89
721.303	27782.79
721.646	27926.74
721.989	27672.28
722.331	27722
722.674	27736.46
723.016	27687.65
723.359	27579.18
723.701	27709.12
724.044	27453.53
724.386	27305.06
724.729	27482
725.071	27319.07
725.413	27332.4
725.755	27352.74
726.097	27122.92
726.439	27206.3
726.782	27126.98
727.124	27164.72
727.465	27136.25
727.807	26981
728.149	27053.31
728.491	26995.46
728.833	26910.94
729.175	26837.27
729.516	26761.34
729.858	26782.81
730.199	26694
730.541	26618.98
730.882	26621.69
731.224	26764.28
731.565	26549.82
731.906	26555.02
732.248	26607
732.589	26405.87
732.93	26374.69
733.271	26345.08
733.612	26305.76
733.953	26368.59
734.294	26203.84
734.635	26178.53
734.976	26195.48
735.317	26115.94
735.658	26089.5
735.999	26121.14
736.339	26081.14
736.68	26133.11
737.021	26016.96
737.361	25903.74
737.702	26125.43
738.042	25900.8
738.383	25887.47
738.723	25901.93
739.063	25773.35
739.404	25891.54
739.744	25771.09
740.084	25615.84
740.424	25721.82
740.764	25595.05
741.104	25750.07
741.444	25609.96
741.784	25476.63
742.124	25533.58
742.464	25483.64
742.804	25349.63
743.143	25420.36
743.483	25377.65
743.823	25211.55
744.162	25265.56
744.502	25371.78
744.841	25294.94
745.181	25269.41
745.52	25146.92
745.86	25347.6
746.199	25155.74
746.538	25113.93
746.877	25211.1
747.216	25025.12
747.556	25064.89
747.895	25032.35
748.234	24888.63
748.573	24929.08
748.911	24863.32
749.25	24789.42
749.589	24732.02
749.928	24856.54
750.267	24795.75
750.605	24659.93
750.944	24622.87
751.283	24487.73
751.621	24675.75
751.96	24454.06
752.298	24478.24
752.636	24369.77
752.975	24337.23
753.313	24251.35
753.651	24367.51
753.989	24286.38
754.327	24184.24
754.666	24156.22
755.004	24055.2
755.342	24150.57
755.679	24063.56
756.017	23956.67
756.355	24009.78
756.693	23841.42
757.031	23978.59
757.368	23700.63
757.706	23721.42
758.044	23601.88
758.381	23812.72
758.719	23565.72
759.056	23580.41
759.394	23511.94
759.731	23406.86
760.068	23346.74
760.405	23283.24
760.743	23239.63
761.08	23239.18
