Data from hue_80_FLMS001491_67.txt Node
Date: Mon Feb 06 15:23:23 GMT 2017
User: dcchb
Spectrometer: FLMS00149
Trigger mode: 0
Integration Time (sec): 2.000000E-2
Scans to average: 10
Electric dark correction enabled: true
Nonlinearity correction enabled: false
Boxcar width: 0
XAxis mode: Wavelengths
Number of Pixels in Spectrum: 2048
>>>>>Begin Spectral Data<<<<<
341.393	-12.64
341.776	-12.64
342.16	-12.64
342.543	-59.42
342.927	-72.07
343.31	-84.28
343.693	-63.49
344.077	-62.13
344.46	-63.94
344.843	-65.52
345.226	-45.86
345.61	-34.34
345.993	-15.35
346.376	-8.12
346.759	6.12
347.142	38.66
347.525	44.98
347.908	68.26
348.291	73.68
348.674	94.02
349.057	117.3
349.44	110.52
349.823	129.05
350.206	178.77
350.588	175.38
350.971	183.29
351.354	225.32
351.737	235.04
352.119	260.35
352.502	263.06
352.884	275.26
353.267	270.06
353.65	279.78
354.032	294.47
354.414	318.65
354.797	303.51
355.179	311.64
355.562	312.1
355.944	326.11
356.326	311.19
356.709	327.46
357.091	320.23
357.473	336.05
357.855	327.01
358.238	320.68
358.62	359.33
359.002	341.47
359.384	340.8
359.766	305.09
360.148	334.47
360.53	331.53
360.912	330.63
361.294	320.01
361.676	345.54
362.057	337.63
362.439	322.04
362.821	334.24
363.203	311.19
363.584	327.69
363.966	324.3
364.348	307.35
364.729	330.4
365.111	294.24
365.493	301.48
365.874	329.05
366.256	308.25
366.637	314.13
367.019	307.58
367.4	306.9
367.781	305.32
368.163	308.71
368.544	304.41
368.925	315.26
369.306	296.73
369.688	315.49
370.069	291.53
370.45	301.25
370.831	298.99
371.212	291.08
371.593	309.84
371.974	322.94
372.355	305.99
372.736	303.51
373.117	313.23
373.498	317.97
373.879	299.67
374.26	303.28
374.641	308.71
375.021	319.55
375.402	318.42
375.783	317.75
376.163	322.04
376.544	306.22
376.925	365.88
377.305	304.64
377.686	310.74
378.066	303.96
378.447	315.71
378.827	307.8
379.208	310.29
379.588	331.76
379.968	311.42
380.349	340.8
380.729	341.7
381.109	310.97
381.489	330.63
381.87	324.75
382.25	337.86
382.63	339.44
383.01	324.75
383.39	346.22
383.77	344.64
384.15	345.77
384.53	340.57
384.91	325.43
385.29	333.34
385.67	332.89
386.049	336.28
386.429	336.73
386.809	343.28
387.189	341.47
387.568	331.3
387.948	348.71
388.328	343.51
388.707	360.91
389.087	357.52
389.466	361.59
389.846	356.84
390.225	350.97
390.605	345.99
390.984	354.58
391.363	347.12
391.743	366.78
392.122	359.55
392.501	342.38
392.881	368.59
393.26	372.66
393.639	365.88
394.018	357.07
394.397	368.82
394.776	371.3
395.155	347.58
395.534	377.63
395.913	390.06
396.292	367.46
396.671	355.49
397.05	361.81
397.429	378.99
397.808	357.97
398.186	346.67
398.565	366.78
398.944	393.45
399.323	378.31
399.701	392.55
400.08	362.04
400.458	380.12
400.837	383.51
401.215	386.9
401.594	385.54
401.972	390.96
402.351	406.11
402.729	378.08
403.107	392.77
403.486	371.08
403.864	399.78
404.242	393
404.62	408.59
404.999	414.92
405.377	398.87
405.755	408.82
406.133	402.94
406.511	401.59
406.889	399.1
407.267	406.11
407.645	400
408.023	420.34
408.401	418.76
408.779	428.48
409.156	411.75
409.534	437.06
409.912	420.34
410.29	433.68
410.667	431.87
411.045	426.44
411.422	441.13
411.8	445.43
412.178	437.06
412.555	446.33
412.933	450.17
413.31	454.92
413.687	458.31
414.065	454.01
414.442	462.15
414.819	461.02
415.197	477.52
415.574	475.03
415.951	474.8
416.328	463.28
416.705	477.29
417.082	498.98
417.46	474.13
417.837	470.74
418.214	491.3
418.591	477.97
418.967	480.23
419.344	487.46
419.721	508.25
420.098	510.28
420.475	504.18
420.852	501.47
421.228	521.36
421.605	501.92
421.982	510.96
422.358	517.29
422.735	540.56
423.111	526.1
423.488	516.16
423.864	517.74
424.241	534.46
424.617	519.1
424.994	543.28
425.37	526.78
425.746	553.22
426.123	540.34
426.499	532.43
426.875	541.69
427.251	543.73
427.627	575.59
428.003	554.12
428.379	562.94
428.756	573.56
429.132	576.72
429.507	590.51
429.883	568.59
430.259	578.98
430.635	559.1
431.011	595.93
431.387	585.99
431.763	613.11
432.138	610.39
432.514	622.6
432.89	622.6
433.265	626.66
433.641	625.53
434.016	630.28
434.392	645.65
434.767	614.91
435.143	651.52
435.518	654.23
435.894	659.66
436.269	669.15
436.644	665.08
437.02	653.78
437.395	665.76
437.77	683.39
438.145	682.93
438.52	672.09
438.895	680.45
439.271	703.05
439.646	697.17
440.021	708.02
440.395	718.64
440.77	705.08
441.145	738.53
441.52	730.84
441.895	712.99
442.27	747.11
442.645	744.4
443.019	730.62
443.394	757.96
443.769	755.25
444.143	729.49
444.518	747.57
444.892	762.03
445.267	763.38
445.641	774.91
446.016	787.56
446.39	749.15
446.764	783.72
447.139	762.25
447.513	792.99
447.887	806.55
448.262	787.79
448.636	788.02
449.01	780.78
449.384	799.32
449.758	818.98
450.132	821.01
450.506	811.29
450.88	833.44
451.254	824.85
451.628	840.67
452.002	871.86
452.376	834.12
452.75	871.86
453.123	861.91
453.497	870.95
453.871	898.3
454.244	881.12
454.618	895.58
454.992	879.31
455.365	902.59
455.739	934.23
456.112	933.55
456.486	971.06
456.859	954.57
457.232	978.07
457.606	962.02
457.979	982.81
458.352	983.94
458.725	1021.68
459.099	1016.48
459.472	1026.65
459.845	1045.41
460.218	1037.27
460.591	1072.75
460.964	1092.41
461.337	1090.15
461.71	1108.01
462.083	1127.89
462.456	1136.48
462.829	1140.55
463.201	1162.47
463.574	1153.66
463.947	1206.08
464.32	1194.56
464.692	1191.17
465.065	1213.54
465.438	1226.42
465.81	1268.68
466.183	1239.08
466.555	1299.41
466.928	1298.96
467.3	1296.03
467.672	1331.73
468.045	1391.39
468.417	1399.75
468.789	1370.37
469.161	1413.76
469.534	1463.48
469.906	1500.09
470.278	1531.5
470.65	1524.27
471.022	1541.22
471.394	1564.94
471.766	1624.38
472.138	1641.1
472.51	1665.06
472.882	1655.11
473.253	1738.95
473.625	1785.96
473.997	1816.69
474.369	1862.79
474.74	1887.2
475.112	1922.68
475.484	1952.96
475.855	1999.74
476.227	2053.97
476.598	2123.57
476.97	2125.83
477.341	2246.96
477.713	2296.9
478.084	2333.06
478.455	2378.03
478.827	2460.29
479.198	2545.94
479.569	2576.22
479.94	2647.4
480.311	2765.59
480.682	2809.66
481.053	2910.67
481.424	2968.75
481.795	3082.64
482.166	3153.15
482.537	3236.54
482.908	3319.7
483.279	3430.66
483.65	3548.17
484.021	3620.71
484.391	3704.1
484.762	3793.59
485.133	3895.96
485.503	3945.67
485.874	4166.91
486.244	4223.86
486.615	4324.87
486.985	4449.84
487.356	4595.6
487.726	4704.75
488.097	4892.99
488.467	4958.08
488.837	5107
489.207	5183.83
489.578	5346.99
489.948	5478.29
490.318	5625.85
490.688	5723.93
491.058	5881.67
491.428	6022.45
491.798	6169.57
492.168	6336.57
492.538	6499.28
492.908	6560.75
493.278	6743.34
493.648	6819.95
494.017	6936.33
494.387	7150.33
494.757	7241.86
495.126	7352.59
495.496	7457.22
495.866	7649.76
496.235	7793.03
496.605	7965
496.974	8027.37
497.344	8204.77
497.713	8318.21
498.082	8452.9
498.452	8627.58
498.821	8747.81
499.19	8851.98
499.559	8954.58
499.928	9072.77
500.298	9185.54
500.667	9337.17
501.036	9383.5
501.405	9559.99
501.774	9648.8
502.143	9823.48
502.512	9925.4
502.88	10013.08
503.249	10031.84
503.618	10206.75
503.987	10257.15
504.356	10406.29
504.724	10493.07
505.093	10563.58
505.462	10637.02
505.83	10818.94
506.199	10885.38
506.567	11062.1
506.936	11139.83
507.304	11298.25
507.672	11359.04
508.041	11392.71
508.409	11573.95
508.777	11657.79
509.145	11763.09
509.514	11796.54
509.882	12001.28
510.25	11975.07
510.618	12022.97
510.986	12145.68
511.354	12363.08
511.722	12519.68
512.09	12484.21
512.458	12563.07
512.826	12632.22
513.193	12649.63
513.561	12758.32
513.929	12838.55
514.297	12954.25
514.664	13049.39
515.032	13099.78
515.4	13190.85
515.767	13271.53
516.135	13318.76
516.502	13241.7
516.869	13498.87
517.237	13596.27
517.604	13585.87
517.972	13663.38
518.339	13709.94
518.706	13779.09
519.073	13778.86
519.44	13869.71
519.808	14020.89
520.175	13996.48
520.542	14192.86
520.909	14201.22
521.276	14273.54
521.643	14393.76
522.009	14390.37
522.376	14474.21
522.743	14542.46
523.11	14649.57
523.477	14821.09
523.843	14807.53
524.21	14922.79
524.577	15000.07
524.943	15070.8
525.31	15012.05
525.676	15154.19
526.043	15264.25
526.409	15373.85
526.776	15445.71
527.142	15493.62
527.508	15521.64
527.874	15542.2
528.241	15529.32
528.607	15631.69
528.973	15776.77
529.339	15676.44
529.705	15767.06
530.071	15862.87
530.437	15908.3
530.803	16024.9
531.169	15960.5
531.535	16011.12
531.901	16038.24
532.267	16063.09
532.632	16109.87
532.998	16064.9
533.364	16147.61
533.73	16198.91
534.095	16229.19
534.461	16209.98
534.826	16227.84
535.192	16233.94
535.557	16420.37
535.923	16256.99
536.288	16272.58
536.653	16329.75
537.019	16318.23
537.384	16292.24
537.749	16440.03
538.114	16416.98
538.479	16379.7
538.845	16364.1
539.21	16370.66
539.575	16345.12
539.94	16380.37
540.305	16446.59
540.67	16452.69
541.034	16391
541.399	16444.78
541.764	16391.45
542.129	16450.88
542.494	16456.53
542.858	16359.81
543.223	16351.9
543.587	16407.94
543.952	16327.04
544.316	16338.79
544.681	16372.24
545.045	16419.24
545.41	16318.46
545.774	16395.52
546.138	16344.67
546.503	16278.68
546.867	16264.9
547.231	16513.25
547.595	16355.97
547.959	16356.19
548.324	16445.23
548.688	16407.27
549.052	16435.06
549.416	16319.59
549.779	16388.96
550.143	16336.08
550.507	16421.73
550.871	16345.8
551.235	16274.39
551.599	16399.81
551.962	16354.16
552.326	16271.22
552.689	16483.65
553.053	16253.15
553.417	16357.55
553.78	16510.54
554.143	16362.97
554.507	16391.45
554.87	16515.29
555.234	16459.24
555.597	16311.9
555.96	16306.03
556.323	16398.45
556.686	16357.32
557.05	16457.66
557.413	16499.02
557.776	16482.07
558.139	16492.24
558.502	16473.25
558.865	16507.38
559.228	16526.36
559.59	16651.55
559.953	16558.45
560.316	16703.3
560.679	16682.29
561.041	16775.39
561.404	16743.53
561.767	16788.05
562.129	16809.06
562.492	16949.17
562.854	16843.19
563.217	16822.62
563.579	16879.57
563.941	16904.43
564.304	16895.62
564.666	17085.44
565.028	17018.55
565.39	17052.9
565.753	17084.31
566.115	17087.7
566.477	17132.67
566.839	17109.17
567.201	17260.35
567.563	17267.58
567.925	17327.92
568.287	17277.98
568.648	17263.29
569.01	17402.04
569.372	17333.8
569.734	17361.37
570.095	17529.27
570.457	17444.98
570.819	17486.56
571.18	17468.48
571.542	17581.92
571.903	17578.53
572.265	17628.25
572.626	17702.37
572.987	17678.87
573.349	17717.06
573.71	17796.83
574.071	17692.66
574.432	17830.73
574.794	17839.55
575.155	17913.22
575.516	17862.37
575.877	17864.4
576.238	17811.98
576.599	17967.68
576.96	17961.58
577.32	17915.7
577.681	18002.7
578.042	17972.65
578.403	17960.67
578.763	17881.13
579.124	17982.59
579.485	18039.31
579.845	18039.99
580.206	18075.25
580.566	17989.37
580.927	18020.78
581.287	18064.85
581.648	18150.05
582.008	18037.28
582.368	18010.16
582.728	18128.13
583.089	18028.47
583.449	18014.91
583.809	18023.95
584.169	18068.69
584.529	18040.22
584.889	18152.31
585.249	17959.09
585.609	18040.44
585.969	18089.26
586.329	18039.54
586.688	18028.01
587.048	17961.12
587.408	17990.05
587.768	17988.92
588.127	17992.76
588.487	17895.81
588.846	17986.21
589.206	18004.06
589.565	17902.14
589.925	17922.03
590.284	17902.37
590.643	17907.57
591.003	17928.81
591.362	17941.92
591.721	17954.57
592.08	18035.7
592.44	17988.69
592.799	17939.88
593.158	17917.06
593.517	17933.78
593.876	18039.54
594.235	17884.29
594.593	17861.47
594.952	17853.33
595.311	17841.58
595.67	17839.32
596.029	17891.97
596.387	17986.21
596.746	17986.89
597.104	17854.01
597.463	17963.38
597.822	18045.19
598.18	17881.58
598.538	17857.62
598.897	17976.49
599.255	17803.16
599.613	18049.71
599.972	17880.45
600.33	18016.04
600.688	17853.33
601.046	17953.21
601.404	17946.43
601.762	17936.94
602.12	17982.59
602.478	18041.57
602.836	17981.91
603.194	17947.79
603.552	18003.16
603.91	18007
604.268	17904.63
604.625	17910.73
604.983	17968.81
605.341	17931.07
605.698	18094.91
606.056	18117.5
606.413	17996.83
606.771	18065.08
607.128	18039.99
607.485	18065.08
607.843	18036.83
608.2	18218.74
608.557	18080.67
608.914	18073.21
609.272	18122.48
609.629	18258.52
609.986	18298.29
610.343	18143.94
610.7	18353.2
611.057	18240.89
611.414	18227.78
611.771	18304.84
612.127	18341
612.484	18275.92
612.841	18349.14
613.198	18206.32
613.554	18249.25
613.911	18491.73
614.267	18455.35
614.624	18377.84
614.98	18474.33
615.337	18506.19
615.693	18454.9
616.05	18449.02
616.406	18548
616.762	18521.79
617.118	18569.02
617.475	18412.41
617.831	18502.13
618.187	18496.48
618.543	18637.94
618.899	18693.76
619.255	18660.09
619.611	18625.51
619.967	18703.93
620.323	18608.11
620.678	18599.75
621.034	18620.99
621.39	18663.03
621.746	18609.92
622.101	18833.42
622.457	18725.62
622.812	18691.27
623.168	18788.45
623.523	18714.78
623.879	18769.24
624.234	18675.91
624.589	18773.76
624.945	18710.26
625.3	18736.7
625.655	18825.96
626.01	18804.72
626.365	18746.64
626.72	18720.88
627.075	18821.67
627.43	18763.59
627.785	18629.35
628.14	18798.62
628.495	18781.89
628.85	18686.75
629.205	18640.65
629.559	18786.64
629.914	18689.69
630.269	18770.82
630.623	18603.82
630.978	18562.92
631.332	18725.4
631.687	18701.67
632.041	18666.19
632.396	18643.82
632.75	18591.84
633.104	18515.91
633.459	18426.87
633.813	18493.54
634.167	18499.41
634.521	18467.55
634.875	18490.15
635.229	18457.16
635.583	18452.18
635.937	18419.42
636.291	18259.65
636.645	18371.96
636.999	18289.93
637.352	18320.66
637.706	18217.61
638.06	18391.85
638.413	18305.3
638.767	18352.3
639.121	18277.27
639.474	18235.69
639.828	18204.96
640.181	18196.37
640.534	18182.59
640.888	18133.55
641.241	18056.04
641.594	18138.52
641.947	18212.19
642.301	18020.33
642.654	18214
643.007	18152.53
643.36	18131.97
643.713	18074.79
644.066	18122.02
644.419	17962.25
644.771	17912.99
645.124	17699.89
645.477	17669.83
645.83	17590.74
646.182	17507.35
646.535	17549.84
646.888	17520.68
647.24	17381.7
647.593	17586.9
647.945	17450.4
648.298	17498.99
648.65	17330.18
649.002	17321.37
649.355	17369.27
649.707	17395.71
650.059	17453.11
650.411	17689.04
650.763	17680.45
651.115	17892.43
651.467	17870.73
651.819	17842.03
652.171	17845.65
652.523	17743.28
652.875	17810.62
653.227	17691.75
653.578	17779.89
653.93	17864.4
654.282	17797.74
654.633	17690.85
654.985	17669.61
655.337	17773.56
655.688	17796.83
656.039	17883.61
656.391	17657.4
656.742	17701.92
657.094	17760.45
657.445	17841.35
657.796	17848.36
658.147	17772.43
658.498	17719.77
658.849	17830.05
659.2	17774.91
659.551	17731.75
659.902	17818.08
660.253	17783.95
660.604	17793.22
660.955	17726.78
661.306	17893.33
661.656	17828.7
662.007	17818.08
662.358	17867.57
662.708	17707.12
663.059	17794.12
663.409	17692.88
663.76	17836.61
664.11	17839.55
664.461	17790.73
664.811	17750.73
665.161	17868.02
665.511	17786.21
665.862	17759.77
666.212	17884.74
666.562	17775.14
666.912	17847.45
667.262	17749.83
667.612	17837.96
667.962	17763.16
668.312	17741.92
668.662	17940.79
669.011	17834.57
669.361	17795.48
669.711	17756.84
670.06	17793.44
670.41	17755.93
670.76	17750.06
671.109	17767.46
671.459	17782.82
671.808	17703.28
672.157	17823.95
672.507	17635.26
672.856	17645.2
673.205	17711.19
673.554	17805.65
673.904	17718.87
674.253	17753.9
674.602	17792.09
674.951	17478.65
675.3	17383.51
675.649	17628.25
675.998	17585.77
676.346	17670.74
676.695	17731.98
677.044	17584.86
677.393	17646.56
677.741	17529.5
678.09	17604.75
678.438	17550.74
678.787	17579.44
679.135	17474.13
679.484	17318.2
679.832	17413.79
680.181	17307.36
680.529	17391.87
680.877	17369.27
681.225	17221.71
681.573	17366.34
681.922	17235.49
682.27	17226.23
682.618	17173.57
682.966	17076.4
683.314	17211.99
683.661	17112.33
684.009	17037.53
684.357	17070.53
684.705	17012.45
685.053	16934.94
685.4	16975.84
685.748	16857.42
686.095	16878.67
686.443	16767.26
686.79	16809.97
687.138	16831.89
687.485	16855.84
687.832	16757.99
688.18	16739.01
688.527	16628.5
688.874	16572.01
689.221	16500.15
689.568	16421.73
689.915	16468.28
690.262	16478
690.609	16313.26
690.956	16283.2
691.303	16273.71
691.65	16223.77
691.997	16210.66
692.344	16143.77
692.69	16011.8
693.037	16106.48
693.383	15867.17
693.73	16100.16
694.077	15773.38
694.423	15918.69
694.769	15805.93
695.116	15798.02
695.462	15702.2
695.808	15687.96
696.155	15701.3
696.501	15518.48
696.847	15510.34
697.193	15377.91
697.539	15427.18
697.885	15343.79
698.231	15267.86
698.577	15318.26
698.923	15154.42
699.269	15150.35
699.614	15080.97
699.96	15052.95
700.306	15019.28
700.651	14934.54
700.997	14879.62
701.342	14782.22
701.688	14816.35
702.033	14723.24
702.379	14680.31
702.724	14649.8
703.069	14697.93
703.415	14499.52
703.76	14559.18
704.105	14546.3
704.45	14493.19
704.795	14360.09
705.14	14333.65
705.485	14343.82
705.83	14205.52
706.175	14231.05
706.52	14134.33
706.865	14163.71
707.209	14117.16
707.554	14039.64
707.899	14050.27
708.243	13944.51
708.588	13971.85
708.932	13911.29
709.277	13889.14
709.621	13737.05
709.966	13721.01
710.31	13760.78
710.654	13676.49
710.998	13697.28
711.342	13633.78
711.687	13474.69
712.031	13591.07
712.375	13412.77
712.719	13454.8
713.063	13449.38
713.407	13502.48
713.75	13450.06
714.094	13476.04
714.438	13350.85
714.782	13429.72
715.125	13244.19
715.469	13317.18
715.812	13235.37
716.156	13135.94
716.499	13137.52
716.843	13120.35
717.186	13112.21
717.53	13046
717.873	13090.29
718.216	13075.38
718.559	13090.97
718.902	13016.62
719.246	12939.56
719.589	12971.42
719.932	12931.2
720.275	12908.6
720.617	12985.66
720.96	12863.63
721.303	12890.75
721.646	12855.72
721.989	12798.1
722.331	12862.05
722.674	12818.66
723.016	12889.84
723.359	12754.03
723.701	12786.8
724.044	12661.6
724.386	12649.4
724.729	12703.63
725.071	12677.87
725.413	12628.16
725.755	12683.3
726.097	12652.56
726.439	12548.38
726.782	12650.3
727.124	12655.27
727.465	12535.73
727.807	12604.2
728.149	12593.81
728.491	12603.3
728.833	12624.54
729.175	12596.07
729.516	12495.05
729.858	12591.1
730.199	12577.31
730.541	12457.99
730.882	12529.85
731.224	12607.37
731.565	12529.4
731.906	12433.36
732.248	12472.45
732.589	12505.45
732.93	12397.88
733.271	12531.66
733.612	12490.08
733.953	12488.05
734.294	12403.3
734.635	12439.46
734.976	12504.09
735.317	12429.07
735.658	12430.42
735.999	12416.18
736.339	12448.95
736.68	12435.39
737.021	12430.65
737.361	12399.24
737.702	12538.22
738.042	12482.85
738.383	12473.13
738.723	12473.13
739.063	12501.38
739.404	12461.83
739.744	12512
740.084	12375.28
740.424	12446.47
740.764	12420.03
741.104	12489.63
741.444	12516.97
741.784	12503.19
742.124	12573.24
742.464	12537.76
742.804	12589.97
743.143	12516.75
743.483	12524.66
743.823	12528.05
744.162	12565.11
744.502	12681.71
744.841	12632.9
745.181	12728.49
745.52	12704.54
745.86	12682.39
746.199	12786.12
746.538	12812.78
746.877	12914.02
747.216	12916.28
747.556	12875.16
747.895	13002.16
748.234	12950.86
748.573	13030.18
748.911	13132.78
749.25	13119.22
749.589	13186.56
749.928	13257.52
750.267	13358.76
750.605	13374.58
750.944	13486.67
751.283	13468.59
751.621	13621.8
751.96	13630.16
752.298	13671.97
752.636	13830.84
752.975	13893.66
753.313	14000.78
753.651	14148.57
753.989	14099.3
754.327	14203.71
754.666	14314.21
755.004	14430.37
755.342	14527.09
755.679	14636.24
756.017	14626.97
756.355	14914.42
756.693	14925.5
