Data from hue_340_FLMS001491_41.txt Node
Date: Mon Feb 06 15:43:09 GMT 2017
User: dcchb
Spectrometer: FLMS00149
Trigger mode: 0
Integration Time (sec): 2.000000E-2
Scans to average: 10
Electric dark correction enabled: true
Nonlinearity correction enabled: false
Boxcar width: 0
XAxis mode: Wavelengths
Number of Pixels in Spectrum: 2048
>>>>>Begin Spectral Data<<<<<
341.393	-21.6
341.776	-21.6
342.16	-21.6
342.543	-72.67
342.927	-78.32
343.31	-50.97
343.693	-76.74
344.077	-56.17
344.46	-60.01
344.843	-42.39
345.226	-44.87
345.61	-40.13
345.993	-34.48
346.376	-14.36
346.759	10.72
347.142	51.4
347.525	45.07
347.908	53.2
348.291	82.13
348.674	58.63
349.057	118.97
349.44	123.49
349.823	141.56
350.206	139.08
350.588	196.7
350.971	207.33
351.354	195.12
351.737	236.7
352.119	266.08
352.502	252.97
352.884	252.52
353.267	281.45
353.65	298.62
354.032	292.29
354.414	299.3
354.797	296.14
355.179	302.92
355.562	307.21
355.944	296.59
356.326	312.63
356.709	316.7
357.091	318.51
357.473	335.46
357.855	362.58
358.238	328.68
358.62	338.17
359.002	330.71
359.384	344.5
359.766	344.72
360.148	327.32
360.53	329.81
360.912	340.2
361.294	347.89
361.676	325.29
362.057	311.73
362.439	314.44
362.821	324.16
363.203	303.37
363.584	315.12
363.966	320.99
364.348	312.18
364.729	305.63
365.111	320.32
365.493	325.06
365.874	311.5
366.256	312.86
366.637	306.08
367.019	311.73
367.4	310.15
367.781	299.07
368.163	300.66
368.544	299.75
368.925	309.24
369.306	306.76
369.688	302.01
370.069	294.1
370.45	290.49
370.831	296.81
371.212	298.85
371.593	309.24
371.974	302.01
372.355	304.05
372.736	308.34
373.117	308.57
373.498	318.73
373.879	295.68
374.26	303.59
374.641	314.21
375.021	301.33
375.402	309.24
375.783	313.08
376.163	308.34
376.544	317.83
376.925	301.79
377.305	298.4
377.686	310.15
378.066	335.68
378.447	335.01
378.827	345.63
379.208	308.34
379.588	331.84
379.968	340.88
380.349	320.54
380.729	302.92
381.109	304.05
381.489	315.57
381.87	328.23
382.25	310.83
382.63	332.07
383.01	320.77
383.39	335.46
383.77	335.01
384.15	339.07
384.53	325.97
384.91	340.2
385.29	331.62
385.67	347.43
386.049	342.91
386.429	345.17
386.809	333.42
387.189	334.55
387.568	339.07
387.948	333.42
388.328	344.95
388.707	346.53
389.087	341.56
389.466	365.29
389.846	362.8
390.225	338.4
390.605	351.5
390.984	335.01
391.363	371.61
391.743	366.19
392.122	348.56
392.501	347.66
392.881	349.69
393.26	356.7
393.639	367.09
394.018	364.38
394.397	362.35
394.776	364.61
395.155	370.48
395.534	351.28
395.913	367.09
396.292	381.33
396.671	356.47
397.05	372.52
397.429	370.94
397.808	381.33
398.186	374.55
398.565	358.73
398.944	375.68
399.323	363.48
399.701	368.9
400.08	344.04
400.458	378.62
400.837	395.79
401.215	365.74
401.594	376.81
401.972	398.96
402.351	393.76
402.729	393.31
403.107	423.59
403.486	380.2
403.864	391.5
404.242	401.9
404.62	402.12
404.999	405.51
405.377	411.61
405.755	403.03
406.133	393.08
406.511	409.13
406.889	400.77
407.267	433.53
407.645	416.36
408.023	408.22
408.401	404.38
408.779	423.14
409.156	451.61
409.534	428.79
409.912	430.14
410.29	417.49
410.667	426.08
411.045	424.95
411.422	437.15
411.8	451.39
412.178	440.09
412.555	432.4
412.933	466.53
413.31	455
413.687	453.87
414.065	468.11
414.442	468.34
414.819	463.82
415.197	492.52
415.574	499.52
415.951	510.14
416.328	480.99
416.705	508.56
417.082	477.6
417.46	509.24
417.837	522.8
418.214	512.63
418.591	510.82
418.967	520.09
419.344	509.92
419.721	533.87
420.098	543.59
420.475	522.12
420.852	522.12
421.228	555.56
421.605	534.1
421.982	567.77
422.358	549.24
422.735	557.37
423.111	597.37
423.488	559.41
423.864	564.38
424.241	582.23
424.617	602.57
424.994	556.69
425.37	596.92
425.746	588.11
426.123	584.49
426.499	605.73
426.875	622.91
427.251	634.43
427.627	626.3
428.003	647.09
428.379	656.13
428.756	633.08
429.132	644.38
429.507	666.75
429.883	644.6
430.259	640.31
430.635	660.65
431.011	681.21
431.387	697.03
431.763	688.89
432.138	700.19
432.514	677.14
432.89	699.74
433.265	704.49
433.641	714.66
434.016	734.77
434.392	697.48
434.767	752.17
435.143	732.06
435.518	742.68
435.894	752.62
436.269	763.02
436.644	747.88
437.02	772.73
437.395	774.09
437.77	801.43
438.145	786.52
438.52	789
438.895	812.73
439.271	798.04
439.646	827.65
440.021	823.13
440.395	830.13
440.77	812.51
441.145	826.07
441.52	835.33
441.895	838.72
442.27	853.86
442.645	850.25
443.019	858.61
443.394	834.2
443.769	859.06
444.143	854.09
444.518	883.69
444.892	861.09
445.267	883.24
445.641	879.62
446.016	857.48
446.39	872.84
446.764	883.47
447.139	881.21
447.513	907.65
447.887	895.89
448.262	896.12
448.636	893.86
449.01	921.66
449.384	933.41
449.758	936.12
450.132	916.46
450.506	910.36
450.88	914.65
451.254	936.35
451.628	942.9
452.002	917.14
452.376	949.45
452.75	946.51
453.123	965.05
453.497	957.36
453.871	991.03
454.244	998.72
454.618	988.32
454.992	993.52
455.365	997.13
455.739	1013.18
456.112	1013.41
456.486	1016.8
456.859	1043.24
457.232	1032.61
457.606	1050.01
457.979	1040.52
458.352	1052.27
458.725	1047.98
459.099	1062.22
459.472	1117.58
459.845	1101.31
460.218	1114.19
460.591	1145.15
460.964	1106.74
461.337	1142.44
461.71	1130.46
462.083	1144.48
462.456	1149.45
462.829	1171.59
463.201	1178.37
463.574	1206.85
463.947	1198.49
464.32	1214.3
464.692	1241.65
465.065	1230.35
465.438	1257.01
465.81	1273.29
466.183	1283.45
466.555	1293.17
466.928	1281.87
467.3	1291.14
467.672	1309.89
468.045	1316.45
468.417	1330.91
468.789	1340.85
469.161	1374.75
469.534	1354.19
469.906	1380.4
470.278	1426.5
470.65	1407.07
471.022	1443.9
471.394	1471.47
471.766	1486.39
472.138	1464.47
472.51	1538.59
472.882	1550.57
473.253	1554.41
473.625	1570.23
473.997	1625.14
474.369	1615.88
474.74	1626.5
475.112	1650.45
475.484	1637.8
475.855	1679.83
476.227	1704.01
476.598	1711.92
476.97	1733.39
477.341	1772.03
477.713	1816.55
478.084	1816.1
478.455	1864.46
478.827	1854.74
479.198	1948.52
479.569	1911.91
479.94	1974.74
480.311	1972.93
480.682	2031.23
481.053	2037.33
481.424	2077.11
481.795	2072.13
482.166	2122.75
482.537	2183.32
482.908	2206.59
483.279	2225.35
483.65	2244.56
484.021	2300.83
484.391	2268.06
484.762	2305.35
485.133	2358.91
485.503	2391
485.874	2411.33
486.244	2432.8
486.615	2501.28
486.985	2509.86
487.356	2567.49
487.726	2559.81
488.097	2629.18
488.467	2600.93
488.837	2672.8
489.207	2688.39
489.578	2735.39
489.948	2764.77
490.318	2792.12
490.688	2787.14
491.058	2830.76
491.428	2842.74
491.798	2949.63
492.168	2946.01
492.538	2962.73
492.908	3010.64
493.278	3036.4
493.648	3014.48
494.017	3073.46
494.387	3087.93
494.757	3102.16
495.126	3155.95
495.496	3169.06
495.866	3158.43
496.235	3167.7
496.605	3226.45
496.974	3240.47
497.344	3255.83
497.713	3258.32
498.082	3275.94
498.452	3330.63
498.821	3369.05
499.19	3363.4
499.559	3401.37
499.928	3398.43
500.298	3400.01
500.667	3471.19
501.036	3439.78
501.405	3468.71
501.774	3475.71
502.143	3480.91
502.512	3520.23
502.88	3560.91
503.249	3551.19
503.618	3574.24
503.987	3577.86
504.356	3632.32
504.724	3591.19
505.093	3637.07
505.462	3606.11
505.83	3662.38
506.199	3671.87
506.567	3730.17
506.936	3685.65
507.304	3727.91
507.672	3756.84
508.041	3762.03
508.409	3800
508.777	3761.81
509.145	3835.48
509.514	3866.44
509.882	3841.58
510.25	3820.79
510.618	3877.29
510.986	3841.35
511.354	3877.51
511.722	3879.32
512.09	3972.42
512.458	3905.98
512.826	3946.66
513.193	3963.61
513.561	3977.17
513.929	3965.19
514.297	4017.39
514.664	4009.48
515.032	3995.93
515.4	4026.43
515.767	4024.17
516.135	4047.68
516.502	4035.7
516.869	4059.43
517.237	4122.02
517.604	4044.51
517.972	4191.18
518.339	4172.19
518.706	4171.06
519.073	4156.37
519.44	4161.35
519.808	4205.19
520.175	4194.11
520.542	4219.42
520.909	4215.36
521.276	4216.03
521.643	4201.12
522.009	4235.69
522.376	4309.36
522.743	4331.74
523.11	4325.63
523.477	4358.18
523.843	4366.09
524.21	4409.02
524.577	4399.08
524.943	4425.07
525.31	4472.75
525.676	4453.77
526.043	4493.54
526.409	4500.09
526.776	4547.1
527.142	4563.82
527.508	4543.93
527.874	4610.6
528.241	4655.34
528.607	4620.54
528.973	4663.03
529.339	4630.49
529.705	4706.87
530.071	4760.88
530.437	4718.62
530.803	4761.78
531.169	4833.64
531.535	4800.65
531.901	4794.32
532.267	4861.44
532.632	4835.68
532.998	4888.56
533.364	4912.29
533.73	4893.3
534.095	4940.53
534.461	4970.36
534.826	4975.79
535.192	4985.73
535.557	5048.33
535.923	5058.5
536.288	5022.79
536.653	5080.19
537.019	5089.46
537.384	5078.16
537.749	5122
538.114	5145.73
538.479	5075.45
538.845	5177.36
539.21	5182.56
539.575	5191.37
539.94	5171.71
540.305	5298.49
540.67	5266.4
541.034	5300.75
541.399	5337.36
541.764	5349.56
542.129	5348.88
542.494	5391.14
542.858	5418.26
543.223	5482.21
543.587	5407.41
543.952	5435.66
544.316	5513.4
544.681	5494.19
545.045	5467.98
545.41	5524.93
545.774	5620.74
546.138	5643.79
546.503	5608.31
546.867	5637.01
547.231	5686.73
547.595	5707.52
547.959	5710.23
548.324	5686.28
548.688	5711.36
549.052	5751.36
549.416	5771.47
549.779	5763.34
550.143	5814.18
550.507	5828.42
550.871	5817.57
551.235	5821.64
551.599	5887.18
551.962	5894.18
552.326	5883.56
552.689	5966.72
553.053	5951.58
553.417	5945.71
553.78	5993.84
554.143	5973.5
554.507	6051.47
554.87	6019.6
555.234	6049.88
555.597	6058.24
555.96	6117.68
556.323	6091.92
556.686	6140.05
557.05	6175.08
557.413	6196.55
557.776	6207.62
558.139	6150.67
558.502	6260.95
558.865	6221.63
559.228	6257.56
559.59	6299.82
559.953	6366.03
560.316	6357.22
560.679	6320.61
561.041	6384.79
561.404	6383.66
561.767	6386.6
562.129	6404.45
562.492	6405.58
562.854	6448.52
563.217	6491
563.579	6481.06
563.941	6554.28
564.304	6532.13
564.666	6559.7
565.028	6567.84
565.39	6563.09
565.753	6626.37
566.115	6619.81
566.477	6681.96
566.839	6658.68
567.201	6691
567.563	6740.94
567.925	6752.92
568.287	6720.83
568.648	6809.19
569.01	6815.29
569.372	6894.38
569.734	6836.3
570.095	6907.94
570.457	6961.27
570.819	6995.4
571.18	6999.69
571.542	7075.39
571.903	7069.52
572.265	7137.76
572.626	7211.43
572.987	7206.01
573.349	7255.95
573.71	7253.69
574.071	7307.25
574.432	7375.95
574.794	7439.45
575.155	7494.59
575.516	7441.26
575.877	7579.11
576.238	7605.1
576.599	7670.18
576.96	7697.75
577.32	7774.58
577.681	7804.41
578.042	7958.53
578.403	8056.61
578.763	8075.14
579.124	8175.03
579.485	8279.66
579.845	8362.59
580.206	8470.84
580.566	8613.88
580.927	8691.62
581.287	8779.08
581.648	8886.64
582.008	8981.33
582.368	9151.04
582.728	9241.21
583.089	9411.83
583.449	9567.3
583.809	9757.81
584.169	9842.1
584.529	10022.89
584.889	10253.84
585.249	10353.05
585.609	10517.56
585.969	10734.96
586.329	10887.27
586.688	11115.96
587.048	11335.62
587.408	11450.65
587.768	11733.8
588.127	12003.4
588.487	12108.71
588.846	12454.23
589.206	12494.01
589.565	12814.23
589.925	13088.34
590.284	13320.65
590.643	13612.4
591.003	13860.07
591.362	14138.26
591.721	14310.91
592.08	14604.69
592.44	14891.23
592.799	15111.11
593.158	15401.73
593.517	15751.55
593.876	15935.05
594.235	16182.95
594.593	16489.38
594.952	16735.7
595.311	16981.35
595.67	17382.47
596.029	17676.92
596.387	17959.17
596.746	18350.12
597.104	18413.17
597.463	18671.02
597.822	19118.01
598.18	19227.39
598.538	19660.82
598.897	19906.47
599.255	20044.09
599.613	20546
599.972	20707.35
600.33	21057.85
600.688	21154.8
601.046	21646.08
601.404	21985.96
601.762	22211.72
602.12	22569
602.478	22676.56
602.836	22992.94
603.194	23027.29
603.552	23454.62
603.91	23518.12
604.268	23976.42
604.625	24173.25
604.983	24381.15
605.341	24559.23
605.698	24868.82
606.056	25233.79
606.413	25349.26
606.771	25590.84
607.128	25921.45
607.485	25963.71
607.843	26258.17
608.2	26575.9
608.557	26955.55
608.914	27064.47
609.272	27356.22
609.629	27408.19
609.986	27879.37
610.343	27799.82
610.7	28219.92
611.057	28194.39
611.414	28502.85
611.771	28653.13
612.127	28929.28
612.484	29072.55
612.841	29237.75
613.198	29353.45
613.554	29562.49
613.911	29863.72
614.267	30017.16
614.624	29979.42
614.98	30204.05
615.337	30553.42
615.693	30589.13
616.05	30777.82
616.406	31056.46
616.762	30910.25
617.118	31200.18
617.475	31338.03
617.831	31496.45
618.187	31663.9
618.543	31802.43
618.899	32007.62
619.255	32076.09
619.611	32125.36
619.967	32338.91
620.323	32499.58
620.678	32511.33
621.034	32569.64
621.39	32641.27
621.746	32674.27
622.101	33183.41
622.457	33072.68
622.812	33182.28
623.168	33302.73
623.523	33380.69
623.879	33696.84
624.234	33476.05
624.589	33702.26
624.945	33909.26
625.3	33931.18
625.655	33983.61
626.01	34022.48
626.365	34182.7
626.72	34265.19
627.075	34261.12
627.43	34219.31
627.785	34212.31
628.14	34410.72
628.495	34367.78
628.85	34438.52
629.205	34308.8
629.559	34599.42
629.914	34495.24
630.269	34495.92
630.623	34556.25
630.978	34555.8
631.332	34650.94
631.687	34794.66
632.041	34584.05
632.396	34840.76
632.75	34747.43
633.104	34788.56
633.459	34758.96
633.813	34815.45
634.167	34764.83
634.521	34638.06
634.875	34816.58
635.229	34890.71
635.583	34729.36
635.937	34677.83
636.291	34791.95
636.645	34833.53
636.999	34841.67
637.352	34876.92
637.706	34672.63
638.06	34876.7
638.413	34822.23
638.767	34747.89
639.121	34920.54
639.474	34676.7
639.828	34815.45
640.181	34941.33
640.534	34810.48
640.888	34678.96
641.241	34549.02
641.594	34822.23
641.947	34954.66
642.301	34727.77
642.654	34759.41
643.007	34796.47
643.36	34658.4
643.713	34672.41
644.066	34853.87
644.419	34606.65
644.771	34472.41
645.124	34047.34
645.477	34103.38
645.83	33881.69
646.182	33888.7
646.535	33733.45
646.888	33809.15
647.24	33661.36
647.593	33777.29
647.945	33771.64
648.298	33644.19
648.65	33452.55
649.002	33596.73
649.355	33574.58
649.707	33473.34
650.059	33687.8
650.411	33971.86
650.763	34322.13
651.115	34550.15
651.467	34363.49
651.819	34432.41
652.171	34297.5
652.523	34226.09
652.875	34359.42
653.227	34065.19
653.578	34422.47
653.93	34373.66
654.282	34155.13
654.633	34147.45
654.985	34268.8
655.337	34212.76
655.688	34303.15
656.039	34421.57
656.391	34015.93
656.742	34027.9
657.094	34076.72
657.445	34241.23
657.796	34165.98
658.147	34054.12
658.498	34100.22
658.849	34214.11
659.2	33965.31
659.551	34095.7
659.902	34132.31
660.253	34055.47
660.604	34090.05
660.955	33852.54
661.306	34183.15
661.656	34020.45
662.007	34012.54
662.358	34020.9
662.708	33970.05
663.059	34166.88
663.409	33797.18
663.76	34108.35
664.11	34070.16
664.461	33919.43
664.811	34008.02
665.161	34036.72
665.511	33921.92
665.862	34053.21
666.212	34076.27
666.562	34063.84
666.912	34020
667.262	34002.59
667.612	34022.03
667.962	34074.23
668.312	33991.97
668.662	33970.51
669.011	33990.62
669.361	33851.19
669.711	33984.52
670.06	33782.94
670.41	33827.91
670.76	33723.05
671.109	33928.92
671.459	33783.84
671.808	33824.97
672.157	33992.43
672.507	33681.7
672.856	33701.13
673.205	33790.85
673.554	33802.37
673.904	33728.93
674.253	33889.6
674.602	33768.7
674.951	33347.7
675.3	33103.86
675.649	33689.83
675.998	33584.3
676.346	33720.12
676.695	33709.27
677.044	33429.73
677.393	33617.52
677.741	33614.58
678.09	33546.34
678.438	33450.07
678.787	33420.92
679.135	33481.25
679.484	33256.63
679.832	33491.2
680.181	33207.59
680.529	33387.02
680.877	33171.88
681.225	33137.08
681.573	33403.97
681.922	33097.53
682.27	33098.89
682.618	33165.33
682.966	32968.72
683.314	33057.76
683.661	32921.72
684.009	32815.96
684.357	32827.03
684.705	32709.52
685.053	32819.8
685.4	32712.46
685.748	32393.6
686.095	32583.2
686.443	32422.3
686.79	32471.34
687.138	32372.81
687.485	32426.36
687.832	32298.01
688.18	32397.44
688.527	32225.69
688.874	32154.06
689.221	32054.85
689.568	31949.99
689.915	31899.37
690.262	31975.08
690.609	31793.39
690.956	31754.97
691.303	31726.04
691.65	31410.12
691.997	31595.2
692.344	31539.16
692.69	31474.07
693.037	31381.42
693.383	31117.7
693.73	31249.45
694.077	31156.12
694.423	31004.26
694.769	30860.76
695.116	30914.77
695.462	30926.74
695.808	30752.74
696.155	30761.55
696.501	30596.36
696.847	30569.92
697.193	30434.33
697.539	30514.55
697.885	30294.9
698.231	30140.32
698.577	30301.68
698.923	30127.89
699.269	29904.62
699.614	29809.03
699.96	29874.12
700.306	29992.53
700.651	29565.2
700.997	29551.86
701.342	29635.25
701.688	29564.52
702.033	29570.62
702.379	29401.59
702.724	29319.78
703.069	29343.96
703.415	29073.01
703.76	29029.62
704.105	29066.23
704.45	29047.92
704.795	28794.14
705.14	28796.4
705.485	28638.89
705.83	28600.93
706.175	28724.54
706.52	28574.26
706.865	28539.01
707.209	28320.03
707.554	28331.56
707.899	28489.75
708.243	28249.3
708.588	28231.9
708.932	28040.04
709.277	28026.48
709.621	28067.16
709.966	27766.37
710.31	27916.2
710.654	27616.1
710.998	27729.31
711.342	27785.36
711.687	27579.94
712.031	27522.54
712.375	27437.34
712.719	27509.66
713.063	27426.5
713.407	27584.91
713.75	27307.18
714.094	27341.53
714.438	27154.87
714.782	27151.25
715.125	27003
715.469	27242.55
715.812	26892.05
716.156	26684.14
716.499	26961.42
716.843	26815.89
717.186	26667.42
717.53	26852.27
717.873	26834.87
718.216	26715.55
718.559	26610.25
718.902	26459.06
719.246	26565.95
719.589	26478.95
719.932	26312.85
720.275	26389.46
720.617	26272.85
720.96	26260.2
721.303	26110.82
721.646	26160.99
721.989	25938.4
722.331	26140.65
722.674	26031.28
723.016	26112.63
723.359	26106.98
723.701	25958.74
724.044	25767.33
724.386	25728.24
724.729	25667.9
725.071	25692.53
725.413	25737.5
725.755	25703.38
726.097	25655.92
726.439	25574.12
726.782	25515.13
727.124	25579.99
727.465	25342.71
727.807	25374.8
728.149	25367.79
728.491	25331.86
728.833	25349.04
729.175	25270.85
729.516	25197.85
729.858	25187.91
730.199	25187.46
730.541	25151.08
730.882	25035.37
731.224	25181.36
731.565	24966
731.906	24997.18
732.248	24957.63
732.589	24881.25
732.93	24682.84
733.271	24760.58
733.612	24871.54
733.953	24835.6
734.294	24731.65
734.635	24702.95
734.976	24776.17
735.317	24510.19
735.658	24533.69
735.999	24481.94
736.339	24559.68
736.68	24658.89
737.021	24437.87
737.361	24442.39
737.702	24585.22
738.042	24402.62
738.383	24342.96
738.723	24389.97
739.063	24185.23
739.404	24225
739.744	24191.78
740.084	24076.3
740.424	24120.14
740.764	24143.42
741.104	24132.35
741.444	23949.98
741.784	23998.34
742.124	24006.47
742.464	23876.08
742.804	23929.19
743.143	23704.79
743.483	23945.46
743.823	23754.05
744.162	23772.36
744.502	23666.82
744.841	23647.39
745.181	23740.72
745.52	23638.57
745.86	23651.23
746.199	23556.32
746.538	23567.61
746.877	23485.36
747.216	23486.94
747.556	23446.49
747.895	23474.96
748.234	23249.88
748.573	23257.57
748.911	23267.74
749.25	23262.09
749.589	23113.62
749.928	23171.47
750.267	23175.31
750.605	23119.49
750.944	23123.56
751.283	23077.46
751.621	23079.72
751.96	22871.81
752.298	22990
752.636	22825.49
752.975	22714.98
753.313	22706.39
753.651	22844.92
753.989	22691.71
754.327	22634.76
754.666	22569.9
755.004	22608.54
755.342	22551.6
755.679	22478.6
756.017	22365.39
756.355	22425.27
756.693	22247.88
757.031	22351.15
757.368	22124.49
757.706	22262.79
758.044	22032.29
758.381	22132.17
758.719	22000.88
759.056	22090.59
759.394	21826.64
759.731	21853.99
760.068	21750.49
760.405	21677.49
760.743	21610.38
761.08	21676.14
