Data from hue_280_FLMS001491_00003.txt Node
Date: Tue Feb 07 15:54:43 GMT 2017
User: dcchb
Spectrometer: FLMS00149
Trigger mode: 0
Integration Time (sec): 2.000000E-2
Scans to average: 10
Electric dark correction enabled: true
Nonlinearity correction enabled: false
Boxcar width: 0
XAxis mode: Wavelengths
Number of Pixels in Spectrum: 2048
>>>>>Begin Spectral Data<<<<<
341.393	-33.39
341.776	-33.39
342.16	-33.39
342.543	-59.15
342.927	-65.25
343.31	-58.25
343.693	-74.74
344.077	-69.09
344.46	-53.05
344.843	-44.46
345.226	-32.26
345.61	-34.74
345.993	-17.12
346.376	-7.17
346.759	24.69
347.142	12.71
347.525	48.19
347.908	47.96
348.291	74.4
348.674	77.57
349.057	105.36
349.44	122.31
349.823	128.19
350.206	157.57
350.588	179.03
350.971	200.28
351.354	226.94
351.737	226.94
352.119	239.37
352.502	243.89
352.884	250.67
353.267	264
353.65	293.61
354.032	287.73
354.414	289.99
354.797	318.92
355.179	320.73
355.562	331.35
355.944	333.38
356.326	326.15
356.709	335.19
357.091	343.1
357.473	335.41
357.855	324.57
358.238	320.5
358.62	325.7
359.002	341.97
359.384	330.67
359.766	320.73
360.148	325.92
360.53	329.31
360.912	308.07
361.294	322.53
361.676	309.43
362.057	308.75
362.439	339.93
362.821	316.66
363.203	320.5
363.584	331.8
363.966	330.67
364.348	337.67
364.729	300.61
365.111	320.27
365.493	310.78
365.874	303.55
366.256	308.52
366.637	329.54
367.019	312.14
367.4	313.95
367.781	300.84
368.163	311.91
368.544	289.99
368.925	306.94
369.306	321.86
369.688	327.96
370.069	314.17
370.45	308.07
370.831	306.72
371.212	298.35
371.593	314.17
371.974	313.72
372.355	314.62
372.736	302.42
373.117	313.27
373.498	319.14
373.879	318.01
374.26	317.11
374.641	310.56
375.021	322.99
375.402	333.16
375.783	309.2
376.163	327.51
376.544	330.22
376.925	340.84
377.305	313.95
377.686	331.35
378.066	327.28
378.447	324.12
378.827	316.21
379.208	323.21
379.588	326.83
379.968	333.83
380.349	326.15
380.729	319.6
381.109	352.59
381.489	340.39
381.87	325.92
382.25	316.66
382.63	346.49
383.01	350.33
383.39	345.81
383.77	325.25
384.15	342.19
384.53	355.75
384.91	348.3
385.29	366.15
385.67	371.57
386.049	341.97
386.429	361.18
386.809	340.16
387.189	355.53
387.568	363.44
387.948	358.92
388.328	371.57
388.707	355.98
389.087	366.6
389.466	360.95
389.846	363.21
390.225	369.76
390.605	341.06
390.984	379.03
391.363	372.48
391.743	390.78
392.122	393.27
392.501	411.35
392.881	386.04
393.26	379.26
393.639	381.97
394.018	405.47
394.397	397.33
394.776	395.98
395.155	392.59
395.534	398.69
395.913	377.45
396.292	385.36
396.671	397.11
397.05	396.2
397.429	377.9
397.808	394.4
398.186	400.95
398.565	422.64
398.944	400.05
399.323	409.99
399.701	426.26
400.08	419.03
400.458	426.94
400.837	439.82
401.215	433.27
401.594	427.16
401.972	412.25
402.351	407.28
402.729	408.63
403.107	418.12
403.486	428.75
403.864	447.5
404.242	446.6
404.62	458.35
404.999	459.48
405.377	439.59
405.755	454.51
406.133	485.02
406.511	462.19
406.889	460.16
407.267	464.45
407.645	471
408.023	509.42
408.401	495.86
408.779	503.32
409.156	493.6
409.534	514.17
409.912	505.13
410.29	542.42
410.667	537.22
411.045	536.99
411.422	546.48
411.8	534.05
412.178	544.22
412.555	570.89
412.933	578.35
413.31	574.73
413.687	585.13
414.065	584.22
414.442	601.4
414.819	603.43
415.197	624.45
415.574	615.86
415.951	605.01
416.328	636.42
416.705	638.46
417.082	638.46
417.46	662.64
417.837	662.41
418.214	680.72
418.591	683.43
418.967	684.78
419.344	682.75
419.721	706.48
420.098	692.92
420.475	710.09
420.852	703.31
421.228	741.73
421.605	736.53
421.982	743.77
422.358	746.7
422.735	767.95
423.111	783.09
423.488	787.83
423.864	794.61
424.241	770.88
424.617	808.4
424.994	810.43
425.37	854.27
425.746	836.64
426.123	832.58
426.499	854.5
426.875	878.68
427.251	880.71
427.627	912.8
428.003	899.47
428.379	903.08
428.756	911.44
429.132	961.39
429.507	956.87
429.883	969.75
430.259	986.47
430.635	981.27
431.011	993.25
431.387	979.47
431.763	1030.09
432.138	1032.35
432.514	1030.99
432.89	1060.59
433.265	1092.01
433.641	1091.33
434.016	1103.98
434.392	1147.14
434.767	1146.47
435.143	1160.25
435.518	1156.86
435.894	1185.56
436.269	1189.18
436.644	1215.17
437.02	1197.77
437.395	1233.02
437.77	1277.31
438.145	1274.6
438.52	1273.02
438.895	1275.96
439.271	1317.54
439.646	1324.09
440.021	1333.35
440.395	1359.34
440.77	1365.9
441.145	1341.26
441.52	1388.95
441.895	1388.27
442.27	1407.03
442.645	1420.58
443.019	1413.8
443.394	1431.21
443.769	1459.23
444.143	1441.15
444.518	1436.4
444.892	1477.08
445.267	1463.07
445.641	1490.64
446.016	1504.88
446.39	1503.75
446.764	1528.38
447.139	1499.23
447.513	1527.7
447.887	1544.42
448.262	1539.9
448.636	1531.54
449.01	1541.94
449.384	1566.79
449.758	1562.28
450.132	1587.59
450.506	1588.94
450.88	1567.92
451.254	1601.14
451.628	1615.16
452.002	1630.97
452.376	1638.66
452.75	1655.83
453.123	1668.94
453.497	1678.43
453.871	1683.18
454.244	1717.3
454.618	1689.96
454.992	1740.35
455.365	1756.17
455.739	1788.03
456.112	1813.57
456.486	1828.71
456.859	1820.8
457.232	1830.29
457.606	1837.52
457.979	1879.78
458.352	1882.04
458.725	1901.02
459.099	1908.93
459.472	1942.6
459.845	1954.81
460.218	1988.93
460.591	1974.69
460.964	1993.22
461.337	2033.45
461.71	2069.61
462.083	2075.26
462.456	2065.54
462.829	2074.8
463.201	2115.93
463.574	2138.76
463.947	2166.78
464.32	2166.33
464.692	2218.53
465.065	2210.39
465.438	2213.78
465.81	2266.89
466.183	2286.32
466.555	2317.96
466.928	2318.41
467.3	2324.74
467.672	2342.59
468.045	2341.24
468.417	2399.09
468.789	2385.08
469.161	2471.86
469.534	2481.57
469.906	2476.83
470.278	2547.11
470.65	2539.65
471.022	2593.21
471.394	2588.91
471.766	2623.26
472.138	2622.59
472.51	2689.03
472.882	2716.6
473.253	2717.05
473.625	2760.66
473.997	2812.64
474.369	2858.29
474.74	2844.5
475.112	2894.44
475.484	2890.38
475.855	2973.31
476.227	2966.98
476.598	3059.19
476.97	3106.42
477.341	3102.35
477.713	3184.83
478.084	3186.87
478.455	3220.08
478.827	3243.14
479.198	3325.39
479.569	3351.15
479.94	3418.72
480.311	3377.14
480.682	3480.42
481.053	3553.64
481.424	3574.2
481.795	3615.1
482.166	3637.25
482.537	3717.25
482.908	3729.45
483.279	3749.56
483.65	3813.74
484.021	3841.76
484.391	3925.6
484.762	3917.47
485.133	3947.75
485.503	3988.43
485.874	4077.24
486.244	4047.41
486.615	4137.57
486.985	4177.57
487.356	4268.64
487.726	4248.98
488.097	4350.9
488.467	4330.56
488.837	4398.13
489.207	4432.71
489.578	4505.25
489.948	4484.91
490.318	4530.56
490.688	4592.7
491.058	4609.2
491.428	4706.6
491.798	4741.85
492.168	4793.83
492.538	4799.7
492.908	4819.14
493.278	4854.39
493.648	4865.47
494.017	4964.67
494.387	5007.16
494.757	5001.96
495.126	5090.09
495.496	5055.97
495.866	5105.23
496.235	5156.31
496.605	5137.1
496.974	5142.97
497.344	5218
497.713	5229.52
498.082	5273.14
498.452	5305.91
498.821	5309.52
499.19	5330.99
499.559	5402.17
499.928	5388.39
500.298	5414.38
500.667	5459.8
501.036	5478.33
501.405	5515.84
501.774	5472.68
502.143	5552.9
502.512	5545.22
502.88	5582.28
503.249	5568.05
503.618	5611.66
503.987	5578.44
504.356	5688.72
504.724	5680.13
505.093	5678.78
505.462	5679.23
505.83	5713.13
506.199	5767.59
506.567	5814.82
506.936	5806.46
507.304	5885.55
507.672	5913.57
508.041	5854.59
508.409	5893.91
508.777	5944.08
509.145	5948.83
509.514	5945.44
509.882	6013.68
510.25	6010.29
510.618	6050.97
510.986	6006.9
511.354	6074.7
511.722	6060.91
512.09	6211.64
512.458	6124.64
512.826	6137.97
513.193	6129.61
513.561	6184.75
513.929	6177.97
514.297	6194.92
514.664	6252.1
515.032	6297.97
515.4	6303.17
515.767	6289.38
516.135	6273.11
516.502	6259.55
516.869	6361.25
517.237	6397.4
517.604	6360.57
517.972	6438.76
518.339	6446.44
518.706	6395.59
519.073	6468.59
519.44	6478.76
519.808	6479.89
520.175	6492.54
520.542	6617.96
520.909	6565.53
521.276	6527.12
521.643	6639.88
522.009	6647.79
522.376	6658.64
522.743	6655.25
523.11	6713.33
523.477	6740.9
523.843	6791.06
524.21	6812.08
524.577	6833.1
524.943	6814.79
525.31	6892.08
525.676	6960.1
526.043	6951.51
526.409	6997.61
526.776	7000.32
527.142	7036.71
527.508	7053.2
527.874	7066.76
528.241	7095.46
528.607	7095.46
528.973	7177.49
529.339	7135.01
529.705	7182.47
530.071	7211.62
530.437	7272.63
530.803	7311.5
531.169	7316.02
531.535	7319.64
531.901	7351.5
532.267	7410.26
532.632	7365.74
532.998	7421.56
533.364	7499.07
533.73	7498.16
534.095	7515.11
534.461	7468.11
534.826	7568.22
535.192	7570.25
535.557	7566.86
535.923	7634.66
536.288	7611.61
536.653	7611.38
537.019	7585.85
537.384	7591.5
537.749	7642.12
538.114	7687.31
538.479	7712.62
538.845	7755.11
539.21	7732.73
539.575	7809.12
539.94	7762.34
540.305	7809.79
540.67	7847.08
541.034	7845.73
541.399	7871.71
541.764	7857.48
542.129	7857.48
542.494	7876.23
542.858	7896.8
543.223	7922.56
543.587	7953.97
543.952	7922.56
544.316	7935.44
544.681	7972.5
545.045	7995.33
545.41	8041.2
545.774	8040.52
546.138	7947.19
546.503	8070.35
546.867	8049.11
547.231	8137.92
547.595	8160.07
547.959	8165.27
548.324	8109.45
548.688	8140.86
549.052	8225.6
549.416	8183.34
549.779	8144.48
550.143	8213.63
550.507	8281.42
550.871	8322.55
551.235	8243
551.599	8285.49
551.962	8286.39
552.326	8291.59
552.689	8377.69
553.053	8351.48
553.417	8344.7
553.78	8421.3
554.143	8365.26
554.507	8375.66
554.87	8435.09
555.234	8444.58
555.597	8429.44
555.96	8464.01
556.323	8505.6
556.686	8481.42
557.05	8522.09
557.413	8542.88
557.776	8531.81
558.139	8645.03
558.502	8624.46
558.865	8642.99
559.228	8680.05
559.59	8713.05
559.953	8723.89
560.316	8781.52
560.679	8743.33
561.041	8774.52
561.404	8823.55
561.767	8847.51
562.129	8793.27
562.492	8923.89
562.854	8876.89
563.217	8921.63
563.579	8966.15
563.941	8995.98
564.304	9107.61
564.666	9114.39
565.028	9132.7
565.39	9103.32
565.753	9183.32
566.115	9171.34
566.477	9278.23
566.839	9249.98
567.201	9262.41
567.563	9259.02
567.925	9380.6
568.287	9409.75
568.648	9396.87
569.01	9529.3
569.372	9516.19
569.734	9391.67
570.095	9573.36
570.457	9565.91
570.819	9589.86
571.18	9589.41
571.542	9704.89
571.903	9710.76
572.265	9699.01
572.626	9750.76
572.987	9781.27
573.349	9787.6
573.71	9848.61
574.071	9854.94
574.432	9893.13
574.794	10014.48
575.155	10007.25
575.516	9925.45
575.877	10056.29
576.238	10133.58
576.599	10180.13
576.96	10244.31
577.32	10268.04
577.681	10267.13
578.042	10331.31
578.403	10324.3
578.763	10350.74
579.124	10357.98
579.485	10484.98
579.845	10505.77
580.206	10506.67
580.566	10563.62
580.927	10631.19
581.287	10649.72
581.648	10682.49
582.008	10790.28
582.368	10776.5
582.728	10871.18
583.089	10882.48
583.449	10984.85
583.809	11007
584.169	11082.02
584.529	11117.28
584.889	11230.5
585.249	11208.12
585.609	11274.11
585.969	11324.73
586.329	11350.49
586.688	11351.62
587.048	11518.85
587.408	11578.28
587.768	11588.9
588.127	11659.86
588.487	11689.69
588.846	11924.94
589.206	11845.39
589.565	11945.51
589.925	12033.19
590.284	12060.08
590.643	12120.64
591.003	12220.3
591.362	12279.96
591.721	12334.42
592.08	12366.06
592.44	12563.79
592.799	12616.45
593.158	12623.45
593.517	12703.45
593.876	12768.76
594.235	12795.2
594.593	12902.09
594.952	12950.45
595.311	13014.4
595.67	13064.57
596.029	13131.91
596.387	13138.47
596.746	13287.62
597.104	13236.09
597.463	13309.54
597.822	13471.11
598.18	13416.65
598.538	13480.15
598.897	13593.37
599.255	13523.09
599.613	13794.5
599.972	13784.78
600.33	13802.63
600.688	13872.69
601.046	14000.37
601.404	13998.33
601.762	14082.85
602.12	14176.86
602.478	14175.73
602.836	14075.17
603.194	14141.15
603.552	14146.35
603.91	14229.96
604.268	14315.84
604.625	14318.55
604.983	14440.13
605.341	14432.9
605.698	14456.17
606.056	14637.64
606.413	14528.71
606.771	14653
607.128	14660.24
607.485	14572.55
607.843	14705.43
608.2	14738.88
608.557	14902.72
608.914	14831.3
609.272	14905.88
609.629	14914.92
609.986	15006.89
610.343	15013.22
610.7	15132.77
611.057	15013.9
611.414	15127.79
611.771	15103.61
612.127	15162.37
612.484	15161.69
612.841	15350.61
613.198	15219.54
613.554	15235.59
613.911	15314.91
614.267	15351.52
614.624	15402.82
614.98	15445.07
615.337	15535.47
615.693	15488.01
616.05	15510.16
616.406	15556.03
616.762	15609.82
617.118	15567.78
617.475	15542.25
617.831	15652.3
618.187	15676.71
618.543	15712.64
618.899	15801.45
619.255	15717.84
619.611	15728.23
619.967	15866.53
620.323	15848.23
620.678	15711.96
621.034	15707.89
621.39	15771.62
621.746	15723.48
622.101	15828.34
622.457	15819.75
622.812	15834.67
623.168	15850.49
623.523	15952.86
623.879	15954.89
624.234	15782.01
624.589	15904.05
624.945	15962.8
625.3	15918.06
625.655	16006.87
626.01	15957.15
626.365	15929.13
626.72	15869.92
627.075	15976.13
627.43	15966.42
627.785	15916.47
628.14	15961.44
628.495	15948.11
628.85	16024.04
629.205	15936.13
629.559	15971.39
629.914	15887.77
630.269	16004.83
630.623	15897.04
630.978	15823.82
631.332	15967.77
631.687	15982.01
632.041	15826.31
632.396	15875.8
632.75	15794.67
633.104	15912.86
633.459	15805.52
633.813	15780.21
634.167	15789.25
634.521	15722.13
634.875	15844.61
635.229	15741.79
635.583	15647.1
635.937	15719.19
636.291	15728.68
636.645	15737.95
636.999	15715.35
637.352	15744.5
637.706	15574.56
638.06	15643.94
638.413	15608.01
638.767	15596.26
639.121	15610.49
639.474	15530.95
639.828	15574.11
640.181	15516.71
640.534	15619.31
640.888	15525.3
641.241	15515.81
641.594	15500.67
641.947	15506.77
642.301	15469.71
642.654	15457.05
643.007	15442.36
643.36	15445.07
643.713	15450.72
644.066	15487.11
644.419	15431.06
644.771	15367.56
645.124	15186.55
645.477	15186.32
645.83	15019.77
646.182	14991.75
646.535	14928.48
646.888	14843.96
647.24	14869.5
647.593	14972.32
647.945	14998.76
648.298	14840.12
648.65	14861.13
649.002	14892.77
649.355	14892.09
649.707	15042.37
650.059	15027.91
650.411	15180
650.763	15197.62
651.115	15388.35
651.467	15228.58
651.819	15403.95
652.171	15339.77
652.523	15251.18
652.875	15317.17
653.227	15284.4
653.578	15346.32
653.93	15276.94
654.282	15325.53
654.633	15276.49
654.985	15267.68
655.337	15365.53
655.688	15274.91
656.039	15403.49
656.391	15172.09
656.742	15276.26
657.094	15283.27
657.445	15369.14
657.796	15299.99
658.147	15266.55
658.498	15315.59
658.849	15325.08
659.2	15262.71
659.551	15255.93
659.902	15405.98
660.253	15265.19
660.604	15408.01
660.955	15239.2
661.306	15448.92
661.656	15247.11
662.007	15417.05
662.358	15386.54
662.708	15453.89
663.059	15429.93
663.409	15318.75
663.76	15440.33
664.11	15381.8
664.461	15462.7
664.811	15472.64
665.161	15421.57
665.511	15393.32
665.862	15375.02
666.212	15546.54
666.562	15421.35
666.912	15517.16
667.262	15352.42
667.612	15431.97
667.962	15495.47
668.312	15344.51
668.662	15487.56
669.011	15414.57
669.361	15392.19
669.711	15392.87
670.06	15325.3
670.41	15320.56
670.76	15327.34
671.109	15361.91
671.459	15368.24
671.808	15304.29
672.157	15343.16
672.507	15233.33
672.856	15196.04
673.205	15211.63
673.554	15310.39
673.904	15242.37
674.253	15292.76
674.602	15245.98
674.951	15088.25
675.3	14990.62
675.649	15154.46
675.998	15129.83
676.346	15222.71
676.695	15204.18
677.044	15029.94
677.393	15146.1
677.741	15207.57
678.09	15039.44
678.438	15056.38
678.787	15110.17
679.135	15051.64
679.484	14972.32
679.832	15011.41
680.181	14888.93
680.529	14978.87
680.877	14902.72
681.225	14937.29
681.573	15006.89
681.922	14895.26
682.27	14769.61
682.618	14793.34
682.966	14802.61
683.314	14752.44
683.661	14628.82
684.009	14674.7
684.357	14661.37
684.705	14670.86
685.053	14646.68
685.4	14561.71
685.748	14602.61
686.095	14469.96
686.443	14460.92
686.79	14485.55
687.138	14430.41
687.485	14350.64
687.832	14344.99
688.18	14404.42
688.527	14226.8
688.874	14258.21
689.221	14208.95
689.568	14131.89
689.915	14128.5
690.262	14006.24
690.609	14025
690.956	13969.86
691.303	13930.99
691.65	13926.47
691.997	13905.91
692.344	13788.62
692.69	13751.56
693.037	13794.72
693.383	13661.17
693.73	13656.65
694.077	13582.52
694.423	13678.34
694.769	13547.5
695.116	13498.91
695.462	13458.23
695.808	13392.02
696.155	13415.75
696.501	13354.28
696.847	13352.7
697.193	13239.93
697.539	13193.38
697.885	13144.8
698.231	13049.43
698.577	13112.03
698.923	13021.86
699.269	12984.12
699.614	12918.36
699.96	12904.58
700.306	12882.43
700.651	12825.93
700.997	12789.78
701.342	12651.93
701.688	12686.05
702.033	12679.05
702.379	12590.23
702.724	12554.3
703.069	12553.85
703.415	12412.39
703.76	12510.01
704.105	12459.39
704.45	12434.53
704.795	12236.12
705.14	12289.45
705.485	12232.96
705.83	12221.88
706.175	12147.99
706.52	12116.8
706.865	12109.79
707.209	12099.4
707.554	12038.38
707.899	12017.82
708.243	11933.98
708.588	11942.34
708.932	11918.84
709.277	11912.74
709.621	11825.73
709.966	11720.65
710.31	11717.04
710.654	11739.41
710.998	11674.1
711.342	11660.77
711.687	11677.04
712.031	11565.85
712.375	11535.57
712.719	11479.08
713.063	11555.46
713.407	11529.47
713.75	11492.64
714.094	11456.48
714.438	11387.33
714.782	11430.04
715.125	11386.65
715.469	11386.2
715.812	11307.33
716.156	11284.05
716.499	11312.3
716.843	11267.1
717.186	11238.18
717.53	11221.68
717.873	11304.62
718.216	11248.12
718.559	11167.67
718.902	11155.24
719.246	11154.57
719.589	11047.68
719.932	11123.83
720.275	11046.09
720.617	10971.07
720.96	11037.28
721.303	11078.64
721.646	11086.77
721.989	11007
722.331	11009.71
722.674	11072.99
723.016	10945.98
723.359	10959.99
723.701	10998.64
724.044	10924.74
724.386	10875.25
724.729	10904.85
725.071	10902.59
725.413	10827.79
725.755	10876.15
726.097	10818.53
726.439	10836.16
726.782	10742.82
727.124	10849.71
727.465	10779.21
727.807	10872.09
728.149	10807.68
728.491	10835.25
728.833	10841.35
729.175	10723.39
729.516	10815.59
729.858	10768.36
730.199	10729.04
730.541	10777.63
730.882	10721.13
731.224	10770.62
731.565	10792.54
731.906	10778.3
732.248	10697.85
732.589	10687.69
732.93	10712.09
733.271	10695.14
733.612	10706.67
733.953	10667.12
734.294	10699.89
734.635	10651.53
734.976	10734.69
735.317	10628.93
735.658	10686.78
735.999	10720.23
736.339	10692.66
736.68	10741.24
737.021	10673
737.361	10703.73
737.702	10763.84
738.042	10737.85
738.383	10747.57
738.723	10774.46
739.063	10694.92
739.404	10755.71
739.744	10749.15
740.084	10729.72
740.424	10797.74
740.764	10782.15
741.104	10768.59
741.444	10777.85
741.784	10769.26
742.124	10816.5
742.464	10777.4
742.804	10808.81
743.143	10865.76
743.483	10914.57
743.823	10905.98
744.162	10978.52
744.502	10947.79
744.841	10988.92
745.181	11071.4
745.52	11025.98
745.86	11121.57
746.199	11077.96
746.538	11167.22
746.877	11246.31
747.216	11304.17
747.556	11333.54
747.895	11411.73
748.234	11367.89
748.573	11431.17
748.911	11489.02
749.25	11507.78
749.589	11611.95
749.928	11636.36
750.267	11790.25
750.605	11825.28
750.944	11919.52
751.283	12010.59
751.621	12006.75
751.96	12134.2
752.298	12264.37
752.636	12336.23
752.975	12367.64
753.313	12478.15
753.651	12665.71
753.989	12684.24
754.327	12792.04
754.666	12965.82
755.004	13027.51
755.342	13128.3
755.679	13231.35
756.017	13409.42
756.355	13555.41
756.693	13657.78
757.031	13831.56
757.368	13896.64
757.706	14038.11
758.044	14168.72
758.381	14401.26
758.719	14447.81
759.056	14647.58
