Data from hue_28_FLMS001491_00084.txt Node
Date: Tue Feb 07 17:17:55 GMT 2017
User: dcchb
Spectrometer: FLMS00149
Trigger mode: 0
Integration Time (sec): 2.000000E-2
Scans to average: 10
Electric dark correction enabled: true
Nonlinearity correction enabled: false
Boxcar width: 0
XAxis mode: Wavelengths
Number of Pixels in Spectrum: 2048
>>>>>Begin Spectral Data<<<<<
341.393	-11
341.776	-11
342.16	-11
342.543	-52.13
342.927	-55.97
343.31	-74.05
343.693	-67.05
344.077	-83.77
344.46	-63.88
344.843	-44
345.226	-40.38
345.61	-21.62
345.993	-18.91
346.376	-15.3
346.759	37.81
347.142	19.73
347.525	68.32
347.908	50.46
348.291	56.57
348.674	81.88
349.057	114.19
349.44	126.85
349.823	129.56
350.206	146.06
350.588	188.99
350.971	202.33
351.354	231.25
351.737	226.28
352.119	227.18
352.502	248.65
352.884	264.02
353.267	289.55
353.65	296.33
354.032	301.53
354.414	293.85
354.797	300.18
355.179	313.28
355.562	316.9
355.944	341.53
356.326	331.14
356.709	326.39
357.091	336.11
357.473	347.86
357.855	331.81
358.238	346.28
358.62	333.17
359.002	336.78
359.384	344.24
359.766	332.27
360.148	323.68
360.53	336.11
360.912	322.32
361.294	320.51
361.676	329.33
362.057	338.14
362.439	320.74
362.821	318.25
363.203	330.46
363.584	323
363.966	313.96
364.348	315.09
364.729	306.5
365.111	321.64
365.493	332.94
365.874	324.81
366.256	302.66
366.637	306.5
367.019	299.72
367.4	299.5
367.781	320.97
368.163	318.03
368.544	312.6
368.925	309.89
369.306	309.89
369.688	304.92
370.069	331.14
370.45	303.57
370.831	345.37
371.212	324.13
371.593	344.24
371.974	283.68
372.355	306.05
372.736	331.14
373.117	305.15
373.498	331.14
373.879	278.93
374.26	292.49
374.641	314.41
375.021	311.93
375.402	323.68
375.783	331.59
376.163	337.46
376.544	324.13
376.925	316.67
377.305	322.77
377.686	314.86
378.066	332.49
378.447	325.71
378.827	332.04
379.208	331.81
379.588	309.67
379.968	326.16
380.349	346.73
380.729	327.97
381.109	333.85
381.489	327.29
381.87	346.73
382.25	366.16
382.63	324.81
383.01	335.2
383.39	341.08
383.77	335.66
384.15	323
384.53	342.66
384.91	351.93
385.29	340.63
385.67	328.65
386.049	338.14
386.429	367.74
386.809	344.47
387.189	346.95
387.568	353.51
387.948	352.6
388.328	332.49
388.707	327.97
389.087	369.33
389.466	352.38
389.846	371.81
390.225	361.19
390.605	371.59
390.984	326.84
391.363	350.8
391.743	368.42
392.122	361.87
392.501	371.81
392.881	377.91
393.26	362.32
393.639	359.16
394.018	383.11
394.397	395.99
394.776	379.04
395.155	347.86
395.534	376.11
395.913	385.15
396.292	373.17
396.671	389.44
397.05	404.13
397.429	384.92
397.808	415.65
398.186	370.46
398.565	369.1
398.944	375.2
399.323	392.83
399.701	393.96
400.08	381.76
400.458	407.74
400.837	410.91
401.215	401.19
401.594	379.95
401.972	404.81
402.351	395.54
402.729	392.83
403.107	412.94
403.486	401.19
403.864	409.78
404.242	419.04
404.62	400.29
404.999	427.63
405.377	409.78
405.755	407.97
406.133	415.2
406.511	426.73
406.889	415.65
407.267	427.18
407.645	449.32
408.023	442.77
408.401	422.66
408.779	426.5
409.156	460.62
409.534	445.03
409.912	442.54
410.29	448.42
410.667	451.13
411.045	472.37
411.422	448.19
411.8	453.84
412.178	449.78
412.555	449.32
412.933	463.56
413.31	465.6
413.687	466.95
414.065	465.82
414.442	482.77
414.819	493.16
415.197	466.73
415.574	504.01
415.951	515.99
416.328	488.87
416.705	466.27
417.082	504.92
417.46	517.12
417.837	513.96
418.214	502.66
418.591	513.28
418.967	514.41
419.344	510.57
419.721	513.96
420.098	518.25
420.475	544.01
420.852	541.07
421.228	527.51
421.605	506.95
421.982	533.16
422.358	551.24
422.735	549.43
423.111	539.04
423.488	526.84
423.864	507.85
424.241	543.79
424.617	537.68
424.994	567.29
425.37	553.28
425.746	563.22
426.123	557.8
426.499	570.23
426.875	568.64
427.251	584.24
427.627	582.65
428.003	597.57
428.379	621.98
428.756	598.7
429.132	607.29
429.507	612.03
429.883	602.77
430.259	617
430.635	628.75
431.011	614.07
431.387	609.09
431.763	642.09
432.138	640.73
432.514	654.52
432.89	637.57
433.265	678.47
433.641	683.67
434.016	665.82
434.392	665.14
434.767	696.1
435.143	665.14
435.518	695.65
435.894	708.3
436.269	693.16
436.644	705.59
437.02	691.58
437.395	717.79
437.77	719.83
438.145	729.77
438.52	739.49
438.895	715.31
439.271	710.33
439.646	742.65
440.021	736.77
440.395	747.4
440.77	759.82
441.145	734.74
441.52	767.06
441.895	759.37
442.27	792.37
442.645	776.1
443.019	775.64
443.394	777.45
443.769	775.19
444.143	763.67
444.518	774.51
444.892	818.81
445.267	821.97
445.641	781.97
446.016	808.64
446.39	814.96
446.764	821.07
447.139	815.64
447.513	830.11
447.887	819.26
448.262	828.07
448.636	842.76
449.01	858.13
449.384	852.48
449.758	859.26
450.132	859.94
450.506	871.91
450.88	880.73
451.254	868.07
451.628	873.49
452.002	875.75
452.376	907.62
452.75	909.88
453.123	892.7
453.497	889.31
453.871	940.16
454.244	935.64
454.618	958.24
454.992	962.76
455.365	967.73
455.739	960.05
456.112	980.61
456.486	980.38
456.859	1016.32
457.232	989.65
457.606	1014.06
457.979	1008.41
458.352	1033.49
458.725	1035.75
459.099	1054.51
459.472	1045.69
459.845	1114.62
460.218	1100.38
460.591	1096.54
460.964	1089.76
461.337	1111.91
461.71	1146.71
462.083	1132.02
462.456	1148.74
462.829	1159.81
463.201	1164.56
463.574	1161.4
463.947	1188.97
464.32	1206.37
464.692	1249.53
465.065	1212.24
465.438	1249.98
465.81	1255.18
466.183	1266.48
466.555	1273.03
466.928	1337.66
467.3	1301.96
467.672	1326.36
468.045	1364.55
468.417	1337.89
468.789	1383.09
469.161	1376.53
469.534	1419.69
469.906	1440.71
470.278	1463.53
470.65	1470.31
471.022	1499.01
471.394	1488.17
471.766	1541.95
472.138	1534.49
472.51	1604.55
472.882	1604.77
473.253	1641.16
473.625	1665.11
473.997	1689.07
474.369	1701.95
474.74	1724.09
475.112	1777.2
475.484	1790.76
475.855	1809.51
476.227	1823.75
476.598	1910.08
476.97	1923.64
477.341	1934.48
477.713	1945.1
478.084	2014.48
478.455	2059.23
478.827	2075.27
479.198	2110.98
479.569	2183.06
479.94	2220.13
480.311	2223.74
480.682	2294.7
481.053	2350.52
481.424	2415.6
481.795	2446.79
482.166	2458.31
482.537	2477.29
482.908	2566.33
483.279	2634.35
483.65	2671.19
484.021	2708.47
484.391	2797.51
484.762	2769.04
485.133	2833.89
485.503	2846.32
485.874	2950.5
486.244	3011.29
486.615	3078.63
486.985	3109.37
487.356	3149.82
487.726	3211.51
488.097	3274.56
488.467	3279.98
488.837	3375.58
489.207	3426.42
489.578	3477.04
489.948	3516.36
490.318	3568.79
490.688	3592.74
491.058	3658.28
491.428	3765.4
491.798	3820.31
492.168	3886.07
492.538	3895.79
492.908	3939.4
493.278	3982.79
493.648	4046.29
494.017	4096.69
494.387	4137.81
494.757	4227.08
495.126	4237.25
495.496	4291.48
495.866	4301.65
496.235	4383.23
496.605	4433.17
496.974	4442.67
497.344	4530.8
497.713	4550.69
498.082	4620.97
498.452	4609.44
498.821	4667.74
499.19	4716.56
499.559	4714.3
499.928	4762.43
500.298	4797.01
500.667	4878.59
501.036	4858.25
501.405	4901.41
501.774	4924.01
502.143	4937.57
502.512	5041.07
502.88	5093.95
503.249	5052.37
503.618	5112.03
503.987	5128.75
504.356	5150.44
504.724	5231.57
505.093	5206.94
505.462	5238.35
505.83	5265.69
506.199	5292.13
506.567	5404.9
506.936	5361.06
507.304	5488.29
507.672	5431.11
508.041	5472.47
508.409	5485.8
508.777	5555.63
509.145	5648.51
509.514	5583.43
509.882	5673.14
510.25	5673.14
510.618	5685.57
510.986	5726.7
511.354	5740.26
511.722	5769.18
512.09	5828.39
512.458	5832.91
512.826	5935.73
513.193	5891.67
513.561	5902.29
513.929	5933.02
514.297	5997.2
514.664	6013.02
515.032	6065.22
515.4	6035.84
515.767	6068.39
516.135	6130.53
516.502	6120.59
516.869	6206.91
517.237	6206.46
517.604	6216.18
517.972	6269.51
518.339	6303.63
518.706	6356.74
519.073	6293.24
519.44	6324.42
519.808	6385.67
520.175	6348.6
520.542	6445.78
520.909	6538.2
521.276	6462.05
521.643	6491.2
522.009	6608.03
522.376	6615.49
522.743	6572.78
523.11	6661.59
523.477	6743.4
523.843	6756.96
524.21	6868.14
524.577	6841.47
524.943	6920.11
525.31	6926.67
525.676	6993.33
526.043	6994.69
526.409	7033.78
526.776	7144.06
527.142	7131.63
527.508	7119.21
527.874	7167.57
528.241	7226.1
528.607	7280.78
528.973	7280.33
529.339	7314
529.705	7385.64
530.071	7380.22
530.437	7436.26
530.803	7515.35
531.169	7548.8
531.535	7509.25
531.901	7617.05
532.267	7587.44
532.632	7653.88
532.998	7743.82
533.364	7718.29
533.73	7728
534.095	7745.18
534.461	7836.47
534.826	7836.7
535.192	7946.3
535.557	7947.21
535.923	7951.73
536.288	7982.46
536.653	8086.19
537.019	8039.63
537.384	8085.28
537.749	8092.29
538.114	8118.95
538.479	8190.14
538.845	8220.19
539.21	8185.84
539.575	8243.47
539.94	8279.4
540.305	8350.59
540.67	8358.49
541.034	8365.5
541.399	8443.69
541.764	8411.37
542.129	8455.67
542.494	8548.09
542.858	8557.13
543.223	8579.51
543.587	8585.38
543.952	8667.87
544.316	8701.99
544.681	8698.15
545.045	8707.19
545.41	8768.65
545.774	8841.87
546.138	8805.71
546.503	8879.61
546.867	8852.95
547.231	8854.75
547.595	8953.73
547.959	9074.41
548.324	8968.42
548.688	9022.66
549.052	9004.13
549.416	9132.26
549.779	9120.51
550.143	9161.41
550.507	9230.79
550.871	9277.11
551.235	9247.96
551.599	9260.39
551.962	9292.71
552.326	9335.64
552.689	9377.9
553.053	9369.54
553.417	9427.62
553.78	9589.2
554.143	9478.01
554.507	9561.4
554.87	9606.6
555.234	9642.3
555.597	9609.99
555.96	9642.98
556.323	9693.38
556.686	9669.42
557.05	9762.53
557.413	9789.19
557.776	9811.79
558.139	9837.78
558.502	9879.36
558.865	9876.87
559.228	9916.19
559.59	10051.33
559.953	10064.44
560.316	10088.17
560.679	10091.33
561.041	10135.62
561.404	10130.43
561.767	10280.03
562.129	10278.44
562.492	10383.75
562.854	10320.7
563.217	10270.08
563.579	10408.38
563.941	10378.55
564.304	10458.78
564.666	10549.85
565.028	10541.71
565.39	10541.04
565.753	10570.87
566.115	10648.83
566.477	10630.3
566.839	10681.6
567.201	10820.13
567.563	10753.69
567.925	10851.99
568.287	10855.38
568.648	10948.94
569.01	10987.35
569.372	11001.82
569.734	10980.57
570.095	11164.75
570.457	11068.71
570.819	11121.36
571.18	11215.14
571.542	11308.25
571.903	11292.2
572.265	11338.08
572.626	11418.75
572.987	11440.9
573.349	11457.17
573.71	11583.49
574.071	11644.74
574.432	11720.44
574.794	11872.98
575.155	11792.08
575.516	11862.58
575.877	11956.59
576.238	12024.84
576.599	12089.92
576.96	12119.07
577.32	12303.7
577.681	12356.13
578.042	12418.73
578.403	12508.89
578.763	12677.25
579.124	12780.75
579.485	12861.88
579.845	12992.5
580.206	13113.17
580.566	13202.89
580.927	13265.03
581.287	13448.3
581.648	13573.05
582.008	13688.52
582.368	13887.62
582.728	13992.92
583.089	14146.82
583.449	14274.05
583.809	14536.86
584.169	14666.58
584.529	14790.87
584.889	15168.49
585.249	15180.46
585.609	15459.78
585.969	15711.97
586.329	15781.12
586.688	16022.7
587.048	16266.54
587.408	16562.12
587.768	16653.19
588.127	16984.93
588.487	17112.39
588.846	17574.52
589.206	17588.31
589.565	17916.21
589.925	18238.91
590.284	18381.28
590.643	18762.74
591.003	18983.3
591.362	19364.31
591.721	19550.29
592.08	19823.05
592.44	20189.37
592.799	20541
593.158	20577.38
593.517	20912.29
593.876	21244.26
594.235	21548.2
594.593	21855.32
594.952	22196.78
595.311	22439.03
595.67	22750.43
596.029	23250.08
596.387	23464.76
596.746	23765.32
597.104	23907.92
597.463	24195.59
597.822	24648.69
598.18	24869.47
598.538	25064.5
598.897	25589.68
599.255	25576.12
599.613	26281.41
599.972	26400.51
600.33	26782.19
600.688	26825.81
601.046	27319.35
601.404	27594.37
601.762	27812.9
602.12	28271.64
602.478	28554.8
602.836	28736.04
603.194	28782.82
603.552	29216.03
603.91	29363.82
604.268	29866.4
604.625	29951.83
604.983	30255.55
605.341	30525.14
605.698	30866.15
606.056	31097.56
606.413	31295.07
606.771	31624.78
607.128	31832.45
607.485	31862.28
607.843	32299.11
608.2	32651.87
608.557	32952.88
608.914	33005.08
609.272	33384.73
609.629	33567.32
609.986	33952.85
610.343	33912.63
610.7	34328.66
611.057	34349.68
611.414	34578.82
611.771	34873.05
612.127	35162.08
612.484	35236.88
612.841	35523.88
613.198	35503.32
613.554	35746.7
613.911	36103.75
614.267	36248.16
614.624	36474.14
614.98	36628.03
615.337	36974.69
615.693	36902.83
616.05	36930.4
616.406	37451.06
616.762	37485.86
617.118	37552.98
617.475	37757.72
617.831	37865.52
618.187	38037.26
618.543	38164.04
618.899	38465.73
619.255	38583.24
619.611	38732.16
619.967	38719.5
620.323	39050.57
620.678	38973.74
621.034	39031.13
621.39	39085.82
621.746	39281.52
622.101	39669.76
622.457	39380.28
622.812	39644
623.168	39882.41
623.523	39807.84
623.879	39893.94
624.234	39806.26
624.589	40167.38
624.945	40155.4
625.3	40258.9
625.655	40326.02
626.01	40422.51
626.365	40613.92
626.72	40508.16
627.075	40610.75
627.43	40735.95
627.785	40600.58
628.14	40741.82
628.495	40940.46
628.85	40910.18
629.205	40843.52
629.559	41162.15
629.914	40983.63
630.269	41083.28
630.623	41027.47
630.978	41013.68
631.332	41187.46
631.687	41289.61
632.041	41154.69
632.396	41359.89
632.75	41296.61
633.104	41379.32
633.459	41207.35
633.813	41238.53
634.167	41228.37
634.521	41292.32
634.875	41267.69
635.229	41304.52
635.583	41075.6
635.937	41297.74
636.291	41205.31
636.645	41314.92
636.999	41172.55
637.352	41310.62
637.706	41159.67
638.06	41339.55
638.413	41235.37
638.767	41204.86
639.121	41322.37
639.474	41073.11
639.828	41146.33
640.181	41284.86
640.534	41201.25
640.888	41130.51
641.241	41023.62
641.594	41036.28
641.947	41174.36
642.301	41096.62
642.654	41168.25
643.007	41245.99
643.36	41232.88
643.713	41040.8
644.066	41208.03
644.419	40982.5
644.771	40692.11
645.124	40456.18
645.477	40284.66
645.83	40003.99
646.182	40027.94
646.535	39979.81
646.888	40112.24
647.24	39771.91
647.593	39928.96
647.945	39967.16
648.298	39835.86
648.65	39834.28
649.002	39769.19
649.355	39964.9
649.707	39836.09
650.059	40040.6
650.411	40605.33
650.763	40496.18
651.115	40935.04
651.467	40692.11
651.819	40867.02
652.171	40654.59
652.523	40656.63
652.875	40553.58
653.227	40447.14
653.578	40812.56
653.93	40602.84
654.282	40433.36
654.633	40408.95
654.985	40443.3
655.337	40523.75
655.688	40508.16
656.039	40737.98
656.391	40314.94
656.742	40373.02
657.094	40383.64
657.445	40596.74
657.796	40442.85
658.147	40432.68
658.498	40391.32
658.849	40519.91
659.2	40385.22
659.551	40268.84
659.902	40568.04
660.253	40364.66
660.604	40526.01
660.955	40325.56
661.306	40434.94
661.656	40244.21
662.007	40520.14
662.358	40395.62
662.708	40417.31
663.059	40356.75
663.409	40068.17
663.76	40464.77
664.11	40369.86
664.461	40439.91
664.811	40391.1
665.161	40427.93
665.511	40209.63
665.862	40328.05
666.212	40469.97
666.562	40387.71
666.912	40313.36
667.262	40214.38
667.612	40259.35
667.962	40167.6
668.312	40163.31
668.662	40443.75
669.011	40293.7
669.361	40309.07
669.711	40131.9
670.06	40217.09
670.41	39994.73
670.76	40097.1
671.109	40178.45
671.459	40113.14
671.808	40128.06
672.157	40256.64
672.507	39750.21
672.856	39951.11
673.205	39995.4
673.554	40111.11
673.904	39948.17
674.253	40195.85
674.602	40010.77
674.951	39529.43
675.3	39328.53
675.649	39905.01
675.998	39844.22
676.346	39882.19
676.695	40072.01
677.044	39838.12
677.393	39818.91
677.741	39956.08
678.09	39724.22
678.438	39595.64
678.787	39755.41
679.135	39735.3
679.484	39552.93
679.832	39680.61
680.181	39227.74
680.529	39488.3
680.877	39430.22
681.225	39485.13
681.573	39507.73
681.922	39405.59
682.27	39362.88
682.618	39262.32
682.966	39093.51
683.314	39314.07
683.661	39152.04
684.009	38929.89
684.357	38956.33
684.705	38812.61
685.053	38989.1
685.4	38789.11
685.748	38742.33
686.095	38668.66
686.443	38416.01
686.79	38428.89
687.138	38486.29
687.485	38490.81
687.832	38353.19
688.18	38499.62
688.527	38147.54
688.874	38107.09
689.221	38182.34
689.568	37972.86
689.915	37862.13
690.262	37950.94
690.609	37816.48
690.956	37609.7
691.303	37677.95
691.65	37420.33
691.997	37483.38
692.344	37309.6
692.69	37356.15
693.037	37259.88
693.383	37065.76
693.73	37085.42
694.077	36820.35
694.423	36863.28
694.769	36886.78
695.116	36746.68
695.462	36744.42
695.808	36596.62
696.155	36838.88
696.501	36243.64
696.847	36266.01
697.193	36093.58
697.539	36167.48
697.885	35938.33
698.231	35856.53
698.577	35928.62
698.923	35852.46
699.269	35681.39
699.614	35526.82
699.96	35468.29
700.306	35528.85
700.651	35280.05
700.997	35078.47
701.342	35098.13
701.688	35089.32
702.033	34905.14
702.379	34900.85
702.724	34900.62
703.069	35013.16
703.415	34459.5
703.76	34670.12
704.105	34565.26
704.45	34638.26
704.795	34332.5
705.14	34061.55
705.485	34146.74
705.83	34061.55
706.175	34235.1
706.52	33933.87
706.865	33799.41
707.209	33761.22
707.554	33626.08
707.899	33683.7
708.243	33686.64
708.588	33521.9
708.932	33326.88
709.277	33370.72
709.621	33277.39
709.966	33097.96
710.31	33252.53
710.654	33005.98
710.998	33056.83
711.342	32989.71
711.687	32785.42
712.031	32641.92
712.375	32680.12
712.719	32688.48
713.063	32504.98
713.407	32716.5
713.75	32491.19
714.094	32426.11
714.438	32320.35
714.782	32326.9
715.125	32135.04
715.469	32231.77
715.812	32057.31
716.156	31878.55
716.499	32022.28
716.843	32027.03
717.186	31712.01
717.53	31952.22
717.873	31781.38
718.216	31649.86
718.559	31677.66
718.902	31374.61
719.246	31566.92
719.589	31384.78
719.932	31288.97
720.275	31375.97
720.617	31202.64
720.96	31169.87
721.303	31142.75
721.646	31146.82
721.989	30980.05
722.331	31063.21
722.674	30985.7
723.016	31088.29
723.359	30839.49
723.701	31065.02
724.044	30784.35
724.386	30589.77
724.729	30860.28
725.071	30643.11
725.413	30547.06
725.755	30590.45
726.097	30496.9
726.439	30413.96
726.782	30335.54
727.124	30571.7
727.465	30348.2
727.807	30379.84
728.149	30290.12
728.491	30183.68
728.833	30148.66
729.175	30118.6
729.516	30062.78
729.858	30032.05
730.199	30128.09
730.541	30027.76
730.882	29895.1
731.224	29973.52
731.565	29916.57
731.906	29904.37
732.248	29865.73
732.589	29719.52
732.93	29669.35
733.271	29642.91
733.612	29649.01
733.953	29647.65
734.294	29523.14
734.635	29525.62
734.976	29531.05
735.317	29428.68
735.658	29390.26
735.999	29392.52
736.339	29225.52
736.68	29352.52
737.021	29211.05
737.361	29172.41
737.702	29224.84
738.042	29141.45
738.383	29115.92
738.723	29168.8
739.063	28902.59
739.404	28968.8
739.744	29033.43
740.084	28756.15
740.424	28824.4
740.764	28870.95
741.104	28868.69
741.444	28727.22
741.784	28559.55
742.124	28686.55
742.464	28632.31
742.804	28554.12
743.143	28536.27
743.483	28561.13
743.823	28274.58
744.162	28425.54
744.502	28496.04
744.841	28354.58
745.181	28361.36
745.52	28265.77
745.86	28283.85
746.199	28241.36
746.538	28173.34
746.877	28159.33
747.216	28288.59
747.556	28135.15
747.895	28129.5
748.234	27946.91
748.573	28000.01
748.911	27804.76
749.25	27968.37
749.589	27857.19
749.928	27849.96
750.267	27939
750.605	27748.95
750.944	27727.25
751.283	27667.59
751.621	27763.63
751.96	27580.59
752.298	27505.11
752.636	27540.36
752.975	27518.9
753.313	27475.51
753.651	27589.4
753.989	27334.49
754.327	27339.46
754.666	27060.15
755.004	27204.33
755.342	27281.84
755.679	27205.46
756.017	27071.68
756.355	27124.78
756.693	27023.09
757.031	27078.91
757.368	26879.14
757.706	26833.04
758.044	26807.05
758.381	26777.22
758.719	26643.89
759.056	26699.48
759.394	26595.08
759.731	26359.6
