Data from hue_260_FLMS001491_00050.txt Node
Date: Tue Feb 07 15:59:04 GMT 2017
User: dcchb
Spectrometer: FLMS00149
Trigger mode: 0
Integration Time (sec): 2.000000E-2
Scans to average: 10
Electric dark correction enabled: true
Nonlinearity correction enabled: false
Boxcar width: 0
XAxis mode: Wavelengths
Number of Pixels in Spectrum: 2048
>>>>>Begin Spectral Data<<<<<
341.393	-11.16
341.776	-11.16
342.16	-11.16
342.543	-60.2
342.927	-55.68
343.31	-67.43
343.693	-71.27
344.077	-49.57
344.46	-56.13
344.843	-57.26
345.226	-40.76
345.61	-23.13
345.993	0.14
346.376	-7.77
346.759	5.79
347.142	19.58
347.525	32.23
347.908	79.24
348.291	63.87
348.674	78.78
349.057	93.7
349.44	152.45
349.823	181.38
350.206	175.05
350.588	200.59
350.971	181.38
351.354	219.57
351.737	239.01
352.119	245.11
352.502	264.09
352.884	256.18
353.267	264.32
353.65	283.07
354.032	284.65
354.414	284.65
354.797	293.69
355.179	308.16
355.562	307.7
355.944	317.87
356.326	324.2
356.709	334.37
357.091	342.96
357.473	333.01
357.855	325.78
358.238	337.99
358.62	323.07
359.002	327.82
359.384	337.08
359.766	352.67
360.148	334.37
360.53	327.59
360.912	335.05
361.294	319.91
361.676	334.14
362.057	312.68
362.439	319.91
362.821	325.78
363.203	323.3
363.584	340.7
363.966	314.94
364.348	317.87
364.729	326.46
365.111	290.53
365.493	305.67
365.874	315.61
366.256	317.65
366.637	314.03
367.019	309.51
367.4	295.73
367.781	309.96
368.163	315.61
368.544	316.52
368.925	310.42
369.306	322.17
369.688	308.61
370.069	309.74
370.45	304.31
370.831	302.73
371.212	319.68
371.593	279.91
371.974	286.46
372.355	304.99
372.736	301.38
373.117	308.38
373.498	301.83
373.879	287.82
374.26	308.61
374.641	299.57
375.021	318.78
375.402	319.23
375.783	321.94
376.163	330.3
376.544	307.48
376.925	317.65
377.305	307.7
377.686	308.38
378.066	339.57
378.447	334.14
378.827	326.46
379.208	338.89
379.588	325.78
379.968	297.76
380.349	315.39
380.729	317.42
381.109	334.14
381.489	330.98
381.87	325.33
382.25	328.49
382.63	336.86
383.01	329.85
383.39	343.64
383.77	333.69
384.15	333.24
384.53	366.69
384.91	347.02
385.29	338.66
385.67	342.96
386.049	359.23
386.429	340.92
386.809	341.83
387.189	314.03
387.568	327.82
387.948	343.64
388.328	341.83
388.707	370.08
389.087	352.22
389.466	344.99
389.846	354.03
390.225	345.44
390.605	340.02
390.984	357.87
391.363	362.39
391.743	349.51
392.122	375.05
392.501	362.17
392.881	377.76
393.26	373.46
393.639	386.35
394.018	358.55
394.397	383.63
394.776	376.4
395.155	397.87
395.534	361.04
395.913	393.58
396.292	417.98
396.671	383.41
397.05	397.87
397.429	386.35
397.808	415.27
398.186	386.57
398.565	382.28
398.944	408.49
399.323	397.42
399.701	405.1
400.08	386.8
400.458	396.74
400.837	389.74
401.215	399.23
401.594	424.99
401.972	415.95
402.351	429.51
402.729	409.17
403.107	417.08
403.486	431.54
403.864	438.32
404.242	439.68
404.62	395.16
404.999	425.44
405.377	437.19
405.755	437.87
406.133	444.88
406.511	438.77
406.889	441.94
407.267	464.54
407.645	475.83
408.023	457.08
408.401	486.23
408.779	465.21
409.156	479.9
409.534	491.88
409.912	500.92
410.29	479
410.667	510.18
411.045	495.72
411.422	520.81
411.8	516.74
412.178	533.01
412.555	521.94
412.933	538.88
413.31	568.71
413.687	548.83
414.065	562.84
414.442	571.65
414.819	585.89
415.197	587.47
415.574	590.41
415.951	583.85
416.328	612.1
416.705	606.45
417.082	607.58
417.46	617.98
417.837	622.5
418.214	623.18
418.591	635.83
418.967	650.07
419.344	624.76
419.721	642.84
420.098	659.56
420.475	685.77
420.852	689.84
421.228	683.74
421.605	687.81
421.982	744.98
422.358	742.04
422.735	713.34
423.111	742.95
423.488	743.17
423.864	759.44
424.241	782.95
424.617	809.16
424.994	777.52
425.37	801.93
425.746	817.97
426.123	840.35
426.499	820.91
426.875	820.46
427.251	853.23
427.627	872.43
428.003	893.23
428.379	869.95
428.756	888.48
429.132	884.41
429.507	914.92
429.883	922.15
430.259	955.37
430.635	957.63
431.011	957.4
431.387	982.71
431.763	992.21
432.138	997.4
432.514	990.4
432.89	1018.19
433.265	1043.5
433.641	1064.75
434.016	1069.49
434.392	1061.58
434.767	1093.67
435.143	1130.96
435.518	1153.11
435.894	1130.28
436.269	1164.63
436.644	1174.57
437.02	1186.1
437.395	1218.64
437.77	1236.72
438.145	1247.11
438.52	1278.07
438.895	1262.48
439.271	1298.41
439.646	1317.17
440.021	1310.39
440.395	1340.22
440.77	1327.34
441.145	1349.71
441.52	1365.3
441.895	1386.32
442.27	1389.48
442.645	1406.43
443.019	1430.84
443.394	1395.58
443.769	1457.28
444.143	1429.93
444.518	1465.41
444.892	1466.32
445.267	1511.97
445.641	1511.97
446.016	1488.92
446.39	1543.38
446.764	1510.16
447.139	1516.71
447.513	1551.29
447.887	1547.22
448.262	1564.17
448.636	1580.21
449.01	1584.28
449.384	1609.36
449.758	1643.04
450.132	1644.84
450.506	1622.02
450.88	1681.23
451.254	1657.05
451.628	1716.25
452.002	1702.7
452.376	1716.48
452.75	1724.39
453.123	1732.3
453.497	1740.66
453.871	1759.42
454.244	1807.33
454.618	1787.66
454.992	1823.6
455.365	1834.67
455.739	1892.07
456.112	1885.97
456.486	1949.24
456.859	1921.22
457.232	1973.65
457.606	1951.95
457.979	1957.83
458.352	1998.05
458.725	2031.95
459.099	2052.06
459.472	2088.45
459.845	2117.15
460.218	2123.48
460.591	2113.98
460.964	2119.18
461.337	2165.51
461.71	2170.48
462.083	2231.49
462.456	2259.29
462.829	2263.36
463.201	2252.06
463.574	2281.66
463.947	2299.06
464.32	2351.94
464.692	2382.9
465.065	2384.26
465.438	2417.03
465.81	2443.24
466.183	2453.64
466.555	2529.57
466.928	2538.61
467.3	2536.12
467.672	2553.97
468.045	2626.51
468.417	2631.26
468.789	2626.06
469.161	2662.67
469.534	2711.71
469.906	2728.88
470.278	2791.48
470.65	2783.8
471.022	2847.98
471.394	2893.17
471.766	2888.2
472.138	2911.03
472.51	3000.51
472.882	3024.47
473.253	3063.56
473.625	3095.88
473.997	3135.43
474.369	3175.65
474.74	3196.67
475.112	3247.29
475.484	3294.97
475.855	3320.51
476.227	3344.23
476.598	3482.08
476.97	3429.66
477.341	3536.09
477.713	3587.17
478.084	3612.7
478.455	3692.93
478.827	3723.89
479.198	3790.32
479.569	3774.28
479.94	3928.85
480.311	3960.26
480.682	4011.79
481.053	4047.49
481.424	4103.54
481.795	4110.54
482.166	4169.07
482.537	4239.8
482.908	4276.41
483.279	4343.98
483.65	4398.9
484.021	4515.5
484.391	4512.11
484.762	4557.99
485.133	4593.92
485.503	4646.8
485.874	4733.12
486.244	4769.51
486.615	4827.36
486.985	4888.15
487.356	4932.67
487.726	5023.96
488.097	5063.06
488.467	5081.36
488.837	5161.14
489.207	5216.73
489.578	5284.75
489.948	5345.09
490.318	5344.86
490.688	5373.56
491.058	5421.69
491.428	5481.81
491.798	5572.2
492.168	5685.19
492.538	5675.25
492.908	5719.99
493.278	5776.26
493.648	5780.1
494.017	5871.63
494.387	5831.85
494.757	5914.56
495.126	5997.05
495.496	6044.95
495.866	5990.27
496.235	6080.66
496.605	6127.66
496.974	6099.42
497.344	6178.28
497.713	6185.97
498.082	6226.64
498.452	6282.01
498.821	6302.35
499.19	6311.84
499.559	6353.65
499.928	6375.11
500.298	6417.37
500.667	6438.62
501.036	6457.6
501.405	6474.1
501.774	6470.25
502.143	6584.37
502.512	6512.29
502.88	6595.67
503.249	6578.5
503.618	6644.49
503.987	6652.17
504.356	6675.9
504.724	6692.17
505.093	6704.6
505.462	6773.07
505.83	6759.51
506.199	6825.72
506.567	6898.94
506.936	6827.08
507.304	6919.28
507.672	6902.11
508.041	6950.24
508.409	6995.21
508.777	6998.6
509.145	7018.71
509.514	7038.15
509.882	7024.82
510.25	6989.34
510.618	7090.12
510.986	7111.37
511.354	7103.46
511.722	7188.2
512.09	7197.47
512.458	7171.03
512.826	7255.54
513.193	7273.4
513.561	7270.68
513.929	7230.01
514.297	7305.94
514.664	7316.11
515.032	7378.93
515.4	7396.33
515.767	7384.13
516.135	7353.62
516.502	7349.78
516.869	7409.66
517.237	7408.76
517.604	7380.51
517.972	7456.44
518.339	7484.01
518.706	7461.87
519.073	7456.22
519.44	7468.87
519.808	7531.92
520.175	7523.11
520.542	7610.79
520.909	7540.51
521.276	7553.61
521.643	7608.53
522.009	7650.56
522.376	7634.97
522.743	7669.09
523.11	7689.88
523.477	7673.39
523.843	7785.7
524.21	7812.14
524.577	7805.36
524.943	7812.37
525.31	7794.96
525.676	7866.38
526.043	7886.49
526.409	7860.73
526.776	7935.07
527.142	7958.8
527.508	7919.48
527.874	7975.3
528.241	7905.7
528.607	7912.48
528.973	7956.77
529.339	7942.53
529.705	8012.36
530.071	8020.27
530.437	8037.22
530.803	8041.74
531.169	7992.47
531.535	7967.62
531.901	7995.64
532.267	7966.03
532.632	8048.07
532.998	8015.52
533.364	8050.33
533.73	8051.23
534.095	8059.36
534.461	8046.03
534.826	8095.52
535.192	8053.49
535.557	8066.14
535.923	8015.52
536.288	8049.2
536.653	8039.7
537.019	7968.52
537.384	8027.95
537.749	8023.21
538.114	8001.74
538.479	7972.36
538.845	8023.21
539.21	7987.28
539.575	7991.12
539.94	8011.46
540.305	8005.35
540.67	7968.07
541.034	7943.66
541.399	7942.53
541.764	7942.76
542.129	7979.37
542.494	7963.32
542.858	7922.87
543.223	7971.23
543.587	7923.1
543.952	7912.02
544.316	7862.53
544.681	7898.69
545.045	7879.03
545.41	7861.4
545.774	7913.15
546.138	7854.85
546.503	7897.56
546.867	7855.98
547.231	7925.58
547.595	7851.69
547.959	7810.78
548.324	7865.02
548.688	7831.12
549.052	7839.71
549.416	7808.52
549.779	7832.03
550.143	7787.73
550.507	7746.6
550.871	7866.83
551.235	7796.77
551.599	7812.14
551.962	7752.03
552.326	7778.02
552.689	7768.75
553.053	7743.89
553.417	7755.87
553.78	7791.35
554.143	7727.4
554.507	7760.16
554.87	7741.41
555.234	7774.85
555.597	7695.31
555.96	7700.5
556.323	7775.08
556.686	7708.41
557.05	7774.17
557.413	7718.58
557.776	7782.31
558.139	7768.3
558.502	7824.79
558.865	7835.19
559.228	7787.73
559.59	7785.02
559.953	7803.55
560.316	7851.23
560.679	7831.57
561.041	7825.7
561.404	7831.12
561.767	7869.09
562.129	7820.05
562.492	7939.82
562.854	7904.57
563.217	7860.05
563.579	7903.66
563.941	7956.09
564.304	7910.44
564.666	7949.99
565.028	7951.8
565.39	7997.45
565.753	7997.67
566.115	7999.25
566.477	8033.6
566.839	8053.04
567.201	7996.54
567.563	8045.35
567.925	8081.06
568.287	8157.21
568.648	8109.53
569.01	8118.57
569.372	8147.72
569.734	8162.41
570.095	8201.06
570.457	8173.03
570.819	8186.59
571.18	8229.53
571.542	8285.35
571.903	8255.07
572.265	8262.97
572.626	8286.03
572.987	8342.52
573.349	8349.3
573.71	8338
574.071	8375.74
574.432	8390.66
574.794	8475.4
575.155	8397.89
575.516	8455.29
575.877	8428.17
576.238	8484.44
576.599	8554.27
576.96	8474.72
577.32	8590.88
577.681	8484.21
578.042	8573.93
578.403	8616.64
578.763	8621.38
579.124	8573.7
579.485	8698.22
579.845	8660.7
580.206	8717.88
580.566	8719.91
580.927	8708.16
581.287	8799.23
581.648	8774.37
582.008	8770.98
582.368	8778.22
582.728	8792
583.089	8813.24
583.449	8775.28
583.809	8894.82
584.169	8846.46
584.529	8876.97
584.889	8897.76
585.249	8886.69
585.609	8891.43
585.969	8965.78
586.329	8909.06
586.688	8993.35
587.048	8904.77
587.408	8919.23
587.768	8973.69
588.127	8960.58
588.487	8985.44
588.846	9041.03
589.206	9009.4
589.565	9034.93
589.925	9076.74
590.284	9119
590.643	9124.65
591.003	9094.14
591.362	9117.64
591.721	9155.15
592.08	9140.69
592.44	9151.77
592.799	9148.83
593.158	9214.14
593.517	9148.6
593.876	9211.65
594.235	9177.75
594.593	9222.95
594.952	9220.92
595.311	9151.99
595.67	9223.85
596.029	9290.29
596.387	9278.09
596.746	9290.07
597.104	9185.21
597.463	9190.41
597.822	9299.11
598.18	9278.54
598.538	9291.2
598.897	9302.5
599.255	9200.58
599.613	9364.41
599.972	9314.47
600.33	9368.93
600.688	9321.25
601.046	9404.64
601.404	9379.56
601.762	9420.23
602.12	9419.1
602.478	9379.78
602.836	9398.76
603.194	9346.11
603.552	9427.01
603.91	9355.38
604.268	9426.56
604.625	9394.24
604.983	9429.05
605.341	9372.78
605.698	9439.67
606.056	9441.7
606.413	9404.41
606.771	9518.08
607.128	9473.34
607.485	9362.83
607.843	9434.92
608.2	9530.74
608.557	9489.61
608.914	9513.11
609.272	9488.25
609.629	9521.92
609.986	9520.12
610.343	9523.96
610.7	9594.47
611.057	9533.9
611.414	9594.47
611.771	9540
612.127	9633.56
612.484	9611.19
612.841	9627.23
613.198	9598.31
613.554	9598.08
613.911	9641.24
614.267	9537.74
614.624	9618.42
614.98	9649.83
615.337	9718.98
615.693	9659.32
616.05	9686.44
616.406	9656.38
616.762	9739.32
617.118	9687.8
617.475	9679.89
617.831	9730.51
618.187	9747.46
618.543	9725.54
618.899	9850.73
619.255	9708.59
619.611	9808.24
619.967	9764.86
620.323	9723.05
620.678	9782.26
621.034	9784.52
621.39	9729.38
621.746	9767.79
622.101	9838.3
622.457	9791.3
622.812	9849.15
623.168	9787.23
623.523	9812.76
623.879	9865.42
624.234	9825.87
624.589	9806.21
624.945	9855.02
625.3	9796.27
625.655	9826.32
626.01	9762.82
626.365	9812.54
626.72	9801.24
627.075	9744.74
627.43	9800.79
627.785	9760.11
628.14	9693.67
628.495	9779.32
628.85	9779.77
629.205	9707.23
629.559	9797.62
629.914	9732.99
630.269	9717.63
630.623	9700
630.978	9723.95
631.332	9716.5
631.687	9745.2
632.041	9672.2
632.396	9754.91
632.75	9634.01
633.104	9701.58
633.459	9664.07
633.813	9653.9
634.167	9625.42
634.521	9622.94
634.875	9675.14
635.229	9566.67
635.583	9546.78
635.937	9607.8
636.291	9594.92
636.645	9642.83
636.999	9513.79
637.352	9565.54
637.706	9549.27
638.06	9625.42
638.413	9493.45
638.767	9412.1
639.121	9447.58
639.474	9379.56
639.828	9478.76
640.181	9447.8
640.534	9487.12
640.888	9413.45
641.241	9400.8
641.594	9361.03
641.947	9391.98
642.301	9435.6
642.654	9390.4
643.007	9362.83
643.36	9404.64
643.713	9337.97
644.066	9441.25
644.419	9297.98
644.771	9262.95
645.124	9217.75
645.477	9204.19
645.83	9184.76
646.182	9153.8
646.535	9075.16
646.888	9115.83
647.24	9069.96
647.593	9031.32
647.945	9071.54
648.298	9031.54
648.65	8995.16
649.002	9023.41
649.355	9038.77
649.707	9024.54
650.059	9104.31
650.411	9190.63
650.763	9135.72
651.115	9233.34
651.467	9188.83
651.819	9215.72
652.171	9269.73
652.523	9190.18
652.875	9191.31
653.227	9232.44
653.578	9263.4
653.93	9217.07
654.282	9163.29
654.633	9188.15
654.985	9224.76
655.337	9160.35
655.688	9251.65
656.039	9283.29
656.391	9176.62
656.742	9200.8
657.094	9201.48
657.445	9235.38
657.796	9170.75
658.147	9148.6
658.498	9224.08
658.849	9236.96
659.2	9188.37
659.551	9182.95
659.902	9250.07
660.253	9227.24
660.604	9187.02
660.955	9199.9
661.306	9233.12
661.656	9231.76
662.007	9211.42
662.358	9227.02
662.708	9164.87
663.059	9213.46
663.409	9177.75
663.76	9284.42
664.11	9199.67
664.461	9230.18
664.811	9255.72
665.161	9216.4
665.511	9226.11
665.862	9211.42
666.212	9274.25
666.562	9250.97
666.912	9199.67
667.262	9228.6
667.612	9218.2
667.962	9246.23
668.312	9197.41
668.662	9228.6
669.011	9247.58
669.361	9239.45
669.711	9199.9
670.06	9162.84
670.41	9228.15
670.76	9176.4
671.109	9262.04
671.459	9154.7
671.808	9204.87
672.157	9155.38
672.507	9177.75
672.856	9128.71
673.205	9163.97
673.554	9198.32
673.904	9088.94
674.253	9212.78
674.602	9099.34
674.951	8981.37
675.3	8943.18
675.649	9124.2
675.998	9009.4
676.346	9111.09
676.695	9130.97
677.044	9075.38
677.393	9065.21
677.741	9063.41
678.09	9072.22
678.438	8985.44
678.787	9025.44
679.135	9061.6
679.484	8948.83
679.832	8989.06
680.181	8949.28
680.529	9017.31
680.877	8963.3
681.225	8954.48
681.573	8940.25
681.922	8923.97
682.27	8798.33
682.618	8854.37
682.966	8837.87
683.314	8892.34
683.661	8814.6
684.009	8780.93
684.357	8695.28
684.705	8743.64
685.053	8735.73
685.4	8735.28
685.748	8711.1
686.095	8690.53
686.443	8679.46
686.79	8603.3
687.138	8621.16
687.485	8603.76
687.832	8573.48
688.18	8620.03
688.527	8525.34
688.874	8610.08
689.221	8573.48
689.568	8524.89
689.915	8460.94
690.262	8481.5
690.609	8446.92
690.956	8418.68
691.303	8404.21
691.65	8289.87
691.997	8376.19
692.344	8247.83
692.69	8296.65
693.037	8275.63
693.383	8192.69
693.73	8208.51
694.077	8116.09
694.423	8186.14
694.769	8170.32
695.116	8088.06
695.462	8097.78
695.808	8034.73
696.155	8069.99
696.501	8060.72
696.847	7944.11
697.193	7865.47
697.539	7887.62
697.885	7852.14
698.231	7834.96
698.577	7852.59
698.923	7830.67
699.269	7745.47
699.614	7702.31
699.96	7691.92
700.306	7728.53
700.651	7643.78
700.997	7606.95
701.342	7652.14
701.688	7696.89
702.033	7566.5
702.379	7552.94
702.724	7564.91
703.069	7614.86
703.415	7408.53
703.76	7493.96
704.105	7432.94
704.45	7451.7
704.795	7288.99
705.14	7366.05
705.485	7371.25
705.83	7287.18
706.175	7279.5
706.52	7255.09
706.865	7219.61
707.209	7291.7
707.554	7200.18
707.899	7231.14
708.243	7169.67
708.588	7163.57
708.932	7079.05
709.277	7125.83
709.621	7157.92
709.966	7063.46
710.31	7016.68
710.654	6972.84
710.998	7014.19
711.342	7017.58
711.687	6967.64
712.031	6921.99
712.375	6875.89
712.719	6894.2
713.063	6917.7
713.407	6950.69
713.75	6902.56
714.094	6866.18
714.438	6875.44
714.782	6862.11
715.125	6865.5
715.469	6846.51
715.812	6827.76
716.156	6790.25
716.499	6734.43
716.843	6782.56
717.186	6821.66
717.53	6811.26
717.873	6786.4
718.216	6734.88
718.559	6756.35
718.902	6680.42
719.246	6690.59
719.589	6726.97
719.932	6609.68
720.275	6703.69
720.617	6651.72
720.96	6677.93
721.303	6652.62
721.646	6616.24
721.989	6620.08
722.331	6639.06
722.674	6632.28
723.016	6599.52
723.359	6602.68
723.701	6654.88
724.044	6610.36
724.386	6537.6
724.729	6553.19
725.071	6612.62
725.413	6489.91
725.755	6576.92
726.097	6489.01
726.439	6555.9
726.782	6560.19
727.124	6549.8
727.465	6511.61
727.807	6530.82
728.149	6560.87
728.491	6464.83
728.833	6561.1
729.175	6522
729.516	6529.01
729.858	6505.96
730.199	6489.46
730.541	6559.06
730.882	6475.45
731.224	6484.72
731.565	6512.74
731.906	6512.29
732.248	6456.69
732.589	6451.27
732.93	6429.35
733.271	6446.53
733.612	6473.19
733.953	6470.25
734.294	6419.18
734.635	6429.8
734.976	6424.15
735.317	6441.78
735.658	6458.73
735.999	6490.37
736.339	6487.88
736.68	6497.37
737.021	6483.81
737.361	6434.55
737.702	6459.86
738.042	6479.07
738.383	6450.14
738.723	6517.48
739.063	6451.95
739.404	6435.23
739.744	6449.01
740.084	6471.16
740.424	6521.1
740.764	6534.21
741.104	6510.7
741.444	6526.98
741.784	6509.35
742.124	6548.9
742.464	6600.42
742.804	6536.24
743.143	6552.96
743.483	6598.39
743.823	6596.35
744.162	6557.26
744.502	6554.09
744.841	6618.5
745.181	6741.43
745.52	6748.44
745.86	6754.31
746.199	6738.5
746.538	6740.53
746.877	6797.93
747.216	6859.62
747.556	6811.26
747.895	6921.32
748.234	6931.94
748.573	6918.83
748.911	6982.33
749.25	7098.94
749.589	7060.75
749.928	7152.95
750.267	7241.08
750.605	7214.64
750.944	7304.36
751.283	7390
751.621	7425.03
751.96	7428.87
752.298	7533.73
752.636	7678.58
752.975	7628.19
753.313	7702.09
753.651	7896.88
753.989	7864.34
754.327	8028.4
754.666	8041.29
755.004	8149.08
755.342	8285.35
755.679	8401.95
756.017	8444.89
756.355	8536.64
756.693	8598.79
757.031	8769.85
757.368	8822.06
757.706	8990.19
758.044	9087.81
758.381	9191.54
758.719	9341.82
759.056	9419.1
759.394	9490.06
759.731	9687.34
760.068	9764.63
760.405	9848.7
760.743	9968.24
761.08	10170.5
761.417	10214.56
761.754	10332.3
762.091	10473.99
762.428	10630.14
762.765	10681.44
763.102	10827.2
763.438	10952.17
763.775	11083.01
764.112	11173.63
764.449	11321.2
764.785	11350.35
765.122	11465.38
765.458	11566.84
765.795	11674.86
766.131	11793.5
766.467	11937.23
766.804	12051.8
767.14	12054.97
767.476	12236.66
767.812	12292.25
768.148	12461.28
768.485	12499.02
768.821	12625.35
769.157	12690.88
769.492	12825.11
