Data from hue_350_FLMS001491_98.txt Node
Date: Mon Feb 06 15:38:47 GMT 2017
User: dcchb
Spectrometer: FLMS00149
Trigger mode: 0
Integration Time (sec): 2.000000E-2
Scans to average: 10
Electric dark correction enabled: true
Nonlinearity correction enabled: false
Boxcar width: 0
XAxis mode: Wavelengths
Number of Pixels in Spectrum: 2048
>>>>>Begin Spectral Data<<<<<
341.393	-0.58
341.776	-0.58
342.16	-0.58
342.543	-54.81
342.927	-64.76
343.31	-73.57
343.693	-53.46
344.077	-65.89
344.46	-46.23
344.843	-45.1
345.226	-40.13
345.61	-36.96
345.993	-53.46
346.376	1.68
346.759	5.75
347.142	9.14
347.525	35.35
347.908	57.27
348.291	76.03
348.674	105.18
349.057	124.39
349.44	139.08
349.823	130.04
350.206	163.03
350.588	189.02
350.971	205.97
351.354	225.86
351.737	240.77
352.119	271.5
352.502	258.62
352.884	278.06
353.267	252.3
353.65	284.61
354.032	316.47
354.414	290.71
354.797	291.16
355.179	326.42
355.562	304.27
355.944	311.5
356.326	328.9
356.709	319.41
357.091	326.87
357.473	321.9
357.855	314.21
358.238	351.95
358.62	336.81
359.002	333.65
359.384	357.83
359.766	335.23
360.148	338.17
360.53	333.88
360.912	342.69
361.294	334.55
361.676	319.64
362.057	333.65
362.439	324.38
362.821	307.66
363.203	327.77
363.584	324.84
363.966	335.68
364.348	317.6
364.729	325.51
365.111	315.12
365.493	323.03
365.874	325.97
366.256	319.64
366.637	316.02
367.019	309.92
367.4	318.96
367.781	304.95
368.163	307.89
368.544	298.17
368.925	306.31
369.306	307.44
369.688	316.25
370.069	292.07
370.45	303.59
370.831	286.65
371.212	285.74
371.593	323.48
371.974	291.84
372.355	308.57
372.736	304.27
373.117	299.75
373.498	313.31
373.879	318.06
374.26	331.62
374.641	310.37
375.021	341.33
375.402	329.58
375.783	314.67
376.163	320.99
376.544	317.83
376.925	313.54
377.305	309.92
377.686	293.65
378.066	313.99
378.447	322.8
378.827	350.37
379.208	323.71
379.588	323.03
379.968	322.58
380.349	310.15
380.729	331.84
381.109	327.32
381.489	316.47
381.87	324.61
382.25	317.38
382.63	324.61
383.01	355.34
383.39	323.71
383.77	316.47
384.15	311.05
384.53	329.81
384.91	352.86
385.29	337.72
385.67	342.24
386.049	357.15
386.429	335.23
386.809	344.04
387.189	358.96
387.568	353.99
387.948	335.01
388.328	337.27
388.707	362.35
389.087	343.14
389.466	356.7
389.846	384.04
390.225	356.02
390.605	343.37
390.984	362.35
391.363	355.12
391.743	354.21
392.122	364.16
392.501	362.8
392.881	369.81
393.26	373.87
393.639	379.98
394.018	379.3
394.397	349.47
394.776	356.25
395.155	344.72
395.534	355.12
395.913	370.71
396.292	365.06
396.671	368.68
397.05	377.94
397.429	360.99
397.808	380.43
398.186	378.62
398.565	382.01
398.944	380.65
399.323	392.18
399.701	383.14
400.08	377.72
400.458	365.06
400.837	384.5
401.215	393.76
401.594	391.95
401.972	397.6
402.351	382.24
402.729	403.93
403.107	380.2
403.486	410.94
403.864	398.73
404.242	381.33
404.62	406.19
404.999	416.13
405.377	403.48
405.755	405.29
406.133	408.45
406.511	403.7
406.889	399.18
407.267	437.6
407.645	432.86
408.023	414.55
408.401	436.7
408.779	411.61
409.156	421.1
409.534	445.74
409.912	432.18
410.29	427.43
410.667	419.52
411.045	452.06
411.422	434.44
411.8	468.34
412.178	457.04
412.555	462.01
412.933	480.09
413.31	487.32
413.687	476.24
414.065	460.88
414.442	474.44
414.819	477.37
415.197	473.76
415.574	460.65
415.951	500.88
416.328	495.23
416.705	467.21
417.082	489.8
417.46	489.13
417.837	478.05
418.214	493.19
418.591	515.11
418.967	525.96
419.344	491.61
419.721	498.62
420.098	518.73
420.475	508.33
420.852	522.35
421.228	508.33
421.605	544.94
421.982	529.8
422.358	520.76
422.735	544.72
423.111	549.69
423.488	554.21
423.864	554.66
424.241	562.12
424.617	543.36
424.994	567.77
425.37	554.66
425.746	592.63
426.123	556.69
426.499	562.34
426.875	593.53
427.251	583.81
427.627	598.5
428.003	563.7
428.379	597.82
428.756	609.12
429.132	578.61
429.507	619.97
429.883	619.97
430.259	617.03
430.635	642.34
431.011	638.27
431.387	610.03
431.763	657.48
432.138	637.6
432.514	655.9
432.89	651.16
433.265	670.59
433.641	655.45
434.016	660.65
434.392	672.17
434.767	679.18
435.143	675.11
435.518	688.22
435.894	710.36
436.269	713.53
436.644	709.46
437.02	716.46
437.395	690.93
437.77	732.96
438.145	722.57
438.52	726.63
438.895	725.5
439.271	714.66
439.646	769.34
440.021	737.25
440.395	739.51
440.77	755.33
441.145	759.17
441.52	779.51
441.895	756.46
442.27	776.35
442.645	763.47
443.019	763.02
443.394	783.58
443.769	800.53
444.143	780.42
444.518	775.45
444.892	789
445.267	833.07
445.641	807.99
446.016	808.89
446.39	797.37
446.764	842.34
447.139	824.48
447.513	831.26
447.887	807.31
448.262	838.27
448.636	844.6
449.01	859.96
449.384	833.52
449.758	843.92
450.132	855.22
450.506	871.26
450.88	871.94
451.254	866.52
451.628	867.65
452.002	869.91
452.376	881.88
452.75	895.67
453.123	868.78
453.497	913.52
453.871	917.36
454.244	903.35
454.618	951.71
454.992	932.73
455.365	925.27
455.739	932.73
456.112	979.06
456.486	948.77
456.859	991.26
457.232	989
457.606	989.9
457.979	983.12
458.352	1023.8
458.725	1013.86
459.099	1007.3
459.472	1059.28
459.845	1044.82
460.218	1053.63
460.591	1071.48
460.964	1060.18
461.337	1095.21
461.71	1104.02
462.083	1101.76
462.456	1097.02
462.829	1100.18
463.201	1109.45
463.574	1116.91
463.947	1158.26
464.32	1179.73
464.692	1190.8
465.065	1186.06
465.438	1170.46
465.81	1200.29
466.183	1227.41
466.555	1268.99
466.928	1242.33
467.3	1247.07
467.672	1250.24
468.045	1316.22
468.417	1296.34
468.789	1302.44
469.161	1319.61
469.534	1322.32
469.906	1358.03
470.278	1376.11
470.65	1362.1
471.022	1397.58
471.394	1411.81
471.766	1449.78
472.138	1457.69
472.51	1504.24
472.882	1521.87
473.253	1520.96
473.625	1572.49
473.997	1570.91
474.369	1593.28
474.74	1618.36
475.112	1640.96
475.484	1672.82
475.855	1684.57
476.227	1688.64
476.598	1730.45
476.97	1778.13
477.341	1796.66
477.713	1854.97
478.084	1850.22
478.455	1871.01
478.827	1902.65
479.198	1929.99
479.569	1933.83
479.94	2002.08
480.311	2041.85
480.682	2056.09
481.053	2110.78
481.424	2146.71
481.795	2132.25
482.166	2190.32
482.537	2229.42
482.908	2249.08
483.279	2293.6
483.65	2344.22
484.021	2387.38
484.391	2435.74
484.762	2458.34
485.133	2484.33
485.503	2492.01
485.874	2553.7
486.244	2556.42
486.615	2640.48
486.985	2663.98
487.356	2726.81
487.726	2721.16
488.097	2770.87
488.467	2787.37
488.837	2856.97
489.207	2866.01
489.578	2896.97
489.948	2942.39
490.318	3003.18
490.688	3017.19
491.058	3071.66
491.428	3107.81
491.798	3124.76
492.168	3199.34
492.538	3247.92
492.908	3253.8
493.278	3292.67
493.648	3342.84
494.017	3336.73
494.387	3366.34
494.757	3408.37
495.126	3444.3
495.496	3443.4
495.866	3483.85
496.235	3501.93
496.605	3543.28
496.974	3553.45
497.344	3604.07
497.713	3633
498.082	3638.2
498.452	3677.29
498.821	3713.67
499.19	3681.13
499.559	3743.28
499.928	3803.16
500.298	3807.91
500.667	3857.85
501.036	3831.86
501.405	3898.3
501.774	3870.96
502.143	3910.5
502.512	3915.25
502.88	3972.2
503.249	3974.01
503.618	3993.67
503.987	4013.78
504.356	4026.21
504.724	4055.81
505.093	4056.26
505.462	4067.56
505.83	4080.9
506.199	4080.9
506.567	4113.66
506.936	4162.7
507.304	4241.12
507.672	4225.75
508.041	4208.58
508.409	4224.62
508.777	4291.96
509.145	4337.61
509.514	4225.3
509.882	4320.66
510.25	4354.56
510.618	4348.01
510.986	4426.42
511.354	4388.68
511.722	4450.6
512.09	4405.63
512.458	4443.37
512.826	4467.33
513.193	4494.22
513.561	4529.7
513.929	4538.74
514.297	4581.67
514.664	4566.53
515.032	4585.52
515.4	4649.47
515.767	4676.81
516.135	4658.96
516.502	4625.06
516.869	4775.11
517.237	4711.39
517.604	4665.74
517.972	4715.46
518.339	4775.11
518.706	4766.53
519.073	4798.84
519.44	4797.71
519.808	4787.54
520.175	4853.53
520.542	4848.11
520.909	4882.46
521.276	4924.94
521.643	4942.12
522.009	4957.03
522.376	4976.24
522.743	4973.98
523.11	5020.08
523.477	5043.36
523.843	5060.08
524.21	5082
524.577	5124.71
524.943	5120.87
525.31	5195.22
525.676	5197.02
526.043	5225.95
526.409	5252.16
526.776	5305.95
527.142	5316.12
527.508	5281.99
527.874	5355.44
528.241	5389.56
528.607	5435.89
528.973	5420.75
529.339	5391.82
529.705	5445.61
530.071	5502.55
530.437	5499.16
530.803	5571.93
531.169	5633.4
531.535	5588.65
531.901	5618.93
532.267	5635.88
532.632	5706.39
532.998	5726.95
533.364	5759.04
533.73	5752.49
534.095	5794.3
534.461	5803.56
534.826	5863.67
535.192	5856.67
535.557	5942.32
535.923	5921.75
536.288	5927.17
536.653	6004.46
537.019	5967.85
537.384	5959.94
537.749	5956.55
538.114	6082.88
538.479	6037.91
538.845	6048.3
539.21	6107.51
539.575	6127.62
539.94	6175.98
540.305	6177.56
540.67	6182.54
541.034	6234.74
541.399	6229.99
541.764	6285.81
542.129	6297.56
542.494	6329.42
542.858	6376.65
543.223	6365.81
543.587	6382.98
543.952	6418.46
544.316	6451.23
544.681	6452.36
545.045	6471.12
545.41	6509.76
545.774	6515.41
546.138	6531.9
546.503	6578.91
546.867	6593.15
547.231	6592.02
547.595	6629.53
547.959	6645.35
548.324	6710.66
548.688	6700.49
549.052	6785.23
549.416	6782.97
549.779	6741.62
550.143	6812.8
550.507	6918.56
550.871	6888.73
551.235	6801.05
551.599	6943.19
551.962	6920.14
552.326	6934.83
552.689	6939.58
553.053	6972.12
553.417	7023.64
553.78	7081.95
554.143	6961.27
554.507	7065
554.87	7104.77
555.234	7149.52
555.597	7070.42
555.96	7107.71
556.323	7222.51
556.686	7268.38
557.05	7254.15
557.413	7259.34
557.776	7263.86
558.139	7323.07
558.502	7339.79
558.865	7282.62
559.228	7460.47
559.59	7414.14
559.953	7412.79
560.316	7540.01
560.679	7502.5
561.041	7537.75
561.404	7566.91
561.767	7598.77
562.129	7597.87
562.492	7659.11
562.854	7678.54
563.217	7695.72
563.579	7634.47
563.941	7743.62
564.304	7807.8
564.666	7841.47
565.028	7808.03
565.39	7845.32
565.753	7853.68
566.115	7877.86
566.477	7902.04
566.839	7967.35
567.201	7997.4
567.563	7962.38
567.925	8079.66
568.287	8095.03
568.648	8120.56
569.01	8198.3
569.372	8252.54
569.734	8156.49
570.095	8304.74
570.457	8229.71
570.819	8341.12
571.18	8398.07
571.542	8348.81
571.903	8417.73
572.265	8421.35
572.626	8488.69
572.987	8524.62
573.349	8551.06
573.71	8572.75
574.071	8617.27
574.432	8693.66
574.794	8775.01
575.155	8794.9
575.516	8890.71
575.877	8892.97
576.238	8918.06
576.599	9104.27
576.96	9097.71
577.32	9135.23
577.681	9250.93
578.042	9314.66
578.403	9437.14
578.763	9474.65
579.124	9572.28
579.485	9669.9
579.845	9777.92
580.206	9865.6
580.566	10000.29
580.927	10054.98
581.287	10209.32
581.648	10223.33
582.008	10471.91
582.368	10485.7
582.728	10692.25
583.089	10816.31
583.449	10941.05
583.809	11035.06
584.169	11248.16
584.529	11354.38
584.889	11620.81
585.249	11692.45
585.609	11877.3
585.969	12167.24
586.329	12287.91
586.688	12479.09
587.048	12703.27
587.408	12904.84
587.768	13104.16
588.127	13312.97
588.487	13500.08
588.846	13796.12
589.206	13912.95
589.565	14095.55
589.925	14467.06
590.284	14550.22
590.643	14924.9
591.003	15261.84
591.362	15555.4
591.721	15726.24
592.08	16045.78
592.44	16218.88
592.799	16591.08
593.158	16811.63
593.517	16993.32
593.876	17360.32
594.235	17646.19
594.593	17840.53
594.952	18243.01
595.311	18413.85
595.67	18680.51
596.029	19089.09
596.387	19363.43
596.746	19659.47
597.104	19794.38
597.463	20146.91
597.822	20437.53
598.18	20765.43
598.538	20940.34
598.897	21345.53
599.255	21446.09
599.613	22066.19
599.972	22202.9
600.33	22535.33
600.688	22682.44
601.046	23091.02
601.404	23396.09
601.762	23565.81
602.12	24026.59
602.478	24286.92
602.836	24477.87
603.194	24604.65
603.552	24857.75
603.91	25140.45
604.268	25418.41
604.625	25650.27
604.983	26153.99
605.341	26130.03
605.698	26505.16
606.056	26856.79
606.413	26997.36
606.771	27286.39
607.128	27607.28
607.485	27711.69
607.843	27854.96
608.2	28243.65
608.557	28482.97
608.914	28640.02
609.272	29078.66
609.629	29221.48
609.986	29619.89
610.343	29540.34
610.7	30073.21
611.057	30122.02
611.414	30347.1
611.771	30492.63
612.127	30726.07
612.484	30873.86
612.841	31176.68
613.198	31236.34
613.554	31465.49
613.911	31668.64
614.267	31871.13
614.624	32033.61
614.98	32221.62
615.337	32511.79
615.693	32656.64
616.05	32750.65
616.406	32978.67
616.762	32947.26
617.118	33106.12
617.475	33371.65
617.831	33622.04
618.187	33585.66
618.543	33827.01
618.899	34009.83
619.255	34160.33
619.611	34251.18
619.967	34402.36
620.323	34616.14
620.678	34662.24
621.034	34738.85
621.39	34722.58
621.746	34716.47
622.101	35271.04
622.457	35001.44
622.812	35251.6
623.168	35438.26
623.523	35543.57
623.879	35695.88
624.234	35627.41
624.589	35863.34
624.945	35977.91
625.3	35980.17
625.655	36109.21
626.01	36147.17
626.365	36138.36
626.72	36352.82
627.075	36376.54
627.43	36311.91
627.785	36381.97
628.14	36441.17
628.495	36563.66
628.85	36660.83
629.205	36488.18
629.559	36783.99
629.914	36755.29
630.269	36812.92
630.623	36770.43
630.978	36686.82
631.332	36898.11
631.687	36943.53
632.041	36870.54
632.396	36913.03
632.75	36838.23
633.104	37016.53
633.459	36804.33
633.813	36809.98
634.167	36969.75
634.521	36901.5
634.875	36928.85
635.229	36993.25
635.583	36880.94
635.937	36928.17
636.291	36981.95
636.645	37072.8
636.999	36858.11
637.352	37059.46
637.706	36854.05
638.06	37031.44
638.413	37054.72
638.767	36954.16
639.121	37162.06
639.474	36828.74
639.828	36830.32
640.181	37002.29
640.534	37047.49
640.888	36898.79
641.241	36901.73
641.594	36927.49
641.947	36964.1
642.301	36923.2
642.654	37028.5
643.007	36976.98
643.36	36950.09
643.713	36924.33
644.066	36997.77
644.419	36692.47
644.771	36576.09
645.124	36272.59
645.477	36108.75
645.83	36038.02
646.182	35842.77
646.535	35706.73
646.888	35816.33
647.24	35685.71
647.593	35937.91
647.945	35773.62
648.298	35676.22
648.65	35483.01
649.002	35467.64
649.355	35714.41
649.707	35698.6
650.059	35831.02
650.411	36211.58
650.763	36248.64
651.115	36612.92
651.467	36424
651.819	36556.65
652.171	36499.7
652.523	36473.72
652.875	36566.37
653.227	36423.1
653.578	36637.33
653.93	36464.9
654.282	36343.55
654.633	36220.62
654.985	36279.82
655.337	36291.57
655.688	36353.49
656.039	36399.82
656.391	36199.83
656.742	36164.35
657.094	36273.04
657.445	36300.39
657.796	36301.74
658.147	36040.96
658.498	36267.85
658.849	36218.58
659.2	36100.62
659.551	36039.83
659.902	36246.38
660.253	36046.83
660.604	36165.48
660.955	36036.21
661.306	36301.74
661.656	36088.19
662.007	36035.54
662.358	36083.9
662.708	36005.03
663.059	36040.96
663.409	35837.12
663.76	36130.67
664.11	36087.51
664.461	36181.75
664.811	36010.9
665.161	36163.22
665.511	35953.73
665.862	36078.25
666.212	36071.24
666.562	36101.52
666.912	36089.77
667.262	36042.54
667.612	36005.93
667.962	36010.23
668.312	36039.6
668.662	36078.47
669.011	35988.98
669.361	36036.44
669.711	35997.34
670.06	36102.43
670.41	35883.68
670.76	35849.33
671.109	36026.95
671.459	35992.6
671.808	35750.35
672.157	35973.84
672.507	35703.34
672.856	35638.03
673.205	35661.99
673.554	36013.39
673.904	35822.89
674.253	35839.83
674.602	35699.5
674.951	35311.71
675.3	35173.86
675.649	35652.72
675.998	35670.12
676.346	35624.02
676.695	35763.45
677.044	35406.4
677.393	35601.87
677.741	35541.09
678.09	35419.51
678.438	35459.51
678.787	35441.65
679.135	35485.49
679.484	35178.16
679.832	35530.46
680.181	35217.48
680.529	35301.77
680.877	35307.42
681.225	35128.89
681.573	35399.17
681.922	35138.16
682.27	35110.14
682.618	35091.38
682.966	34918.5
683.314	34995.34
683.661	35051.61
684.009	34765.51
684.357	34601.9
684.705	34747.21
685.053	34598.29
685.4	34591.05
685.748	34575.23
686.095	34445.97
686.443	34511.96
686.79	34285.53
687.138	34337.73
687.485	34351.29
687.832	34283.72
688.18	34220.67
688.527	34109.48
688.874	33967.79
689.221	33989.26
689.568	33909.26
689.915	33819.77
690.262	33790.17
690.609	33695.26
690.956	33611.19
691.303	33625.66
691.65	33363.74
691.997	33409.84
692.344	33398.54
692.69	33215.72
693.037	33228.38
693.383	33091.21
693.73	33128.49
694.077	32890.31
694.423	32961.27
694.769	32903.64
695.116	32788.84
695.462	32681.5
695.808	32596.08
696.155	32679.24
696.501	32491.67
696.847	32474.05
697.193	32123.32
697.539	32318.8
697.885	32072.02
698.231	31901.63
698.577	31907.06
698.923	32015.3
699.269	31708.64
699.614	31653.05
699.96	31493.51
700.306	31578.93
700.651	31382.78
700.997	31390.23
701.342	31381.65
701.688	31310.24
702.033	31167.19
702.379	31176.68
702.724	31035.67
703.069	31126.29
703.415	30739.63
703.76	30771.72
704.105	30704.15
704.45	30767.88
704.795	30537.38
705.14	30404.27
705.485	30381.67
705.83	30319.75
706.175	30454.21
706.52	30266.42
706.865	30088.12
707.209	30064.62
707.554	29952.76
707.899	29976.94
708.243	29808.81
708.588	29766.55
708.932	29608.81
709.277	29718.19
709.621	29566.33
709.966	29522.49
710.31	29511.19
710.654	29293.79
710.998	29270.97
711.342	29444.52
711.687	29215.38
712.031	29102.16
712.375	29131.08
712.719	29057.87
713.063	29023.52
713.407	29039.34
713.75	28828.72
714.094	28881.83
714.438	28668.27
714.782	28802.28
715.125	28516.19
715.469	28674.83
715.812	28529.29
716.156	28367.04
716.499	28411.1
716.843	28482.06
717.186	28403.19
717.53	28404.1
717.873	28377.43
718.216	28241.84
718.559	28119.13
718.902	27864.22
719.246	28080.26
719.589	27873.26
719.932	27957.33
720.275	27885.92
720.617	27747.39
720.96	27699.03
721.303	27783.1
721.646	27870.55
721.989	27504.23
722.331	27758.01
722.674	27579.26
723.016	27558.24
723.359	27567.96
723.701	27519.6
724.044	27398.25
724.386	27184.02
724.729	27295.43
725.071	27344.01
725.413	27358.02
725.755	27180.63
726.097	27094.98
726.439	26955.77
726.782	26974.76
727.124	27045.94
727.465	26949.22
727.807	26918.94
728.149	26820.18
728.491	26822.9
728.833	26891.6
729.175	26756.91
729.516	26700.19
729.858	26595.56
730.199	26624.48
730.541	26591.49
730.882	26608.66
731.224	26587.65
731.565	26399.63
731.906	26483.92
732.248	26375.22
732.589	26387.43
732.93	26130.71
733.271	26338.16
733.612	26278.05
733.953	26264.94
734.294	26212.74
734.635	26069.47
734.976	26111.95
735.317	26002.13
735.658	26049.13
735.999	25975.01
736.339	25948.34
736.68	26102.24
737.021	25921.68
737.361	25886.65
737.702	26021.79
738.042	25902.69
738.383	25671.06
738.723	25832.19
739.063	25599.43
739.404	25675.58
739.744	25591.06
740.084	25479.43
740.424	25561.46
740.764	25483.95
741.104	25514.68
741.444	25474.01
741.784	25402.37
742.124	25375.7
742.464	25358.53
742.804	25208.25
743.143	25249.38
743.483	25296.83
743.823	25167.12
744.162	25109.5
744.502	25254.35
744.841	25180.45
745.181	25060.46
745.52	25112.88
745.86	25036.95
746.199	24961.7
746.538	24841.25
746.877	24945.21
747.216	25008.25
747.556	24932.78
747.895	24804.87
748.234	24778.43
748.573	24726.45
748.911	24653.46
749.25	24578.44
749.589	24590.19
749.928	24548.61
750.267	24583.86
750.605	24475.39
750.944	24495.27
751.283	24359.91
751.621	24454.15
751.96	24204.43
752.298	24290.99
752.636	24209.18
752.975	24170.99
753.313	24012.12
753.651	24202.85
753.989	24074.72
754.327	24152.46
754.666	23871.34
755.004	23957.44
755.342	24003.54
755.679	23859.36
756.017	23732.81
756.355	23788.63
756.693	23793.82
757.031	23705.24
757.368	23526.94
757.706	23498.46
758.044	23543.66
758.381	23515.19
758.719	23401.52
759.056	23503.44
759.394	23332.82
759.731	23161.52
760.068	23098.47
760.405	23084.92
