Data from hue_130_FLMS001491_00095.txt Node
Date: Tue Feb 07 16:58:21 GMT 2017
User: dcchb
Spectrometer: FLMS00149
Trigger mode: 0
Integration Time (sec): 2.000000E-2
Scans to average: 10
Electric dark correction enabled: true
Nonlinearity correction enabled: false
Boxcar width: 0
XAxis mode: Wavelengths
Number of Pixels in Spectrum: 2048
>>>>>Begin Spectral Data<<<<<
341.393	-16.45
341.776	-16.45
342.16	-16.45
342.543	-67.98
342.927	-73.18
343.31	-70.92
343.693	-55.1
344.077	-91.93
344.46	-66.85
344.843	-45.38
345.226	-53.06
345.61	-58.04
345.993	-13.74
346.376	-6.51
346.759	19.93
347.142	38.91
347.525	43.21
347.908	52.92
348.291	75.07
348.674	100.38
349.057	131.11
349.44	125.01
349.823	155.07
350.206	163.43
350.588	184.44
350.971	191.45
351.354	220.38
351.737	232.35
352.119	243.65
352.502	264.44
352.884	281.84
353.267	290.2
353.65	302.18
354.032	286.14
354.414	308.51
354.797	309.86
355.179	313.25
355.562	316.42
355.944	327.49
356.326	330.66
356.709	328.4
357.091	325.01
357.473	333.37
357.855	334.04
358.238	319.81
358.62	331.33
359.002	296.98
359.384	325.91
359.766	327.49
360.148	335.17
360.53	325.01
360.912	349.41
361.294	318.68
361.676	317.1
362.057	324.1
362.439	316.87
362.821	328.62
363.203	319.81
363.584	323.88
363.966	294.72
364.348	326.14
364.729	319.58
365.111	301.5
365.493	303.31
365.874	306.25
366.256	296.98
366.637	322.29
367.019	316.42
367.4	308.51
367.781	308.73
368.163	311.9
368.544	325.01
368.925	293.59
369.306	308.28
369.688	304.22
370.069	315.51
370.45	318
370.831	299.92
371.212	308.73
371.593	306.47
371.974	294.27
372.355	289.07
372.736	316.19
373.117	313.71
373.498	303.99
373.879	320.03
374.26	309.19
374.641	319.36
375.021	297.66
375.402	293.82
375.783	323.2
376.163	355.06
376.544	324.78
376.925	313.71
377.305	324.1
377.686	330.66
378.066	322.97
378.447	334.5
378.827	335.85
379.208	330.88
379.588	318.45
379.968	331.79
380.349	323.65
380.729	334.5
381.109	341.73
381.489	348.28
381.87	324.33
382.25	339.02
382.63	343.76
383.01	346.47
383.39	319.58
383.77	342.41
384.15	346.7
384.53	335.63
384.91	341.73
385.29	355.51
385.67	345.34
386.049	350.99
386.429	360.26
386.809	354.61
387.189	360.71
387.568	340.37
387.948	336.76
388.328	364.1
388.707	351.9
389.087	365.68
389.466	345.12
389.846	379.24
390.225	355.74
390.605	369.07
390.984	390.77
391.363	376.76
391.743	357.32
392.122	360.03
392.501	355.74
392.881	373.37
393.26	367.94
393.639	359.81
394.018	361.61
394.397	367.94
394.776	374.72
395.155	374.27
395.534	370.65
395.913	377.21
396.292	356.64
396.671	391.9
397.05	376.98
397.429	402.97
397.808	399.35
398.186	376.53
398.565	379.02
398.944	387.15
399.323	366.59
399.701	385.12
400.08	392.12
400.458	393.48
400.837	398.68
401.215	412.69
401.594	383.76
401.972	374.04
402.351	427.38
402.729	394.38
403.107	403.42
403.486	417.43
403.864	371.33
404.242	390.09
404.62	397.55
404.999	408.85
405.377	405.91
405.755	406.36
406.133	421.73
406.511	414.27
406.889	422.86
407.267	455.4
407.645	435.06
408.023	416.3
408.401	435.06
408.779	430.31
409.156	430.09
409.534	447.04
409.912	431.22
410.29	444.32
410.667	431.67
411.045	423.08
411.422	437.77
411.8	457.66
412.178	446.36
412.555	447.94
412.933	448.17
413.31	462.63
413.687	459.47
414.065	469.18
414.442	462.4
414.819	457.88
415.197	465.11
415.574	491.33
415.951	454.04
416.328	463.31
416.705	489.3
417.082	461.95
417.46	485
417.837	463.76
418.214	491.1
418.591	491.33
418.967	484.32
419.344	499.24
419.721	500.82
420.098	509.86
420.475	491.78
420.852	511.22
421.228	520.03
421.605	508.28
421.982	512.57
422.358	537.88
422.735	535.17
423.111	528.84
423.488	509.18
423.864	523.19
424.241	536.07
424.617	520.93
424.994	546.92
425.37	529.29
425.746	537.2
426.123	554.6
426.499	527.49
426.875	553.47
427.251	553.25
427.627	561.61
428.003	565.68
428.379	583.98
428.756	576.3
429.132	568.39
429.507	579.46
429.883	573.59
430.259	594.15
430.635	595.28
431.011	594.38
431.387	620.37
431.763	607.03
432.138	584.43
432.514	631.21
432.89	640.25
433.265	654.49
433.641	631.21
434.016	651.1
434.392	633.92
434.767	675.96
435.143	642.06
435.518	642.06
435.894	656.75
436.269	655.17
436.644	675.5
437.02	663.98
437.395	691.78
437.77	695.39
438.145	677.76
438.52	698.1
438.895	736.07
439.271	722.06
439.646	737.88
440.021	737.88
440.395	736.07
440.77	734.26
441.145	756.63
441.52	730.19
441.895	736.07
442.27	756.86
442.645	747.14
443.019	756.86
443.394	740.59
443.769	762.73
444.143	745.33
444.518	802.51
444.892	791.21
445.267	768.16
445.641	802.06
446.016	792.56
446.39	804.09
446.764	816.97
447.139	819.23
447.513	826.01
447.887	814.26
448.262	819.23
448.636	821.04
449.01	833.24
449.384	822.62
449.758	824.65
450.132	859.45
450.506	826.69
450.88	853.35
451.254	849.96
451.628	894.71
452.002	882.28
452.376	899.91
452.75	869.4
453.123	892.45
453.497	924.31
453.871	930.41
454.244	937.64
454.618	937.87
454.992	932.22
455.365	948.94
455.739	971.77
456.112	959.79
456.486	975.61
456.859	989.62
457.232	1022.16
457.606	1007.47
457.979	1026.23
458.352	1068.71
458.725	1030.3
459.099	1045.89
459.472	1075.04
459.845	1091.09
460.218	1110.75
460.591	1108.26
460.964	1107.58
461.337	1140.8
461.71	1146.9
462.083	1166.34
462.456	1167.24
462.829	1174.02
463.201	1177.19
463.574	1190.75
463.947	1207.02
464.32	1262.16
464.692	1233.23
465.065	1254.7
465.438	1278.43
465.81	1314.36
466.183	1346.67
466.555	1351.65
466.928	1335.6
467.3	1358.65
467.672	1376.05
468.045	1439.55
468.417	1450.85
468.789	1451.3
469.161	1490.62
469.534	1504.18
469.906	1523.17
470.278	1576.27
470.65	1585.54
471.022	1616.5
471.394	1650.85
471.766	1680.22
472.138	1708.25
472.51	1741.24
472.882	1766.55
473.253	1796.61
473.625	1855.13
473.997	1882.03
474.369	1916.83
474.74	1960.44
475.112	2007
475.484	2071.85
475.855	2109.14
476.227	2154.34
476.598	2210.38
476.97	2241.79
477.341	2282.69
477.713	2370.83
478.084	2396.14
478.455	2497.6
478.827	2511.84
479.198	2606.98
479.569	2665.51
479.94	2750.7
480.311	2816.47
480.682	2904.15
481.053	3001.77
481.424	3083.35
481.795	3151.82
482.166	3228.88
482.537	3325.83
482.908	3458.26
483.279	3554.3
483.65	3603.79
484.021	3740.73
484.391	3815.76
484.762	3918.58
485.133	3972.37
485.503	4105.47
485.874	4233.38
486.244	4327.61
486.615	4427.95
486.985	4507.72
487.356	4701.84
487.726	4791.33
488.097	4955.84
488.467	5039.91
488.837	5174.82
489.207	5279.9
489.578	5437.64
489.948	5555.38
490.318	5684.41
490.688	5754.92
491.058	5899.77
491.428	6063.84
491.798	6185.87
492.168	6337.73
492.538	6467.67
492.908	6567.1
493.278	6725.29
493.648	6758.06
494.017	6967.09
494.387	7036.92
494.757	7216.12
495.126	7350.13
495.496	7434.65
495.866	7539.05
496.235	7679.84
496.605	7800.29
496.974	7884.13
497.344	8081.41
497.713	8117.57
498.082	8254.06
498.452	8438.92
498.821	8467.84
499.19	8534.28
499.559	8707.61
499.928	8825.12
500.298	8893.59
500.667	8999.13
501.036	9079.58
501.405	9207.48
501.774	9208.84
502.143	9341.04
502.512	9431.66
502.88	9597.53
503.249	9568.6
503.618	9701.71
503.987	9743.97
504.356	9899.9
504.724	9928.59
505.093	10122.26
505.462	10090.62
505.83	10121.58
506.199	10279.09
506.567	10436.15
506.936	10455.59
507.304	10581.23
507.672	10569.71
508.041	10675.02
508.409	10733.55
508.777	10803.6
509.145	10898.51
509.514	10901
509.882	10981.22
510.25	10988.68
510.618	11103.71
510.986	11119.52
511.354	11269.35
511.722	11309.12
512.09	11346.86
512.458	11329.69
512.826	11429.12
513.193	11405.62
513.561	11521.32
513.929	11491.04
514.297	11649.23
514.664	11650.36
515.032	11757.25
515.4	11863.23
515.767	11868.66
516.135	11921.99
516.502	11886.51
516.869	11998.82
517.237	11981.2
517.604	11899.39
517.972	12021.2
518.339	12119.95
518.706	12063
519.073	12050.57
519.44	12115.2
519.808	12223.45
520.175	12197.46
520.542	12364.01
520.909	12288.08
521.276	12295.54
521.643	12407.17
522.009	12436.55
522.376	12476.32
522.743	12491.47
523.11	12554.97
523.477	12589.54
523.843	12575.76
524.21	12742.31
524.577	12730.1
524.943	12740.27
525.31	12795.86
525.676	12852.13
526.043	12853.49
526.409	12826.6
526.776	12921.51
527.142	12874.51
527.508	12890.55
527.874	12982.98
528.241	12936.88
528.607	12868.86
528.973	12953.6
529.339	12915.63
529.705	13032.47
530.071	13007.61
530.437	13032.69
530.803	13050.09
531.169	13099.58
531.535	13061.85
531.901	13031.11
532.267	13079.02
532.632	13020.04
532.998	13025.46
533.364	13018.46
533.73	13005.58
534.095	12979.14
534.461	12991.11
534.826	12995.86
535.192	13033.37
535.557	12979.14
535.923	12851.91
536.288	12973.49
536.653	12866.82
537.019	12876.31
537.384	12868.63
537.749	12864.11
538.114	12815.98
538.479	12759.25
538.845	12769.65
539.21	12715.64
539.575	12712.93
539.94	12717.67
540.305	12680.84
540.67	12641.07
541.034	12585.93
541.399	12612.37
541.764	12567.17
542.129	12526.27
542.494	12509.54
542.858	12465.25
543.223	12427.51
543.587	12459.38
543.952	12315.65
544.316	12466.61
544.681	12259.16
545.045	12278.82
545.41	12215.99
545.774	12275.2
546.138	12222.09
546.503	12154.07
546.867	12074.08
547.231	12126.05
547.595	12087.86
547.959	12122.44
548.324	12044.7
548.688	12044.7
549.052	11983
549.416	11932.84
549.779	11948.65
550.143	11900.97
550.507	11879.96
550.871	11847.87
551.235	11833.86
551.599	11880.18
551.962	11801.54
552.326	11780.07
552.689	11811.48
553.053	11712.73
553.417	11705.95
553.78	11726.29
554.143	11672.05
554.507	11602.22
554.87	11646.06
555.234	11735.33
555.597	11539.63
555.96	11551.6
556.323	11622.56
556.686	11506.18
557.05	11603.81
557.413	11595.67
557.776	11484.03
558.139	11557.25
558.502	11470.25
558.865	11469.8
559.228	11567.2
559.59	11577.59
559.953	11541.89
560.316	11601.77
560.679	11541.21
561.041	11501.21
561.404	11556.12
561.767	11580.3
562.129	11529.91
562.492	11588.89
562.854	11537.82
563.217	11483.81
563.579	11516.58
563.941	11542.11
564.304	11551.38
564.666	11637.48
565.028	11650.36
565.39	11570.81
565.753	11602.22
566.115	11627.53
566.477	11671.15
566.839	11637.7
567.201	11701.66
567.563	11682
567.925	11658.94
568.287	11660.75
568.648	11712.73
569.01	11770.81
569.372	11756.34
569.734	11670.24
570.095	11755.21
570.457	11804.03
570.819	11779.85
571.18	11754.08
571.542	11754.99
571.903	11739.85
572.265	11750.69
572.626	11798.6
572.987	11807.64
573.349	11827.3
573.71	11812.84
574.071	11903.46
574.432	11791.14
574.794	11846.51
575.155	11925.83
575.516	11838.6
575.877	11901.42
576.238	11842.89
576.599	11887.87
576.96	11852.39
577.32	11899.84
577.681	11817.81
578.042	11868.66
578.403	11957.24
578.763	11923.34
579.124	11927.86
579.485	11948.2
579.845	11943.23
580.206	11903.91
580.566	11856.91
580.927	11977.35
581.287	11981.2
581.648	11890.8
582.008	11997.24
582.368	11902.78
582.728	11974.42
583.089	11881.31
583.449	11901.88
583.809	11958.15
584.169	11880.86
584.529	11903.23
584.889	11924.25
585.249	11801.99
585.609	11775.33
585.969	11893.74
586.329	11825.04
586.688	11778.26
587.048	11820.97
587.408	11681.77
587.768	11784.37
588.127	11759.06
588.487	11765.38
588.846	11872.72
589.206	11659.62
589.565	11800.64
589.925	11798.38
590.284	11707.76
590.643	11774.42
591.003	11708.21
591.362	11708.89
591.721	11643.35
592.08	11685.38
592.44	11733.29
592.799	11772.16
593.158	11717.7
593.517	11701.66
593.876	11706.4
594.235	11660.53
594.593	11606.06
594.952	11725.16
595.311	11647.42
595.67	11646.29
596.029	11723.8
596.387	11719.73
596.746	11737.13
597.104	11671.37
597.463	11629.34
597.822	11680.19
598.18	11671.6
598.538	11632.05
598.897	11712.73
599.255	11620.53
599.613	11739.62
599.972	11752.95
600.33	11686.74
600.688	11665.05
601.046	11654.43
601.404	11752.28
601.762	11711.37
602.12	11698.27
602.478	11640.87
602.836	11647.65
603.194	11641.09
603.552	11652.39
603.91	11598.16
604.268	11662.79
604.625	11565.61
604.983	11615.33
605.341	11541.21
605.698	11646.06
606.056	11636.8
606.413	11590.47
606.771	11698.49
607.128	11668.66
607.485	11643.35
607.843	11655.56
608.2	11672.96
608.557	11683.13
608.914	11755.89
609.272	11741.43
609.629	11708.21
609.986	11717.47
610.343	11719.96
610.7	11728.32
611.057	11700.07
611.414	11679.28
611.771	11779.17
612.127	11858.94
612.484	11783.91
612.841	11777.59
613.198	11842.67
613.554	11844.48
613.911	11777.81
614.267	11839.96
614.624	11797.92
614.98	11792.27
615.337	11926.28
615.693	11922.21
616.05	11846.06
616.406	11939.39
616.762	11854.87
617.118	11875.44
617.475	11874.98
617.831	11864.36
618.187	11954.53
618.543	11854.19
618.899	11925.6
619.255	11965.15
619.611	11958.15
619.967	11951.37
620.323	11957.69
620.678	11910.69
621.034	11988.2
621.39	11945.27
621.746	11915.66
622.101	12004.47
622.457	11933.06
622.812	12044.7
623.168	11994.08
623.523	11967.86
623.879	11997.24
624.234	11891.03
624.589	11997.69
624.945	11952.04
625.3	12091.93
625.655	12017.58
626.01	12017.13
626.365	11947.52
626.72	11964.93
627.075	11980.29
627.43	11984.13
627.785	11832.27
628.14	11950.46
628.495	11957.92
628.85	11940.07
629.205	11919.73
629.559	11926.28
629.914	11944.36
630.269	11891.03
630.623	11914.76
630.978	11773.07
631.332	11812.39
631.687	11833.18
632.041	11869.79
632.396	11835.89
632.75	11757.25
633.104	11804.48
633.459	11754.54
633.813	11774.42
634.167	11705.05
634.521	11758.83
634.875	11779.62
635.229	11740.98
635.583	11717.7
635.937	11739.62
636.291	11693.52
636.645	11684.71
636.999	11595.44
637.352	11668.66
637.706	11615.56
638.06	11688.32
638.413	11687.42
638.767	11618.04
639.121	11524.49
639.474	11546.41
639.828	11538.95
640.181	11520.87
640.534	11514.99
640.888	11536.01
641.241	11410.14
641.594	11523.13
641.947	11538.04
642.301	11509.34
642.654	11517.03
643.007	11514.77
643.36	11497.82
643.713	11463.24
644.066	11462.11
644.419	11396.58
644.771	11420.53
645.124	11260.09
645.477	11291.27
645.83	11206.98
646.182	11119.75
646.535	11076.36
646.888	11134.66
647.24	11111.84
647.593	11128.11
647.945	11083.82
648.298	11113.87
648.65	11091.73
649.002	11047.66
649.355	11049.02
649.707	11043.82
650.059	11122.91
650.411	11294.21
650.763	11243.14
651.115	11345.28
651.467	11295.79
651.819	11373.75
652.171	11286.3
652.523	11317.71
652.875	11284.49
653.227	11254.66
653.578	11347.99
653.93	11276.58
654.282	11282.91
654.633	11279.97
654.985	11334.43
655.337	11269.8
655.688	11342.12
656.039	11373.3
656.391	11212.85
656.742	11366.3
657.094	11270.25
657.445	11380.31
657.796	11290.14
658.147	11366.98
658.498	11324.72
658.849	11331.5
659.2	11293.76
659.551	11302.57
659.902	11399.97
660.253	11255.79
660.604	11403.13
660.955	11245.17
661.306	11368.56
661.656	11287.88
662.007	11342.57
662.358	11326.75
662.708	11395.22
663.059	11380.76
663.409	11301.44
663.76	11484.71
664.11	11378.95
664.461	11442.45
664.811	11430.48
665.161	11401.32
665.511	11389.12
665.862	11360.42
666.212	11334.66
666.562	11357.03
666.912	11310.71
667.262	11379.4
667.612	11336.24
667.962	11354.55
668.312	11403.13
668.662	11413.53
669.011	11371.04
669.361	11350.48
669.711	11405.84
670.06	11308.22
670.41	11322.23
670.76	11299.63
671.109	11373.98
671.459	11342.79
671.808	11289.46
672.157	11430.02
672.507	11241.55
672.856	11260.76
673.205	11330.14
673.554	11368.56
673.904	11286.07
674.253	11350.03
674.602	11281.78
674.951	11061.67
675.3	11087.43
675.649	11293.98
675.998	11266.19
676.346	11178.28
676.695	11255.34
677.044	11191.16
677.393	11179.18
677.741	11122.69
678.09	11155.46
678.438	11145.74
678.787	11134.66
679.135	11210.6
679.484	11100.32
679.832	11087.89
680.181	10997.49
680.529	10966.53
680.877	11012.41
681.225	10996.59
681.573	11069.81
681.922	11030.03
682.27	10901.68
682.618	11046.53
682.966	10931.51
683.314	10958.17
683.661	10904.16
684.009	10769.7
684.357	10840.44
684.705	10879.08
685.053	10799.08
685.4	10772.64
685.748	10785.52
686.095	10726.77
686.443	10669.59
686.79	10651.29
687.138	10739.2
687.485	10714.79
687.832	10650.16
688.18	10674.79
688.527	10538.75
688.874	10597.96
689.221	10554.79
689.568	10489.03
689.915	10423.95
690.262	10505.08
690.609	10451.07
690.956	10372.88
691.303	10390.5
691.65	10335.82
691.997	10282.26
692.344	10188.25
692.69	10222.37
693.037	10190.28
693.383	10089.49
693.73	10097.18
694.077	10130.62
694.423	10083.62
694.769	10066.67
695.116	10019.44
695.462	9997.52
695.808	9922.95
696.155	9937.86
696.501	9854.25
696.847	9745.32
697.193	9737.87
697.539	9827.81
697.885	9752.33
698.231	9666
698.577	9667.81
698.923	9696.06
699.269	9623.52
699.614	9638.21
699.96	9574.93
700.306	9529.51
700.651	9467.36
700.997	9486.8
701.342	9423.75
701.688	9441.83
702.033	9331.55
702.379	9281.15
702.724	9302.62
703.069	9286.13
703.415	9194.15
703.76	9216.07
704.105	9200.93
704.45	9167.94
704.795	9123.42
705.14	9094.49
705.485	9023.53
705.83	9002.52
706.175	9064.44
706.52	8941.73
706.865	8958.68
707.209	8893.37
707.554	8830.32
707.899	8862.41
708.243	8870.54
708.588	8831.22
708.932	8727.27
709.277	8769.53
709.621	8781.28
709.966	8749.64
710.31	8706.03
710.654	8669.19
710.998	8653.83
711.342	8665.58
711.687	8634.84
712.031	8605.69
712.375	8577.67
712.719	8551.68
713.063	8563.43
713.407	8576.54
713.75	8482.08
714.094	8530.67
714.438	8498.12
714.782	8492.93
715.125	8411.57
715.469	8422.65
715.812	8406.15
716.156	8365.7
716.499	8370.67
716.843	8427.84
717.186	8329.31
717.53	8339.26
717.873	8356.43
718.216	8334.96
718.559	8305.59
718.902	8266.94
719.246	8279.82
719.589	8255.19
719.932	8275.53
720.275	8272.59
720.617	8235.76
720.96	8191.47
721.303	8217
721.646	8175.19
721.989	8181.97
722.331	8171.35
722.674	8176.55
723.016	8137
723.359	8139.72
723.701	8102.88
724.044	8061.07
724.386	8083.22
724.729	8128.64
725.071	8087.51
725.413	8073.28
725.755	8081.19
726.097	8015.65
726.439	8011.81
726.782	8018.59
727.124	8126.38
727.465	8038.48
727.807	8040.73
728.149	7991.47
728.491	8007.74
728.833	8018.14
729.175	7940.4
729.516	8015.88
729.858	7994.63
730.199	8012.26
730.541	8021.53
730.882	7977.91
731.224	8036.67
731.565	7938.59
731.906	8031.24
732.248	8017.68
732.589	7971.36
732.93	7935.88
733.271	7963.9
733.612	7954.86
733.953	8015.42
734.294	7978.14
734.635	7967.06
734.976	8035.31
735.317	7931.81
735.658	7995.31
735.999	7918.25
736.339	7937.69
736.68	7994.18
737.021	8019.04
737.361	7949.44
737.702	8023.56
738.042	7970.91
738.383	7954.86
738.723	7972.04
739.063	8047.29
739.404	7956.67
739.744	8024.01
740.084	7987.18
740.424	7965.71
740.764	8074.18
741.104	8067.17
741.444	8047.51
741.784	8050
742.124	8079.6
742.464	8068.76
742.804	8150.79
743.143	8153.5
743.483	8143.78
743.823	8178.58
744.162	8187.4
744.502	8222.88
744.841	8254.06
745.181	8331.8
745.52	8334.29
745.86	8394.17
746.199	8368.41
746.538	8418.58
746.877	8513.94
747.216	8513.94
747.556	8559.14
747.895	8589.87
748.234	8642.75
748.573	8661.28
748.911	8734.5
749.25	8810.21
749.589	8844.1
749.928	8934.27
750.267	8979.92
750.605	9026.25
750.944	9068.96
751.283	9137.43
751.621	9227.14
751.96	9249.29
752.298	9405.22
752.636	9561.82
752.975	9537.87
753.313	9658.32
753.651	9811.08
753.989	9776.51
754.327	9961.14
754.666	10027.12
755.004	10202.49
755.342	10316.83
755.679	10482.25
756.017	10560.89
756.355	10681.57
756.693	10743.71
757.031	10924.5
757.368	11000.66
757.706	11151.84
758.044	11392.51
758.381	11483.81
758.719	11606.97
759.056	11798.15
759.394	11910.01
759.731	12007.86
