Data from hue_240_FLMS001491_00100.txt Node
Date: Tue Feb 07 16:36:13 GMT 2017
User: dcchb
Spectrometer: FLMS00149
Trigger mode: 0
Integration Time (sec): 2.000000E-2
Scans to average: 10
Electric dark correction enabled: true
Nonlinearity correction enabled: false
Boxcar width: 0
XAxis mode: Wavelengths
Number of Pixels in Spectrum: 2048
>>>>>Begin Spectral Data<<<<<
341.393	-23.74
341.776	-23.74
342.16	-23.74
342.543	-68.03
342.927	-56.96
343.31	-52.67
343.693	-66.45
344.077	-62.84
344.46	-64.65
344.843	-51.09
345.226	-39.34
345.61	-36.85
345.993	-33.23
346.376	3.6
346.759	9.03
347.142	26.43
347.525	51.06
347.908	52.41
348.291	82.24
348.674	77.95
349.057	104.39
349.44	129.25
349.823	115.92
350.206	159.98
350.588	192.07
350.971	190.26
351.354	204.73
351.737	217.38
352.119	258.28
352.502	248.57
352.884	267.78
353.267	288.79
353.65	272.97
354.032	290.83
354.414	284.95
354.797	299.19
355.179	310.71
355.562	293.31
355.944	368.34
356.326	299.19
356.709	334.67
357.091	306.19
357.473	322.69
357.855	323.59
358.238	326.76
358.62	348
359.002	322.69
359.384	341.9
359.766	315.46
360.148	312.75
360.53	352.29
360.912	304.16
361.294	331.5
361.676	328.34
362.057	328.11
362.439	307.32
362.821	317.49
363.203	306.87
363.584	303.71
363.966	307.1
364.348	304.16
364.729	331.5
365.111	312.97
365.493	296.7
365.874	307.77
366.256	305.74
366.637	331.95
367.019	304.16
367.4	315.01
367.781	310.26
368.163	324.05
368.544	309.13
368.925	318.62
369.306	301.9
369.688	297.61
370.069	281.11
370.45	288.34
370.831	321.56
371.212	300.99
371.593	305.06
371.974	309.58
372.355	317.27
372.736	309.58
373.117	308.9
373.498	304.16
373.879	304.84
374.26	297.61
374.641	311.84
375.021	302.35
375.402	305.97
375.783	305.74
376.163	322.69
376.544	325.4
376.925	305.06
377.305	314.78
377.686	300.09
378.066	327.43
378.447	350.71
378.827	332.18
379.208	315.01
379.588	314.55
379.968	332.18
380.349	331.05
380.729	317.27
381.109	323.59
381.489	350.49
381.87	316.36
382.25	327.89
382.63	333.08
383.01	328.56
383.39	331.05
383.77	323.37
384.15	338.73
384.53	350.71
384.91	349.36
385.29	360.43
385.67	329.69
386.049	343.93
386.429	323.37
386.809	334.21
387.189	355.68
387.568	361.78
387.948	352.97
388.328	362.01
388.707	350.49
389.087	353.87
389.466	346.64
389.846	381.44
390.225	350.26
390.605	351.84
390.984	345.51
391.363	368.79
391.743	370.15
392.122	371.73
392.501	356.36
392.881	354.55
393.26	357.72
393.639	378.73
394.018	390.71
394.397	376.47
394.776	381.44
395.155	386.42
395.534	372.41
395.913	382.8
396.292	385.74
396.671	387.32
397.05	377.38
397.429	387.77
397.808	406.75
398.186	400.65
398.565	381.9
398.944	388
399.323	403.82
399.701	367.89
400.08	397.04
400.458	404.95
400.837	403.37
401.215	411.05
401.594	411.73
401.972	415.12
402.351	423.93
402.729	403.37
403.107	431.16
403.486	434.1
403.864	419.86
404.242	432.52
404.62	430.48
404.999	438.39
405.377	404.95
405.755	448.56
406.133	451.5
406.511	443.59
406.889	450.14
407.267	468.9
407.645	466.87
408.023	445.62
408.401	465.51
408.779	470.71
409.156	478.39
409.534	502.12
409.912	492.63
410.29	506.19
410.667	518.16
411.045	520.42
411.422	518.16
411.8	508.22
412.178	522.68
412.555	533.76
412.933	545.06
413.31	546.86
413.687	561.78
414.065	550.48
414.442	579.41
414.819	551.61
415.197	571.04
415.574	575.56
415.951	578.28
416.328	585.28
416.705	598.16
417.082	582.8
417.46	619.86
417.837	593.87
418.214	640.65
418.591	613.08
418.967	622.57
419.344	619.4
419.721	653.3
420.098	670.25
420.475	660.31
420.852	649.69
421.228	671.38
421.605	679.52
421.982	712.28
422.358	717.71
422.735	728.1
423.111	703.47
423.488	722.45
423.864	724.71
424.241	750.25
424.617	754.99
424.994	772.85
425.37	773.3
425.746	751.38
426.123	770.81
426.499	805.84
426.875	811.72
427.251	815.56
427.627	806.29
428.003	824.37
428.379	833.18
428.756	858.04
429.132	834.77
429.507	863.01
429.883	862.11
430.259	903.69
430.635	883.35
431.011	886.06
431.387	905.05
431.763	915.89
432.138	929.9
432.514	932.62
432.89	953.18
433.265	970.13
433.641	1001.99
434.016	1007.87
434.392	1021.2
434.767	1034.53
435.143	1050.13
435.518	1054.87
435.894	1057.59
436.269	1099.62
436.644	1106.4
437.02	1113.85
437.395	1142.1
437.77	1171.93
438.145	1169.67
438.52	1177.13
438.895	1185.49
439.271	1241.99
439.646	1247.86
440.021	1260.07
440.395	1253.74
440.77	1249.22
441.145	1244.92
441.52	1312.04
441.895	1310.01
442.27	1305.71
442.645	1304.81
443.019	1315.66
443.394	1338.93
443.769	1356.11
444.143	1325.15
444.518	1386.39
444.892	1361.76
445.267	1413.06
445.641	1405.15
446.016	1409.67
446.39	1420.29
446.764	1436.56
447.139	1416.9
447.513	1447.18
447.887	1452.38
448.262	1451.25
448.636	1452.6
449.01	1481.08
449.384	1481.3
449.758	1479.27
450.132	1508.42
450.506	1542.77
450.88	1539.83
451.254	1550.45
451.628	1564.92
452.002	1583
452.376	1592.71
452.75	1624.35
453.123	1612.37
453.497	1652.15
453.871	1607.4
454.244	1679.49
454.618	1673.16
454.992	1726.72
455.365	1721.52
455.739	1749.77
456.112	1779.83
456.486	1772.59
456.859	1808.75
457.232	1827.51
457.606	1805.36
457.979	1853.5
458.352	1877.22
458.725	1894.63
459.099	1909.99
459.472	1928.97
459.845	1960.16
460.218	1960.39
460.591	1989.76
460.964	1992.93
461.337	2023.44
461.71	2067.95
462.083	2098.69
462.456	2086.94
462.829	2091.91
463.201	2145.47
463.574	2135.07
463.947	2163.32
464.32	2232.92
464.692	2233.15
465.065	2237.89
465.438	2261.4
465.81	2324.67
466.183	2301.85
466.555	2365.57
466.928	2382.97
467.3	2360.15
467.672	2425.46
468.045	2465.46
468.417	2494.61
468.789	2500.94
469.161	2516.76
469.534	2603.08
469.906	2624.1
470.278	2648.05
470.65	2674.04
471.022	2714.94
471.394	2739.12
471.766	2787.03
472.138	2799.91
472.51	2847.59
472.882	2840.59
473.253	2899.8
473.625	2921.49
473.997	2952.45
474.369	3013.47
474.74	3040.13
475.112	3123.07
475.484	3160.58
475.855	3174.82
476.227	3213.23
476.598	3270.63
476.97	3313.35
477.341	3382.72
477.713	3428.14
478.084	3440.57
478.455	3456.39
478.827	3533
479.198	3595.82
479.569	3632.66
479.94	3737.74
480.311	3716.95
480.682	3809.15
481.053	3887.57
481.424	3954.23
481.795	3952.65
482.166	4044.4
482.537	4117.17
482.908	4181.8
483.279	4170.95
483.65	4238.74
484.021	4319.87
484.391	4363.03
484.762	4439.87
485.133	4452.07
485.503	4495.69
485.874	4557.38
486.244	4590.37
486.615	4660.2
486.985	4679.18
487.356	4810.03
487.726	4866.75
488.097	4887.09
488.467	4919.63
488.837	4993.98
489.207	5023.81
489.578	5092.73
489.948	5192.39
490.318	5263.12
490.688	5226.74
491.058	5303.8
491.428	5373.86
491.798	5416.34
492.168	5548.99
492.538	5539.73
492.908	5575.43
493.278	5642.55
493.648	5692.72
494.017	5747.18
494.387	5744.47
494.757	5779.72
495.126	5857.68
495.496	5884.58
495.866	5855.2
496.235	5904.46
496.605	6004.12
496.974	6013.61
497.344	6085.02
497.713	6100.62
498.082	6154.85
498.452	6171.8
498.821	6204.79
499.19	6198.92
499.559	6261.97
499.928	6291.12
500.298	6364.34
500.667	6352.81
501.036	6344.68
501.405	6421.51
501.774	6425.81
502.143	6466.26
502.512	6461.06
502.88	6480.04
503.249	6578.57
503.618	6563.43
503.987	6645.23
504.356	6616.08
504.724	6681.17
505.093	6611.11
505.462	6654.95
505.83	6708.28
506.199	6785.12
506.567	6833.25
506.936	6875.51
507.304	6897.66
507.672	6893.59
508.041	6952.12
508.409	6995.96
508.777	7003.19
509.145	7017.43
509.514	7037.31
509.882	7083.87
510.25	7035.28
510.618	7092
510.986	7122.96
511.354	7144.43
511.722	7217.2
512.09	7221.72
512.458	7282.96
512.826	7275.95
513.193	7291.32
513.561	7338.55
513.929	7329.06
514.297	7372
514.664	7426.91
515.032	7427.14
515.4	7460.58
515.767	7479.79
516.135	7503.74
516.502	7393.92
516.869	7586
517.237	7538.54
517.604	7517.3
517.972	7618.09
518.339	7561.14
518.706	7593.46
519.073	7612.67
519.44	7672.78
519.808	7709.61
520.175	7681.37
520.542	7750.97
520.909	7770.63
521.276	7767.92
521.643	7753.91
522.009	7810.63
522.376	7887.01
522.743	7838.2
523.11	7924.3
523.477	7944.18
523.843	7931.53
524.21	7967.46
524.577	8070.06
524.943	8018.76
525.31	8028.25
525.676	8131.3
526.043	8102.37
526.409	8190.05
526.776	8208.36
527.142	8232.99
527.508	8236.15
527.874	8214.91
528.241	8232.09
528.607	8264.18
528.973	8291.75
529.339	8292.88
529.705	8333.55
530.071	8373.33
530.437	8353.89
530.803	8360.22
531.169	8436.15
531.535	8404.06
531.901	8335.81
532.267	8354.79
532.632	8479.54
532.998	8435.92
533.364	8399.99
533.73	8432.53
534.095	8477.96
534.461	8450.84
534.826	8456.03
535.192	8510.95
535.557	8514.11
535.923	8492.64
536.288	8515.47
536.653	8493.32
537.019	8472.98
537.384	8529.71
537.749	8492.64
538.114	8507.11
538.479	8542.13
538.845	8461.23
539.21	8458.97
539.575	8463.04
539.94	8478.86
540.305	8507.33
540.67	8483.83
541.034	8467.33
541.399	8578.74
541.764	8493.77
542.129	8488.8
542.494	8531.96
542.858	8488.8
543.223	8477.5
543.587	8532.64
543.952	8478.86
544.316	8484.73
544.681	8477.5
545.045	8478.18
545.41	8450.61
545.774	8438.86
546.138	8467.33
546.503	8465.98
546.867	8435.24
547.231	8489.03
547.595	8467.11
547.959	8502.81
548.324	8480.21
548.688	8480.67
549.052	8420.33
549.416	8487.9
549.779	8472.08
550.143	8426.2
550.507	8507.11
550.871	8473.44
551.235	8456.26
551.599	8525.64
551.962	8500.55
552.326	8486.54
552.689	8445.87
553.053	8418.97
553.417	8478.18
553.78	8518.86
554.143	8449.93
554.507	8459.42
554.87	8503.27
555.234	8538.52
555.597	8499.42
555.96	8574.9
556.323	8525.19
556.686	8514.56
557.05	8555.02
557.413	8538.52
557.776	8522.7
558.139	8575.13
558.502	8534.22
558.865	8566.09
559.228	8622.81
559.59	8650.15
559.953	8638.85
560.316	8653.32
560.679	8700.1
561.041	8715.91
561.404	8698.29
561.767	8723.15
562.129	8711.4
562.492	8810.83
562.854	8733.09
563.217	8772.64
563.579	8802.24
563.941	8780.09
564.304	8847.89
564.666	8844.73
565.028	8868
565.39	8879.07
565.753	8905.51
566.115	8936.93
566.477	8994.78
566.839	8941.22
567.201	9013.31
567.563	9017.83
567.925	9089.01
568.287	9085.17
568.648	9112.29
569.01	9136.24
569.372	9205.39
569.734	9161.33
570.095	9139.18
570.457	9214.66
570.819	9241.78
571.18	9229.35
571.542	9293.3
571.903	9280.65
572.265	9310.7
572.626	9363.81
572.987	9372.17
573.349	9317.26
573.71	9385.28
574.071	9427.76
574.432	9398.61
574.794	9442.45
575.155	9446.97
575.516	9381.43
575.877	9465.05
576.238	9517.48
576.599	9566.74
576.96	9551.15
577.32	9637.25
577.681	9611.71
578.042	9589.11
578.403	9602.67
578.763	9620.52
579.124	9680.86
579.485	9794.08
579.845	9771.03
580.206	9719.05
580.566	9774.19
580.927	9681.31
581.287	9797.47
581.648	9772.16
582.008	9871.82
582.368	9852.83
582.728	9842.66
583.089	9836.34
583.449	9846.96
583.809	9886.73
584.169	9879.05
584.529	9806.28
584.889	9966.5
585.249	9970.35
585.609	9866.17
585.969	9894.41
586.329	9960.18
586.688	10006.73
587.048	9947.75
587.408	9978.71
587.768	9908.88
588.127	9951.14
588.487	9950.91
588.846	10019.84
589.206	9879.27
589.565	9968.76
589.925	10018.93
590.284	9992.27
590.643	9982.1
591.003	10033.85
591.362	10137.57
591.721	10034.75
592.08	10020.74
592.44	9963.57
592.799	10050.12
593.158	10039.95
593.517	10011.7
593.876	10079.04
594.235	10071.36
594.593	10119.49
594.952	10116.33
595.311	9987.97
595.67	10203.79
596.029	10193.39
596.387	10180.28
596.746	10182.99
597.104	10175.99
597.463	10099.83
597.822	10154.75
598.18	10098.7
598.538	10155.43
598.897	10181.87
599.255	10105.26
599.613	10270.22
599.972	10166.95
600.33	10198.59
600.688	10136.67
601.046	10233.16
601.404	10255.76
601.762	10278.13
602.12	10281.98
602.478	10273.39
602.836	10253.05
603.194	10225.93
603.552	10221.41
603.91	10242.65
604.268	10262.54
604.625	10238.81
604.983	10254.41
605.341	10209.89
605.698	10259.83
606.056	10343.67
606.413	10328.3
606.771	10325.59
607.128	10267.96
607.485	10311.13
607.843	10307.51
608.2	10338.92
608.557	10373.72
608.914	10209.66
609.272	10391.35
609.629	10376.66
609.986	10481.52
610.343	10422.31
610.7	10363.78
611.057	10463.44
611.414	10389.32
611.771	10423.67
612.127	10473.38
612.484	10480.84
612.841	10493.27
613.198	10429.32
613.554	10457.34
613.911	10520.61
614.267	10546.6
614.624	10533.72
614.98	10541.86
615.337	10580.5
615.693	10547.05
616.05	10533.04
616.406	10591.12
616.762	10554.51
617.118	10552.02
617.475	10563.1
617.831	10619.14
618.187	10578.92
618.543	10601.52
618.899	10623.89
619.255	10637.9
619.611	10613.27
619.967	10667.28
620.323	10678.35
620.678	10637.45
621.034	10594.74
621.39	10602.64
621.746	10583.44
622.101	10756.54
622.457	10635.64
622.812	10655.98
623.168	10660.95
623.523	10639.93
623.879	10674.28
624.234	10601.06
624.589	10717.22
624.945	10620.72
625.3	10697.56
625.655	10614.4
626.01	10605.13
626.365	10630.67
626.72	10681.06
627.075	10688.74
627.43	10645.58
627.785	10599.48
628.14	10611.01
628.495	10607.39
628.85	10549.99
629.205	10594.74
629.559	10631.8
629.914	10586.37
630.269	10597.67
630.623	10550.44
630.978	10585.24
631.332	10531.46
631.687	10577.11
632.041	10520.16
632.396	10521.29
632.75	10495.3
633.104	10562.19
633.459	10456.89
633.813	10437
634.167	10495.98
634.521	10477.22
634.875	10462.99
635.229	10431.35
635.583	10371.92
635.937	10483.33
636.291	10392.25
636.645	10381.41
636.999	10328.75
637.352	10413.27
637.706	10358.81
638.06	10351.13
638.413	10320.62
638.767	10413.05
639.121	10334.86
639.474	10270.45
639.828	10255.08
640.181	10286.04
640.534	10186.38
640.888	10187.74
641.241	10173.5
641.594	10242.88
641.947	10219.6
642.301	10206.27
642.654	10240.85
643.007	10189.1
643.36	10166.95
643.713	10125.37
644.066	10171.24
644.419	10067.52
644.771	10063.45
645.124	10047.86
645.477	9953.17
645.83	9941.65
646.182	9884.47
646.535	9854.19
646.888	9887.64
647.24	9767.86
647.593	9836.79
647.945	9736.23
648.298	9738.49
648.65	9697.36
649.002	9673.86
649.355	9770.58
649.707	9757.7
650.059	9779.84
650.411	9908.2
650.763	9898.71
651.115	10039.5
651.467	9936.22
651.819	9925.37
652.171	10044.92
652.523	9980.74
652.875	9959.95
653.227	9895.77
653.578	9935.32
653.93	9886.05
654.282	9882.66
654.633	9944.81
654.985	9918.37
655.337	9900.97
655.688	9853.74
656.039	9927.86
656.391	9880.63
656.742	9834.3
657.094	9945.49
657.445	9919.05
657.796	9941.19
658.147	9888.31
658.498	9940.06
658.849	9849.44
659.2	9861.42
659.551	9874.98
659.902	9993.85
660.253	9894.64
660.604	9943
660.955	9864.13
661.306	9885.6
661.656	9815.1
662.007	9900.74
662.358	9858.71
662.708	9918.14
663.059	9859.84
663.409	9818.71
663.76	9876.79
664.11	9854.19
664.461	9916.11
664.811	9868.2
665.161	9867.3
665.511	9885.6
665.862	9839.05
666.212	9979.16
666.562	9916.11
666.912	9908.2
667.262	9856
667.612	9805.6
667.962	9817.81
668.312	9888.31
668.662	9894.41
669.011	9851.93
669.361	9899.84
669.711	9836.56
670.06	9877.47
670.41	9809.9
670.76	9782.1
671.109	9896.45
671.459	9858.94
671.808	9836.34
672.157	9834.53
672.507	9794.08
672.856	9704.59
673.205	9831.37
673.554	9818.71
673.904	9765.83
674.253	9750.92
674.602	9821.65
674.951	9652.84
675.3	9579.17
675.649	9705.95
675.998	9750.92
676.346	9721.99
676.695	9757.24
677.044	9711.14
677.393	9676.57
677.741	9687.19
678.09	9628.66
678.438	9675.89
678.787	9673.4
679.135	9641.09
679.484	9614.65
679.832	9622.78
680.181	9513.63
680.529	9564.25
680.877	9587.98
681.225	9525.84
681.573	9561.54
681.922	9510.7
682.27	9512.28
682.618	9456.46
682.966	9501.66
683.314	9418.04
683.661	9422.56
684.009	9380.08
684.357	9354.99
684.705	9408.55
685.053	9410.13
685.4	9317.26
685.748	9292.62
686.095	9270.02
686.443	9221.21
686.79	9223.92
687.138	9232.96
687.485	9231.38
687.832	9178.95
688.18	9216.69
688.527	9172.63
688.874	9136.47
689.221	9153.64
689.568	9099.86
689.915	9032.06
690.262	9052.63
690.609	9016.25
690.956	8980.31
691.303	8944.84
691.65	9003.59
691.997	8901.22
692.344	8887.89
692.69	8878.17
693.037	8828
693.383	8810.38
693.73	8837.72
694.077	8747.1
694.423	8792.98
694.769	8723.37
695.116	8705.07
695.462	8720.43
695.808	8576.48
696.155	8628.46
696.501	8607.22
696.847	8549.59
697.193	8491.06
697.539	8554.34
697.885	8540.55
698.231	8421.01
698.577	8433.44
698.923	8418.52
699.269	8369.94
699.614	8384.4
699.96	8309.82
700.306	8274.8
700.651	8304.85
700.997	8202.03
701.342	8180.34
701.688	8190.05
702.033	8158.64
702.379	8120.9
702.724	8114.57
703.069	8126.55
703.415	8041.36
703.76	8042.94
704.105	8023.5
704.45	7979.66
704.795	7973.56
705.14	7931.98
705.485	7952.77
705.83	7979.44
706.175	7905.09
706.52	7864.64
706.865	7852.89
707.209	7830.06
707.554	7799.33
707.899	7816.5
708.243	7700.57
708.588	7749.61
708.932	7732.21
709.277	7628.26
709.621	7654.02
709.966	7614.02
710.31	7608.37
710.654	7564.53
710.998	7585.32
711.342	7565.21
711.687	7625.55
712.031	7537.19
712.375	7455.84
712.719	7513.23
713.063	7508.71
713.407	7469.62
713.75	7439.11
714.094	7414.48
714.438	7429.4
714.782	7404.54
715.125	7361.83
715.469	7371.77
715.812	7348.27
716.156	7372
716.499	7320.7
716.843	7382.39
717.186	7252.9
717.53	7359.57
717.873	7288.38
718.216	7290.64
718.559	7310.75
718.902	7214.94
719.246	7219.68
719.589	7192.34
719.932	7202.06
720.275	7219.46
720.617	7187.59
720.96	7171.55
721.303	7178.1
721.646	7148.95
721.989	7146.92
722.331	7099.69
722.674	7170.19
723.016	7108.27
723.359	7135.39
723.701	7095.17
724.044	7127.93
724.386	7068.05
724.729	7035.96
725.071	7050.65
725.413	7062.4
725.755	7061.27
726.097	7043.87
726.439	6988.95
726.782	7037.54
727.124	7014.94
727.465	7011.1
727.807	7029.63
728.149	6962.29
728.491	6959.58
728.833	6978.56
729.175	6943.76
729.516	6949.63
729.858	6937.88
730.199	6921.39
730.541	6932.91
730.882	6942.18
731.224	7006.81
731.565	6953.7
731.906	6920.93
732.248	6927.71
732.589	6887.94
732.93	6958.67
733.271	6897.88
733.612	6901.95
733.953	6918
734.294	6889.97
734.635	6832.35
734.976	6904.21
735.317	6891.78
735.658	6880.03
735.999	6909.63
736.339	6868.96
736.68	6876.64
737.021	6930.43
737.361	6921.84
737.702	6905.34
738.042	6924.55
738.383	6899.01
738.723	6926.36
739.063	6914.61
739.404	6888.39
739.744	6892.46
740.084	6892.23
740.424	6877.77
740.764	6842.74
741.104	6913.7
741.444	6920.48
741.784	6901.73
742.124	6915.06
742.464	6929.3
742.804	6893.82
743.143	6941.05
743.483	6919.58
743.823	6980.37
744.162	6973.14
744.502	6981.5
744.841	6972.91
745.181	7023.3
745.52	7004.55
745.86	7063.53
746.199	7079.35
746.538	7107.6
746.877	7077.99
747.216	7122.51
747.556	7158.44
747.895	7224.88
748.234	7190.76
748.573	7204.99
748.911	7233.47
749.25	7275.05
749.589	7301.94
749.928	7346.91
750.267	7404.76
750.605	7409.28
750.944	7413.35
751.283	7526.79
751.621	7600.24
751.96	7534.25
752.298	7712.55
752.636	7695.6
752.975	7741.7
753.313	7789.84
753.651	7878.65
753.989	7894.02
754.327	8001.13
754.666	8053.79
755.004	8074.12
755.342	8270.5
755.679	8261.92
756.017	8270.95
756.355	8436.83
756.693	8474.57
757.031	8569.03
757.368	8562.02
757.706	8643.83
758.044	8743.94
758.381	8886.53
758.719	8915.01
759.056	9024.16
759.394	9151.16
759.731	9139.63
760.068	9302.34
760.405	9384.6
760.743	9345.73
761.08	9520.19
761.417	9573.97
761.754	9617.59
762.091	9816
762.428	9808.32
762.765	9922.89
763.102	10077.24
763.438	10071.81
763.775	10155.2
764.112	10274.74
764.449	10414.85
764.785	10538.01
765.122	10414.4
765.458	10484.23
765.795	10575.08
766.131	10731.91
766.467	10719.25
766.804	10751.57
