Data from hue_28_FLMS001491_00069.txt Node
Date: Tue Feb 07 17:17:37 GMT 2017
User: dcchb
Spectrometer: FLMS00149
Trigger mode: 0
Integration Time (sec): 2.000000E-2
Scans to average: 10
Electric dark correction enabled: true
Nonlinearity correction enabled: false
Boxcar width: 0
XAxis mode: Wavelengths
Number of Pixels in Spectrum: 2048
>>>>>Begin Spectral Data<<<<<
341.393	-8.69
341.776	-8.69
342.16	-8.69
342.543	-66.54
342.927	-76.93
343.31	-61.11
343.693	-81
344.077	-59.31
344.46	-45.3
344.843	-63.15
345.226	-52.75
345.61	-26.31
345.993	-22.02
346.376	-9.59
346.759	4.87
347.142	27.25
347.525	51.65
347.908	55.94
348.291	71.99
348.674	99.11
349.057	109.73
349.44	141.37
349.823	140.24
350.206	177.98
350.588	192.66
350.971	203.74
351.354	236.73
351.737	254.81
352.119	241.7
352.502	264.75
352.884	278.76
353.267	292.1
353.65	296.62
354.032	316.28
354.414	320.8
354.797	334.58
355.179	327.58
355.562	319.44
355.944	330.97
356.326	349.72
356.709	349.27
357.091	328.48
357.473	338.42
357.855	359.89
358.238	341.59
358.62	335.71
359.002	346.33
359.384	354.92
359.766	356.05
360.148	334.13
360.53	342.04
360.912	336.16
361.294	348.37
361.676	350.85
362.057	331.42
362.439	333.9
362.821	331.87
363.203	316.73
363.584	333.9
363.966	310.4
364.348	350.17
364.729	349.72
365.111	328.03
365.493	338.65
365.874	317.18
366.256	317.86
366.637	302.27
367.019	315.83
367.4	319.89
367.781	339.55
368.163	321.25
368.544	290.97
368.925	307.46
369.306	348.37
369.688	325.09
370.069	315.6
370.45	335.03
370.831	337.07
371.212	315.83
371.593	317.41
371.974	312.21
372.355	318.76
372.736	314.92
373.117	309.05
373.498	328.93
373.879	326.9
374.26	345.65
374.641	339.1
375.021	318.76
375.402	331.19
375.783	335.94
376.163	338.65
376.544	324.41
376.925	320.8
377.305	321.25
377.686	325.77
378.066	342.72
378.447	328.03
378.827	328.71
379.208	346.78
379.588	332.32
379.968	351.08
380.349	328.03
380.729	349.5
381.109	345.88
381.489	314.47
381.87	333.23
382.25	333.68
382.63	351.53
383.01	340.91
383.39	331.64
383.77	351.53
384.15	346.56
384.53	346.11
384.91	334.81
385.29	345.43
385.67	346.33
386.049	365.99
386.429	355.82
386.809	366.9
387.189	366.67
387.568	346.56
387.948	354.47
388.328	355.37
388.707	345.43
389.087	352.43
389.466	374.35
389.846	357.86
390.225	337.52
390.605	351.98
390.984	381.36
391.363	382.26
391.743	386.11
392.122	362.83
392.501	368.93
392.881	366.45
393.26	386.78
393.639	382.49
394.018	353.11
394.397	365.09
394.776	395.37
395.155	381.13
395.534	385.2
395.913	391.53
396.292	384.3
396.671	392.21
397.05	405.54
397.429	398.31
397.808	402.6
398.186	373
398.565	389.04
398.944	403.73
399.323	401.7
399.701	416.61
400.08	391.08
400.458	373.68
400.837	402.83
401.215	394.69
401.594	397.18
401.972	393.56
402.351	410.51
402.729	402.15
403.107	396.95
403.486	423.84
403.864	413.68
404.242	403.28
404.62	417.52
404.999	397.86
405.377	408.48
405.755	410.74
406.133	424.3
406.511	427.01
406.889	435.82
407.267	431.75
407.645	429.49
408.023	434.24
408.401	444.18
408.779	437.86
409.156	418.2
409.534	431.98
409.912	441.02
410.29	445.77
410.667	433.34
411.045	456.84
411.422	451.64
411.8	452.54
412.178	445.77
412.555	452.77
412.933	464.52
413.31	457.74
413.687	472.88
414.065	464.52
414.442	486.44
414.819	487.12
415.197	506.33
415.574	482.37
415.951	479.21
416.328	488.7
416.705	481.92
417.082	503.62
417.46	487.8
417.837	497.06
418.214	505.2
418.591	491.19
418.967	498.87
419.344	505.65
419.721	507.91
420.098	500
420.475	509.94
420.852	524.41
421.228	509.49
421.605	508.59
421.982	527.57
422.358	516.5
422.735	524.86
423.111	528.02
423.488	536.16
423.864	543.62
424.241	550.17
424.617	564.86
424.994	534.58
425.37	544.52
425.746	564.86
426.123	550.62
426.499	551.07
426.875	550.17
427.251	573.9
427.627	585.65
428.003	562.15
428.379	570.06
428.756	575.03
429.132	594.46
429.507	588.36
429.883	574.35
430.259	621.35
430.635	589.94
431.011	600.11
431.387	631.3
431.763	607.57
432.138	607.57
432.514	615.93
432.89	634.69
433.265	621.35
433.641	654.57
434.016	674.69
434.392	659.54
434.767	660
435.143	659.54
435.518	656.38
435.894	672.65
436.269	653.67
436.644	676.27
437.02	673.56
437.395	686.66
437.77	655.03
438.145	706.55
438.52	698.87
438.895	706.1
439.271	724.85
439.646	741.58
440.021	732.09
440.395	737.28
440.77	727.11
441.145	724.4
441.52	740.45
441.895	744.06
442.27	760.33
442.645	748.58
443.019	740.22
443.394	729.15
443.769	745.19
444.143	782.71
444.518	732.09
444.892	775.02
445.267	786.32
445.641	759.2
446.016	779.99
446.39	780.9
446.764	787.68
447.139	785.42
447.513	806.89
447.887	811.41
448.262	817.28
448.636	817.28
449.01	815.7
449.384	809.37
449.758	812.08
450.132	838.98
450.506	829.94
450.88	821.57
451.254	820.9
451.628	870.39
452.002	865.19
452.376	875.36
452.75	842.59
453.123	859.09
453.497	873.1
453.871	878.97
454.244	897.05
454.618	916.04
454.992	900.22
455.365	888.01
455.739	913.1
456.112	928.46
456.486	929.37
456.859	949.93
457.232	959.65
457.606	965.53
457.979	974.11
458.352	995.81
458.725	991.29
459.099	1014.11
459.472	1033.55
459.845	1039.2
460.218	1040.55
460.591	1029.7
460.964	1050.49
461.337	1055.47
461.71	1076.93
462.083	1092.08
462.456	1096.37
462.829	1112.19
463.201	1115.8
463.574	1127.1
463.947	1135.46
464.32	1135.92
464.692	1187.44
465.065	1159.87
465.438	1199.42
465.81	1185.86
466.183	1228.12
466.555	1250.94
466.928	1236.03
467.3	1226.31
467.672	1249.81
468.045	1273.99
468.417	1281
468.789	1299.08
469.161	1328.23
469.534	1340.43
469.906	1346.08
470.278	1381.11
470.65	1387.21
471.022	1423.14
471.394	1457.72
471.766	1464.72
472.138	1465.85
472.51	1527.77
472.882	1527.77
473.253	1570.93
473.625	1555.34
473.997	1583.36
474.369	1602.12
474.74	1624.27
475.112	1650.93
475.484	1692.96
475.855	1693.19
476.227	1732.28
476.598	1817.71
476.97	1829.91
477.341	1892.28
477.713	1898.38
478.084	1900.42
478.455	1939.29
478.827	1963.01
479.198	2049.34
479.569	2037.59
479.94	2110.81
480.311	2139.28
480.682	2166.17
481.053	2260.86
481.424	2286.62
481.795	2322.55
482.166	2341.53
482.537	2388.09
482.908	2462.89
483.279	2511.7
483.65	2522.77
484.021	2628.76
484.391	2649.32
484.762	2686.84
485.133	2691.13
485.503	2792.6
485.874	2838.02
486.244	2883.44
486.615	2935.87
486.985	2987.85
487.356	3083.44
487.726	3081.18
488.097	3141.51
488.467	3206.14
488.837	3273.26
489.207	3312.81
489.578	3390.55
489.948	3404.11
490.318	3461.73
490.688	3543.54
491.058	3549.41
491.428	3656.53
491.798	3680.71
492.168	3723.19
492.538	3726.13
492.908	3864.66
493.278	3915.28
493.648	3900.82
494.017	3973.81
494.387	4071.43
494.757	4077.08
495.126	4135.61
495.496	4155.5
495.866	4225.55
496.235	4248.38
496.605	4363.85
496.974	4354.14
497.344	4385.77
497.713	4423.29
498.082	4503.06
498.452	4497.64
498.821	4561.82
499.19	4601.14
499.559	4661.02
499.928	4641.81
500.298	4735.82
500.667	4750.06
501.036	4718.87
501.405	4857.17
501.774	4840.23
502.143	4859.66
502.512	4915.25
502.88	4957.51
503.249	4999.54
503.618	5054.23
503.987	5062.14
504.356	5078.86
504.724	5095.81
505.093	5107.79
505.462	5201.12
505.83	5181.91
506.199	5206.77
506.567	5327.9
506.936	5281.8
507.304	5395.01
507.672	5362.25
508.041	5355.24
508.409	5423.49
508.777	5517.5
509.145	5554.78
509.514	5528.57
509.882	5547.1
510.25	5624.39
510.618	5570.15
510.986	5615.8
511.354	5696.7
511.722	5692.18
512.09	5775.34
512.458	5726.53
512.826	5770.14
513.193	5823.93
513.561	5819.18
513.929	5935.79
514.297	5903.02
514.664	5922.23
515.032	5924.72
515.4	5988.22
515.767	6012.4
516.135	6002.68
516.502	5969.01
516.869	6118.38
517.237	6075
517.604	6083.58
517.972	6136.91
518.339	6172.39
518.706	6238.38
519.073	6192.73
519.44	6284.48
519.808	6288.55
520.175	6362.22
520.542	6369.9
520.909	6353.86
521.276	6431.6
521.643	6486.51
522.009	6450.58
522.376	6486.96
522.743	6544.81
523.11	6589.33
523.477	6632.27
523.843	6655.77
524.21	6709.56
524.577	6739.38
524.943	6785.03
525.31	6807.86
525.676	6807.63
526.043	6878.82
526.409	6892.15
526.776	6954.97
527.142	6952.26
527.508	7037
527.874	7062.77
528.241	7094.86
528.607	7144.57
528.973	7141.63
529.339	7156.55
529.705	7198.36
530.071	7304.57
530.437	7300.73
530.803	7369.65
531.169	7391.8
531.535	7396.54
531.901	7391.57
532.267	7404
532.632	7544.56
532.998	7542.75
533.364	7576.88
533.73	7563.54
534.095	7696.65
534.461	7682.64
534.826	7705.91
535.192	7739.13
535.557	7855.29
535.923	7842.63
536.288	7779.36
536.653	7892.12
537.019	7862.07
537.384	7917.21
537.749	7983.42
538.114	7938.45
538.479	8036.3
538.845	7986.13
539.21	7986.13
539.575	8028.16
539.94	8087.15
540.305	8141.61
540.67	8101.61
541.034	8224.09
541.399	8263.86
541.764	8290.3
542.129	8290.53
542.494	8308.38
542.858	8408.72
543.223	8417.31
543.587	8489.62
543.952	8469.06
544.316	8484.65
544.681	8496.63
545.045	8531.2
545.41	8602.61
545.774	8629.73
546.138	8660.46
546.503	8723.97
546.867	8640.13
547.231	8782.72
547.595	8742.27
547.959	8822.95
548.324	8833.57
548.688	8908.82
549.052	8887.35
549.416	8921.02
549.779	8985.65
550.143	8931.64
550.507	9068.36
550.871	9004.41
551.235	9093.22
551.599	9164.41
551.962	9175.48
552.326	9188.81
552.689	9185.87
553.053	9257.74
553.417	9257.06
553.78	9354.46
554.143	9314.01
554.507	9385.19
554.87	9394
555.234	9484.62
555.597	9394.23
555.96	9502.25
556.323	9534.79
556.686	9452.08
557.05	9586.77
557.413	9626.54
557.776	9622.7
558.139	9622.7
558.502	9694.56
558.865	9696.6
559.228	9831.28
559.59	9797.84
559.953	9865.63
560.316	9928
560.679	9928
561.041	9963.03
561.404	10058.39
561.767	9936.81
562.129	10043.25
562.492	10116.47
562.854	10086.64
563.217	10054.55
563.579	10104.04
563.941	10252.51
564.304	10272.17
564.666	10322.79
565.028	10295.22
565.39	10288.44
565.753	10421.1
566.115	10470.36
566.477	10500.64
566.839	10544.48
567.201	10568.44
567.563	10551.71
567.925	10647.3
568.287	10621.09
568.648	10657.7
569.01	10744.7
569.372	10816.11
569.734	10714.87
570.095	10828.77
570.457	10850.92
570.819	10922.78
571.18	10966.39
571.542	10989.67
571.903	11128.65
572.265	11160.06
572.626	11154.86
572.987	11196.67
573.349	11277.8
573.71	11364.35
574.071	11414.97
574.432	11479.6
574.794	11569.31
575.155	11621.74
575.516	11573.83
575.877	11757.56
576.238	11833.04
576.599	11904.9
576.96	12033.71
577.32	12035.97
577.681	12166.13
578.042	12216.98
578.403	12378.33
578.763	12502.17
579.124	12519.57
579.485	12708.72
579.845	12885.21
580.206	12917.75
580.566	13004.98
580.927	13117.97
581.287	13331.75
581.648	13434.35
582.008	13596.38
582.368	13744.4
582.728	13868.69
583.089	14077.05
583.449	14238.4
583.809	14398.84
584.169	14553.42
584.529	14697.59
584.889	14988.43
585.249	15062.56
585.609	15162.44
585.969	15542.77
586.329	15724.91
586.688	15874.96
587.048	16147.05
587.408	16361.5
587.768	16688.5
588.127	16886.24
588.487	17049.62
588.846	17437.63
589.206	17461.14
589.565	17891.86
589.925	18127.11
590.284	18411.62
590.643	18730.26
591.003	18988.55
591.362	19287.53
591.721	19576.79
592.08	19886.84
592.44	20155.76
592.799	20406.37
593.158	20603.88
593.517	20863.31
593.876	21221.72
594.235	21466.23
594.593	21792.55
594.952	22140.34
595.311	22328.13
595.67	22677.27
596.029	23042.69
596.387	23417.82
596.746	23659.17
597.104	23886.73
597.463	24162.2
597.822	24528.3
598.18	24845.35
598.538	25067.72
598.897	25469.06
599.255	25623.18
599.613	26109.95
599.972	26249.38
600.33	26554.68
600.688	26850.04
601.046	27212.07
601.404	27482.79
601.762	27734.77
602.12	28223.79
602.478	28321.87
602.836	28626.27
603.194	28787.39
603.552	29067.39
603.91	29179.47
604.268	29737.88
604.625	29767.93
604.983	30148.03
605.341	30243.63
605.698	30575.37
606.056	30914.79
606.413	31153.66
606.771	31352.98
607.128	31519.98
607.485	31696.24
607.843	31943.24
608.2	32378.26
608.557	32604.92
608.914	32804.91
609.272	32982.76
609.629	33157.22
609.986	33457.78
610.343	33601.5
610.7	33960.82
611.057	34078.1
611.414	34148.38
611.771	34497.53
612.127	34882.6
612.484	34883.5
612.841	35206.21
613.198	35281.23
613.554	35528.68
613.911	35726.65
614.267	35787.66
614.624	36078.27
614.98	36180.19
615.337	36420.41
615.693	36522.33
616.05	36605.94
616.406	37045.48
616.762	36974.52
617.118	37186.04
617.475	37315.08
617.831	37542.64
618.187	37631.91
618.543	37692.02
618.899	37954.38
619.255	38021.05
619.611	38207.03
619.967	38341.04
620.323	38430.76
620.678	38422.39
621.034	38527.7
621.39	38662.16
621.746	38644.08
622.101	39207.68
622.457	38893.79
622.812	39007.01
623.168	39263.5
623.523	39364.97
623.879	39522.03
624.234	39304.63
624.589	39630.72
624.945	39610.84
625.3	39739.65
625.655	39875.91
626.01	39994.1
626.365	39919.3
626.72	40012.41
627.075	40062.58
627.43	40063.25
627.785	40045.18
628.14	40366.07
628.495	40253.08
628.85	40436.8
629.205	40277.26
629.559	40542.34
629.914	40513.41
630.269	40665.27
630.623	40662.33
630.978	40461.89
631.332	40643.58
631.687	40815.33
632.041	40557.48
632.396	40755.89
632.75	40628.66
633.104	40879.96
633.459	40564.94
633.813	40632.96
634.167	40598.38
634.521	40616.23
634.875	40749.34
635.229	40772.84
635.583	40550.93
635.937	40550.93
636.291	40658.27
636.645	40697.36
636.999	40693.29
637.352	40807.42
637.706	40686.51
638.06	40747.08
638.413	40703.24
638.767	40717.02
639.121	40672.28
639.474	40487.2
639.828	40550.47
640.181	40582.11
640.534	40528.1
640.888	40562.68
641.241	40359.29
641.594	40505.28
641.947	40654.2
642.301	40460.98
642.654	40493.98
643.007	40577.82
643.36	40534.65
643.713	40559.29
644.066	40791.37
644.419	40435.9
644.771	40087.43
645.124	39841.11
645.477	39832.53
645.83	39610.16
646.182	39467.56
646.535	39334.23
646.888	39527.22
647.24	39235.03
647.593	39528.13
647.945	39446.32
648.298	39256.95
648.65	39216.95
649.002	39267.57
649.355	39428.69
649.707	39302.14
650.059	39475.93
650.411	39836.14
650.763	39786.88
651.115	40231.16
651.467	40116.59
651.819	40162.69
652.171	40084.95
652.523	40090.15
652.875	40032.97
653.227	39830.27
653.578	40142.12
653.93	39971.96
654.282	39899.64
654.633	39825.97
654.985	40027.55
655.337	39996.14
655.688	40024.16
656.039	40126.08
656.391	39834.56
656.742	39884.28
657.094	39862.81
657.445	40069.58
657.796	40003.37
658.147	39759.53
658.498	39897.84
658.849	39969.02
659.2	39909.13
659.551	39702.59
659.902	39956.59
660.253	39890.15
660.604	39945.52
660.955	39690.38
661.306	39890.38
661.656	39784.17
662.007	39811.06
662.358	39915.01
662.708	39632.31
663.059	39669.14
663.409	39518.18
663.76	39941
664.11	39870.27
664.461	39767.67
664.811	39769.48
665.161	39821.23
665.511	39659.2
665.862	39740.1
666.212	39844.28
666.562	39845.63
666.912	39620.1
667.262	39517.96
667.612	39558.86
667.962	39717.27
668.312	39657.39
668.662	39744.84
669.011	39559.76
669.361	39615.58
669.711	39682.47
670.06	39457.17
670.41	39502.14
670.76	39555.47
671.109	39614.23
671.459	39564.51
671.808	39485.42
672.157	39602.93
672.507	39263.28
672.856	39314.35
673.205	39380.56
673.554	39617.39
673.904	39424.4
674.253	39657.84
674.602	39559.31
674.951	38880.69
675.3	38817.19
675.649	39402.25
675.998	39361.8
676.346	39318.87
676.695	39477.51
677.044	39061.25
677.393	39270.73
677.741	39424.85
678.09	39264.41
678.438	39139.66
678.787	39132.66
679.135	39218.76
679.484	38936.73
679.832	39081.81
680.181	38822.16
680.529	39035.48
680.877	38871.65
681.225	38797.3
681.573	39001.14
681.922	38775.6
682.27	38609.28
682.618	38602.28
682.966	38476.18
683.314	38659.9
683.661	38585.33
684.009	38420.59
684.357	38308.27
684.705	38243.87
685.053	38367.03
685.4	38219.69
685.748	38120.25
686.095	38052.69
686.443	38121.16
686.79	37999.81
687.138	38083.42
687.485	38040.26
687.832	37884.33
688.18	38005
688.527	37814.95
688.874	37738.12
689.221	37746.25
689.568	37602.3
689.915	37468.75
690.262	37507.39
690.609	37348.75
690.956	37256.77
691.303	37225.81
691.65	36934.07
691.997	37001.87
692.344	36809.55
692.69	36713.29
693.037	36778.6
693.383	36429.45
693.73	36653.63
694.077	36347.42
694.423	36328.21
694.769	36234.88
695.116	36150.81
695.462	36127.54
695.808	36041.21
696.155	36021.33
696.501	35690.49
696.847	35805.74
697.193	35565.29
697.539	35670.83
697.885	35440.55
698.231	35457.5
698.577	35481.91
698.923	35469.7
699.269	35223.61
699.614	35032.2
699.96	34919.21
700.306	34970.96
700.651	34827.01
700.997	34723.96
701.342	34677.41
701.688	34703.17
702.033	34486.68
702.379	34562.83
702.724	34414.36
703.069	34488.03
703.415	34194.93
703.76	34223.86
704.105	34144.99
704.45	33980.02
704.795	33858.45
705.14	33772.8
705.485	33658.68
705.83	33592.46
706.175	33544.78
706.52	33434.28
706.865	33402.19
707.209	33399.25
707.554	33299.36
707.899	33365.8
708.243	33129.88
708.588	33132.14
708.932	32944.8
709.277	32958.13
709.621	32966.27
709.966	32711.58
710.31	32766.5
710.654	32402.21
710.998	32540.06
711.342	32607.63
711.687	32488.99
712.031	32400.18
712.375	32252.84
712.719	32190.92
713.063	32222.33
713.407	32243.8
713.75	32114.54
714.094	32098.72
714.438	31880.19
714.782	31928.55
715.125	31792.29
715.469	31863.7
715.812	31650.14
716.156	31520.43
716.499	31548.68
716.843	31564.27
717.186	31352.3
717.53	31549.35
717.873	31421.9
718.216	31422.35
718.559	31296.03
718.902	31089.48
719.246	31204.96
719.589	31005.41
719.932	30834.8
720.275	31012.19
720.617	30943.04
720.96	30816.27
721.303	30836.6
721.646	30727.91
721.989	30676.83
722.331	30698.98
722.674	30594.35
723.016	30534.47
723.359	30552.77
723.701	30635.71
724.044	30301.93
724.386	30269.39
724.729	30334.47
725.071	30369.05
725.413	30219.22
725.755	30217.41
726.097	30002.95
726.439	30019.22
726.782	29884.77
727.124	30070.07
727.465	30033.69
727.807	30003.86
728.149	29758.67
728.491	29934.48
728.833	29847.93
729.175	29753.7
729.516	29637.77
729.858	29630.08
730.199	29699.69
730.541	29629.86
730.882	29520.25
731.224	29595.73
731.565	29343.99
731.906	29507.37
732.248	29513.93
732.589	29339.02
732.93	29241.62
733.271	29169.3
733.612	29219.47
733.953	29205.23
734.294	29088.85
734.635	29011.34
734.976	29060.38
735.317	28948.97
735.658	28885.47
735.999	28934.96
736.339	28951
736.68	29022.87
737.021	28804.79
737.361	28589.43
737.702	28865.81
738.042	28654.74
738.383	28624.23
738.723	28696.55
739.063	28498.36
739.404	28562.09
739.744	28478.7
740.084	28287.07
740.424	28508.08
740.764	28328.87
741.104	28483.45
741.444	28225.83
741.784	28143.34
742.124	28301.76
742.464	28221.76
742.804	28130.01
743.143	28087.07
743.483	28087.98
743.823	27985.38
744.162	28050.69
744.502	27951.26
744.841	27936.79
745.181	27909
745.52	27832.39
745.86	27861.77
746.199	27866.97
746.538	27713.07
746.877	27789.23
747.216	27792.62
747.556	27763.92
747.895	27709.68
748.234	27576.8
748.573	27589.01
748.911	27558.72
749.25	27543.36
749.589	27497.03
749.928	27411.61
750.267	27432.17
750.605	27295.91
750.944	27241.67
751.283	27169.81
751.621	27294.32
751.96	27148.79
752.298	27193.54
752.636	27066.08
752.975	26971.4
753.313	26952.41
753.651	27108.34
753.989	26920.78
754.327	26768.69
754.666	26701.35
755.004	26672.42
755.342	26720.1
755.679	26651.63
756.017	26524.4
756.355	26579.09
756.693	26466.55
757.031	26400.34
757.368	26292.77
757.706	26261.81
758.044	26197.63
758.381	26279.89
758.719	26083.96
759.056	26077.18
759.394	25930.29
759.731	25846.68
760.068	25863.18
