Data from hue_280_FLMS001491_00082.txt Node
Date: Tue Feb 07 15:55:54 GMT 2017
User: dcchb
Spectrometer: FLMS00149
Trigger mode: 0
Integration Time (sec): 2.000000E-2
Scans to average: 10
Electric dark correction enabled: true
Nonlinearity correction enabled: false
Boxcar width: 0
XAxis mode: Wavelengths
Number of Pixels in Spectrum: 2048
>>>>>Begin Spectral Data<<<<<
341.393	12.47
341.776	12.47
342.16	12.47
342.543	-56.91
342.927	-78.37
343.31	-66.4
343.693	-57.58
344.077	-45.61
344.46	-58.26
344.843	-55.55
345.226	-31.6
345.61	-39.96
345.993	-41.54
346.376	-1.99
346.759	2.08
347.142	45.24
347.525	44.56
347.908	44.11
348.291	70.77
348.674	77.78
349.057	113.94
349.44	123.88
349.823	137.89
350.206	165.69
350.588	193.48
350.971	193.71
351.354	216.99
351.737	205.91
352.119	262.41
352.502	259.24
352.884	279.36
353.267	280.04
353.65	285.68
354.032	287.72
354.414	295.63
354.797	286.81
355.179	335.4
355.562	316.42
355.944	313.71
356.326	320.49
356.709	326.14
357.091	342.86
357.473	322.07
357.855	322.07
358.238	323.2
358.62	333.37
359.002	325.91
359.384	342.41
359.766	344.21
360.148	356.42
360.53	344.89
360.912	343.31
361.294	332.01
361.676	316.87
362.057	337.89
362.439	322.97
362.821	326.59
363.203	336.08
363.584	323.42
363.966	326.81
364.348	335.63
364.729	317.77
365.111	308.51
365.493	318.9
365.874	314.38
366.256	292.92
366.637	309.86
367.019	314.61
367.4	311.22
367.781	303.09
368.163	306.02
368.544	318
368.925	316.64
369.306	327.27
369.688	294.72
370.069	301.5
370.45	295.63
370.831	312.8
371.212	321.62
371.593	290.2
371.974	301.05
372.355	294.5
372.736	327.72
373.117	305.35
373.498	321.62
373.879	292.46
374.26	298.11
374.641	306.25
375.021	311.9
375.402	303.54
375.783	332.01
376.163	301.96
376.544	315.97
376.925	334.5
377.305	320.03
377.686	325.46
378.066	341.5
378.447	327.94
378.827	349.41
379.208	321.39
379.588	319.36
379.968	321.84
380.349	318.23
380.729	324.55
381.109	338.11
381.489	330.2
381.87	330.43
382.25	328.17
382.63	321.39
383.01	348.51
383.39	320.49
383.77	355.29
384.15	334.04
384.53	358
384.91	313.03
385.29	348.73
385.67	359.35
386.049	348.06
386.429	348.28
386.809	355.97
387.189	338.56
387.568	354.16
387.948	337.21
388.328	341.28
388.707	382.41
389.087	373.14
389.466	353.48
389.846	352.35
390.225	367.94
390.605	358.9
390.984	353.25
391.363	360.26
391.743	366.13
392.122	381.95
392.501	349.41
392.881	382.41
393.26	386.25
393.639	380.37
394.018	368.39
394.397	379.92
394.776	366.59
395.155	371.33
395.534	371.11
395.913	384.67
396.292	361.39
396.671	370.65
397.05	383.54
397.429	399.81
397.808	373.82
398.186	402.07
398.565	404.78
398.944	421.27
399.323	415.4
399.701	408.62
400.08	420.82
400.458	422.86
400.837	404.1
401.215	421.73
401.594	421.05
401.972	405.23
402.351	398.68
402.729	404.55
403.107	431.44
403.486	437.77
403.864	435.51
404.242	435.74
404.62	446.13
404.999	427.15
405.377	434.61
405.755	451.1
406.133	432.12
406.511	435.74
406.889	450.2
407.267	466.02
407.645	468.5
408.023	483.87
408.401	483.65
408.779	485.23
409.156	479.13
409.534	503.98
409.912	490.88
410.29	489.3
410.667	504.44
411.045	497.88
411.422	509.86
411.8	529.52
412.178	545.34
412.555	547.6
412.933	531.78
413.31	533.14
413.687	581.04
414.065	544.21
414.442	515.28
414.819	578.78
415.197	551.44
415.574	583.98
415.951	579.69
416.328	595.96
416.705	583.08
417.082	594.38
417.46	605.45
417.837	633.25
418.214	639.8
418.591	631.21
418.967	649.52
419.344	640.7
419.721	670.53
420.098	668.73
420.475	660.36
420.852	671.44
421.228	694.71
421.605	682.96
421.982	705.56
422.358	701.27
422.735	706.69
423.111	722.74
423.488	741.27
423.864	717.31
424.241	738.55
424.617	742.85
424.994	754.82
425.37	783.07
425.746	763.41
426.123	783.3
426.499	812.45
426.875	786.01
427.251	817.65
427.627	821.72
428.003	823.98
428.379	859
428.756	831.43
429.132	859.23
429.507	853.13
429.883	880.02
430.259	881.15
430.635	877.53
431.011	910.98
431.387	927.02
431.763	945.33
432.138	952.11
432.514	958.66
432.89	1008.15
433.265	985.33
433.641	995.04
434.016	990.52
434.392	1035.04
434.767	1040.92
435.143	1054.03
435.518	1056.74
435.894	1074.14
436.269	1084.76
436.644	1092.67
437.02	1116.62
437.395	1142.61
437.77	1148.49
438.145	1141.93
438.52	1158.66
438.895	1187.81
439.271	1173.57
439.646	1212.89
440.021	1222.16
440.395	1223.96
440.77	1223.96
441.145	1230.29
441.52	1256.73
441.895	1256.73
442.27	1279.1
442.645	1250.63
443.019	1282.04
443.394	1296.96
443.769	1312.55
444.143	1314.13
444.518	1325.21
444.892	1320.46
445.267	1324.75
445.641	1322.95
446.016	1339.89
446.39	1364.07
446.764	1371.53
447.139	1367.69
447.513	1355.94
447.887	1365.88
448.262	1373.57
448.636	1400.46
449.01	1399.1
449.384	1422.38
449.758	1416.73
450.132	1437.97
450.506	1428.71
450.88	1459.67
451.254	1433.23
451.628	1456.05
452.002	1487.46
452.376	1500.12
452.75	1509.83
453.123	1517.06
453.497	1521.13
453.871	1529.04
454.244	1558.42
454.618	1582.37
454.992	1588.93
455.365	1597.06
455.739	1631.64
456.112	1616.5
456.486	1618.08
456.859	1645.42
457.232	1650.39
457.606	1663.28
457.979	1675.93
458.352	1707.12
458.725	1697.62
459.099	1726.55
459.472	1719.55
459.845	1762.93
460.218	1741.24
460.591	1742.37
460.964	1783.5
461.337	1821.69
461.71	1832.54
462.083	1864.17
462.456	1851.52
462.829	1851.07
463.201	1874.12
463.574	1890.39
463.947	1926.77
464.32	1963.83
464.692	1937.39
465.065	1974
465.438	1963.38
465.81	2033.89
466.183	2044.06
466.555	2055.36
466.928	2038.41
467.3	2023.04
467.672	2109.59
468.045	2124.05
468.417	2118.63
468.789	2134
469.161	2151.62
469.534	2190.27
469.906	2202.24
470.278	2208.12
470.65	2235.92
471.022	2256.71
471.394	2295.58
471.766	2290.6
472.138	2331.96
472.51	2383.03
472.882	2417.15
473.253	2413.31
473.625	2411.28
473.997	2477.49
474.369	2504.84
474.74	2515
475.112	2559.52
475.484	2582.35
475.855	2603.36
476.227	2630.71
476.598	2651.5
476.97	2686.98
477.341	2743.93
477.713	2748.22
478.084	2794.55
478.455	2831.15
478.827	2866.86
479.198	2927.2
479.569	2938.5
479.94	2978.04
480.311	2981.43
480.682	3025.73
481.053	3124.03
481.424	3081.09
481.795	3131.49
482.166	3178.04
482.537	3191.14
482.908	3237.25
483.279	3261.65
483.65	3308.66
484.021	3371.93
484.391	3382.33
484.762	3384.81
485.133	3383
485.503	3468.65
485.874	3524.92
486.244	3550.68
486.615	3581.87
486.985	3622.32
487.356	3645.37
487.726	3691.02
488.097	3742.77
488.467	3738.7
488.837	3803.78
489.207	3842.2
489.578	3863.67
489.948	3898.7
490.318	3950
490.688	3941.86
491.058	3991.8
491.428	4031.57
491.798	4093.49
492.168	4120.61
492.538	4093.95
492.908	4181.85
493.278	4199.48
493.648	4172.59
494.017	4265.24
494.387	4261.63
494.757	4349.08
495.126	4358.12
495.496	4357.22
495.866	4376.65
496.235	4382.98
496.605	4408.74
496.974	4404.22
497.344	4443.77
497.713	4462.07
498.082	4516.53
498.452	4544.33
498.821	4555.85
499.19	4549.08
499.559	4626.59
499.928	4626.14
500.298	4629.98
500.667	4639.47
501.036	4650.54
501.405	4685.79
501.774	4713.59
502.143	4700.26
502.512	4727.83
502.88	4774.38
503.249	4749.07
503.618	4787.49
503.987	4807.15
504.356	4799.01
504.724	4810.76
505.093	4807.6
505.462	4857.99
505.83	4901.16
506.199	4888.73
506.567	4953.81
506.936	4959.69
507.304	5010.08
507.672	5015.05
508.041	5004.43
508.409	5011.89
508.777	5039.23
509.145	5082.85
509.514	5025.67
509.882	5048.95
510.25	5109.06
510.618	5092.34
510.986	5090.3
511.354	5095.05
511.722	5136.63
512.09	5234.93
512.458	5182.96
512.826	5228.15
513.193	5200.81
513.561	5232.22
513.929	5269.96
514.297	5260.7
514.664	5296.17
515.032	5321.71
515.4	5314.48
515.767	5393.57
516.135	5277.64
516.502	5304.76
516.869	5417.53
517.237	5394.02
517.604	5399
517.972	5389.05
518.339	5447.58
518.706	5453.23
519.073	5424.76
519.44	5468.37
519.808	5451.65
520.175	5494.14
520.542	5500.24
520.909	5516.06
521.276	5486.23
521.643	5583.62
522.009	5528.71
522.376	5585.21
522.743	5647.13
523.11	5639.44
523.477	5680.8
523.843	5701.81
524.21	5720.8
524.577	5765.54
524.943	5768.93
525.31	5711.3
525.676	5787.23
526.043	5805.99
526.409	5871.3
526.776	5914.92
527.142	5880.57
527.508	5867.91
527.874	5981.58
528.241	5945.87
528.607	5943.16
528.973	5987.46
529.339	6005.99
529.705	6033.1
530.071	6049.6
530.437	6045.53
530.803	6091.86
531.169	6077.17
531.535	6090.05
531.901	6154.46
532.267	6162.14
532.632	6140.22
532.998	6172.31
533.364	6193.33
533.73	6184.29
534.095	6275.58
534.461	6224.06
534.826	6238.75
535.192	6251.63
535.557	6271.29
535.923	6255.92
536.288	6322.36
536.653	6288.46
537.019	6269.71
537.384	6314
537.749	6362.36
538.114	6345.86
538.479	6379.76
538.845	6407.11
539.21	6401.23
539.575	6454.34
539.94	6428.57
540.305	6450.04
540.67	6389.93
541.034	6479.19
541.399	6484.84
541.764	6484.62
542.129	6506.31
542.494	6513.77
542.858	6578.17
543.223	6544.96
543.587	6546.99
543.952	6536.37
544.316	6580.89
544.681	6558.06
545.045	6556.48
545.41	6613.88
545.774	6672.18
546.138	6614.33
546.503	6661.34
546.867	6636.7
547.231	6732.29
547.595	6704.5
547.959	6734.1
548.324	6700.43
548.688	6739.07
549.052	6723.03
549.416	6765.51
549.779	6758.06
550.143	6821.56
550.507	6826.53
550.871	6843.7
551.235	6779.3
551.599	6823.14
551.962	6866.08
552.326	6843.03
552.689	6931.16
553.053	6860.2
553.417	6820.2
553.78	6941.1
554.143	6898.39
554.507	6935.45
554.87	6909.47
555.234	6992.4
555.597	6960.09
555.96	6964.61
556.323	7008.9
556.686	6986.75
557.05	7030.14
557.413	7024.49
557.776	7069.69
558.139	7092.29
558.502	7124.83
558.865	7123.24
559.228	7176.12
559.59	7201.89
559.953	7115.56
560.316	7203.92
560.679	7266.74
561.041	7233.3
561.404	7278.72
561.767	7305.16
562.129	7256.57
562.492	7340.87
562.854	7371.15
563.217	7364.82
563.579	7309.45
563.941	7450.69
564.304	7432.39
564.666	7510.81
565.028	7447.98
565.39	7509.68
565.753	7537.7
566.115	7569.33
566.477	7617.92
566.839	7606.4
567.201	7697.69
567.563	7708.09
567.925	7698.37
568.287	7716.22
568.648	7736.56
569.01	7752.38
569.372	7813.4
569.734	7774.75
570.095	7907.86
570.457	7935.43
570.819	7891.81
571.18	7940.4
571.542	7975.65
571.903	7993.96
572.265	8019.94
572.626	8057.91
572.987	8067.63
573.349	8125.48
573.71	8117.12
574.071	8151.92
574.432	8272.59
574.794	8248.41
575.155	8253.84
575.516	8228.75
575.877	8365.25
576.238	8328.86
576.599	8367.73
576.96	8408.18
577.32	8477.56
577.681	8510.33
578.042	8536.32
578.403	8449.09
578.763	8585.58
579.124	8675.97
579.485	8694.5
579.845	8714.84
580.206	8713.49
580.566	8768.63
580.927	8807.95
581.287	8831.22
581.648	8931.33
582.008	8979.02
582.368	9035.96
582.728	9102.4
583.089	9089.29
583.449	9113.48
583.809	9198.22
584.169	9229.63
584.529	9296.3
584.889	9364.32
585.249	9361.15
585.609	9388.95
585.969	9546.68
586.329	9550.07
586.688	9582.39
587.048	9616.51
587.408	9713.69
587.768	9776.96
588.127	9787.81
588.487	9811.31
588.846	9958.65
589.206	9943.96
589.565	10030.51
589.925	10140.11
590.284	10179.66
590.643	10230.51
591.003	10396.15
591.362	10404.06
591.721	10462.14
592.08	10474.12
592.44	10577.62
592.799	10641.34
593.158	10730.16
593.517	10797.5
593.876	10863.71
594.235	10741.45
594.593	10871.17
594.952	10980.77
595.311	11070.49
595.67	11113.2
596.029	11237.71
596.387	11280.2
596.746	11303.25
597.104	11406.97
597.463	11452.85
597.822	11546.63
598.18	11454.88
598.538	11541.66
598.897	11674.54
599.255	11588.66
599.613	11933.51
599.972	11760.41
600.33	11839.73
600.688	11863.91
601.046	11913.63
601.404	12020.74
601.762	12097.35
602.12	12191.36
602.478	12127.18
602.836	12203.56
603.194	12196.33
603.552	12246.73
603.91	12263.9
604.268	12373.05
604.625	12348.42
604.983	12497.57
605.341	12422.31
605.698	12494.4
606.056	12581.41
606.413	12641.74
606.771	12736.43
607.128	12677.22
607.485	12693.04
607.843	12715.19
608.2	12752.48
608.557	12840.83
608.914	12870.66
609.272	12959.02
609.629	12988.85
609.986	12969.87
610.343	12995.63
610.7	13136.42
611.057	13085.35
611.414	13100.49
611.771	13187.72
612.127	13195.18
612.484	13200.6
612.841	13323.99
613.198	13260.26
613.554	13321.27
613.911	13332.8
614.267	13329.64
614.624	13331.44
614.98	13417.99
615.337	13456.19
615.693	13427.03
616.05	13487.37
616.406	13534.6
616.762	13537.31
617.118	13517.43
617.475	13590.87
617.831	13561.95
618.187	13613.24
618.543	13693.92
618.899	13821.37
619.255	13765.56
619.611	13696.18
619.967	13768.72
620.323	13838.1
620.678	13775.73
621.034	13789.06
621.39	13753.35
621.746	13716.07
622.101	13975.04
622.457	13896.85
622.812	13945.21
623.168	13928.26
623.523	13900.47
623.879	13940.24
624.234	13840.36
624.589	13960.81
624.945	13927.59
625.3	13974.14
625.655	13999
626.01	13921.48
626.365	13994.7
626.72	13932.78
627.075	13973.46
627.43	13990.63
627.785	13978.21
628.14	13986.79
628.495	13931.88
628.85	13992.44
629.205	13954.25
629.559	13975.72
629.914	13898.66
630.269	14017.98
630.623	13881.71
630.978	13938.43
631.332	13931.43
631.687	14004.65
632.041	13892.33
632.396	13997.19
632.75	13894.37
633.104	13953.57
633.459	13925.33
633.813	13909.51
634.167	13784.31
634.521	13831.32
634.875	13801.71
635.229	13780.02
635.583	13769.85
635.937	13812.33
636.291	13755.61
636.645	13779.34
636.999	13676.07
637.352	13695.95
637.706	13619.8
638.06	13718.55
638.413	13726.69
638.767	13694.6
639.121	13651.89
639.474	13654.82
639.828	13634.49
640.181	13674.49
640.534	13688.72
640.888	13556.97
641.241	13623.19
641.594	13650.08
641.947	13644.2
642.301	13558.1
642.654	13595.39
643.007	13683.52
643.36	13615.96
643.713	13588.16
644.066	13619.57
644.419	13506.13
644.771	13434.94
645.124	13322.18
645.477	13354.72
645.83	13243.08
646.182	13172.13
646.535	13135.29
646.888	13226.59
647.24	13127.38
647.593	13172.13
647.945	13131
648.298	13142.75
648.65	13138
649.002	13013.71
649.355	13169.64
649.707	13088.96
650.059	13162.63
650.411	13422.51
650.763	13382.74
651.115	13474.04
651.467	13398.11
651.819	13490.99
652.171	13506.13
652.523	13475.85
652.875	13438.79
653.227	13398.11
653.578	13455.28
653.93	13487.6
654.282	13343.65
654.633	13343.19
654.985	13408.05
655.337	13478.33
655.688	13421.38
656.039	13518.33
656.391	13417.77
656.742	13463.42
657.094	13483.3
657.445	13518.56
657.796	13507.26
658.147	13438.11
658.498	13505.68
658.849	13526.47
659.2	13466.81
659.551	13406.02
659.902	13441.04
660.253	13511.55
660.604	13514.49
660.955	13441.5
661.306	13506.35
661.656	13414.38
662.007	13518.11
662.358	13526.92
662.708	13457.32
663.059	13480.37
663.409	13408.96
663.76	13556.75
664.11	13596.97
664.461	13570.31
664.811	13500.03
665.161	13593.36
665.511	13507.48
665.862	13498.44
666.212	13662.73
666.562	13582.28
666.912	13577.76
667.262	13545.67
667.612	13605.11
667.962	13530.53
668.312	13515.17
668.662	13594.71
669.011	13596.75
669.361	13546.58
669.711	13519.01
670.06	13555.62
670.41	13456.41
670.76	13557.43
671.109	13605.11
671.459	13558.56
671.808	13545.9
672.157	13500.25
672.507	13373.48
672.856	13525.56
673.205	13493.47
673.554	13520.36
673.904	13394.72
674.253	13562.85
674.602	13394.72
674.951	13272.01
675.3	13226.14
675.649	13333.7
675.998	13426.81
676.346	13427.49
676.695	13397.88
677.044	13320.14
677.393	13363.98
677.741	13382.29
678.09	13310.2
678.438	13209.19
678.787	13341.84
679.135	13323.99
679.484	13205.34
679.832	13225.01
680.181	13196.31
680.529	13248.51
680.877	13204.67
681.225	13171.22
681.573	13255.97
681.922	13118.12
682.27	12988.63
682.618	13033.6
682.966	13102.52
683.314	13008.97
683.661	13036.31
684.009	12992.92
684.357	12998.12
684.705	12894.62
685.053	12930.1
685.4	12935.07
685.748	12879.25
686.095	12757
686.443	12788.63
686.79	12738.92
687.138	12790.44
687.485	12808.07
687.832	12754.28
688.18	12699.6
688.527	12595.87
688.874	12630.9
689.221	12599.71
689.568	12558.13
689.915	12527.62
690.262	12476.1
690.609	12432.94
690.956	12387.51
691.303	12397.46
691.65	12419.83
691.997	12325.59
692.344	12257.57
692.69	12177.8
693.037	12220.96
693.383	12054.87
693.73	12160.17
694.077	11969.9
694.423	11945.72
694.769	11968.99
695.116	11921.08
695.462	11913.4
695.808	11868.66
696.155	11865.72
696.501	11830.69
696.847	11804.93
697.193	11608.55
697.539	11737.81
697.885	11604.93
698.231	11599.29
698.577	11599.74
698.923	11555.9
699.269	11482.23
699.614	11404.94
699.96	11392.96
700.306	11410.59
700.651	11319.74
700.997	11358.61
701.342	11239.52
701.688	11225.74
702.033	11183.7
702.379	11147.32
702.724	11123.37
703.069	11142.57
703.415	10921.79
703.76	11013.76
704.105	11007.66
704.45	10950.26
704.795	10873.88
705.14	10871.39
705.485	10814.9
705.83	10755.69
706.175	10796.82
706.52	10733.55
706.865	10692.64
707.209	10690.83
707.554	10645.41
707.899	10643.6
708.243	10616.94
708.588	10570.16
708.932	10520.22
709.277	10518.64
709.621	10429.15
709.966	10360
710.31	10414.91
710.654	10342.82
710.998	10360
711.342	10309.15
711.687	10367.45
712.031	10297.62
712.375	10236.84
712.719	10259.43
713.063	10247.68
713.407	10268.47
713.75	10118.65
714.094	10214.46
714.438	10131.53
714.782	10173.11
715.125	10112.77
715.469	10067.8
715.812	10061.92
716.156	10005.43
716.499	10050.85
716.843	10002.72
717.186	9945.09
717.53	10009.04
717.873	9994.58
718.216	9994.81
718.559	9887.24
718.902	9853.34
719.246	9857.18
719.589	9929.27
719.932	9807.24
720.275	9779.67
720.617	9804.76
720.96	9843.85
721.303	9862.61
721.646	9855.83
721.989	9700.58
722.331	9773.57
722.674	9755.72
723.016	9812.21
723.359	9692.89
723.701	9797.98
724.044	9695.83
724.386	9689.73
724.729	9717.08
725.071	9698.09
725.413	9696.96
725.755	9608.83
726.097	9591.88
726.439	9558.44
726.782	9603.18
727.124	9641.82
727.465	9546.01
727.807	9537.19
728.149	9585.1
728.491	9601.6
728.833	9586.46
729.175	9561.82
729.516	9509.85
729.858	9562.73
730.199	9593.24
730.541	9521.6
730.882	9539.9
731.224	9554.82
731.565	9492.9
731.906	9497.65
732.248	9502.62
732.589	9456.52
732.93	9471.43
733.271	9461.26
733.612	9517.08
733.953	9502.39
734.294	9510.53
734.635	9485.67
734.976	9458.55
735.317	9514.82
735.658	9453.58
735.999	9489.06
736.339	9503.52
736.68	9541.26
737.021	9516.63
737.361	9477.99
737.702	9620.81
738.042	9499
738.383	9562.5
738.723	9628.72
739.063	9572.9
739.404	9636.17
739.744	9631.2
740.084	9618.55
740.424	9573.12
740.764	9565.21
741.104	9729.96
741.444	9606.8
741.784	9520.7
742.124	9652.9
742.464	9686.57
742.804	9686.34
743.143	9710.07
743.483	9778.09
743.823	9676.62
744.162	9698.32
744.502	9788.71
744.841	9714.36
745.181	9862.38
745.52	9869.61
745.86	9896.28
746.199	9946.22
746.538	9992.77
746.877	10047.24
747.216	10082.26
747.556	10149.38
747.895	10154.58
748.234	10136.27
748.573	10229.6
748.911	10296.95
749.25	10349.37
749.589	10407.68
749.928	10485.87
750.267	10600.22
750.605	10691.96
750.944	10681.57
751.283	10750.72
751.621	10830.04
751.96	10853.32
752.298	11028.23
752.636	11079.53
752.975	11213.31
753.313	11246.98
753.651	11372.17
753.989	11483.81
754.327	11588.44
754.666	11570.81
755.004	11848.09
755.342	11982.33
755.679	12080.4
756.017	12057.8
756.355	12323.79
756.693	12343.45
757.031	12547.51
757.368	12605.36
757.706	12719.71
758.044	12856.2
758.381	13050.55
758.719	13136.42
759.056	13354.04
759.394	13492.57
759.731	13525.56
760.068	13739.34
760.405	13838.1
760.743	13982.5
761.08	14201.93
761.417	14216.84
761.754	14475.82
762.091	14503.39
