Data from hue_160_FLMS001491_00011.txt Node
Date: Tue Feb 07 16:50:48 GMT 2017
User: dcchb
Spectrometer: FLMS00149
Trigger mode: 0
Integration Time (sec): 2.000000E-2
Scans to average: 10
Electric dark correction enabled: true
Nonlinearity correction enabled: false
Boxcar width: 0
XAxis mode: Wavelengths
Number of Pixels in Spectrum: 2048
>>>>>Begin Spectral Data<<<<<
341.393	-6.19
341.776	-6.19
342.16	-6.19
342.543	-78.05
342.927	-63.59
343.31	-78.5
343.693	-66.98
344.077	-57.94
344.46	-80.76
344.843	-39.63
345.226	-26.98
345.61	-47.09
345.993	-28.78
346.376	-17.94
346.759	13.93
347.142	34.94
347.525	53.02
347.908	71.55
348.291	83.08
348.674	83.08
349.057	105
349.44	128.73
349.823	146.8
350.206	175.96
350.588	188.61
350.971	211.21
351.354	194.26
351.737	239.46
352.119	255.28
352.502	252.56
352.884	247.82
353.267	279.68
353.65	293.24
354.032	279.23
354.414	307.03
354.797	317.42
355.179	311.55
355.562	339.12
355.944	329.17
356.326	328.04
356.709	328.04
357.091	347.02
357.473	325.56
357.855	335.5
358.238	337.76
358.62	340.47
359.002	323.52
359.384	337.53
359.766	340.7
360.148	353.8
360.53	317.2
360.912	335.05
361.294	334.37
361.676	323.75
362.057	323.3
362.439	309.51
362.821	305.44
363.203	302.28
363.584	319
363.966	337.31
364.348	326.01
364.729	318.1
365.111	326.69
365.493	312.68
365.874	323.52
366.256	306.35
366.637	323.52
367.019	304.31
367.4	334.82
367.781	315.39
368.163	311.77
368.544	328.27
368.925	318.78
369.306	314.03
369.688	310.19
370.069	289.17
370.45	295.73
370.831	289.85
371.212	290.53
371.593	308.61
371.974	316.52
372.355	302.28
372.736	311.77
373.117	299.79
373.498	320.81
373.879	300.92
374.26	301.6
374.641	306.57
375.021	309.29
375.402	314.94
375.783	309.29
376.163	320.58
376.544	318.55
376.925	328.49
377.305	321.71
377.686	327.36
378.066	332.34
378.447	322.17
378.827	303.64
379.208	313.35
379.588	317.42
379.968	325.33
380.349	339.57
380.729	323.75
381.109	330.98
381.489	345.89
381.87	316.97
382.25	330.08
382.63	309.29
383.01	348.38
383.39	324.88
383.77	360.13
384.15	309.74
384.53	315.61
384.91	364.88
385.29	341.6
385.67	341.6
386.049	341.6
386.429	337.08
386.809	348.15
387.189	370.08
387.568	350.41
387.948	338.89
388.328	348.15
388.707	338.66
389.087	351.77
389.466	355.61
389.846	364.88
390.225	362.17
390.605	367.14
390.984	344.09
391.363	378.21
391.743	352.45
392.122	355.61
392.501	355.16
392.881	375.95
393.26	351.54
393.639	358.78
394.018	374.14
394.397	356.52
394.776	379.34
395.155	381.37
395.534	367.59
395.913	363.75
396.292	370.98
396.671	368.72
397.05	385.22
397.429	385.44
397.808	375.95
398.186	384.76
398.565	374.82
398.944	398.1
399.323	387.93
399.701	391.77
400.08	409.85
400.458	385.89
400.837	384.31
401.215	402.39
401.594	382.96
401.972	393.8
402.351	397.87
402.729	412.79
403.107	405.78
403.486	391.54
403.864	387.25
404.242	412.11
404.62	417.31
404.999	409.85
405.377	425.67
405.755	404.2
406.133	438.55
406.511	421.83
406.889	434.71
407.267	419.11
407.645	436.29
408.023	418.89
408.401	445.78
408.779	432.9
409.156	435.61
409.534	448.72
409.912	436.51
410.29	451.2
410.667	454.82
411.045	452.56
411.422	451.43
411.8	446.23
412.178	479.9
412.555	467.93
412.933	470.64
413.31	497.3
413.687	474.25
414.065	465.21
414.442	477.64
414.819	476.29
415.197	503.4
415.574	483.74
415.951	496.4
416.328	501.82
416.705	510.86
417.082	497.08
417.46	503.18
417.837	494.82
418.214	509.05
418.591	534.59
418.967	511.09
419.344	502.05
419.721	534.14
420.098	526.68
420.475	521.94
420.852	525.1
421.228	545.21
421.605	519.68
421.982	531.65
422.358	547.47
422.735	573.91
423.111	557.64
423.488	559.9
423.864	586.57
424.241	575.27
424.617	573.01
424.994	576.85
425.37	567.58
425.746	569.62
426.123	591.99
426.499	596.06
426.875	589.28
427.251	613.46
427.627	631.31
428.003	594.02
428.379	601.93
428.756	614.36
429.132	627.47
429.507	628.83
429.883	642.38
430.259	613.68
430.635	646
431.011	654.14
431.387	646.68
431.763	666.11
432.138	672.21
432.514	674.02
432.89	672.21
433.265	675.15
433.641	708.37
434.016	681.93
434.392	700.91
434.767	679.9
435.143	703.17
435.518	720.35
435.894	722.38
436.269	725.77
436.644	733.46
437.02	758.77
437.395	738.2
437.77	762.83
438.145	767.58
438.52	782.27
438.895	760.8
439.271	767.58
439.646	801.02
440.021	810.29
440.395	777.97
440.77	808.03
441.145	835.15
441.52	811.65
441.895	811.87
442.27	833.34
442.645	817.29
443.019	842.15
443.394	856.62
443.769	816.84
444.143	858.88
444.518	842.6
444.892	843.96
445.267	871.76
445.641	882.6
446.016	884.64
446.39	888.03
446.764	901.13
447.139	899.33
447.513	899.1
447.887	883.51
448.262	918.76
448.636	927.57
449.01	948.59
449.384	915.37
449.758	923.28
450.132	970.29
450.506	968.7
450.88	951.75
451.254	950.17
451.628	989.72
452.002	999.89
452.376	1000.79
452.75	996.27
453.123	1013
453.497	1024.52
453.871	1040.79
454.244	1045.09
454.618	1053.67
454.992	1045.99
455.365	1075.14
455.739	1077.85
456.112	1112.88
456.486	1120.56
456.859	1109.72
457.232	1129.15
457.606	1137.51
457.979	1155.59
458.352	1161.24
458.725	1187.45
459.099	1178.42
459.472	1215.25
459.845	1252.31
460.218	1253.67
460.591	1241.69
460.964	1266.77
461.337	1290.05
461.71	1307
462.083	1339.99
462.456	1323.04
462.829	1335.47
463.201	1349.48
463.574	1375.25
463.947	1396.94
464.32	1446.88
464.692	1414.57
465.065	1430.84
465.438	1450.05
465.81	1503.15
466.183	1539.76
466.555	1569.37
466.928	1569.59
467.3	1538.41
467.672	1614.79
468.045	1635.13
468.417	1667.22
468.789	1683.49
469.161	1719.87
469.534	1757.61
469.906	1772.07
470.278	1794.9
470.65	1817.04
471.022	1891.16
471.394	1906.08
471.766	1931.16
472.138	1953.54
472.51	2010.26
472.882	2052.52
473.253	2103.14
473.625	2154.21
473.997	2184.04
474.369	2245.51
474.74	2251.83
475.112	2300.65
475.484	2343.58
475.855	2417.93
476.227	2490.92
476.598	2549.23
476.97	2610.24
477.341	2657.02
477.713	2720.07
478.084	2749.45
478.455	2843.46
478.827	2902.89
479.198	3031.7
479.569	3053.62
479.94	3142.88
480.311	3199.61
480.682	3336.32
481.053	3437.11
481.424	3516.88
481.795	3582.65
482.166	3685.02
482.537	3765.92
482.908	3878.91
483.279	3951.22
483.65	4105.8
484.021	4126.81
484.391	4285.23
484.762	4348.5
485.133	4459.01
485.503	4586.46
485.874	4741.26
486.244	4770.64
486.615	4953.46
486.985	5062.38
487.356	5183.51
487.726	5276.84
488.097	5454.01
488.467	5511.18
488.837	5696.04
489.207	5808.8
489.578	5931.74
489.948	6040.21
490.318	6156.14
490.688	6295.12
491.058	6439.52
491.428	6503.93
491.798	6672.06
492.168	6850.81
492.538	6912.95
492.908	7038.15
493.278	7192.72
493.648	7275.66
494.017	7392.94
494.387	7605.14
494.757	7716.1
495.126	7829.77
495.496	7882.19
495.866	7989.31
496.235	8061.17
496.605	8279.7
496.974	8401.95
497.344	8470.43
497.713	8584.1
498.082	8673.13
498.452	8806.01
498.821	8890.3
499.19	8946.57
499.559	9030.19
499.928	9108.6
500.298	9289.39
500.667	9357.18
501.036	9376.17
501.405	9503.39
501.774	9621.36
502.143	9637.85
502.512	9727.57
502.88	9806.21
503.249	9921.46
503.618	9909.03
503.987	10043.04
504.356	10160.33
504.724	10118.97
505.093	10274.22
505.462	10278.52
505.83	10305.63
506.199	10425.63
506.567	10546.53
506.936	10462.01
507.304	10704.49
507.672	10646.64
508.041	10767.32
508.409	10855.22
508.777	10946.52
509.145	11027.2
509.514	10973.64
509.882	11060.87
510.25	11122.56
510.618	11159.17
510.986	11200.75
511.354	11288.21
511.722	11376.34
512.09	11437.58
512.458	11407.07
512.826	11441.42
513.193	11533.62
513.561	11534.98
513.929	11602.55
514.297	11706.05
514.664	11671.7
515.032	11631.02
515.4	11805.48
515.767	11867.17
516.135	11852.26
516.502	11748.31
516.869	11886.16
517.237	11979.49
517.604	11822.2
517.972	11960.5
518.339	12034.63
518.706	12057.9
519.073	12048.41
519.44	12103.55
519.808	12190.78
520.175	12125.47
520.542	12171.12
520.909	12289.54
521.276	12260.84
521.643	12299.03
522.009	12345.81
522.376	12293.38
522.743	12293.83
523.11	12429.19
523.477	12542.18
523.843	12496.31
524.21	12626.48
524.577	12567.27
524.943	12616.76
525.31	12598.91
525.676	12713.25
526.043	12739.02
526.409	12663.76
526.776	12737.66
527.142	12682.52
527.508	12758
527.874	12778.11
528.241	12813.59
528.607	12734.04
528.973	12819.47
529.339	12782.86
529.705	12798.9
530.071	12852.01
530.437	12860.82
530.803	12824.89
531.169	12841.16
531.535	12829.86
531.901	12788.51
532.267	12750.31
532.632	12825.79
532.998	12812.69
533.364	12779.01
533.73	12779.92
534.095	12819.01
534.461	12749.86
534.826	12840.93
535.192	12832.8
535.557	12762.52
535.923	12677.55
536.288	12804.32
536.653	12732.91
537.019	12650.43
537.384	12691.78
537.749	12684.33
538.114	12548.51
538.479	12515.29
538.845	12548.29
539.21	12465.8
539.575	12513.48
539.94	12405.01
540.305	12495.63
540.67	12360.49
541.034	12374.73
541.399	12358.01
541.764	12359.82
542.129	12349.65
542.494	12251.8
542.858	12189.2
543.223	12222.87
543.587	12114.17
543.952	12175.87
544.316	12186.49
544.681	12066.94
545.045	12014.29
545.41	12126.83
545.774	12028.53
546.138	11928.64
546.503	11942.65
546.867	11880.96
547.231	11860.17
547.595	11846.16
547.959	11900.39
548.324	11756.22
548.688	11714.41
549.052	11785.59
549.416	11733.84
549.779	11587.41
550.143	11621.3
550.507	11630.12
550.871	11579.27
551.235	11508.31
551.599	11576.56
551.962	11537.24
552.326	11546.28
552.689	11591.47
553.053	11446.85
553.417	11420.86
553.78	11567.75
554.143	11364.59
554.507	11473.06
554.87	11466.28
555.234	11480.74
555.597	11353.74
555.96	11321.88
556.323	11318.71
556.686	11326.17
557.05	11384.25
557.413	11275.1
557.776	11313.74
558.139	11290.47
558.502	11265.61
558.865	11237.81
559.228	11314.19
559.59	11309.45
559.953	11250.92
560.316	11358.94
560.679	11274.42
561.041	11274.42
561.404	11316.23
561.767	11317.13
562.129	11240.07
562.492	11306.74
562.854	11233.52
563.217	11270.35
563.579	11298.38
563.941	11296.79
564.304	11351.93
564.666	11391.93
565.028	11316.91
565.39	11291.82
565.753	11402.55
566.115	11300.41
566.477	11391.93
566.839	11452.5
567.201	11496.56
567.563	11395.1
567.925	11451.14
568.287	11447.07
568.648	11435.55
569.01	11494.08
569.372	11567.07
569.734	11423.8
570.095	11510.8
570.457	11569.55
570.819	11539.72
571.18	11536.56
571.542	11586.05
571.903	11542.89
572.265	11572.04
572.626	11585.37
572.987	11587.86
573.349	11646.84
573.71	11650.68
574.071	11636.22
574.432	11641.64
574.794	11795.31
575.155	11601.64
575.516	11617.91
575.877	11616.56
576.238	11718.48
576.599	11681.42
576.96	11613.85
577.32	11628.99
577.681	11659.04
578.042	11628.76
578.403	11663.34
578.763	11676.9
579.124	11717.35
579.485	11714.41
579.845	11728.19
580.206	11732.94
580.566	11812.49
580.927	11690.46
581.287	11747.4
581.648	11740.62
582.008	11683
582.368	11671.02
582.728	11734.07
583.089	11652.49
583.449	11621.3
583.809	11622.21
584.169	11718.03
584.529	11621.76
584.889	11720.96
585.249	11612.94
585.609	11603.23
585.969	11682.09
586.329	11618.37
586.688	11642.1
587.048	11540.18
587.408	11531.59
587.768	11594.19
588.127	11567.52
588.487	11504.92
588.846	11561.19
589.206	11551.48
589.565	11534.75
589.925	11569.78
590.284	11534.75
590.643	11598.25
591.003	11542.21
591.362	11568.65
591.721	11586.5
592.08	11479.16
592.44	11509.9
592.799	11530.01
593.158	11516
593.517	11540.18
593.876	11533.85
594.235	11488.65
594.593	11503.57
594.952	11498.14
595.311	11435.32
595.67	11504.02
596.029	11518.26
596.387	11468.77
596.746	11480.07
597.104	11469.44
597.463	11394.64
597.822	11471.93
598.18	11412.27
598.538	11369.11
598.897	11377.92
599.255	11386.51
599.613	11546.05
599.972	11412.5
600.33	11561.42
600.688	11385.15
601.046	11412.5
601.404	11453.85
601.762	11414.3
602.12	11526.39
602.478	11551.02
602.836	11482.78
603.194	11438.48
603.552	11478.26
603.91	11388.54
604.268	11445.26
604.625	11449.78
604.983	11406.39
605.341	11415.89
605.698	11486.84
606.056	11515.09
606.413	11427.41
606.771	11504.02
607.128	11508.54
607.485	11444.13
607.843	11419.28
608.2	11512.61
608.557	11550.57
608.914	11447.98
609.272	11541.53
609.629	11527.3
609.986	11551.93
610.343	11534.75
610.7	11552.61
611.057	11544.02
611.414	11564.58
611.771	11536.34
612.127	11603
612.484	11629.21
612.841	11589.22
613.198	11565.03
613.554	11526.62
613.911	11650.68
614.267	11626.73
614.624	11612.04
614.98	11636.22
615.337	11749.89
615.693	11681.87
616.05	11593.96
616.406	11688.65
616.762	11700.85
617.118	11664.47
617.475	11713.05
617.831	11757.57
618.187	11689.78
618.543	11662.21
618.899	11791.7
619.255	11741.75
619.611	11735.88
619.967	11767.29
620.323	11776.55
620.678	11729.1
621.034	11786.5
621.39	11725.93
621.746	11750.79
622.101	11788.53
622.457	11754.41
622.812	11747.63
623.168	11793.96
623.523	11803.45
623.879	11771.36
624.234	11696.78
624.589	11785.59
624.945	11765.26
625.3	11761.19
625.655	11790.34
626.01	11795.54
626.365	11812.03
626.72	11784.01
627.075	11821.75
627.43	11797.35
627.785	11704.24
628.14	11774.75
628.495	11776.1
628.85	11769.1
629.205	11696.56
629.559	11819.04
629.914	11688.65
630.269	11759.83
630.623	11685.71
630.978	11687.07
631.332	11776.78
631.687	11763.67
632.041	11669.89
632.396	11633.51
632.75	11650.23
633.104	11626.28
633.459	11595.54
633.813	11546.05
634.167	11560.29
634.521	11573.62
634.875	11613.4
635.229	11581.08
635.583	11459.05
635.937	11540.63
636.291	11554.19
636.645	11509.67
636.999	11500.4
637.352	11485.04
637.706	11410.01
638.06	11392.84
638.413	11339.5
638.767	11425.6
639.121	11374.53
639.474	11322.1
639.828	11255.44
640.181	11350.8
640.534	11314.65
640.888	11332.05
641.241	11304.7
641.594	11313.06
641.947	11380.63
642.301	11321.2
642.654	11289.34
643.007	11282.1
643.36	11272.39
643.713	11269.9
644.066	11299.51
644.419	11261.31
644.771	11137.93
645.124	11033.07
645.477	11019.29
645.83	10983.81
646.182	10914.2
646.535	10919.85
646.888	10906.75
647.24	10897.71
647.593	10898.61
647.945	10937.93
648.298	10850.25
648.65	10837.14
649.002	10844.15
649.355	10829.91
649.707	10870.59
650.059	10907.65
650.411	11009.8
650.763	10971.6
651.115	11179.96
651.467	11193.97
651.819	11128.21
652.171	11036.46
652.523	11111.71
652.875	11123.24
653.227	11039.17
653.578	11175.44
653.93	11128.89
654.282	11052.96
654.633	11098.83
654.985	11036.01
655.337	11151.94
655.688	11101.32
656.039	11148.32
656.391	11014.99
656.742	11111.04
657.094	11119.85
657.445	11132.05
657.796	11113.3
658.147	11093.18
658.498	11020.64
658.849	11180.64
659.2	11185.61
659.551	11031.94
659.902	11149.9
660.253	11088.21
660.604	11145.61
660.955	11064.26
661.306	11188.55
661.656	11143.13
662.007	11116.91
662.358	11208.66
662.708	11110.58
663.059	11142
663.409	11125.95
663.76	11150.81
664.11	11200.75
664.461	11194.65
664.811	11209.34
665.161	11249.56
665.511	11128.89
665.862	11164.59
666.212	11214.54
666.562	11184.93
666.912	11125.5
667.262	11131.6
667.612	11229.68
667.962	11200.07
668.312	11244.82
668.662	11170.69
669.011	11150.13
669.361	11106.52
669.711	11121.88
670.06	11144.03
670.41	11088.21
670.76	11092.5
671.109	11166.85
671.459	11149.23
671.808	11069.68
672.157	11110.81
672.507	11119.17
672.856	11096.8
673.205	11069.91
673.554	11136.57
673.904	11013.41
674.253	11134.31
674.602	11105.61
674.951	10912.17
675.3	10940.42
675.649	10991.49
675.998	10974.54
676.346	11014.31
676.695	11016.12
677.044	10969.34
677.393	11044.37
677.741	11052.28
678.09	10959.63
678.438	10958.95
678.787	10911.27
679.135	10951.72
679.484	10817.71
679.832	10880.31
680.181	10798.28
680.529	10804.83
680.877	10862
681.225	10836.69
681.573	10849.8
681.922	10756.24
682.27	10761.21
682.618	10754.66
682.966	10688.67
683.314	10667.66
683.661	10676.47
684.009	10645.96
684.357	10614.78
684.705	10620.2
685.053	10675.34
685.4	10548.56
685.748	10509.02
686.095	10512.41
686.443	10461.79
686.79	10490.03
687.138	10452.07
687.485	10531.16
687.832	10415.91
688.18	10491.39
688.527	10392.86
688.874	10369.59
689.221	10321
689.568	10280.1
689.915	10298.18
690.262	10269.48
690.609	10290.72
690.956	10137.73
691.303	10168.01
691.65	10168.69
691.997	10128.24
692.344	9993.78
692.69	10093.44
693.037	10070.16
693.383	9876.94
693.73	9948.13
694.077	9873.78
694.423	9901.35
694.769	9818.41
695.116	9800.79
695.462	9763.05
695.808	9764.4
696.155	9745.87
696.501	9699.1
696.847	9689.38
697.193	9593.34
697.539	9603.96
697.885	9544.3
698.231	9580.23
698.577	9468.82
698.923	9502.94
699.269	9425.43
699.614	9385.21
699.96	9313.12
700.306	9342.49
700.651	9278.32
700.997	9279.22
701.342	9235.38
701.688	9222.27
702.033	9166
702.379	9097.76
702.724	9118.32
703.069	9111.31
703.415	9010.3
703.76	8970.53
704.105	9017.08
704.45	8992
704.795	8942.96
705.14	8921.26
705.485	8924.2
705.83	8802.62
706.175	8812.11
706.52	8806.92
706.865	8787.93
707.209	8808.5
707.554	8756.07
707.899	8742.74
708.243	8683.53
708.588	8602.4
708.932	8620.93
709.277	8642.63
709.621	8595.4
709.966	8576.41
710.31	8559.01
710.654	8402.18
710.998	8540.71
711.342	8554.94
711.687	8467.49
712.031	8525.79
712.375	8446.47
712.719	8502.06
713.063	8455.96
713.407	8403.31
713.75	8380.26
714.094	8453.48
714.438	8321.96
714.782	8286.03
715.125	8298.91
715.469	8322.63
715.812	8278.57
716.156	8235.4
716.499	8242.41
716.843	8227.5
717.186	8190.89
717.53	8274.95
717.873	8211
718.216	8159.25
718.559	8158.57
718.902	8077.67
719.246	8088.74
719.589	8142.75
719.932	8060.04
720.275	8028.63
720.617	8029.08
720.96	8107.27
721.303	8060.27
721.646	8091.45
721.989	8003.55
722.331	7996.54
722.674	7965.58
723.016	8016.43
723.359	8006.94
723.701	8042.64
724.044	7932.81
724.386	7956.09
724.729	7995.19
725.071	7975.07
725.413	7954.06
725.755	7956.09
726.097	7911.12
726.439	7835.87
726.782	7948.86
727.124	7951.57
727.465	7864.79
727.807	7901.85
728.149	7915.64
728.491	7878.13
728.833	7924.9
729.175	7865.25
729.516	7905.7
729.858	7851.69
730.199	7878.58
730.541	7795.87
730.882	7826.38
731.224	7909.31
731.565	7842.65
731.906	7902.08
732.248	7891.46
732.589	7813.5
732.93	7850.56
733.271	7842.87
733.612	7849.2
733.953	7775.98
734.294	7858.92
734.635	7864.12
734.976	7878.8
735.317	7838.58
735.658	7895.75
735.999	7856.43
736.339	7803.78
736.68	7858.69
737.021	7835.87
737.361	7799.26
737.702	7853.72
738.042	7879.26
738.383	7870.67
738.723	7866.6
739.063	7870.44
739.404	7944.11
739.744	7886.26
740.084	7833.38
740.424	7908.63
740.764	7908.41
741.104	7968.29
741.444	7886.49
741.784	7916.09
742.124	7991.8
742.464	7982.08
742.804	8036.09
743.143	8044.68
743.483	8062.53
743.823	8036.54
744.162	8081.28
744.502	8094.62
744.841	8132.81
745.181	8213.71
745.52	8187.04
745.86	8217.78
746.199	8304.33
746.538	8257.33
746.877	8368.06
747.216	8400.6
747.556	8408.51
747.895	8482.4
748.234	8502.06
748.573	8530.76
748.911	8559.01
749.25	8650.76
749.589	8671.55
749.928	8700.7
750.267	8848.04
750.605	8891.21
750.944	8928.27
751.283	9023.63
751.621	9089.17
751.96	9108.6
752.298	9270.41
752.636	9290.29
752.975	9405.77
753.313	9455.71
753.651	9582.49
753.989	9690.96
754.327	9787.23
754.666	9866.55
755.004	10013.66
755.342	10147.67
755.679	10233.32
756.017	10363.94
756.355	10512.63
756.693	10600.09
757.031	10764.83
757.368	10806.41
757.706	10993.98
758.044	11104.48
758.381	11284.14
758.719	11363.68
759.056	11526.17
759.394	11646.39
759.731	11816.33
760.068	11952.37
760.405	12125.25
