Data from hue_350_FLMS001491_77.txt Node
Date: Mon Feb 06 15:38:30 GMT 2017
User: dcchb
Spectrometer: FLMS00149
Trigger mode: 0
Integration Time (sec): 2.000000E-2
Scans to average: 10
Electric dark correction enabled: true
Nonlinearity correction enabled: false
Boxcar width: 0
XAxis mode: Wavelengths
Number of Pixels in Spectrum: 2048
>>>>>Begin Spectral Data<<<<<
341.393	-0.86
341.776	-0.86
342.16	-0.86
342.543	-74.98
342.927	-84.93
343.31	-77.92
343.693	-71.59
344.077	-73.4
344.46	-64.59
344.843	-59.62
345.226	-34.31
345.61	-35.89
345.993	-18.71
346.376	-4.25
346.759	21.28
347.142	28.29
347.525	37.33
347.908	54.73
348.291	77.78
348.674	88.63
349.057	132.24
349.44	119.36
349.823	139.7
350.206	159.36
350.588	190.32
350.971	195.07
351.354	225.12
351.737	215.4
352.119	248.17
352.502	247.72
352.884	264.89
353.267	269.87
353.65	260.83
354.032	300.15
354.414	298.79
354.797	309.64
355.179	310.99
355.562	328.4
355.944	337.43
356.326	325.68
356.709	310.54
357.091	323.65
357.473	338.56
357.855	355.97
358.238	354.16
358.62	340.6
359.002	340.6
359.384	320.49
359.766	341.28
360.148	334.04
360.53	321.84
360.912	342.41
361.294	333.14
361.676	308.06
362.057	325.68
362.439	312.58
362.821	318.45
363.203	336.98
363.584	319.36
363.966	310.54
364.348	301.05
364.729	294.72
365.111	334.95
365.493	329.07
365.874	320.94
366.256	316.87
366.637	328.62
367.019	319.58
367.4	299.92
367.781	320.94
368.163	313.25
368.544	324.55
368.925	298.57
369.306	326.36
369.688	317.1
370.069	310.99
370.45	322.07
370.831	320.03
371.212	322.07
371.593	324.33
371.974	301.28
372.355	311.9
372.736	317.77
373.117	304.67
373.498	319.36
373.879	327.04
374.26	319.36
374.641	336.98
375.021	308.06
375.402	309.41
375.783	307.38
376.163	317.1
376.544	317.55
376.925	314.16
377.305	318.23
377.686	312.12
378.066	319.58
378.447	312.8
378.827	310.99
379.208	326.36
379.588	324.1
379.968	322.07
380.349	307.38
380.729	350.32
381.109	345.34
381.489	341.28
381.87	335.85
382.25	326.36
382.63	332.24
383.01	317.55
383.39	333.82
383.77	320.71
384.15	345.34
384.53	333.82
384.91	329.75
385.29	351.45
385.67	336.3
386.049	356.42
386.429	346.93
386.809	328.4
387.189	342.18
387.568	327.94
387.948	344.21
388.328	359.81
388.707	330.2
389.087	355.51
389.466	352.58
389.846	352.8
390.225	347.38
390.605	349.19
390.984	358.23
391.363	345.34
391.743	358.9
392.122	385.12
392.501	357.1
392.881	359.58
393.26	362.74
393.639	367.04
394.018	348.06
394.397	359.13
394.776	357.32
395.155	361.16
395.534	369.3
395.913	357.32
396.292	347.38
396.671	375.85
397.05	349.64
397.429	360.48
397.808	366.81
398.186	384.89
398.565	360.48
398.944	367.49
399.323	383.99
399.701	378.34
400.08	395.06
400.458	370.65
400.837	405.23
401.215	404.1
401.594	379.24
401.972	378.11
402.351	387.83
402.729	409.75
403.107	416.3
403.486	383.54
403.864	394.61
404.242	401.61
404.62	405.46
404.999	382.86
405.377	377.21
405.755	380.82
406.133	401.61
406.511	398
406.889	419.69
407.267	418.11
407.645	435.96
408.023	404.55
408.401	388.96
408.779	414.04
409.156	424.44
409.534	432.8
409.912	426.92
410.29	416.08
410.667	433.25
411.045	426.7
411.422	434.38
411.8	443.42
412.178	442.52
412.555	455.62
412.933	455.17
413.31	457.21
413.687	469.41
414.065	481.39
414.442	447.94
414.819	457.21
415.197	475.74
415.574	465.57
415.951	482.52
416.328	485.45
416.705	479.13
417.082	477.77
417.46	488.84
417.837	465.79
418.214	474.15
418.591	511.22
418.967	499.69
419.344	515.28
419.721	493.59
420.098	510.31
420.475	493.36
420.852	512.8
421.228	506.92
421.605	508.5
421.982	516.19
422.358	522.29
422.735	556.41
423.111	521.38
423.488	526.58
423.864	530.42
424.241	529.97
424.617	560.03
424.994	544.89
425.37	550.08
425.746	557.77
426.123	531.55
426.499	556.64
426.875	569.07
427.251	572.91
427.627	581.5
428.003	581.04
428.379	583.53
428.756	575.85
429.132	578.11
429.507	594.38
429.883	600.25
430.259	587.6
430.635	581.5
431.011	601.83
431.387	644.09
431.763	614.72
432.138	617.88
432.514	636.64
432.89	637.09
433.265	646.13
433.641	623.75
434.016	645.68
434.392	669.86
434.767	685.67
435.143	649.74
435.518	653.58
435.894	685.45
436.269	680.25
436.644	679.8
437.02	679.8
437.395	678.89
437.77	710.76
438.145	714.37
438.52	712.57
438.895	751.66
439.271	735.39
439.646	717.09
440.021	739.46
440.395	721.83
440.77	708.72
441.145	730.42
441.52	744.43
441.895	734.03
442.27	751.44
442.645	753.47
443.019	766.8
443.394	773.13
443.769	746.92
444.143	762.96
444.518	776.07
444.892	770.42
445.267	779.68
445.641	759.57
446.016	797.31
446.39	791.43
446.764	786.01
447.139	804.54
447.513	792.34
447.887	782.17
448.262	799.8
448.636	806.12
449.01	793.24
449.384	830.53
449.758	820.59
450.132	844.54
450.506	842.51
450.88	830.98
451.254	831.66
451.628	861.26
452.002	829.85
452.376	829.4
452.75	866.91
453.123	868.04
453.497	863.97
453.871	867.82
454.244	894.48
454.618	908.72
454.992	908.49
455.365	905.56
455.739	899.23
456.112	907.14
456.486	933.35
456.859	947.36
457.232	930.64
457.606	949.4
457.979	942.16
458.352	973.58
458.725	973.12
459.099	977.42
459.472	968.15
459.845	1014.7
460.218	1013.8
460.591	1004.99
460.964	1029.17
461.337	1027.81
461.71	1055.83
462.083	1059.68
462.456	1071.2
462.829	1065.55
463.201	1068.71
463.574	1075.72
463.947	1099.45
464.32	1096.28
464.692	1115.49
465.065	1135.38
465.438	1150.52
465.81	1160.24
466.183	1167.47
466.555	1151.88
466.928	1217.64
467.3	1188.94
467.672	1207.92
468.045	1254.92
468.417	1247.47
468.789	1228.03
469.161	1266.22
469.534	1297.41
469.906	1305.77
470.278	1340.57
470.65	1322.72
471.022	1331.98
471.394	1354.81
471.766	1375.6
472.138	1381.93
472.51	1413.56
472.882	1459.21
473.253	1462.15
473.625	1470.06
473.997	1504.41
474.369	1505.77
474.74	1528.36
475.112	1563.62
475.484	1573.79
475.855	1597.97
476.227	1608.14
476.598	1685.42
476.97	1664.18
477.341	1695.14
477.713	1732.43
478.084	1738.98
478.455	1773.56
478.827	1785.98
479.198	1838.41
479.569	1853.1
479.94	1898.07
480.311	1910.95
480.682	1955.92
481.053	2002.02
481.424	2012.19
481.795	2047.67
482.166	2061.68
482.537	2091.29
482.908	2137.61
483.279	2148.46
483.65	2216.48
484.021	2236.59
484.391	2260.77
484.762	2259.64
485.133	2328.57
485.503	2377.38
485.874	2406.53
486.244	2442.92
486.615	2422.58
486.985	2499.41
487.356	2548.9
487.726	2554.33
488.097	2606.75
488.467	2629.13
488.837	2673.42
489.207	2689.46
489.578	2753.64
489.948	2800.65
490.318	2806.07
490.688	2852.62
491.058	2886.07
491.428	2938.04
491.798	2942.56
492.168	2999.96
492.538	3023.69
492.908	3004.26
493.278	3080.64
493.648	3098.49
494.017	3132.39
494.387	3111.6
494.757	3152.28
495.126	3185.95
495.496	3236.12
495.866	3256.91
496.235	3254.65
496.605	3322.44
496.974	3307.53
497.344	3336.68
497.713	3391.14
498.082	3441.76
498.452	3437.01
498.821	3467.3
499.19	3503.45
499.559	3519.27
499.928	3494.87
500.298	3514.3
500.667	3552.49
501.036	3589.55
501.405	3634.3
501.774	3558.82
502.143	3629.33
502.512	3623
502.88	3698.25
503.249	3703
503.618	3745.93
503.987	3715.65
504.356	3750.23
504.724	3803.11
505.093	3778.7
505.462	3744.58
505.83	3831.13
506.199	3849.66
506.567	3870.9
506.936	3882.43
507.304	3933.05
507.672	3930.56
508.041	3930.11
508.409	3942.31
508.777	3923.56
509.145	4015.3
509.514	4006.72
509.882	4028.64
510.25	4052.14
510.618	4063.89
510.986	4046.94
511.354	4091.46
511.722	4145.24
512.09	4142.76
512.458	4173.04
512.826	4166.26
513.193	4201.51
513.561	4185.7
513.929	4220.72
514.297	4234.73
514.664	4255.3
515.032	4285.58
515.4	4256.2
515.767	4296.65
516.135	4279.25
516.502	4282.87
516.869	4315.86
517.237	4286.48
517.604	4319.02
517.972	4333.49
518.339	4404.45
518.706	4403.54
519.073	4367.39
519.44	4414.62
519.808	4467.04
520.175	4467.95
520.542	4468.63
520.909	4522.41
521.276	4477.89
521.643	4518.57
522.009	4538.68
522.376	4596.98
522.743	4581.39
523.11	4649.41
523.477	4610.99
523.843	4686.92
524.21	4676.3
524.577	4707.94
524.943	4692.8
525.31	4825.45
525.676	4799.24
526.043	4849.41
526.409	4858.9
526.776	4824.55
527.142	4874.72
527.508	4924.66
527.874	4917.88
528.241	4926.92
528.607	4991.1
528.973	5069.29
529.339	5007.14
529.705	5046.24
530.071	5086.24
530.437	5057.08
530.803	5152.22
531.169	5132.79
531.535	5163.97
531.901	5184.09
532.267	5183.63
532.632	5219.79
532.998	5281.94
533.364	5286.46
533.73	5324.87
534.095	5350.41
534.461	5279.68
534.826	5372.33
535.192	5384.08
535.557	5416.85
535.923	5392.44
536.288	5418.66
536.653	5418.88
537.019	5482.61
537.384	5472.89
537.749	5519.22
538.114	5573.23
538.479	5570.97
538.845	5559.67
539.21	5564.87
539.575	5627.01
539.94	5627.01
540.305	5641.48
540.67	5720.12
541.034	5722.38
541.399	5726.45
541.764	5777.07
542.129	5779.33
542.494	5773.22
542.858	5832.43
543.223	5801.92
543.587	5881.47
543.952	5856.61
544.316	5926.21
544.681	5890.06
545.045	5953.78
545.41	5964.86
545.774	6011.86
546.138	5969.15
546.503	6088.24
546.867	6026.1
547.231	6068.13
547.595	6080.56
547.959	6156.49
548.324	6165.76
548.688	6158.3
549.052	6203.5
549.416	6202.59
549.779	6236.49
550.143	6281.69
550.507	6265.19
550.871	6300.89
551.235	6328.24
551.599	6348.8
551.962	6403.04
552.326	6397.39
552.689	6391.96
553.053	6425.41
553.417	6352.42
553.78	6481.68
554.143	6463.38
554.507	6525.29
554.87	6502.47
555.234	6610.72
555.597	6529.36
555.96	6576.14
556.323	6557.84
556.686	6608
557.05	6612.07
557.413	6629.02
557.776	6716.93
558.139	6688.91
558.502	6672.86
558.865	6713.99
559.228	6739.07
559.59	6728.68
559.953	6827.66
560.316	6853.42
560.679	6866.3
561.041	6887.54
561.404	6927.32
561.767	6912.85
562.129	6874.66
562.492	6978.84
562.854	7030.14
563.217	6980.42
563.579	7013.87
563.941	7069.46
564.304	7064.49
564.666	7114.21
565.028	7082.79
565.39	7165.05
565.753	7173.87
566.115	7242.11
566.477	7212.73
566.839	7236.46
567.201	7312.62
567.563	7333.63
567.925	7369.79
568.287	7397.59
568.648	7369.34
569.01	7433.52
569.372	7464.7
569.734	7444.14
570.095	7593.97
570.457	7534.53
570.819	7542.89
571.18	7576.57
571.542	7650.91
571.903	7693.17
572.265	7748.31
572.626	7711.7
572.987	7760.74
573.349	7839.38
573.71	7835.09
574.071	7905.82
574.432	7930.23
574.794	8030.57
575.155	8056.1
575.516	8125.03
575.877	8195.31
576.238	8222.88
576.599	8256.32
576.96	8397.34
577.32	8393.49
577.681	8475.3
578.042	8548.29
578.403	8638.46
578.763	8661.06
579.124	8798
579.485	8901.96
579.845	8935.4
580.206	9023.31
580.566	9144.21
580.927	9274.37
581.287	9376.97
581.648	9465.33
582.008	9644.31
582.368	9751.88
582.728	9798.2
583.089	10047.24
583.449	10055.6
583.809	10224.41
584.169	10419.43
584.529	10532.19
584.889	10739.87
585.249	10796.59
585.609	11024.39
585.969	11209.92
586.329	11387.09
586.688	11557.93
587.048	11728.55
587.408	12068.65
587.768	12205.6
588.127	12447.17
588.487	12594.29
588.846	12892.58
589.206	12993.15
589.565	13187.49
589.925	13652.56
590.284	13750.19
590.643	13976.62
591.003	14384.3
591.362	14535.93
591.721	14795.36
592.08	15103.37
592.44	15279.64
592.799	15568.9
593.158	15806.63
593.517	16033.75
593.876	16416.11
594.235	16614.29
594.593	16895.87
594.952	17181.06
595.311	17477.32
595.67	17807.26
596.029	18158.89
596.387	18397.52
596.746	18784.86
597.104	18903.73
597.463	19213.55
597.822	19607.21
598.18	19681.56
598.538	20050.81
598.897	20488.32
599.255	20500.75
599.613	21193.16
599.972	21232.7
600.33	21539.36
600.688	21735.97
601.046	22133.92
601.404	22437.42
601.762	22558.09
602.12	23017.06
602.478	23246.44
602.836	23492.76
603.194	23714.67
603.552	24050.94
603.91	24183.36
604.268	24489.57
604.625	24728.66
604.983	25078.48
605.341	25247.29
605.698	25528.86
606.056	25782.19
606.413	26043.2
606.771	26256.53
607.128	26707.14
607.485	26741.49
607.843	26875.04
608.2	27388.02
608.557	27631.18
608.914	27716.15
609.272	28084.05
609.629	28253.54
609.986	28552.74
610.343	28587.99
610.7	28984.82
611.057	29123.34
611.414	29382.09
611.771	29625.7
612.127	29893.04
612.484	30059.36
612.841	30166.93
613.198	30206.25
613.554	30673.59
613.911	30780.93
614.267	31064.76
614.624	31103.63
614.98	31391.76
615.337	31545.2
615.693	31681.47
616.05	31816.15
616.406	32169.14
616.762	32179.76
617.118	32373.2
617.475	32431.05
617.831	32692.74
618.187	32905.62
618.543	32940.42
618.899	33323.91
619.255	33212.5
619.611	33301.09
619.967	33607.07
620.323	33771.81
620.678	33762.32
621.034	33852.94
621.39	33975.42
621.746	34115.3
622.101	34472.81
622.457	34228.29
622.812	34496.31
623.168	34672.35
623.523	34650.88
623.879	34891.1
624.234	34785.12
624.589	34892.23
624.945	35049.97
625.3	35328.83
625.655	35344.42
626.01	35382.39
626.365	35546.9
626.72	35458.55
627.075	35523.4
627.43	35550.97
627.785	35534.93
628.14	35768.59
628.495	35951.64
628.85	35835.26
629.205	35754.13
629.559	36176.04
629.914	35994.12
630.269	36155.48
630.623	36056.72
630.978	35998.19
631.332	36162.03
631.687	36253.1
632.041	36185.76
632.396	36316.6
632.75	36232.76
633.104	36342.36
633.459	36222.82
633.813	36158.19
634.167	36163.16
634.521	36201.58
634.875	36336.04
635.229	36336.49
635.583	36167.45
635.937	36297.39
636.291	36351.18
636.645	36353.44
636.999	36312.99
637.352	36266.66
637.706	36191.63
638.06	36450.38
638.413	36430.5
638.767	36215.81
639.121	36475.02
639.474	36216.49
639.828	36229.37
640.181	36276.83
640.534	36338.3
640.888	36241.8
641.241	36197.96
641.594	36245.64
641.947	36340.33
642.301	36211.75
642.654	36265.76
643.007	36268.47
643.36	36338.07
643.713	36205.64
644.066	36465.07
644.419	36004.52
644.771	35924.97
645.124	35573.12
645.477	35660.35
645.83	35251.77
646.182	35138.55
646.535	35189.17
646.888	35263.3
647.24	35053.13
647.593	35253.58
647.945	35185.11
648.298	35106.92
648.65	35019.69
649.002	34963.64
649.355	34984.21
649.707	34995.96
650.059	35304.42
650.411	35565.66
650.763	35714.58
651.115	35922.26
651.467	36034.58
651.819	35809.95
652.171	35788.71
652.523	35824.86
652.875	35857.63
653.227	35820.12
653.578	36068.7
653.93	35877.07
654.282	35778.54
654.633	35679.56
654.985	35763.4
655.337	35811.08
655.688	35773.79
656.039	35894.92
656.391	35562.05
656.742	35612.44
657.094	35643.4
657.445	35771.31
657.796	35626.9
658.147	35735.15
658.498	35557.75
658.849	35695.15
659.2	35593.23
659.551	35517.07
659.902	35573.8
660.253	35509.84
660.604	35502.84
660.955	35451.77
661.306	35480.69
661.656	35475.95
662.007	35546.9
662.358	35477.75
662.708	35594.13
663.059	35353.92
663.409	35262.84
663.76	35538.77
664.11	35485.89
664.461	35550.97
664.811	35426.91
665.161	35447.92
665.511	35447.92
665.862	35431.2
666.212	35530.86
666.562	35513.46
666.912	35419.9
667.262	35435.27
667.612	35415.61
667.962	35457.64
668.312	35343.75
668.662	35488.6
669.011	35447.25
669.361	35376.29
669.711	35439.11
670.06	35295.84
670.41	35365.89
670.76	35317.76
671.109	35374.03
671.459	35328.83
671.808	35269.85
672.157	35398.43
672.507	35151.66
672.856	35224.65
673.205	35301.49
673.554	35280.47
673.904	35170.19
674.253	35321.83
674.602	35245.44
674.951	34671.22
675.3	34676.19
675.649	35140.36
675.998	35040.02
676.346	35188.72
676.695	35172.68
677.044	34996.41
677.393	35143.98
677.741	35145.56
678.09	35025.79
678.438	34870.54
678.787	35082.74
679.135	34961.61
679.484	34787.6
679.832	34825.12
680.181	34712.12
680.529	34761.84
680.877	34729.98
681.225	34652.01
681.573	34912.57
681.922	34681.84
682.27	34565.91
682.618	34568.85
682.966	34521.17
683.314	34489.98
683.661	34406.14
684.009	34305.36
684.357	34300.61
684.705	34222.87
685.053	34186.49
685.4	34214.06
685.748	34041.86
686.095	34066.27
686.443	33977.23
686.79	33868.3
687.138	33906.04
687.485	33823.11
687.832	33741.3
688.18	33784.24
688.527	33558.03
688.874	33530.23
689.221	33536.79
689.568	33305.38
689.915	33544.47
690.262	33471.25
690.609	33324.36
690.956	33194.88
691.303	33137.02
691.65	32966.86
691.997	32976.12
692.344	32931.61
692.69	32852.29
693.037	32921.21
693.383	32651.84
693.73	32602.35
694.077	32498.4
694.423	32593.31
694.769	32380.66
695.116	32278.74
695.462	32425.18
695.808	32219.76
696.155	32278.06
696.501	31940.67
696.847	31904.29
697.193	31714.24
697.539	31932.76
697.885	31709.27
698.231	31632.43
698.577	31648.93
698.923	31498.88
699.269	31372.55
699.614	31256.85
699.96	31187.92
700.306	31328.48
700.651	31047.36
700.997	31079.23
701.342	30946.8
701.688	30910.42
702.033	30801.04
702.379	30807.82
702.724	30658.45
703.069	30703.64
703.415	30416.64
703.76	30402.86
704.105	30299.58
704.45	30429.3
704.795	30201.28
705.14	30105.92
705.485	30048.52
705.83	29940.27
706.175	30064.56
706.52	29964.45
706.865	29729.66
707.209	29738.92
707.554	29614.86
707.899	29777.79
708.243	29525.59
708.588	29477.69
708.932	29319.05
709.277	29198.6
709.621	29300.51
709.966	29153.63
710.31	29134.19
710.654	28992.27
710.998	28998.6
711.342	29020.75
711.687	28937.81
712.031	28859.17
712.375	28714.54
712.719	28715.22
713.063	28731.94
713.407	28788.44
713.75	28542.57
714.094	28595.67
714.438	28508.45
714.782	28543.02
715.125	28246.98
715.469	28428.22
715.812	28127.44
716.156	28082.02
716.499	28048.8
716.843	27976.26
717.186	27943.94
717.53	28038.85
717.873	28042.24
718.216	28042.02
718.559	27892.42
718.902	27599.54
719.246	27745.3
719.589	27664.4
719.932	27548.24
720.275	27553.22
720.617	27531.52
720.96	27324.07
721.303	27474.8
721.646	27461.02
721.989	27279.33
722.331	27388.47
722.674	27161.36
723.016	27268.93
723.359	27226.9
723.701	27239.33
724.044	27040.69
724.386	26889.73
724.729	27066.9
725.071	27046.34
725.413	27008.37
725.755	27027.35
726.097	26921.59
726.439	26673.24
726.782	26704.42
727.124	26898.77
727.465	26557.54
727.807	26569.06
728.149	26532.45
728.491	26550.98
728.833	26665.1
729.175	26435.28
729.516	26361.61
729.858	26405
730.199	26411.78
730.541	26236.41
730.882	26123.65
731.224	26371.33
731.565	26190.77
731.906	26094.5
732.248	26109.19
732.589	26050.88
732.93	26027.83
733.271	25988.96
733.612	25989.64
733.953	25984.9
734.294	25978.57
734.635	25830.78
734.976	25848.63
735.317	25651.8
735.658	25708.29
735.999	25729.54
736.339	25675.75
736.68	25665.58
737.021	25644.79
737.361	25497.68
737.702	25582.87
738.042	25561.63
738.383	25532.48
738.723	25572.25
739.063	25382.65
739.404	25517.11
739.744	25445.48
740.084	25347.62
740.424	25373.39
740.764	25259.72
741.104	25329.55
741.444	25102.89
741.784	24968.2
742.124	25056.56
742.464	24980.18
742.804	24901.76
743.143	24988.54
743.483	25038.48
743.823	24805.49
744.162	24835.55
744.502	24859.05
744.841	24879.61
745.181	24822.67
745.52	24668.55
745.86	24742.22
746.199	24693.18
746.538	24573.63
746.877	24658.15
747.216	24715.78
747.556	24529.57
747.895	24553.3
748.234	24483.24
748.573	24391.94
748.911	24469.91
749.25	24410.93
749.589	24287.99
749.928	24214.09
750.267	24317.37
750.605	24107.43
750.944	24181.33
751.283	24104.95
751.621	24169.35
751.96	23952.18
752.298	23967.1
752.636	24061.33
752.975	23899.53
753.313	23760.55
753.651	23941.11
753.989	23759.19
754.327	23848.23
754.666	23549.48
755.004	23794.67
755.342	23580.67
755.679	23701.57
756.017	23405.98
756.355	23657.27
756.693	23454.57
757.031	23427.9
757.368	23362.37
757.706	23227.23
758.044	23235.59
758.381	23144.29
758.719	23115.14
759.056	23013.45
759.394	23032.43
759.731	22887.8
760.068	22893.68
760.405	22826.11
760.743	22687.13
761.08	22846.22
