Data from hue_40_FLMS001491_93.txt Node
Date: Mon Feb 06 15:08:50 GMT 2017
User: dcchb
Spectrometer: FLMS00149
Trigger mode: 0
Integration Time (sec): 2.000000E-2
Scans to average: 10
Electric dark correction enabled: true
Nonlinearity correction enabled: false
Boxcar width: 0
XAxis mode: Wavelengths
Number of Pixels in Spectrum: 2048
>>>>>Begin Spectral Data<<<<<
341.393	-32.63
341.776	-32.63
342.16	-32.63
342.543	-58.39
342.927	-78.95
343.31	-59.97
343.693	-67.2
344.077	-92.74
344.46	-61.1
344.843	-47.99
345.226	-29.24
345.61	-19.75
345.993	-20.2
346.376	5.56
346.759	3.53
347.142	20.93
347.525	45.56
347.908	38.78
348.291	71.78
348.674	97.31
349.057	114.71
349.44	112.23
349.823	140.25
350.206	151.32
350.588	185
350.971	197.42
351.354	229.06
351.737	227.71
352.119	241.94
352.502	250.08
352.884	276.29
353.267	274.03
353.65	292.56
354.032	277.65
354.414	316.07
354.797	293.24
355.179	331.43
355.562	313.13
355.944	300.7
356.326	336.18
356.709	346.35
357.091	344.54
357.473	319
357.855	342.28
358.238	341.6
358.62	319
359.002	337.08
359.384	326.46
359.766	362.39
360.148	335.95
360.53	340.02
360.912	324.65
361.294	345.44
361.676	339.34
362.057	318.55
362.439	315.84
362.821	316.29
363.203	316.07
363.584	330.75
363.966	329.17
364.348	317.87
364.729	306.57
365.111	326.91
365.493	316.29
365.874	325.33
366.256	319.91
366.637	316.97
367.019	316.29
367.4	339.12
367.781	304.31
368.163	304.09
368.544	311.09
368.925	295.05
369.306	332.34
369.688	332.56
370.069	326.46
370.45	311.09
370.831	316.07
371.212	314.03
371.593	298.89
371.974	320.81
372.355	310.64
372.736	325.78
373.117	301.6
373.498	312.68
373.879	317.87
374.26	313.35
374.641	315.61
375.021	321.94
375.402	310.87
375.783	332.34
376.163	328.95
376.544	316.74
376.925	328.95
377.305	336.4
377.686	326.91
378.066	338.21
378.447	329.17
378.827	322.17
379.208	345.44
379.588	327.36
379.968	333.92
380.349	342.73
380.729	324.65
381.109	333.24
381.489	350.41
381.87	327.36
382.25	332.34
382.63	355.16
383.01	324.65
383.39	374.59
383.77	346.35
384.15	338.89
384.53	354.48
384.91	345.67
385.29	343.18
385.67	338.66
386.049	370.3
386.429	352.22
386.809	358.78
387.189	379.34
387.568	360.13
387.948	375.05
388.328	365.56
388.707	358.78
389.087	362.39
389.466	361.26
389.846	365.56
390.225	354.71
390.605	358.78
390.984	360.36
391.363	381.37
391.743	401.49
392.122	386.12
392.501	367.14
392.881	363.52
393.26	380.7
393.639	382.5
394.018	364.65
394.397	385.67
394.776	393.13
395.155	378.44
395.534	384.09
395.913	373.92
396.292	375.95
396.671	390.64
397.05	395.84
397.429	394.48
397.808	398.77
398.186	413.92
398.565	373.69
398.944	384.76
399.323	417.31
399.701	392.22
400.08	410.07
400.458	430.19
400.837	419.11
401.215	381.37
401.594	401.26
401.972	406.23
402.351	398.77
402.729	413.92
403.107	417.31
403.486	412.79
403.864	401.49
404.242	448.04
404.62	429.96
404.999	442.16
405.377	427.25
405.755	436.97
406.133	450.07
406.511	462.73
406.889	445.1
407.267	423.86
407.645	449.39
408.023	456.85
408.401	446.01
408.779	434.48
409.156	473.8
409.534	454.37
409.912	468.15
410.29	457.08
410.667	455.72
411.045	476.74
411.422	459.79
411.8	488.49
412.178	478.77
412.555	486.23
412.933	481.71
413.31	504.31
413.687	493.46
414.065	484.65
414.442	494.14
414.819	523.52
415.197	518.77
415.574	525.1
415.951	523.07
416.328	509.28
416.705	528.26
417.082	503.4
417.46	531.2
417.837	539.34
418.214	529.39
418.591	542.73
418.967	530.07
419.344	527.36
419.721	530.97
420.098	516.29
420.475	561.48
420.852	540.24
421.228	554.02
421.605	565.55
421.982	586.11
422.358	577.3
422.735	577.75
423.111	570.97
423.488	567.36
423.864	605.78
424.241	573.46
424.617	617.75
424.994	580.24
425.37	578.21
425.746	582.72
426.123	570.52
426.499	630.63
426.875	616.17
427.251	625.66
427.627	602.61
428.003	638.99
428.379	628.37
428.756	630.18
429.132	625.66
429.507	624.76
429.883	657.07
430.259	651.88
430.635	677.64
431.011	650.75
431.387	683.51
431.763	674.25
432.138	661.14
432.514	684.87
432.89	697.52
433.265	698.88
433.641	722.83
434.016	697.98
434.392	707.47
434.767	740.69
435.143	710.41
435.518	731.2
435.894	730.74
436.269	733.68
436.644	734.81
437.02	752.89
437.395	754.02
437.77	785.43
438.145	780.23
438.52	792.66
438.895	788.6
439.271	796.28
439.646	780.46
440.021	802.83
440.395	801.7
440.77	798.99
441.145	824.98
441.52	843.96
441.895	807.58
442.27	806.67
442.645	812.55
443.019	795.6
443.394	845.32
443.769	861.59
444.143	845.54
444.518	855.71
444.892	866.79
445.267	860.46
445.641	850.06
446.016	887.58
446.39	884.19
446.764	872.43
447.139	892.1
447.513	895.48
447.887	895.71
448.262	915.37
448.636	886.67
449.01	914.69
449.384	923.28
449.758	924.86
450.132	961.25
450.506	935.26
450.88	919.44
451.254	980
451.628	971.87
452.002	954.69
452.376	957.86
452.75	988.82
453.123	982.71
453.497	1004.18
453.871	1010.74
454.244	1020.91
454.618	1031.53
454.992	1063.16
455.365	1039.89
455.739	1052.99
456.112	1091.64
456.486	1069.04
456.859	1098.42
457.232	1104.52
457.606	1126.44
457.979	1102.49
458.352	1142.48
458.725	1144.97
459.099	1149.72
459.472	1172.99
459.845	1186.78
460.218	1203.5
460.591	1200.34
460.964	1203.27
461.337	1242.82
461.71	1224.52
462.083	1284.63
462.456	1299.09
462.829	1313.55
463.201	1308.81
463.574	1305.19
463.947	1317.62
464.32	1368.01
464.692	1372.31
465.065	1372.76
465.438	1403.04
465.81	1424.96
466.183	1428.13
466.555	1462.48
466.928	1471.51
467.3	1507.45
467.672	1490.27
468.045	1570.72
468.417	1544.73
468.789	1539.54
469.161	1574.79
469.534	1620.21
469.906	1634.9
470.278	1648.23
470.65	1671.96
471.022	1737.27
471.394	1772.3
471.766	1787.21
472.138	1800.09
472.51	1845.29
472.882	1928.23
473.253	1891.84
473.625	1916.93
473.997	1986.53
474.369	2019.52
474.74	2020.88
475.112	2080.76
475.484	2121.22
475.855	2198.95
476.227	2206.18
476.598	2269.91
476.97	2321.21
477.341	2374.09
477.713	2418.83
478.084	2448.66
478.455	2524.37
478.827	2589.45
479.198	2714.65
479.569	2711.93
479.94	2780.86
480.311	2847.3
480.682	2903.12
481.053	3016.33
481.424	3078.7
481.795	3156.22
482.166	3202.54
482.537	3284.12
482.908	3360.73
483.279	3443.21
483.65	3554.17
484.021	3637.79
484.391	3714.85
484.762	3773.38
485.133	3859.47
485.503	3946.7
485.874	4074.61
486.244	4139.92
486.615	4272.57
486.985	4351.21
487.356	4461.04
487.726	4534.94
488.097	4664.43
488.467	4724.08
488.837	4848.6
489.207	4970.18
489.578	5056.05
489.948	5193.9
490.318	5293.79
490.688	5346.44
491.058	5473.9
491.428	5614.91
491.798	5708.47
492.168	5851.96
492.538	5903.94
492.908	6038.63
493.278	6113.88
493.648	6208.11
494.017	6377.37
494.387	6505.28
494.757	6589.12
495.126	6714.77
495.496	6744.37
495.866	6835.67
496.235	6986.4
496.605	7080.41
496.974	7127.86
497.344	7226.17
497.713	7345.03
498.082	7469.1
498.452	7551.36
498.821	7725.14
499.19	7719.26
499.559	7814.17
499.928	7922.42
500.298	8009.87
500.667	8076.77
501.036	8178.01
501.405	8247.61
501.774	8312.47
502.143	8444.66
502.512	8498.22
502.88	8685.79
503.249	8682.4
503.618	8779.35
503.987	8774.15
504.356	8957.87
504.724	9036.74
505.093	9038.1
505.462	9139.79
505.83	9280.8
506.199	9375.94
506.567	9483.28
506.936	9507.91
507.304	9617.97
507.672	9688.47
508.041	9653.22
508.409	9915.59
508.777	9939.09
509.145	10047.79
509.514	10012.31
509.882	10161.68
510.25	10194.9
510.618	10340.66
510.986	10335.91
511.354	10466.98
511.722	10567.77
512.09	10629.92
512.458	10655.23
512.826	10782.68
513.193	10820.42
513.561	10820.65
513.929	10942.9
514.297	11018.61
514.664	11131.37
515.032	11192.16
515.4	11288.88
515.767	11321.65
516.135	11420.41
516.502	11331.82
516.869	11536.11
517.237	11583.79
517.604	11585.15
517.972	11711.47
518.339	11849.32
518.706	11829.43
519.073	11853.39
519.44	12003.67
519.808	12082.54
520.175	12050.45
520.542	12182.87
520.909	12350.55
521.276	12292.25
521.643	12465.12
522.009	12494.73
522.376	12655.63
522.743	12677.32
523.11	12740.15
523.477	12890.88
523.843	13005.67
524.21	13110.08
524.577	13156.63
524.943	13220.58
525.31	13294.71
525.676	13386.91
526.043	13428.26
526.409	13541.48
526.776	13755.71
527.142	13761.81
527.508	13821.25
527.874	13936.27
528.241	14028.02
528.607	14030.51
528.973	14160.45
529.339	14167.68
529.705	14292.19
530.071	14475.92
530.437	14467.33
530.803	14642.92
531.169	14672.52
531.535	14661.9
531.901	14778.06
532.267	14755.91
532.632	14872.29
532.998	14879.3
533.364	15091.72
533.73	15066.41
534.095	15156.35
534.461	15231.15
534.826	15390.7
535.192	15331.49
535.557	15455.33
535.923	15538.26
536.288	15515.89
536.653	15639.28
537.019	15552.5
537.384	15702.55
537.749	15829.56
538.114	15875.2
538.479	15857.58
538.845	15978.25
539.21	15951.13
539.575	16078.81
539.94	16087.18
540.305	16182.31
540.67	16190.9
541.034	16317.68
541.399	16336.66
541.764	16439.93
542.129	16521.06
542.494	16593.15
542.858	16573.26
543.223	16684
543.587	16693.26
543.952	16712.92
544.316	16790.43
544.681	16917.44
545.045	16995.4
545.41	17108.62
545.774	17128.96
546.138	17194.49
546.503	17266.81
546.867	17326.01
547.231	17504.99
547.595	17469.96
547.959	17552.9
548.324	17512.9
548.688	17577.31
549.052	17662.28
549.416	17685.1
549.779	17721.48
550.143	17804.19
550.507	17937.75
550.871	17895.49
551.235	17902.04
551.599	18125.31
551.962	18232.66
552.326	18246.44
552.689	18298.19
553.053	18287.34
553.417	18319.89
553.78	18553.55
554.143	18580.44
554.507	18575.7
554.87	18684.62
555.234	18784.51
555.597	18677.62
555.96	18814.79
556.323	18943.82
556.686	18954.67
557.05	19076.02
557.413	19004.16
557.776	19197.15
558.139	19236.47
558.502	19328.22
558.865	19325.51
559.228	19465.39
559.59	19486.86
559.953	19560.98
560.316	19699.28
560.679	19724.37
561.041	19861.09
561.404	19976.57
561.767	19974.98
562.129	20028.99
562.492	20146.28
562.854	20231.7
563.217	20237.8
563.579	20268.53
563.941	20434.63
564.304	20471.47
564.666	20647.96
565.028	20712.59
565.39	20774.74
565.753	20857.45
566.115	20839.59
566.477	20951.68
566.839	20984.67
567.201	21166.14
567.563	21157.33
567.925	21317.32
568.287	21259.7
568.648	21386.25
569.01	21532.46
569.372	21609.97
569.734	21652.45
570.095	21814.71
570.457	21834.14
570.819	21795.05
571.18	21973.12
571.542	22131.54
571.903	22096.06
572.265	22177.86
572.626	22329.05
572.987	22380.8
573.349	22541.7
573.71	22536.05
574.071	22706.21
574.432	22816.26
574.794	23050.38
575.155	22981.23
575.516	22992.31
575.877	23136.93
576.238	23334.44
576.599	23512.74
576.96	23550.93
577.32	23629.12
577.681	23813.53
578.042	23920.42
578.403	23992.05
578.763	24095.78
579.124	24254.87
579.485	24461.64
579.845	24688.98
580.206	24713.39
580.566	24885.59
580.927	24969.65
581.287	25178.01
581.648	25211
582.008	25580.71
582.368	25630.2
582.728	25808.95
583.089	25827.26
583.449	26155.39
583.809	26359.67
584.169	26593.79
584.529	26637.63
584.889	26995.82
585.249	27062.71
585.609	27100.9
585.969	27484.16
586.329	27684.61
586.688	27796.02
587.048	27983.36
587.408	28150.14
587.768	28316.68
588.127	28533.63
588.487	28768.42
588.846	29118.7
589.206	29214.51
589.565	29299.03
589.925	29739.7
590.284	29721.39
590.643	30079.12
591.003	30252
591.362	30522.95
591.721	30660.58
592.08	30804.53
592.44	31297.17
592.799	31423.5
593.158	31488.58
593.517	31656.94
593.876	31925.63
594.235	32077.72
594.593	32328.56
594.952	32580.98
595.311	32727.19
595.67	32836.57
596.029	33252.6
596.387	33604.46
596.746	33617.34
597.104	33680.61
597.463	33823.66
597.822	34173.03
598.18	34201.73
598.538	34415.73
598.897	34784.31
599.255	34583.19
599.613	35281.93
599.972	35046.45
600.33	35496.38
600.688	35439.44
601.046	35765.53
601.404	36061.34
601.762	36035.13
602.12	36345.4
602.478	36534.55
602.836	36608.22
603.194	36525.96
603.552	36775.45
603.91	36778.16
604.268	37194.42
604.625	37284.13
604.983	37419.95
605.341	37435.77
605.698	37737.91
606.056	37923.89
606.413	38029.2
606.771	38360.71
607.128	38274.62
607.485	38239.59
607.843	38414.27
608.2	38720.03
608.557	38825.79
608.914	38854.03
609.272	39201.6
609.629	39352.55
609.986	39629.16
610.343	39393.23
610.7	39762.94
611.057	39797.96
611.414	39828.92
611.771	39900.34
612.127	40213.55
612.484	40161.35
612.841	40472.98
613.198	40283.15
613.554	40468
613.911	40788.45
614.267	40845.85
614.624	40932.17
614.98	41001.78
615.337	41277.25
615.693	41117.25
616.05	41223.01
616.406	41527.86
616.762	41311.82
617.118	41555.66
617.475	41540.74
617.831	41706.84
618.187	41760.63
618.543	42014.18
618.899	42224.12
619.255	42101.41
619.611	42280.84
619.967	42260.72
620.323	42554.05
620.678	42299.82
621.034	42226.6
621.39	42383.21
621.746	42384.34
622.101	42957.43
622.457	42678.12
622.812	42730.54
623.168	42865
623.523	42728.51
623.879	43116.75
624.234	42822.52
624.589	42937.32
624.945	43115.62
625.3	43099.12
625.655	43140.02
626.01	43205.78
626.365	43204.88
626.72	43188.61
627.075	43338.89
627.43	43286.01
627.785	43282.39
628.14	43449.85
628.495	43317.19
628.85	43302.96
629.205	43125.11
629.559	43463.63
629.914	43280.59
630.269	43375.27
630.623	43316.74
630.978	43301.6
631.332	43561.93
631.687	43510.41
632.041	43428.38
632.396	43566.23
632.75	43370.3
633.104	43308.16
633.459	43380.7
633.813	43305.67
634.167	43335.27
634.521	43306.12
634.875	43550.18
635.229	43468.83
635.583	43170.08
635.937	43303.86
636.291	43154.49
636.645	43213.47
636.999	43199.01
637.352	43159.91
637.706	42935.96
638.06	43229.29
638.413	43118.78
638.767	43009.18
639.121	43154.49
639.474	42875.85
639.828	42850.99
640.181	42935.06
640.534	43010.76
640.888	42965.11
641.241	42668.85
641.594	42794.72
641.947	42978.67
642.301	42832.69
642.654	42896.87
643.007	42922.4
643.36	42798.79
643.713	42663.65
644.066	42922.85
644.419	42584.11
644.771	42444
645.124	42173.27
645.477	42019.6
645.83	41650.35
646.182	41609.22
646.535	41460.97
646.888	41546.62
647.24	41302.56
647.593	41549.11
647.945	41498.26
648.298	41225.72
648.65	41276.34
649.002	41119.29
649.355	41262.56
649.707	41280.64
650.059	41469.79
650.411	41881.75
650.763	41850.79
651.115	42392.02
651.467	42178.24
651.819	42265.47
652.171	42171.46
652.523	41927.85
652.875	42138.69
653.227	41869.55
653.578	42075.65
653.93	42068.87
654.282	41879.94
654.633	41652.83
654.985	41891.92
655.337	41813.96
655.688	41949.55
656.039	42013.73
656.391	41541.2
656.742	41758.14
657.094	41740.96
657.445	41921.75
657.796	41790.23
658.147	41654.87
658.498	41680.4
658.849	41870.23
659.2	41705.94
659.551	41634.3
659.902	41726.28
660.253	41748.42
660.604	41711.13
660.955	41580.29
661.306	41665.71
661.656	41579.61
662.007	41557.69
662.358	41530.8
662.708	41536.22
663.059	41601.08
663.409	41416.45
663.76	41627.97
664.11	41547.07
664.461	41624.36
664.811	41540.74
665.161	41476.34
665.511	41472.27
665.862	41438.6
666.212	41671.14
666.562	41756.56
666.912	41469.11
667.262	41527.86
667.612	41594.08
667.962	41494.42
668.312	41385.04
668.662	41540.97
669.011	41529.22
669.361	41330.81
669.711	41410.35
670.06	41360.86
670.41	41299.17
670.76	41257.14
671.109	41546.39
671.459	41434.31
671.808	41208.55
672.157	41347.08
672.507	41096.24
672.856	41066.63
673.205	41207.19
673.554	41370.58
673.904	41112.51
674.253	41293.29
674.602	41047.2
674.951	40656.93
675.3	40426.2
675.649	41056.01
675.998	40993.64
676.346	41058.04
676.695	40990.02
677.044	40823.25
677.393	40827.32
677.741	40917.03
678.09	40802.01
678.438	40799.29
678.787	40760.65
679.135	40795.23
679.484	40472.75
679.832	40772.18
680.181	40464.39
680.529	40596.36
680.877	40418.06
681.225	40480.21
681.573	40766.53
681.922	40380.1
682.27	40143.27
682.618	40329.7
682.966	40025.76
683.314	40362.92
683.661	40030.95
684.009	39927.9
684.357	39763.84
684.705	39980.78
685.053	39927.68
685.4	39857.62
685.748	39760.23
686.095	39713.22
686.443	39585.77
686.79	39549.16
687.138	39649.27
687.485	39532.21
687.832	39375.15
688.18	39424.64
688.527	39198.21
688.874	39181.26
689.221	39140.81
689.568	38954.82
689.915	38973.58
690.262	38976.74
690.609	38741.5
690.956	38636.64
691.303	38731.1
691.65	38409.07
691.997	38589.86
692.344	38313.94
692.69	38373.82
693.037	38250.89
693.383	37980.84
693.73	38136.09
694.077	37811.12
694.423	37882.76
694.769	37711.69
695.116	37662.88
695.462	37657.23
695.808	37523.45
696.155	37565.93
696.501	37252.72
696.847	37355.32
697.193	37055.44
697.539	37284.13
697.885	36944.93
698.231	36851.38
698.577	36728.67
698.923	36665.84
699.269	36549.69
699.614	36331.39
699.96	36354.21
700.306	36381.33
700.651	36187.89
700.997	36086.2
701.342	35904.06
701.688	35905.41
702.033	35771.63
702.379	35930.27
702.724	35580
703.069	35803.72
703.415	35210.97
703.76	35354.69
704.105	35379.78
704.45	35236.95
704.795	35079.9
705.14	35020.24
705.485	34905.21
705.83	34806.01
706.175	34896.62
706.52	34629.74
706.865	34676.74
707.209	34698.66
707.554	34599.46
707.899	34571.44
708.243	34388.39
708.588	34413.47
708.932	34163.54
709.277	34124.67
709.621	34142.75
709.966	33878.8
710.31	33900.94
710.654	33737.33
710.998	33934.16
711.342	33913.37
711.687	33757.22
712.031	33511.58
712.375	33516.32
712.719	33404.01
713.063	33415.08
713.407	33460.28
713.75	33396.78
714.094	33297.8
714.438	33171.02
714.782	33100.97
715.125	33118.14
715.469	32987.97
715.812	32845.38
716.156	32663.24
716.499	32774.42
716.843	32718.38
717.186	32438.38
717.53	32712.73
717.873	32631.37
718.216	32533.75
718.559	32480.19
718.902	32202.23
719.246	32225.51
719.589	32129.69
719.932	32047.66
720.275	32027.77
720.617	31919.3
720.96	32021.67
721.303	32017.6
721.646	31900.32
721.989	31624.85
722.331	31881.79
722.674	31699.65
723.016	31838.63
723.359	31663.94
723.701	31764.28
724.044	31441.12
724.386	31249.26
724.729	31485.42
725.071	31348.02
725.413	31304.63
725.755	31343.72
726.097	31220.11
726.439	30957.52
726.782	30991.19
727.124	31064.18
727.465	31070.74
727.807	30984.19
728.149	30937.63
728.491	30722.95
728.833	30919.1
729.175	30842.49
729.516	30687.47
729.858	30673.23
730.199	30738.99
730.541	30787.35
730.882	30646.34
731.224	30654.93
731.565	30406.12
731.906	30462.17
732.248	30390.08
732.589	30304.66
732.93	30201.38
733.271	30186.92
733.612	30290.19
733.953	30180.82
734.294	30070.54
734.635	29986.47
734.976	30128.16
735.317	29895.85
735.658	29903.76
735.999	29900.82
736.339	29842.29
736.68	29887.72
737.021	29751.22
737.361	29671.9
737.702	29881.16
738.042	29744.67
738.383	29513.04
738.723	29701.28
739.063	29480.95
739.404	29575.86
739.744	29516.43
740.084	29381.97
740.424	29431.46
740.764	29264.91
741.104	29392.59
741.444	29242.76
741.784	29094.07
742.124	29248.86
742.464	29155.08
742.804	29020.4
743.143	28932.04
743.483	29067.63
743.823	28827.41
744.162	28879.83
744.502	28924.35
744.841	28800.51
745.181	28876.22
745.52	28822.89
745.86	28798.93
746.199	28713.74
746.538	28600.07
746.877	28616.11
747.216	28582.67
747.556	28536.11
747.895	28593.74
748.234	28379.51
748.573	28499.73
748.911	28361.88
749.25	28371.6
749.589	28166.86
749.928	28117.14
750.267	28269
750.605	28159.17
750.944	28036.47
751.283	27953.53
751.621	28038.73
751.96	27894.32
752.298	27783.82
752.636	27867.66
752.975	27737.72
753.313	27592.18
753.651	27797.83
753.989	27511.96
754.327	27451.62
754.666	27454.56
755.004	27395.58
755.342	27402.81
755.679	27379.31
756.017	27207.11
756.355	27267.45
756.693	27255.02
