Data from hue_150_FLMS001491_00075.txt Node
Date: Tue Feb 07 16:54:30 GMT 2017
User: dcchb
Spectrometer: FLMS00149
Trigger mode: 0
Integration Time (sec): 2.000000E-2
Scans to average: 10
Electric dark correction enabled: true
Nonlinearity correction enabled: false
Boxcar width: 0
XAxis mode: Wavelengths
Number of Pixels in Spectrum: 2048
>>>>>Begin Spectral Data<<<<<
341.393	-11.57
341.776	-11.57
342.16	-11.57
342.543	-53.6
342.927	-64.9
343.31	-79.14
343.693	-84.56
344.077	-64.22
344.46	-63.32
344.843	-49.08
345.226	-43.21
345.61	-22.41
345.993	-12.47
346.376	-16.09
346.759	14.87
347.142	49
347.525	45.38
347.908	45.61
348.291	77.47
348.674	90.12
349.057	112.05
349.44	135.32
349.823	137.58
350.206	186.17
350.588	198.37
350.971	202.21
351.354	223
351.737	257.8
352.119	234.98
352.502	262.55
352.884	292.15
353.267	291.48
353.65	260.29
354.032	313.62
354.414	299.38
354.797	314.3
355.179	312.27
355.562	322.89
355.944	322.44
356.326	337.35
356.709	354.52
357.091	354.98
357.473	337.8
357.855	344.13
358.238	364.47
358.62	342.77
359.002	340.29
359.384	358.14
359.766	333.06
360.148	333.06
360.53	322.66
360.912	345.71
361.294	353.17
361.676	322.89
362.057	348.2
362.439	353.39
362.821	340.29
363.203	316.79
363.584	305.71
363.966	332.38
364.348	340.06
364.729	322.66
365.111	320.18
365.493	342.77
365.874	309.78
366.256	298.48
366.637	310.23
367.019	303.9
367.4	313.17
367.781	305.71
368.163	333.96
368.544	288.99
368.925	314.98
369.306	338.25
369.688	300.97
370.069	311.81
370.45	334.41
370.831	304.58
371.212	313.17
371.593	305.94
371.974	316.79
372.355	302.77
372.736	324.47
373.117	325.82
373.498	320.18
373.879	303.9
374.26	321.76
374.641	306.16
375.021	318.82
375.402	319.72
375.783	317.24
376.163	332.38
376.544	328.08
376.925	315.88
377.305	335.32
377.686	343.9
378.066	334.86
378.447	350.91
378.827	339.84
379.208	331.93
379.588	336.9
379.968	354.07
380.349	311.14
380.729	352.26
381.109	342.32
381.489	325.6
381.87	338.03
382.25	331.25
382.63	340.06
383.01	339.16
383.39	352.72
383.77	342.55
384.15	337.12
384.53	343.23
384.91	330.8
385.29	360.85
385.67	366.5
386.049	354.98
386.429	357.24
386.809	349.78
387.189	342.77
387.568	343
387.948	354.98
388.328	360.17
388.707	358.14
389.087	346.84
389.466	358.59
389.846	361.76
390.225	369.67
390.605	343.45
390.984	362.66
391.363	382.32
391.743	369.21
392.122	378.25
392.501	371.93
392.881	389.33
393.26	357.69
393.639	390.91
394.018	375.99
394.397	383.22
394.776	387.52
395.155	380.74
395.534	397.01
395.913	371.47
396.292	399.04
396.671	403.56
397.05	388.2
397.429	389.78
397.808	392.26
398.186	407.86
398.565	380.51
398.944	400.85
399.323	405.6
399.701	392.49
400.08	420.51
400.458	400.85
400.837	412.83
401.215	418.48
401.594	410.79
401.972	418.25
402.351	400.85
402.729	422.55
403.107	399.5
403.486	412.6
403.864	395.88
404.242	418.03
404.62	408.99
404.999	408.53
405.377	419.61
405.755	445.14
406.133	443.56
406.511	437.46
406.889	438.82
407.267	423.68
407.645	451.25
408.023	455.54
408.401	454.63
408.779	459.15
409.156	451.7
409.534	455.99
409.912	444.92
410.29	479.72
410.667	479.27
411.045	471.58
411.422	451.47
411.8	481.07
412.178	479.72
412.555	463.9
412.933	475.65
413.31	491.02
413.687	485.37
414.065	517.23
414.442	481.3
414.819	496.67
415.197	500.51
415.574	493.73
415.951	497.12
416.328	540.28
416.705	515.65
417.082	526.5
417.46	517.91
417.837	507.74
418.214	521.53
418.591	514.07
418.967	511.13
419.344	528.08
419.721	555.88
420.098	520.85
420.475	529.44
420.852	552.26
421.228	558.81
421.605	545.25
421.982	555.88
422.358	562.43
422.735	569.89
423.111	565.59
423.488	573.28
423.864	573.95
424.241	588.64
424.617	575.54
424.994	609.66
425.37	599.49
425.746	594.74
426.123	612.37
426.499	580.51
426.875	584.8
427.251	631.35
427.627	623.67
428.003	618.7
428.379	629.55
428.756	620.28
429.132	642.43
429.507	658.25
429.883	653.73
430.259	650.56
430.635	653.27
431.011	659.38
431.387	673.84
431.763	709.77
432.138	700.28
432.514	679.04
432.89	687.62
433.265	701.63
433.641	705.7
434.016	674.74
434.392	714.29
434.767	724.68
435.143	738.24
435.518	724.68
435.894	725.36
436.269	735.98
436.644	751.8
437.02	771.46
437.395	756.1
437.77	769.65
438.145	786.15
438.52	775.76
438.895	801.97
439.271	796.32
439.646	788.19
440.021	794.74
440.395	813.5
440.77	806.26
441.145	792.93
441.52	846.72
441.895	824.12
442.27	844.68
442.645	833.16
443.019	842.65
443.394	842.87
443.769	860.27
444.143	858.24
444.518	872.93
444.892	866.6
445.267	881.52
445.641	896.66
446.016	880.39
446.39	906.15
446.764	877.22
447.139	871.8
447.513	932.36
447.887	924.23
448.262	945.7
448.636	921.74
449.01	943.89
449.384	933.49
449.758	946.83
450.132	964
450.506	975.75
450.88	988.63
451.254	978.69
451.628	992.25
452.002	994.06
452.376	1028.63
452.75	1016.88
453.123	1031.12
453.497	1032.25
453.871	1048.07
454.244	1071.57
454.618	1066.6
454.992	1097.1
455.365	1086.26
455.739	1103.43
456.112	1131.91
456.486	1119.48
456.859	1158.35
457.232	1123.09
457.606	1159.02
457.979	1182.75
458.352	1171
458.725	1214.39
459.099	1220.26
459.472	1233.82
459.845	1268.62
460.218	1262.98
460.591	1283.99
460.964	1305.69
461.337	1304.56
461.71	1331.67
462.083	1338.45
462.456	1333.26
462.829	1388.17
463.201	1390.66
463.574	1397.89
463.947	1392.46
464.32	1453.7
464.692	1464.33
465.065	1494.61
465.438	1481.5
465.81	1542.06
466.183	1576.64
466.555	1577.09
466.928	1569.63
467.3	1593.81
467.672	1598.33
468.045	1692.79
468.417	1679.91
468.789	1681.04
469.161	1717.65
469.534	1761.49
469.906	1792
470.278	1824.99
470.65	1856.63
471.022	1884.88
471.394	1957.87
471.766	2008.27
472.138	1994.93
472.51	2027.47
472.882	2074.71
473.253	2101.37
473.625	2153.57
473.997	2179.11
474.369	2203.29
474.74	2265.66
475.112	2354.92
475.484	2394.7
475.855	2452.1
476.227	2496.62
476.598	2574.35
476.97	2652.32
477.341	2678.53
477.713	2739.77
478.084	2794.91
478.455	2879.43
478.827	2943.16
479.198	3048.01
479.569	3105.64
479.94	3202.59
480.311	3265.41
480.682	3346.54
481.053	3469.47
481.424	3555.57
481.795	3607.32
482.166	3737.03
482.537	3796.47
482.908	3966.63
483.279	4044.37
483.65	4077.59
484.021	4306.29
484.391	4354.19
484.762	4397.13
485.133	4507.18
485.503	4650.23
485.874	4777.01
486.244	4896.1
486.615	5083.67
486.985	5135.87
487.356	5301.74
487.726	5386.93
488.097	5535.41
488.467	5667.38
488.837	5793.03
489.207	5896.75
489.578	6061.95
489.948	6157.76
490.318	6273.92
490.688	6367.02
491.058	6570.41
491.428	6754.81
491.798	6814.47
492.168	7056.5
492.538	7111.64
492.908	7241.58
493.278	7361.57
493.648	7421.91
494.017	7643.15
494.387	7783.26
494.757	7938.51
495.126	8050.14
495.496	8120.42
495.866	8280.19
496.235	8360.19
496.605	8490.36
496.974	8623.91
497.344	8760.86
497.713	8860.97
498.082	9003.34
498.452	9098.93
498.821	9158.81
499.19	9308.41
499.559	9376.66
499.928	9531.68
500.298	9564
500.667	9697.33
501.036	9702.08
501.405	9909.53
501.774	9931
502.143	9986.59
502.512	10110.65
502.88	10281.95
503.249	10293.02
503.618	10410.76
503.987	10493.92
504.356	10561.71
504.724	10646.46
505.093	10656.85
505.462	10789.28
505.83	10840.12
506.199	10973.68
506.567	11028.59
506.936	11096.39
507.304	11239.21
507.672	11243.05
508.041	11396.95
508.409	11424.29
508.777	11482.14
509.145	11590.39
509.514	11582.48
509.882	11684.4
510.25	11701.34
510.618	11744.51
510.986	11806.2
511.354	11850.72
511.722	11912.19
512.09	11985.86
512.458	12015.91
512.826	12139.3
513.193	12192.18
513.561	12186.76
513.929	12314.66
514.297	12358.73
514.664	12379.29
515.032	12409.8
515.4	12562.79
515.767	12597.14
516.135	12578.38
516.502	12524.37
516.869	12746.97
517.237	12743.8
517.604	12640.76
517.972	12783.8
518.339	12736.35
518.706	12811.82
519.073	12892.27
519.44	12839.85
519.808	12972.05
520.175	12938.83
520.542	13111.48
520.909	13114.19
521.276	13091.59
521.643	13121.65
522.009	13181.31
522.376	13182.89
522.743	13247.74
523.11	13325.26
523.477	13324.35
523.843	13377.01
524.21	13457.46
524.577	13521.18
524.943	13598.24
525.31	13506.72
525.676	13689.99
526.043	13595.08
526.409	13613.16
526.776	13702.65
527.142	13702.42
527.508	13753.49
527.874	13815.64
528.241	13809.54
528.607	13777.45
528.973	13871.68
529.339	13778.35
529.705	13817.45
530.071	13884.34
530.437	13863.32
530.803	13858.35
531.169	13927.73
531.535	13852.02
531.901	13865.13
532.267	13857.22
532.632	13859.48
532.998	13803.44
533.364	13937.9
533.73	13849.54
534.095	13820.39
534.461	13915.98
534.826	13856.99
535.192	13851.34
535.557	13929.99
535.923	13877.33
536.288	13886.82
536.653	13853.38
537.019	13740.84
537.384	13704.23
537.749	13729.31
538.114	13733.16
538.479	13659.94
538.845	13675.98
539.21	13523.44
539.575	13661.75
539.94	13587.62
540.305	13646.83
540.67	13582.88
541.034	13545.36
541.399	13530.9
541.764	13469.21
542.129	13537.68
542.494	13417.01
542.858	13379.49
543.223	13397.12
543.587	13305.14
543.952	13328.65
544.316	13275.99
544.681	13266.05
545.045	13197.58
545.41	13261.3
545.774	13126.84
546.138	13181.31
546.503	13041.65
546.867	13148.76
547.231	13168.65
547.595	13050.24
547.959	13029.22
548.324	13001.42
548.688	12927.53
549.052	12939.73
549.416	12868.77
549.779	12737.7
550.143	12805.72
550.507	12873.97
550.871	12844.82
551.235	12762.79
551.599	12764.82
551.962	12732.28
552.326	12698.61
552.689	12730.47
553.053	12543.58
553.417	12611.6
553.78	12691.83
554.143	12653.41
554.507	12593.3
554.87	12573.19
555.234	12683.69
555.597	12510.59
555.96	12518.05
556.323	12546.29
556.686	12550.59
557.05	12576.58
557.413	12499.06
557.776	12443.25
558.139	12499.97
558.502	12419.07
558.865	12441.89
559.228	12544.49
559.59	12448.9
559.953	12448.22
560.316	12527.76
560.679	12511.95
561.041	12522.11
561.404	12568.67
561.767	12592.17
562.129	12455.45
562.492	12545.62
562.854	12504.49
563.217	12523.7
563.579	12543.58
563.941	12485.28
564.304	12539.51
564.666	12662.68
565.028	12575.45
565.39	12586.75
565.753	12653.18
566.115	12593.07
566.477	12638.5
566.839	12622.68
567.201	12673.07
567.563	12643.02
567.925	12733.41
568.287	12684.6
568.648	12680.3
569.01	12749
569.372	12801.88
569.734	12753.52
570.095	12775.67
570.457	12770.02
570.819	12771.37
571.18	12729.34
571.542	12824.03
571.903	12772.05
572.265	12902.44
572.626	12851.6
572.987	12802.78
573.349	12857.47
573.71	12817.02
574.071	12925.49
574.432	12851.15
574.794	12984.93
575.155	12958.94
575.516	12895.66
575.877	12985.6
576.238	12949.67
576.599	12973.63
576.96	12956.45
577.32	12914.87
577.681	12956.23
578.042	12964.36
578.403	12990.35
578.763	12979.96
579.124	12984.47
579.485	12965.49
579.845	12963.68
580.206	12965.72
580.566	13015.43
580.927	13002.33
581.287	12943.8
581.648	12960.52
582.008	12988.09
582.368	13033.51
582.728	12991.71
583.089	12981.54
583.449	12887.75
583.809	12930.69
584.169	12913.97
584.529	12861.99
584.889	12989.9
585.249	12869.45
585.609	12847.08
585.969	12890.92
586.329	12826.96
586.688	12830.35
587.048	12826.74
587.408	12897.47
587.768	12873.07
588.127	12845.27
588.487	12813.63
588.846	12893.63
589.206	12846.17
589.565	12749
589.925	12840.75
590.284	12781.99
590.643	12856.34
591.003	12828.55
591.362	12760.3
591.721	12881.65
592.08	12760.3
592.44	12833.74
592.799	12776.8
593.158	12767.53
593.517	12733.86
593.876	12786.74
594.235	12687.31
594.593	12825.61
594.952	12778.15
595.311	12697.25
595.67	12620.19
596.029	12818.38
596.387	12790.58
596.746	12780.19
597.104	12730.7
597.463	12725.27
597.822	12784.03
598.18	12658.38
598.538	12693.41
598.897	12791.26
599.255	12579.29
599.613	12771.83
599.972	12681.43
600.33	12712.84
600.688	12693.64
601.046	12818.38
601.404	12746.06
601.762	12592.85
602.12	12730.92
602.478	12699.06
602.836	12712.62
603.194	12625.39
603.552	12631.94
603.91	12613.19
604.268	12741.32
604.625	12601.89
604.983	12638.95
605.341	12650.47
605.698	12691.6
606.056	12738.38
606.413	12683.92
606.771	12696.35
607.128	12668.78
607.485	12596.24
607.843	12677.82
608.2	12704.71
608.557	12726.63
608.914	12701.32
609.272	12753.97
609.629	12749.23
609.986	12819.51
610.343	12744.71
610.7	12847.76
611.057	12817.7
611.414	12776.57
611.771	12909.22
612.127	12854.76
612.484	12876.46
612.841	12916
613.198	12865.38
613.554	12901.31
613.911	12890.69
614.267	12962.55
614.624	12865.61
614.98	12896.12
615.337	12956.23
615.693	12932.27
616.05	12900.41
616.406	13017.47
616.762	12969.79
617.118	12934.53
617.475	12967.98
617.831	13040.07
618.187	13016.56
618.543	12960.75
618.899	13065.6
619.255	13105.6
619.611	13017.69
619.967	13072.38
620.323	13140.63
620.678	13035.32
621.034	12997.58
621.39	13010.91
621.746	13023.12
622.101	13181.76
622.457	13075.09
622.812	13136.11
623.168	13087.3
623.523	13096.11
623.879	13131.36
624.234	12998.94
624.589	13077.35
624.945	13054.98
625.3	13031.03
625.655	13006.17
626.01	13017.47
626.365	13096.79
626.72	13081.2
627.075	13061.08
627.43	13032.16
627.785	13089.1
628.14	13084.81
628.495	13027.19
628.85	13017.02
629.205	13017.24
629.559	13096.34
629.914	12869.22
630.269	13007.3
630.623	12979.73
630.978	12969.79
631.332	12952.84
631.687	13053.63
632.041	12960.97
632.396	12868.77
632.75	12894.31
633.104	13024.93
633.459	12983.12
633.813	12927.75
634.167	12831.71
634.521	12823.35
634.875	12865.61
635.229	12859.96
635.583	12801.43
635.937	12742.22
636.291	12756.01
636.645	12681.21
636.999	12702.45
637.352	12765.5
637.706	12776.34
638.06	12711.71
638.413	12571.6
638.767	12642.34
639.121	12646.4
639.474	12569.57
639.828	12529.35
640.181	12577.48
640.534	12615.67
640.888	12551.94
641.241	12435.56
641.594	12489.8
641.947	12471.04
642.301	12536.13
642.654	12464.26
643.007	12485.05
643.36	12507.65
643.713	12484.83
644.066	12532.74
644.419	12408.44
644.771	12363.25
645.124	12309.92
645.477	12307.88
645.83	12250.93
646.182	12162.12
646.535	12083.71
646.888	12083.71
647.24	12016.82
647.593	11996.7
647.945	12052.07
648.298	12038.29
648.65	11960.1
649.002	11938.85
649.355	12049.81
649.707	12011.62
650.059	12134.33
650.411	12258.17
650.763	12315.79
651.115	12355.11
651.467	12351.27
651.819	12356.69
652.171	12407.77
652.523	12233.08
652.875	12312.18
653.227	12322.8
653.578	12402.34
653.93	12305.4
654.282	12323.02
654.633	12256.13
654.985	12267.21
655.337	12268.56
655.688	12241.67
656.039	12392.4
656.391	12300.88
656.742	12282.57
657.094	12283.02
657.445	12295.91
657.796	12318.28
658.147	12357.37
658.498	12257.49
658.849	12292.06
659.2	12316.24
659.551	12302.01
659.902	12328.67
660.253	12325.06
660.604	12376.58
660.955	12304.94
661.306	12350.82
661.656	12343.81
662.007	12376.13
662.358	12434.88
662.708	12308.33
663.059	12337.26
663.409	12316.24
663.76	12488.44
664.11	12350.37
664.461	12389.24
664.811	12404.38
665.161	12344.27
665.511	12328.45
665.862	12305.62
666.212	12366.86
666.562	12454.09
666.912	12352.4
667.262	12305.62
667.612	12286.87
667.962	12377.94
668.312	12345.62
668.662	12433.08
669.011	12307.66
669.361	12292.97
669.711	12316.02
670.06	12311.27
670.41	12275.79
670.76	12250.26
671.109	12346.3
671.459	12308.79
671.808	12242.57
672.157	12335.9
672.507	12225.85
672.856	12207.55
673.205	12283.48
673.554	12327.77
673.904	12286.41
674.253	12362.34
674.602	12222.46
674.951	12088.68
675.3	11999.42
675.649	12142.46
675.998	12146.08
676.346	12158.73
676.695	12163.25
677.044	12121.67
677.393	12167.55
677.741	12144.95
678.09	12073.99
678.438	12089.13
678.787	12149.24
679.135	12101.56
679.484	12022.92
679.832	12074.89
680.181	11958.06
680.529	12004.61
680.877	11915.35
681.225	11953.09
681.573	11976.14
681.922	11892.07
682.27	11870.15
682.618	11851.4
682.966	11740.44
683.314	11852.53
683.661	11787.44
684.009	11729.82
684.357	11638.75
684.705	11644.62
685.053	11639.88
685.4	11650.72
685.748	11579.31
686.095	11618.64
686.443	11639.43
686.79	11575.92
687.138	11622.7
687.485	11600.1
687.832	11527.79
688.18	11548.58
688.527	11499.09
688.874	11438.07
689.221	11401.47
689.568	11373.22
689.915	11393.56
690.262	11392.88
690.609	11307.23
690.956	11178.19
691.303	11154.01
691.65	11152.21
691.997	11128.03
692.344	11031.76
692.69	11035.37
693.037	11038.31
693.383	11009.39
693.73	10981.59
694.077	10893.46
694.423	10883.29
694.769	10850.52
695.116	10857.75
695.462	10819.56
695.808	10753.35
696.155	10782.95
696.501	10688.94
696.847	10757.64
697.193	10608.04
697.539	10669.51
697.885	10578.44
698.231	10523.3
698.577	10537.99
698.923	10482.85
699.269	10396.29
699.614	10319.01
699.96	10264.55
700.306	10219.8
700.651	10232.91
700.997	10202.18
701.342	10249.41
701.688	10137.09
702.033	10061.39
702.379	10038.34
702.724	10008.06
703.069	10026.59
703.415	10002.18
703.76	9903.43
704.105	9928.51
704.45	9888.96
704.795	9859.81
705.14	9866.14
705.485	9762.86
705.83	9766.03
706.175	9813.71
706.52	9641.29
706.865	9694.39
707.209	9692.81
707.554	9572.36
707.899	9648.07
708.243	9577.11
708.588	9581.4
708.932	9528.75
709.277	9477
709.621	9492.14
709.966	9422.31
710.31	9392.71
710.654	9318.81
710.998	9367.62
711.342	9360.62
711.687	9327.4
712.031	9321.75
712.375	9247.62
712.719	9222.09
713.063	9233.84
713.407	9280.17
713.75	9228.87
714.094	9150.23
714.438	9156.78
714.782	9204.24
715.125	9130.57
715.469	9066.39
715.812	9151.13
716.156	9073.84
716.499	9061.64
716.843	9079.49
717.186	8979.16
717.53	9093.96
717.873	9011.25
718.216	9009.89
718.559	8918.37
718.902	8924.24
719.246	8868.2
719.589	8910.91
719.932	8897.58
720.275	8907.07
720.617	8877.01
720.96	8854.19
721.303	8881.31
721.646	8853.74
721.989	8799.5
722.331	8844.02
722.674	8852.61
723.016	8842.44
723.359	8852.15
723.701	8777.13
724.044	8791.14
724.386	8726.51
724.729	8781.2
725.071	8783.91
725.413	8768.31
725.755	8704.14
726.097	8740.07
726.439	8683.57
726.782	8772.61
727.124	8717.47
727.465	8687.86
727.807	8653.06
728.149	8634.08
728.491	8588.88
728.833	8751.14
729.175	8673.18
729.516	8611.93
729.858	8705.27
730.199	8627.08
730.541	8620.97
730.882	8592.5
731.224	8592.05
731.565	8566.06
731.906	8653.97
732.248	8596.57
732.589	8520.19
732.93	8549.79
733.271	8578.72
733.612	8614.19
733.953	8598.6
734.294	8570.13
734.635	8541.43
734.976	8637.02
735.317	8585.49
735.658	8580.52
735.999	8561.31
736.339	8534.2
736.68	8603.57
737.021	8573.52
737.361	8591.37
737.702	8584.36
738.042	8604.25
738.383	8608.54
738.723	8576.91
739.063	8576
739.404	8630.01
739.744	8614.19
740.084	8595.44
740.424	8587.75
740.764	8607.64
741.104	8678.83
741.444	8644.48
741.784	8626.85
742.124	8682.44
742.464	8677.47
742.804	8664.81
743.143	8706.17
743.483	8732.38
743.823	8711.14
744.162	8778.26
744.502	8776
744.841	8828.2
745.181	8885.15
745.52	8876.33
745.86	8909.78
746.199	8958.82
746.538	8993.62
746.877	9039.72
747.216	9140.06
747.556	9111.36
747.895	9146.38
748.234	9186.61
748.573	9230.9
748.911	9264.8
749.25	9399.03
749.589	9379.82
749.928	9448.07
750.267	9542.98
750.605	9525.13
750.944	9647.16
751.283	9685.58
751.621	9770.55
751.96	9852.81
752.298	9966.48
752.636	10062.97
752.975	10087.6
753.313	10169.18
753.651	10385
753.989	10357.65
754.327	10486.01
754.666	10626.34
755.004	10684.87
755.342	10863.63
755.679	10969.39
756.017	11029.72
756.355	11212.09
756.693	11330.06
757.031	11491.63
757.368	11534.57
757.706	11707.22
758.044	11742.47
758.381	11940.43
758.719	12135.68
759.056	12351.95
