Data from hue_340_FLMS001491_55.txt Node
Date: Mon Feb 06 15:43:18 GMT 2017
User: dcchb
Spectrometer: FLMS00149
Trigger mode: 0
Integration Time (sec): 2.000000E-2
Scans to average: 10
Electric dark correction enabled: true
Nonlinearity correction enabled: false
Boxcar width: 0
XAxis mode: Wavelengths
Number of Pixels in Spectrum: 2048
>>>>>Begin Spectral Data<<<<<
341.393	-16.48
341.776	-16.48
342.16	-16.48
342.543	-68.46
342.927	-73.43
343.31	-77.05
343.693	-55.8
344.077	-62.81
344.46	-66.2
344.843	-65.07
345.226	-57.84
345.61	-22.58
345.993	-17.16
346.376	-4.73
346.759	15.38
347.142	29.84
347.525	40.24
347.908	62.61
348.291	65.1
348.674	94.47
349.057	121.59
349.44	105.55
349.823	138.32
350.206	153.68
350.588	197.07
350.971	218.31
351.354	222.61
351.737	237.3
352.119	235.04
352.502	251.08
352.884	266.67
353.267	279.55
353.65	268.48
354.032	286.33
354.414	302.38
354.797	329.72
355.179	330.4
355.562	318.65
355.944	329.27
356.326	344.19
356.709	332.21
357.091	336.28
357.473	322.94
357.855	315.26
358.238	337.63
358.62	346.67
359.002	341.02
359.384	334.47
359.766	331.98
360.148	321.81
360.53	343.96
360.912	339.44
361.294	319.55
361.676	326.11
362.057	346.9
362.439	322.94
362.821	322.49
363.203	306.22
363.584	316.62
363.966	307.8
364.348	325.88
364.729	333.34
365.111	317.29
365.493	321.59
365.874	313.68
366.256	308.03
366.637	303.28
367.019	310.29
367.4	311.42
367.781	323.62
368.163	310.74
368.544	308.93
368.925	320.01
369.306	310.74
369.688	298.76
370.069	303.51
370.45	301.7
370.831	291.76
371.212	330.4
371.593	298.31
371.974	313.23
372.355	310.29
372.736	325.66
373.117	326.33
373.498	318.2
373.879	322.94
374.26	305.32
374.641	322.04
375.021	307.12
375.402	293.57
375.783	317.52
376.163	313.23
376.544	327.69
376.925	322.49
377.305	308.71
377.686	312.32
378.066	324.3
378.447	322.94
378.827	333.11
379.208	320.68
379.588	317.07
379.968	309.84
380.349	330.63
380.729	317.97
381.109	331.08
381.489	326.79
381.87	334.24
382.25	330.4
382.63	320.23
383.01	329.72
383.39	350.74
383.77	337.18
384.15	314.58
384.53	335.15
384.91	343.73
385.29	329.5
385.67	335.37
386.049	351.64
386.429	324.98
386.809	343.73
387.189	336.28
387.568	345.77
387.948	339.89
388.328	342.38
388.707	339.89
389.087	376.95
389.466	343.51
389.846	356.39
390.225	359.33
390.605	346.9
390.984	371.3
391.363	358.87
391.743	377.86
392.122	370.85
392.501	365.88
392.881	376.28
393.26	364.52
393.639	362.94
394.018	365.43
394.397	372.66
394.776	374.24
395.155	377.18
395.534	352.1
395.913	374.69
396.292	375.37
396.671	365.43
397.05	348.48
397.429	351.64
397.808	369.04
398.186	355.03
398.565	364.3
398.944	381.25
399.323	367.46
399.701	384.18
400.08	386.22
400.458	381.92
400.837	383.96
401.215	387.12
401.594	373.79
401.972	391.64
402.351	407.69
402.729	409.04
403.107	404.52
403.486	403.17
403.864	378.54
404.242	383.28
404.62	385.99
404.999	416.95
405.377	410.85
405.755	391.19
406.133	405.88
406.511	406.56
406.889	404.07
407.267	424.86
407.645	409.72
408.023	411.75
408.401	397.29
408.779	422.6
409.156	441.36
409.534	416.73
409.912	445.2
410.29	472.77
410.667	434.13
411.045	447.91
411.422	444.07
411.8	457.4
412.178	462.6
412.555	429.83
412.933	455.6
413.31	489.04
413.687	468.25
414.065	477.06
414.442	493.33
414.819	483.84
415.197	509.61
415.574	514.35
415.951	492.2
416.328	521.58
416.705	515.25
417.082	491.07
417.46	519.55
417.837	524.75
418.214	544.63
418.591	527.68
418.967	538.98
419.344	528.36
419.721	517.29
420.098	524.52
420.475	534.46
420.852	567.91
421.228	553.67
421.605	576.5
421.982	550.96
422.358	578.3
422.735	585.54
423.111	568.81
423.488	583.5
423.864	588.25
424.241	580.56
424.617	584.63
424.994	588.93
425.37	609.94
425.746	608.59
426.123	644.97
426.499	614.46
426.875	634.12
427.251	638.42
427.627	615.59
428.003	637.74
428.379	640
428.756	648.36
429.132	657.17
429.507	684.97
429.883	647.23
430.259	680.9
430.635	685.42
431.011	672.09
431.387	693.56
431.763	685.42
432.138	701.92
432.514	729.94
432.89	711.63
433.265	719.32
433.641	727.68
434.016	746.66
434.392	738.98
434.767	767
435.143	761.8
435.518	764.51
435.894	747.79
436.269	787.79
436.644	783.95
437.02	772.65
437.395	794.12
437.77	800.67
438.145	801.57
438.52	792.54
438.895	818.07
439.271	816.72
439.646	861.91
440.021	843.38
440.395	855.58
440.77	846.32
441.145	827.11
441.52	839.54
441.895	843.38
442.27	836.83
442.645	860.33
443.019	879.54
443.394	881.12
443.769	868.92
444.143	871.18
444.518	896.49
444.892	886.77
445.267	912.53
445.641	914.79
446.016	931.52
446.39	898.07
446.764	928.13
447.139	907.33
447.513	941.23
447.887	898.75
448.262	909.37
448.636	922.02
449.01	956.15
449.384	918.41
449.758	929.48
450.132	947.11
450.506	921.35
450.88	955.92
451.254	942.81
451.628	957.73
452.002	974.9
452.376	980.1
452.75	978.52
453.123	989.59
453.497	970.61
453.871	985.98
454.244	988.91
454.618	1004.28
454.992	1024.85
455.365	1050.16
455.739	1039.76
456.112	1054.9
456.486	1049.7
456.859	1064.62
457.232	1096.48
457.606	1082.92
457.979	1098.97
458.352	1101.91
458.725	1090.38
459.099	1100.32
459.472	1139.65
459.845	1113.88
460.218	1161.11
460.591	1160.44
460.964	1168.34
461.337	1159.08
461.71	1181.9
462.083	1221.45
462.456	1198.85
462.829	1193.43
463.201	1189.59
463.574	1217.38
463.947	1251.28
464.32	1259.87
464.692	1256.93
465.065	1252.86
465.438	1304.39
465.81	1286.53
466.183	1336.93
466.555	1317.95
466.928	1327.21
467.3	1333.76
467.672	1349.81
468.045	1397.94
468.417	1376.02
468.789	1402.46
469.161	1413.54
469.534	1424.38
469.906	1439.3
470.278	1464.61
470.65	1478.39
471.022	1474.1
471.394	1499.86
471.766	1514.1
472.138	1553.87
472.51	1564.49
472.882	1577.15
473.253	1574.44
473.625	1615.56
473.997	1644.04
474.369	1619.86
474.74	1653.3
475.112	1695.34
475.484	1689.46
475.855	1738.05
476.227	1782.79
476.598	1774.2
476.97	1791.83
477.341	1824.82
477.713	1837.71
478.084	1895.33
478.455	1912.73
478.827	1956.8
479.198	1979.17
479.569	2013.97
479.94	2029.34
480.311	2029.11
480.682	2113.4
481.053	2090.58
481.424	2138.94
481.795	2173.06
482.166	2192.95
482.537	2247.41
482.908	2272.27
483.279	2298.03
483.65	2327.64
484.021	2379.39
484.391	2394.3
484.762	2422.32
485.133	2425.26
485.503	2470.01
485.874	2486.95
486.244	2526.5
486.615	2576.9
486.985	2594.97
487.356	2619.83
487.726	2630.91
488.097	2698.47
488.467	2694.41
488.837	2769.21
489.207	2794.29
489.578	2838.36
489.948	2842.88
490.318	2904.57
490.688	2894.4
491.058	2957.9
491.428	2965.59
491.798	3014.85
492.168	3046.26
492.538	3088.75
492.908	3122.87
493.278	3136.88
493.648	3144.56
494.017	3169.65
494.387	3210.33
494.757	3244.45
495.126	3291.23
495.496	3267.05
495.866	3304.11
496.235	3323.77
496.605	3363.99
496.974	3375.74
497.344	3446.25
497.713	3408.06
498.082	3412.35
498.452	3463.43
498.821	3489.19
499.19	3505.23
499.559	3501.84
499.928	3562.18
500.298	3582.52
500.667	3608.28
501.036	3620.71
501.405	3654.38
501.774	3615.06
502.143	3660.71
502.512	3683.76
502.88	3707.49
503.249	3700.26
503.618	3754.72
503.987	3711.1
504.356	3745
504.724	3734.83
505.093	3783.19
505.462	3839.46
505.83	3862.74
506.199	3871.1
506.567	3902.28
506.936	3879.01
507.304	3929.18
507.672	3937.09
508.041	3973.92
508.409	3951.55
508.777	3996.97
509.145	4011.43
509.514	4006.24
509.882	3995.84
510.25	4036.74
510.618	4025.22
510.986	4051.66
511.354	4096.4
511.722	4134.14
512.09	4132.33
512.458	4091.66
512.826	4136.85
513.193	4148.38
513.561	4139.57
513.929	4143.18
514.297	4216.17
514.664	4250.75
515.032	4232.22
515.4	4262.27
515.767	4292.33
516.135	4273.8
516.502	4234.25
516.869	4302.95
517.237	4325.78
517.604	4279.68
517.972	4358.09
518.339	4396.73
518.706	4376.4
519.073	4377.53
519.44	4390.41
519.808	4477.18
520.175	4394.25
520.542	4457.07
520.909	4476.28
521.276	4456.62
521.643	4494.81
522.009	4491.2
522.376	4503.85
522.743	4549.5
523.11	4601.02
523.477	4625.88
523.843	4613.68
524.21	4666.11
524.577	4691.87
524.943	4686.22
525.31	4676.5
525.676	4775.26
526.043	4721.7
526.409	4790.4
526.776	4808.93
527.142	4847.34
527.508	4868.13
527.874	4876.72
528.241	4934.57
528.607	4955.14
528.973	4977.51
529.339	4962.6
529.705	4960.11
530.071	5048.02
530.437	5046.89
530.803	5056.6
531.169	5090.5
531.535	5157.84
531.901	5132.08
532.267	5131.63
532.632	5191.29
532.998	5183.83
533.364	5221.12
533.73	5201.01
534.095	5282.36
534.461	5302.47
534.826	5304.51
535.192	5318.29
535.557	5442.13
535.923	5448.46
536.288	5399.19
536.653	5435.13
537.019	5401.91
537.384	5443.94
537.749	5430.83
538.114	5498.17
538.479	5541.34
538.845	5564.84
539.21	5566.42
539.575	5616.82
539.94	5591.73
540.305	5621.11
540.67	5640.09
541.034	5667.44
541.399	5652.75
541.764	5739.75
542.129	5744.95
542.494	5685.74
542.858	5744.5
543.223	5766.87
543.587	5772.97
543.952	5802.12
544.316	5886.41
544.681	5855.45
545.045	5909.46
545.41	5949.69
545.774	5965.73
546.138	5940.65
546.503	5977.94
546.867	5953.98
547.231	6073.07
547.595	6074.43
547.959	6098.16
548.324	6026.07
548.688	6087.76
549.052	6088.22
549.416	6133.19
549.779	6147.42
550.143	6171.83
550.507	6231.26
550.871	6254.54
551.235	6232.39
551.599	6307.64
551.962	6323.24
552.326	6289.79
552.689	6381.09
553.053	6354.88
553.417	6330.7
553.78	6402.56
554.143	6469.9
554.507	6439.84
554.87	6466.74
555.234	6507.87
555.597	6440.75
555.96	6502.44
556.323	6546.73
556.686	6552.38
557.05	6598.71
557.413	6559.39
557.776	6590.12
558.139	6662.89
558.502	6649.33
558.865	6649.33
559.228	6720.29
559.59	6676
559.953	6728.88
560.316	6806.16
560.679	6793.73
561.041	6883.45
561.404	6835.31
561.767	6878.7
562.129	6856.11
562.492	6924.8
562.854	6918.25
563.217	6905.14
563.579	7008.19
563.941	7035.31
564.304	7004.12
564.666	7075.08
565.028	7097.23
565.39	7078.7
565.753	7122.76
566.115	7077.34
566.477	7165.93
566.839	7190.79
567.201	7224.23
567.563	7197.11
567.925	7256.32
568.287	7254.51
568.648	7270.11
569.01	7367.5
569.372	7366.83
569.734	7413.6
570.095	7414.28
570.457	7506.26
570.819	7492.92
571.18	7554.39
571.542	7580.15
571.903	7636.42
572.265	7668.97
572.626	7659.02
572.987	7765.69
573.349	7772.47
573.71	7850.88
574.071	7845.23
574.432	7859.69
574.794	8002.29
575.155	7969.97
575.516	7945.12
575.877	8080.71
576.238	8168.39
576.599	8281.15
576.96	8392.56
577.32	8269.4
577.681	8421.71
578.042	8497.19
578.403	8559.56
578.763	8536.96
579.124	8703.51
579.485	8808.6
579.845	8935.15
580.206	8973.56
580.566	9086.1
580.927	9235.48
581.287	9384.17
581.648	9430.05
582.008	9592.53
582.368	9697.84
582.728	9807.67
583.089	9893.99
583.449	10063.03
583.809	10209.69
584.169	10388.89
584.529	10535.56
584.889	10756.79
585.249	10819.84
585.609	11049.22
585.969	11157.46
586.329	11424.35
586.688	11582.99
587.048	11866.14
587.408	11971.22
587.768	12200.82
588.127	12438.33
588.487	12643.75
588.846	12974.36
589.206	13052.55
589.565	13282.83
589.925	13634.91
590.284	13812.98
590.643	14097.95
591.003	14394.66
591.362	14600.31
591.721	14839.17
592.08	15051.37
592.44	15416.33
592.799	15598.02
593.158	15860.61
593.517	16083.43
593.876	16386.25
594.235	16628.96
594.593	16909.85
594.952	17132.67
595.311	17421.48
595.67	17721.58
596.029	18081.35
596.387	18322.7
596.746	18689.47
597.104	18844.26
597.463	19200.41
597.822	19535.55
598.18	19752.94
598.538	19931.47
598.897	20375.52
599.255	20378.69
599.613	20951.33
599.972	21123.98
600.33	21419.34
600.688	21685.32
601.046	21975.26
601.404	22402.14
601.762	22502.93
602.12	22881.67
602.478	23076.7
602.836	23293.19
603.194	23492.96
603.552	23706.06
603.91	23969.55
604.268	24321.63
604.625	24516.66
604.983	24834.16
605.341	24853.6
605.698	25226.02
606.056	25520.47
606.413	25656.06
606.771	26056.96
607.128	26258.98
607.485	26237.74
607.843	26563.84
608.2	26910.27
608.557	27335.79
608.914	27295.34
609.272	27579.63
609.629	27857.81
609.986	28107.52
610.343	28127.41
610.7	28548.64
611.057	28594.74
611.414	28870.44
611.771	29025.92
612.127	29246.48
612.484	29408.73
612.841	29709.97
613.198	29586.13
613.554	29946.12
613.911	30266.56
614.267	30328.48
614.624	30523.28
614.98	30662.71
615.337	30855.25
615.693	30850.05
616.05	31066.77
616.406	31386.53
616.762	31403.71
617.118	31515.57
617.475	31713.98
617.831	31817.93
618.187	31961.21
618.543	32097.48
618.899	32301.99
619.255	32438.03
619.611	32492.27
619.967	32718.7
620.323	32819.04
620.678	32741.07
621.034	32942.65
621.39	33077.56
621.746	33108.07
622.101	33557.78
622.457	33369.08
622.812	33482.3
623.168	33678.9
623.523	33804.77
623.879	34047.48
624.234	33760.26
624.589	34089.06
624.945	34148.27
625.3	34292.67
625.655	34159.34
626.01	34181.26
626.365	34317.08
626.72	34389.17
627.075	34433.01
627.43	34465.32
627.785	34546
628.14	34559.11
628.495	34776.73
628.85	34666
629.205	34755.71
629.559	34935.59
629.914	34771.08
630.269	34901.7
630.623	34883.62
630.978	34893.56
631.332	35157.51
631.687	35182.59
632.041	35093.33
632.396	35231.18
632.75	35173.33
633.104	35144.4
633.459	35026.21
633.813	34945.99
634.167	35034.57
634.521	35118.86
634.875	35229.37
635.229	35135.81
635.583	34991.64
635.937	35003.84
636.291	35141.24
636.645	35230.5
636.999	35037.74
637.352	35259.43
637.706	35065.53
638.06	35177.85
638.413	35122.25
638.767	35148.02
639.121	35267.79
639.474	35126.1
639.828	35052.2
640.181	35117.73
640.534	35080
640.888	34968.13
641.241	34869.83
641.594	34973.11
641.947	35064.4
642.301	35042.71
642.654	35002.94
643.007	35080.22
643.36	34978.76
643.713	34942.37
644.066	35073.89
644.419	34887.01
644.771	34625.54
645.124	34449.5
645.477	34377.42
645.83	34072.34
646.182	34052.68
646.535	33991.66
646.888	34071.89
647.24	33976.75
647.593	34105.78
647.945	33946.69
648.298	33838.22
648.65	33778.56
649.002	33839.8
649.355	33796.87
649.707	33830.99
650.059	34048.16
650.411	34259
650.763	34415.38
651.115	34891.53
651.467	34624.64
651.819	34610.63
652.171	34687.46
652.523	34609.27
652.875	34632.55
653.227	34402.05
653.578	34768.37
653.93	34513
654.282	34444.08
654.633	34486.34
654.985	34554.13
655.337	34520.46
655.688	34485.89
656.039	34576.51
656.391	34246.35
656.742	34389.84
657.094	34356.85
657.445	34530.18
657.796	34284.31
658.147	34357.3
658.498	34386.45
658.849	34430.75
659.2	34315.04
659.551	34224.65
659.902	34420.13
660.253	34257.19
660.604	34302.16
660.955	34211.77
661.306	34184.88
661.656	34312.56
662.007	34224.65
662.358	34244.09
662.708	34221.94
663.059	34162.28
663.409	34031.66
663.76	34321.15
664.11	34215.84
664.461	34217.19
664.811	34255.38
665.161	34226.91
665.511	34132.22
665.862	34252.22
666.212	34326.8
666.562	34308.72
666.912	34221.71
667.262	34237.76
667.612	34303.97
667.962	34359.79
668.312	34068.95
668.662	34289.73
669.011	34231.88
669.361	34231.88
669.711	34168.38
670.06	34019.91
670.41	34105.56
670.76	34122.05
671.109	34147.82
671.459	34050.42
671.808	34126.35
672.157	34068.04
672.507	33926.58
672.856	33889.52
673.205	34011.32
673.554	34146.01
673.904	33917.31
674.253	34094.26
674.602	33951.44
674.951	33571.11
675.3	33427.61
675.649	33884.55
675.998	33842.97
676.346	33833.93
676.695	34015.84
677.044	33686.59
677.393	33701.05
677.741	33830.54
678.09	33788.28
678.438	33662.63
678.787	33747.83
679.135	33848.62
679.484	33433.94
679.832	33661.73
680.181	33453.15
680.529	33545.35
680.877	33457.44
681.225	33456.99
681.573	33743.99
681.922	33401.4
682.27	33358.46
682.618	33521.39
682.966	33126.37
683.314	33314.39
683.661	33129.31
684.009	33050.9
684.357	33143.78
684.705	32995.3
685.053	32980.84
685.4	32899.94
685.748	32711.47
686.095	32805.03
686.443	32518.03
686.79	32575.65
687.138	32633.28
687.485	32647.97
687.832	32454.3
688.18	32634.86
688.527	32423.12
688.874	32425.15
689.221	32303.12
689.568	32292.95
689.915	32192.16
690.262	32230.35
690.609	32123.24
690.956	32078.94
691.303	32005.27
691.65	31793.98
691.997	31796.01
692.344	31673.53
692.69	31558.51
693.037	31571.39
693.383	31295.46
693.73	31468.57
694.077	31225.41
694.423	31265.86
694.769	31199.19
695.116	31179.99
695.462	31002.36
695.808	30987.45
696.155	31027.67
696.501	30773.22
696.847	30875.13
697.193	30536.61
697.539	30827.45
697.885	30354.47
698.231	30387.24
698.577	30400.34
698.923	30331.87
699.269	30202.38
699.614	30124.87
699.96	30030.41
700.306	30070.18
700.651	29889.4
700.997	29872.9
701.342	29681.95
701.688	29724.2
702.033	29621.16
702.379	29636.3
702.724	29556.07
703.069	29576.64
703.415	29198.57
703.76	29134.62
704.105	29199.7
704.45	29201.28
704.795	28954.06
705.14	28986.37
705.485	28964.68
705.83	28777.34
706.175	28938.46
706.52	28745.02
706.865	28597.23
707.209	28490.79
707.554	28448.98
707.899	28572.14
708.243	28425.03
708.588	28376.9
708.932	28214.41
709.277	28126.05
709.621	28253.73
709.966	27995.21
710.31	28103.68
710.654	27858.49
710.998	28026.17
711.342	27928.09
711.687	27826.63
712.031	27777.81
712.375	27631.15
712.719	27751.15
713.063	27605.84
713.407	27788.21
713.75	27538.73
714.094	27531.04
714.438	27312.06
714.782	27404.72
715.125	27150.94
715.469	27252.4
715.812	27071.62
716.156	27019.64
716.499	26944.62
716.843	26991.17
717.186	26812.19
717.53	26988.23
717.873	26926.09
718.216	26949.14
718.559	26790.04
718.902	26589.37
719.246	26775.13
719.589	26628.69
719.932	26574.68
720.275	26472.99
720.617	26414.91
720.96	26405.87
721.303	26354.58
721.646	26400.9
721.989	26315.03
722.331	26245.43
722.674	26234.35
723.016	26248.82
723.359	26225.31
723.701	26167.69
724.044	26019.22
724.386	25899.45
724.729	26039.1
725.071	25846.34
725.413	25889.5
725.755	25865.1
726.097	25715.72
726.439	25611.09
726.782	25621.94
727.124	25744.87
727.465	25568.83
727.807	25658.77
728.149	25594.37
728.491	25399.8
728.833	25486.35
729.175	25403.64
729.516	25248.62
729.858	25258.79
730.199	25259.69
730.541	25313.02
730.882	25190.99
731.224	25272.34
731.565	25084.55
731.906	24989.19
732.248	25075.74
732.589	24965.46
732.93	24936.31
733.271	24940.38
733.612	24993.26
733.953	24939.47
734.294	24818.8
734.635	24852.02
734.976	24826.71
735.317	24665.35
735.658	24628.07
735.999	24664.68
736.339	24650.44
736.68	24760.04
737.021	24571.35
737.361	24604.79
737.702	24589.88
738.042	24627.84
738.383	24497
738.723	24457.68
739.063	24383.33
739.404	24367.96
739.744	24388.53
740.084	24219.72
740.424	24265.59
740.764	24186.27
741.104	24391.01
741.444	24125.93
741.784	24141.3
742.124	24133.39
742.464	24111.7
742.804	24082.77
743.143	23905.6
743.483	23977.91
743.823	23771.14
744.162	23918.48
744.502	23878.48
744.841	23925.26
745.181	23887.07
745.52	23713.74
745.86	23836.45
746.199	23692.72
746.538	23657.25
746.877	23700.86
747.216	23659.96
747.556	23636.91
747.895	23716.68
748.234	23433.3
748.573	23482.79
748.911	23392.85
749.25	23486.63
749.589	23315.11
749.928	23413.41
750.267	23377.25
750.605	23400.08
750.944	23229.23
751.283	23105.17
751.621	23293.19
751.96	22944.04
752.298	23099.52
752.636	23080.31
752.975	23000.31
753.313	22951.95
753.651	22991.95
753.989	22698.63
754.327	22804.84
754.666	22682.13
755.004	22738.85
755.342	22702.24
755.679	22715.12
756.017	22468.58
756.355	22543.83
756.693	22339.77
757.031	22465.41
757.368	22342.25
757.706	22374.57
758.044	22236.72
758.381	22255.47
758.719	22227.68
759.056	22212.54
759.394	22124.18
759.731	21929.61
760.068	22039.66
760.405	21929.16
760.743	21813
