Data from hue_220_FLMS001491_00056.txt Node
Date: Tue Feb 07 16:39:39 GMT 2017
User: dcchb
Spectrometer: FLMS00149
Trigger mode: 0
Integration Time (sec): 2.000000E-2
Scans to average: 10
Electric dark correction enabled: true
Nonlinearity correction enabled: false
Boxcar width: 0
XAxis mode: Wavelengths
Number of Pixels in Spectrum: 2048
>>>>>Begin Spectral Data<<<<<
341.393	-4.63
341.776	-4.63
342.16	-4.63
342.543	-37.4
342.927	-55.93
343.31	-88.7
343.693	-77.4
344.077	-71.98
344.46	-42.82
344.843	-69.72
345.226	-30.39
345.61	-30.39
345.993	-12.99
346.376	-3.05
346.759	16.38
347.142	26.1
347.525	51.41
347.908	68.13
348.291	75.59
348.674	90.73
349.057	99.09
349.44	113.1
349.823	151.75
350.206	170.5
350.588	171.41
350.971	223.38
351.354	243.5
351.737	247.11
352.119	268.58
352.502	259.54
352.884	280.78
353.267	262.48
353.65	297.28
354.032	302.48
354.414	317.84
354.797	328.69
355.179	319.2
355.562	342.7
355.944	339.09
356.326	327.34
356.709	332.31
357.091	342.48
357.473	342.7
357.855	344.74
358.238	349.71
358.62	339.31
359.002	347.9
359.384	347.22
359.766	317.39
360.148	340.44
360.53	339.31
360.912	321.91
361.294	326.43
361.676	344.51
362.057	344.96
362.439	335.7
362.821	318.3
363.203	326.88
363.584	343.38
363.966	323.95
364.348	313.55
364.729	323.04
365.111	309.94
365.493	330.05
365.874	336.6
366.256	321.46
366.637	315.36
367.019	336.83
367.4	299.09
367.781	298.41
368.163	311.07
368.544	315.13
368.925	310.16
369.306	338.41
369.688	318.07
370.069	292.99
370.45	304.51
370.831	321.46
371.212	307.22
371.593	297.28
371.974	323.04
372.355	321.91
372.736	318.3
373.117	309.48
373.498	308.58
373.879	291.18
374.26	316.71
374.641	321.46
375.021	307.9
375.402	327.79
375.783	348.58
376.163	321.01
376.544	315.81
376.925	321.46
377.305	330.27
377.686	310.16
378.066	322.82
378.447	332.08
378.827	341.57
379.208	330.05
379.588	343.15
379.968	332.53
380.349	324.62
380.729	307.45
381.109	316.49
381.489	302.7
381.87	344.96
382.25	349.26
382.63	342.48
383.01	327.79
383.39	340.67
383.77	345.87
384.15	341.12
384.53	344.28
384.91	332.31
385.29	355.58
385.67	368.46
386.049	351.74
386.429	354.68
386.809	346.54
387.189	351.29
387.568	328.92
387.948	339.99
388.328	365.08
388.707	362.82
389.087	367.79
389.466	349.93
389.846	343.61
390.225	355.13
390.605	361.69
390.984	358.75
391.363	371.4
391.743	384.06
392.122	364.4
392.501	396.03
392.881	349.26
393.26	364.62
393.639	372.76
394.018	369.82
394.397	390.39
394.776	389.03
395.155	372.08
395.534	377.73
395.913	375.92
396.292	387.9
396.671	387.9
397.05	388.58
397.429	389.71
397.808	394.68
398.186	407.79
398.565	380.44
398.944	384.06
399.323	406.88
399.701	400.33
400.08	393.32
400.458	395.58
400.837	408.24
401.215	411.63
401.594	412.76
401.972	406.43
402.351	425.41
402.729	436.03
403.107	430.61
403.486	420.21
403.864	430.16
404.242	429.71
404.62	448.24
404.999	441.23
405.377	443.27
405.755	450.04
406.133	439.65
406.511	457.5
406.889	466.99
407.267	453.89
407.645	467.22
408.023	449.59
408.401	481.91
408.779	486.2
409.156	497.73
409.534	488.69
409.912	497.95
410.29	520.55
410.667	508.57
411.045	520.33
411.422	531.62
411.8	521.68
412.178	563.49
412.555	547.22
412.933	533.66
413.31	561
413.687	577.05
414.065	580.21
414.442	579.08
414.819	583.15
415.197	592.19
415.574	594.45
415.951	624.28
416.328	619.31
416.705	636.25
417.082	655.69
417.46	648.23
417.837	650.72
418.214	667.89
418.591	640.1
418.967	658.4
419.344	668.12
419.721	692.52
420.098	704.05
420.475	715.12
420.852	718.74
421.228	749.02
421.605	711.05
421.982	739.3
422.358	742.92
422.735	765.97
423.111	775.69
423.488	782.47
423.864	817.04
424.241	818.85
424.617	831.05
424.994	834.89
425.37	853.88
425.746	848.23
426.123	855.91
426.499	873.99
426.875	900.2
427.251	887.1
427.627	912.63
428.003	912.41
428.379	945.85
428.756	953.99
429.132	958.96
429.507	984.04
429.883	1000.09
430.259	998.5
430.635	1004.83
431.011	1021.1
431.387	1020.2
431.763	1057.71
432.138	1051.16
432.514	1064.94
432.89	1059.97
433.265	1115.56
433.641	1125.96
434.016	1132.96
434.392	1175.22
434.767	1182.45
435.143	1199.4
435.518	1229.69
435.894	1230.82
436.269	1279.4
436.644	1271.72
437.02	1297.25
437.395	1316.01
437.77	1360.08
438.145	1359.85
438.52	1381.32
438.895	1395.56
439.271	1427.42
439.646	1451.6
440.021	1452.05
440.395	1470.36
440.77	1484.59
441.145	1489.11
441.52	1522.33
441.895	1535.67
442.27	1580.18
442.645	1561.88
443.019	1619.73
443.394	1627.87
443.769	1614.08
444.143	1615.21
444.518	1642.33
444.892	1628.77
445.267	1668.54
445.641	1707.86
446.016	1679.62
446.39	1699.5
446.764	1708.54
447.139	1718.49
447.513	1765.49
447.887	1740.63
448.262	1736.34
448.636	1754.87
449.01	1769.33
449.384	1819.05
449.758	1787.86
450.132	1824.92
450.506	1868.54
450.88	1845.49
451.254	1843.91
451.628	1914.19
452.002	1880.74
452.376	1919.84
452.75	1941.98
453.123	1941.76
453.497	2001.64
453.871	2006.61
454.244	2040.74
454.618	2066.05
454.992	2070.12
455.365	2048.19
455.739	2120.96
456.112	2140.4
456.486	2120.28
456.859	2157.34
457.232	2228.75
457.606	2180.62
457.979	2218.13
458.352	2267.4
458.725	2279.83
459.099	2267.62
459.472	2328.87
459.845	2333.38
460.218	2395.76
460.591	2362.76
460.964	2397.34
461.337	2447.28
461.71	2475.75
462.083	2502.87
462.456	2524.57
462.829	2494.96
463.201	2585.36
463.574	2573.6
463.947	2584.45
464.32	2672.13
464.692	2673.49
465.065	2724.56
465.438	2742.19
465.81	2776.09
466.183	2787.38
466.555	2831.68
466.928	2848.85
467.3	2860.15
467.672	2916.87
468.045	2981.28
468.417	2963.2
468.789	2979.7
469.161	2993.48
469.534	3055.63
469.906	3130.2
470.278	3139.47
470.65	3142.4
471.022	3192.8
471.394	3255.62
471.766	3291.33
472.138	3326.81
472.51	3389.63
472.882	3422.62
473.253	3439.34
473.625	3438.44
473.997	3557.31
474.369	3560.02
474.74	3599.79
475.112	3655.38
475.484	3725.44
475.855	3758.21
476.227	3768.38
476.598	3898.54
476.97	3899.45
477.341	3955.04
477.713	4032.1
478.084	4051.76
478.455	4100.57
478.827	4175.6
479.198	4279.77
479.569	4258.31
479.94	4361.13
480.311	4377.85
480.682	4486.32
481.053	4555.93
481.424	4601.35
481.795	4665.53
482.166	4703.49
482.537	4794.79
482.908	4830.49
483.279	4852.19
483.65	4924.5
484.021	5015.12
484.391	5102.13
484.762	5054.22
485.133	5112.29
485.503	5219.18
485.874	5258.28
486.244	5335.79
486.615	5422.57
486.985	5492.85
487.356	5532.17
487.726	5594.77
488.097	5655.56
488.467	5622.79
488.837	5756.35
489.207	5831.15
489.578	5873.86
489.948	5929.9
490.318	5980.97
490.688	6065.26
491.058	6053.97
491.428	6193.17
491.798	6215.77
492.168	6291.47
492.538	6372.6
492.908	6385.26
493.278	6439.04
493.648	6477.46
494.017	6513.84
494.387	6509.77
494.757	6629.32
495.126	6659.15
495.496	6672.48
495.866	6676.77
496.235	6726.94
496.605	6802.65
496.974	6822.08
497.344	6863.21
497.713	6917.45
498.082	6951.12
498.452	6967.61
498.821	7020.95
499.19	6957.22
499.559	7062.07
499.928	7072.24
500.298	7095.07
500.667	7135.52
501.036	7114.28
501.405	7171.9
501.774	7140.04
502.143	7278.11
502.512	7236.98
502.88	7267.49
503.249	7307.94
503.618	7324.89
503.987	7347.04
504.356	7336.64
504.724	7317.66
505.093	7406.02
505.462	7380.26
505.83	7425.68
506.199	7473.36
506.567	7582.51
506.936	7491.67
507.304	7581.38
507.672	7552.68
508.041	7616.64
508.409	7634.94
508.777	7638.33
509.145	7616.86
509.514	7660.25
509.882	7641.27
510.25	7711.1
510.618	7777.76
510.986	7650.31
511.354	7781.83
511.722	7797.87
512.09	7755.16
512.458	7785.67
512.826	7840.13
513.193	7841.71
513.561	7797.42
513.929	7869.51
514.297	7869.96
514.664	7906.8
515.032	7902.96
515.4	7969.85
515.767	7892.11
516.135	7918.1
516.502	7879.68
516.869	7937.98
517.237	7994.03
517.604	8005.1
517.972	7960.58
518.339	8012.56
518.706	7982.95
519.073	7939.11
519.44	7937.98
519.808	8018.89
520.175	7910.19
520.542	8113.35
520.909	8041.03
521.276	7996.74
521.643	8033.12
522.009	8063.4
522.376	8078.09
522.743	8068.38
523.11	8056.17
523.477	8136.17
523.843	8152.67
524.21	8189.73
524.577	8204.64
524.943	8144.53
525.31	8174.14
525.676	8250.29
526.043	8243.74
526.409	8255.04
526.776	8279.9
527.142	8244.42
527.508	8246.9
527.874	8267.92
528.241	8242.83
528.607	8229.28
528.973	8247.35
529.339	8276.96
529.705	8246.68
530.071	8289.16
530.437	8264.98
530.803	8279.44
531.169	8367.12
531.535	8201.03
531.901	8220.01
532.267	8209.61
532.632	8313.57
532.998	8171.42
533.364	8260.69
533.73	8195.38
534.095	8245.32
534.461	8189.95
534.826	8150.86
535.192	8182.5
535.557	8204.87
535.923	8166.68
536.288	8148.6
536.653	8156.51
537.019	8111.99
537.384	8096.62
537.749	8138.66
538.114	8101.59
538.479	8084.87
538.845	8071.31
539.21	8041.94
539.575	8027.92
539.94	8021.6
540.305	8065.44
540.67	7998.32
541.034	7961.94
541.399	7975.27
541.764	7886.46
542.129	7894.59
542.494	7903.63
542.858	7899.11
543.223	7828.38
543.587	7841.94
543.952	7825.67
544.316	7807.14
544.681	7779.57
545.045	7736.63
545.41	7754.71
545.774	7717.88
546.138	7701.38
546.503	7705.9
546.867	7585.68
547.231	7717.2
547.595	7690.98
547.959	7729.85
548.324	7608.73
548.688	7595.85
549.052	7568.5
549.416	7590.87
549.779	7500.93
550.143	7524.66
550.507	7549.29
550.871	7481.72
551.235	7459.35
551.599	7512.68
551.962	7443.53
552.326	7453.7
552.689	7453.25
553.053	7379.58
553.417	7387.72
553.78	7477.43
554.143	7387.72
554.507	7365.12
554.87	7373.03
555.234	7489.41
555.597	7335.29
555.96	7301.84
556.323	7306.81
556.686	7277.66
557.05	7322.63
557.413	7308.85
557.776	7342.52
558.139	7375.51
558.502	7306.81
558.865	7303.42
559.228	7342.29
559.59	7323.08
559.953	7333.25
560.316	7377.09
560.679	7307.94
561.041	7323.31
561.404	7325.34
561.767	7349.07
562.129	7323.99
562.492	7386.36
562.854	7352.01
563.217	7320.37
563.579	7323.99
563.941	7294.84
564.304	7375.06
564.666	7447.15
565.028	7400.37
565.39	7340.94
565.753	7421.84
566.115	7373.7
566.477	7422.74
566.839	7458.9
567.201	7467.94
567.563	7403.99
567.925	7463.65
568.287	7442.86
568.648	7523.08
569.01	7557.65
569.372	7616.64
569.734	7549.52
570.095	7499.12
570.457	7559.46
570.819	7564.66
571.18	7561.72
571.542	7609.18
571.903	7650.08
572.265	7575.73
572.626	7661.83
572.987	7651.89
573.349	7650.08
573.71	7716.75
574.071	7726.24
574.432	7708.61
574.794	7735.28
575.155	7763.07
575.516	7700.7
575.877	7777.54
576.238	7787.03
576.599	7791.09
576.96	7803.52
577.32	7824.09
577.681	7855.27
578.042	7844.88
578.403	7833.13
578.763	7877.87
579.124	7858.44
579.485	7963.52
579.845	7969.39
580.206	7927.36
580.566	7970.52
580.927	7958.55
581.287	7961.94
581.648	8019.79
582.008	8015.72
582.368	8031.09
582.728	8073.35
583.089	8072.67
583.449	8037.87
583.809	8071.77
584.169	8060.69
584.529	8102.27
584.889	8188.82
585.249	8094.59
585.609	8130.29
585.969	8219.56
586.329	8132.55
586.688	8171.42
587.048	8230.18
587.408	8191.08
587.768	8174.81
588.127	8217.3
588.487	8184.76
588.846	8305.66
589.206	8203.29
589.565	8270.4
589.925	8351.08
590.284	8258.2
590.643	8355.15
591.003	8351.31
591.362	8357.63
591.721	8305.43
592.08	8358.31
592.44	8351.08
592.799	8341.81
593.158	8336.39
593.517	8407.35
593.876	8376.62
594.235	8375.26
594.593	8417.29
594.952	8489.38
595.311	8407.12
595.67	8449.16
596.029	8523.73
596.387	8502.71
596.746	8452.32
597.104	8509.49
597.463	8478.08
597.822	8492.55
598.18	8450.51
598.538	8443.73
598.897	8510.17
599.255	8428.59
599.613	8570.51
599.972	8574.8
600.33	8597.4
600.688	8469.95
601.046	8599.66
601.404	8637.17
601.762	8603.5
602.12	8601.69
602.478	8627
602.836	8586.1
603.194	8589.27
603.552	8563.05
603.91	8489.61
604.268	8603.73
604.625	8570.06
604.983	8604.63
605.341	8622.26
605.698	8623.39
606.056	8567.12
606.413	8626.1
606.771	8671.75
607.128	8699.55
607.485	8652.99
607.843	8638.3
608.2	8674.24
608.557	8700.9
608.914	8676.72
609.272	8698.42
609.629	8722.6
609.986	8791.29
610.343	8674.24
610.7	8725.31
611.057	8765.98
611.414	8761.92
611.771	8717.17
612.127	8771.63
612.484	8812.08
612.841	8801.69
613.198	8793.33
613.554	8789.71
613.911	8770.73
614.267	8773.67
614.624	8799.66
614.98	8812.31
615.337	8846.43
615.693	8814.12
616.05	8879.65
616.406	8870.16
616.762	8881.91
617.118	8853.21
617.475	8801.46
617.831	8937.28
618.187	8837.85
618.543	8864.74
618.899	8947
619.255	8972.31
619.611	8869.71
619.967	8930.5
620.323	8979.09
620.678	8857.96
621.034	8891.4
621.39	8898.86
621.746	8904.29
622.101	8972.53
622.457	8918.97
622.812	8918.52
623.168	8922.14
623.523	8967.33
623.879	8952.87
624.234	8840.11
624.589	8989.03
624.945	8986.09
625.3	9009.82
625.655	8970.72
626.01	9015.7
626.365	8960.1
626.72	8917.39
627.075	8970.72
627.43	8941.57
627.785	8884.85
628.14	8940.22
628.495	8935.25
628.85	8890.27
629.205	8932.76
629.559	8943.61
629.914	8851.86
630.269	8865.87
630.623	8933.21
630.978	8848.24
631.332	8822.71
631.687	8902.25
632.041	8855.47
632.396	8826.77
632.75	8847.34
633.104	8769.15
633.459	8791.29
633.813	8747.91
634.167	8766.21
634.521	8786.1
634.875	8822.48
635.229	8723.73
635.583	8804.63
635.937	8713.1
636.291	8745.87
636.645	8748.13
636.999	8720.34
637.352	8708.13
637.706	8648.7
638.06	8701.58
638.413	8714.69
638.767	8595.82
639.121	8651.64
639.474	8558.53
639.828	8632.43
640.181	8654.57
640.534	8606.89
640.888	8597.63
641.241	8567.12
641.594	8612.99
641.947	8582.49
642.301	8608.25
642.654	8590.85
643.007	8559.66
643.36	8618.42
643.713	8519.89
644.066	8579.55
644.419	8530.74
644.771	8469.72
645.124	8370.97
645.477	8407.8
645.83	8300.46
646.182	8328.03
646.535	8307.01
646.888	8317.18
647.24	8223.17
647.593	8246.45
647.945	8291.42
648.298	8288.48
648.65	8213.46
649.002	8193.34
649.355	8231.76
649.707	8295.94
650.059	8265.43
650.411	8402.38
650.763	8393.56
651.115	8440.12
651.467	8405.09
651.819	8488.7
652.171	8457.52
652.523	8431.3
652.875	8391.76
653.227	8389.72
653.578	8452.77
653.93	8402.83
654.282	8416.39
654.633	8398.76
654.985	8353.11
655.337	8351.31
655.688	8404.64
656.039	8480.79
656.391	8375.71
656.742	8428.59
657.094	8355.6
657.445	8456.39
657.796	8384.07
658.147	8402.6
658.498	8358.09
658.849	8449.61
659.2	8369.38
659.551	8397.63
659.902	8476.27
660.253	8433.11
660.604	8459.1
660.955	8403.28
661.306	8526.89
661.656	8530.06
662.007	8454.81
662.358	8497.52
662.708	8428.59
663.059	8442.6
663.409	8412.77
663.76	8455.48
664.11	8470.62
664.461	8479.66
664.811	8476.5
665.161	8451.87
665.511	8481.25
665.862	8442.6
666.212	8501.13
666.562	8519.44
666.912	8478.99
667.262	8521.47
667.612	8431.76
667.962	8535.71
668.312	8522.6
668.662	8506.1
669.011	8464.52
669.361	8440.8
669.711	8418.2
670.06	8413.23
670.41	8470.4
670.76	8428.59
671.109	8456.39
671.459	8445.99
671.808	8481.92
672.157	8478.31
672.507	8412.55
672.856	8389.04
673.205	8371.87
673.554	8455.71
673.904	8333.23
674.253	8399.89
674.602	8382.27
674.951	8241.48
675.3	8149.28
675.649	8321.7
675.998	8310.4
676.346	8307.24
676.695	8375.03
677.044	8334.13
677.393	8317.63
677.741	8341.14
678.09	8301.82
678.438	8320.12
678.787	8263.85
679.135	8287.13
679.484	8278.09
679.832	8233.12
680.181	8219.78
680.529	8253.46
680.877	8214.59
681.225	8191.08
681.573	8270.18
681.922	8166
682.27	8188.82
682.618	8133.46
682.966	8124.65
683.314	8157.86
683.661	8106.57
684.009	8050.97
684.357	8056.17
684.705	8072.22
685.053	8073.8
685.4	7989.73
685.748	7958.32
686.095	8001.71
686.443	7912
686.79	7958.32
687.138	7909.74
687.485	7954.48
687.832	7884.43
688.18	7911.77
688.527	7939.11
688.874	7858.89
689.221	7874.48
689.568	7779.34
689.915	7767.82
690.262	7738.67
690.609	7745.9
690.956	7712
691.303	7773.47
691.65	7667.03
691.997	7641.27
692.344	7624.09
692.69	7592.23
693.037	7545
693.383	7483.98
693.73	7550.65
694.077	7462.74
694.423	7408.51
694.769	7464.32
695.116	7435.62
695.462	7400.14
695.808	7411.9
696.155	7405.79
696.501	7328.28
696.847	7284.89
697.193	7238.34
697.539	7223.43
697.885	7190.88
698.231	7187.49
698.577	7138.46
698.923	7144.56
699.269	7132.58
699.614	7045.35
699.96	7064.33
700.306	7064.33
700.651	7045.58
700.997	6986.82
701.342	6974.17
701.688	6995.41
702.033	6924.45
702.379	6887.39
702.724	6893.27
703.069	6877.22
703.415	6816.43
703.76	6805.58
704.105	6818.69
704.45	6823.21
704.795	6722.2
705.14	6729.2
705.485	6720.61
705.83	6684.23
706.175	6726.94
706.52	6626.38
706.865	6586.61
707.209	6574.63
707.554	6611.01
707.899	6608.07
708.243	6542.31
708.588	6560.39
708.932	6511.13
709.277	6518.13
709.621	6522.65
709.966	6448.98
710.31	6515.42
710.654	6427.51
710.998	6434.97
711.342	6434.07
711.687	6405.37
712.031	6345.48
712.375	6325.37
712.719	6369.44
713.063	6360.85
713.407	6305.71
713.75	6342.77
714.094	6305.48
714.438	6271.81
714.782	6319.27
715.125	6270.46
715.469	6275.65
715.812	6243.56
716.156	6218.93
716.499	6198.37
716.843	6190.68
717.186	6167.18
717.53	6267.97
717.873	6216.67
718.216	6175.77
718.559	6196.33
718.902	6111.82
719.246	6145.71
719.589	6112.72
719.932	6131.03
720.275	6100.74
720.617	6101.42
720.96	6110.23
721.303	6111.82
721.646	6099.39
721.989	6044.47
722.331	6085.6
722.674	6106.17
723.016	6076.34
723.359	6052.38
723.701	6125.83
724.044	6007.86
724.386	6035.89
724.729	6027.98
725.071	6036.79
725.413	6025.27
725.755	6016.45
726.097	6026.62
726.439	5992.05
726.782	5988.2
727.124	6019.16
727.465	5981.42
727.807	6058.71
728.149	5964.93
728.491	5967.64
728.833	6010.35
729.175	5965.61
729.516	5934.87
729.858	5949.56
730.199	5978.03
730.541	5904.59
730.882	5955.21
731.224	5986.4
731.565	5977.81
731.906	5953.85
732.248	5973.29
732.589	5950.47
732.93	5937.58
733.271	5967.87
733.612	5982.78
733.953	5967.87
734.294	5999.05
734.635	5964.25
734.976	5982.33
735.317	5963.12
735.658	5985.27
735.999	5984.59
736.339	5976.23
736.68	6021.65
737.021	5976.45
737.361	6001.31
737.702	6057.35
738.042	5936
738.383	6013.06
738.723	6024.81
739.063	6016.9
739.404	6059.39
739.744	6032.27
740.084	6030.24
740.424	6036.34
740.764	6092.38
741.104	6072.27
741.444	6096
741.784	6060.74
742.124	6117.24
742.464	6098.71
742.804	6144.13
743.143	6133.29
743.483	6117.69
743.823	6155.21
744.162	6206.05
744.502	6185.04
744.841	6262.55
745.181	6284.47
745.52	6320.4
745.86	6313.39
746.199	6355.88
746.538	6377.12
746.877	6380.51
747.216	6445.14
747.556	6482.2
747.895	6507.74
748.234	6538.02
748.573	6618.47
748.911	6673.16
749.25	6756.77
749.589	6720.39
749.928	6806.49
750.267	6874.06
750.605	6945.47
750.944	7012.13
751.283	7055.75
751.621	7158.12
751.96	7182.97
752.298	7274.95
752.636	7400.6
752.975	7458
753.313	7511.33
753.651	7594.26
753.989	7727.37
754.327	7737.76
754.666	7866.12
755.004	8009.39
755.342	8155.38
755.679	8289.61
756.017	8341.59
756.355	8487.8
756.693	8659.55
757.031	8763.72
757.368	8895.02
757.706	9019.54
758.044	9106.09
758.381	9289.59
758.719	9418.4
759.056	9537.94
759.394	9713.98
759.731	9811.15
760.068	10028.78
760.405	10153.07
760.743	10285.27
761.08	10475.77
761.417	10635.09
761.754	10819.04
762.091	10936.32
762.428	11099.71
762.765	11259.7
763.102	11475.74
763.438	11586.02
763.775	11795.96
764.112	11865.56
764.449	12140.13
764.785	12302.84
765.122	12354.59
765.458	12501.93
765.795	12752.09
766.131	12947.12
766.467	12981.92
766.804	13148.47
767.14	13296.71
767.476	13495.13
767.812	13625.97
768.148	13761.33
768.485	13828.22
768.821	14000.2
769.157	14192.96
