Data from hue_00_FLMS001491_77.txt Node
Date: Mon Feb 06 15:30:13 GMT 2017
User: dcchb
Spectrometer: FLMS00149
Trigger mode: 0
Integration Time (sec): 2.000000E-2
Scans to average: 10
Electric dark correction enabled: true
Nonlinearity correction enabled: false
Boxcar width: 0
XAxis mode: Wavelengths
Number of Pixels in Spectrum: 2048
>>>>>Begin Spectral Data<<<<<
341.393	11.77
341.776	11.77
342.16	11.77
342.543	-55.8
342.927	-57.84
343.31	-78.63
343.693	-82.02
344.077	-64.84
344.46	-68.01
344.843	-51.28
345.226	-37.95
345.61	-25.75
345.993	-15.8
346.376	5.66
346.759	-4.96
347.142	23.52
347.525	50.18
347.908	65.1
348.291	85.89
348.674	86.11
349.057	112.78
349.44	124.08
349.823	140.12
350.206	164.76
350.588	192.55
350.971	216.28
351.354	217.64
351.737	259.67
352.119	257.63
352.502	226.67
352.884	257.86
353.267	288.37
353.65	300.35
354.032	296.28
354.414	296.28
354.797	303.06
355.179	315.94
355.562	313.68
355.944	324.3
356.326	310.51
356.709	324.98
357.091	357.74
357.473	336.05
357.855	321.59
358.238	329.27
358.62	340.8
359.002	334.69
359.384	317.07
359.766	351.19
360.148	319.78
360.53	305.77
360.912	350.29
361.294	347.12
361.676	330.85
362.057	317.75
362.439	340.34
362.821	338.31
363.203	325.43
363.584	320.23
363.966	309.84
364.348	325.43
364.729	324.07
365.111	296.96
365.493	307.35
365.874	298.09
366.256	305.77
366.637	309.61
367.019	300.8
367.4	295.15
367.781	287.92
368.163	310.51
368.544	299.22
368.925	300.12
369.306	298.31
369.688	316.16
370.069	299.89
370.45	284.3
370.831	310.06
371.212	294.47
371.593	297.41
371.974	308.48
372.355	308.71
372.736	295.15
373.117	322.49
373.498	311.19
373.879	312.32
374.26	313.9
374.641	310.74
375.021	309.16
375.402	317.29
375.783	318.42
376.163	313.23
376.544	305.32
376.925	329.05
377.305	301.02
377.686	319.55
378.066	304.41
378.447	304.41
378.827	320.91
379.208	317.52
379.588	333.11
379.968	312.32
380.349	330.17
380.729	326.11
381.109	311.87
381.489	339.44
381.87	311.64
382.25	334.02
382.63	322.72
383.01	338.08
383.39	333.56
383.77	355.94
384.15	322.72
384.53	336.28
384.91	345.54
385.29	353.23
385.67	318.2
386.049	344.19
386.429	327.01
386.809	364.07
387.189	332.21
387.568	367.01
387.948	341.47
388.328	368.82
388.707	341.7
389.087	358.65
389.466	343.51
389.846	323.85
390.225	344.41
390.605	357.07
390.984	366.56
391.363	347.35
391.743	337.63
392.122	360.46
392.501	365.2
392.881	343.96
393.26	343.51
393.639	355.94
394.018	357.97
394.397	358.87
394.776	357.52
395.155	346.9
395.534	349.16
395.913	350.51
396.292	358.42
396.671	363.39
397.05	362.49
397.429	375.6
397.808	364.3
398.186	389.83
398.565	361.81
398.944	374.69
399.323	359.55
399.701	365.43
400.08	361.59
400.458	374.92
400.837	392.09
401.215	381.47
401.594	365.43
401.972	404.75
402.351	388.25
402.729	395.48
403.107	383.96
403.486	398.42
403.864	395.71
404.242	371.76
404.62	398.87
404.999	388.48
405.377	375.82
405.755	400.91
406.133	398.2
406.511	397.07
406.889	405.2
407.267	390.06
407.645	404.07
408.023	421.25
408.401	390.06
408.779	405.88
409.156	403.17
409.534	411.3
409.912	418.99
410.29	389.16
410.667	431.19
411.045	459.44
411.422	424.41
411.8	433.68
412.178	426.44
412.555	414.92
412.933	442.04
413.31	424.86
413.687	455.14
414.065	453.56
414.442	439.55
414.819	446.1
415.197	426.44
415.574	463.73
415.951	459.44
416.328	459.44
416.705	452.43
417.082	462.83
417.46	484.07
417.837	463.73
418.214	470.96
418.591	480
418.967	447.01
419.344	472.54
419.721	466.44
420.098	499.66
420.475	490.85
420.852	487.23
421.228	485.2
421.605	484.75
421.982	505.76
422.358	498.31
422.735	499.66
423.111	517.06
423.488	497.18
423.864	487.01
424.241	499.66
424.617	522.03
424.994	555.48
425.37	536.72
425.746	524.07
426.123	522.94
426.499	511.64
426.875	550.51
427.251	553.67
427.627	543.5
428.003	530.62
428.379	579.21
428.756	549.83
429.132	543.73
429.507	538.76
429.883	568.36
430.259	551.41
430.635	564.97
431.011	566.78
431.387	576.27
431.763	587.8
432.138	581.69
432.514	597.74
432.89	596.16
433.265	585.54
433.641	598.87
434.016	606.78
434.392	598.42
434.767	601.35
435.143	606.78
435.518	638.64
435.894	649.26
436.269	628.7
436.644	628.92
437.02	663.5
437.395	631.41
437.77	649.71
438.145	655.82
438.52	643.61
438.895	652.2
439.271	633.9
439.646	677.06
440.021	667.79
440.395	684.29
440.77	681.35
441.145	667.34
441.52	671.41
441.895	686.78
442.27	703.95
442.645	676.38
443.019	706.21
443.394	702.82
443.769	688.81
444.143	694.69
444.518	733.78
444.892	704.4
445.267	713.89
445.641	710.96
446.016	738.53
446.39	746.66
446.764	739.43
447.139	724.29
447.513	743.27
447.887	745.31
448.262	730.16
448.636	725.64
449.01	753.67
449.384	727.68
449.758	731.97
450.132	740.33
450.506	772.88
450.88	782.82
451.254	752.08
451.628	776.26
452.002	775.81
452.376	767.23
452.75	789.82
453.123	780.33
453.497	797.51
453.871	802.93
454.244	809.26
454.618	833.21
454.992	828.47
455.365	813.33
455.739	829.6
456.112	856.49
456.486	844.74
456.859	844.29
457.232	854
457.606	863.49
457.979	853.78
458.352	873.44
458.725	866.43
459.099	873.89
459.472	875.92
459.845	919.09
460.218	924.06
460.591	921.35
460.964	916.6
461.337	952.76
461.71	950.5
462.083	950.5
462.456	950.5
462.829	960.44
463.201	972.87
463.574	984.85
463.947	968.58
464.32	1016.94
464.692	1002.7
465.065	988.69
465.438	1020.78
465.81	1024.39
466.183	1057.16
466.555	1048.12
466.928	1072.75
467.3	1077.27
467.672	1077.73
468.045	1110.72
468.417	1108.23
468.789	1124.28
469.161	1121.11
469.534	1146.88
469.906	1198.85
470.278	1185.07
470.65	1163.83
471.022	1204.95
471.394	1223.71
471.766	1250.15
472.138	1246.08
472.51	1258.06
472.882	1290.15
473.253	1296.03
473.625	1330.83
473.997	1326.08
474.369	1354.78
474.74	1354.33
475.112	1399.3
475.484	1409.47
475.855	1433.42
476.227	1451.28
476.598	1503.03
476.97	1505.06
477.341	1521.33
477.713	1549.58
478.084	1561.55
478.455	1611.5
478.827	1633.64
479.198	1691.95
479.569	1660.76
479.94	1724.71
480.311	1745.5
480.682	1791.61
481.053	1821.21
481.424	1806.75
481.795	1865.73
482.166	1884.94
482.537	1916.8
482.908	1944.82
483.279	1990.02
483.65	2029.34
484.021	2064.59
484.391	2099.39
484.762	2105.27
485.133	2111.82
485.503	2176.68
485.874	2197.02
486.244	2247.19
486.615	2294.42
486.985	2297.35
487.356	2330.12
487.726	2362.89
488.097	2402.44
488.467	2445.83
488.837	2486.05
489.207	2522.66
489.578	2555.65
489.948	2590.68
490.318	2602.43
490.688	2621.19
491.058	2732.6
491.428	2730.56
491.798	2762.88
492.168	2806.72
492.538	2799.04
492.908	2824.35
493.278	2922.65
493.648	2898.92
494.017	2946.83
494.387	2973.72
494.757	2979.6
495.126	3046.26
495.496	3068.18
495.866	3069.54
496.235	3155.86
496.605	3129.42
496.974	3142.3
497.344	3201.29
497.713	3205.35
498.082	3249.87
498.452	3293.71
498.821	3295.29
499.19	3305.69
499.559	3370.1
499.928	3371
500.298	3382.98
500.667	3442.86
501.036	3395.18
501.405	3425.23
501.774	3441.73
502.143	3492.35
502.512	3529.41
502.88	3508.4
503.249	3533.03
503.618	3533.03
503.987	3577.77
504.356	3612.35
504.724	3597.43
505.093	3668.62
505.462	3635.4
505.83	3698.45
506.199	3712.01
506.567	3730.31
506.936	3723.76
507.304	3754.27
507.672	3760.37
508.041	3755.62
508.409	3802.4
508.777	3819.12
509.145	3886.24
509.514	3820.25
509.882	3856.86
510.25	3835.39
510.618	3910.19
510.986	3913.81
511.354	3937.09
511.722	3962.4
512.09	3972.11
512.458	3969.4
512.826	4009.63
513.193	3980.93
513.561	4010.3
513.929	4015.5
514.297	4075.84
514.664	4130.98
515.032	4086.69
515.4	4098.66
515.767	4092.34
516.135	4132.11
516.502	4122.17
516.869	4183.86
517.237	4184.31
517.604	4172.33
517.972	4164.2
518.339	4216.63
518.706	4197.87
519.073	4239.9
519.44	4247.59
519.808	4251.88
520.175	4261.6
520.542	4320.13
520.909	4319.67
521.276	4318.32
521.643	4340.01
522.009	4400.35
522.376	4408.03
522.743	4395.38
523.11	4448.94
523.477	4442.16
523.843	4477.86
524.21	4475.15
524.577	4537.3
524.943	4567.8
525.31	4549.27
525.676	4566.67
526.043	4608.93
526.409	4617.52
526.776	4652.77
527.142	4665.88
527.508	4687.12
527.874	4701.13
528.241	4733.9
528.607	4768.93
528.973	4767.8
529.339	4792.43
529.705	4795.37
530.071	4859.77
530.437	4910.39
530.803	4884.63
531.169	4872.43
531.535	4885.99
531.901	4919.43
532.267	4949.49
532.632	4946.1
532.998	5020.45
533.364	4963.5
533.73	5022.71
534.095	5048.92
534.461	5095.93
534.826	5088.02
535.192	5107.22
535.557	5124.4
535.923	5154.68
536.288	5191.52
536.653	5203.04
537.019	5232.64
537.384	5221.35
537.749	5236.26
538.114	5242.14
538.479	5298.41
538.845	5279.65
539.21	5308.35
539.575	5373.43
539.94	5380.66
540.305	5371.85
540.67	5413.66
541.034	5426.09
541.399	5417.72
541.764	5475.35
542.129	5482.36
542.494	5500.89
542.858	5539.08
543.223	5493.65
543.587	5589.47
543.952	5548.57
544.316	5628.57
544.681	5602.13
545.045	5676.02
545.41	5665.4
545.774	5721.67
546.138	5705.17
546.503	5715.34
546.867	5790.6
547.231	5782.23
547.595	5768.9
547.959	5859.07
548.324	5830.6
548.688	5873.76
549.052	5897.49
549.416	5883.02
549.779	5913.76
550.143	5928.67
550.507	6026.97
550.871	5981.33
551.235	5979.52
551.599	6024.71
551.962	6053.64
552.326	6065.17
552.689	6103.81
553.053	6094.32
553.417	6055.67
553.78	6189.91
554.143	6130.7
554.507	6167.76
554.87	6200.3
555.234	6195.33
555.597	6204.82
555.96	6242.79
556.323	6250.25
556.686	6264.71
557.05	6289.57
557.413	6319.4
557.776	6339.06
558.139	6390.35
558.502	6401.88
558.865	6366.17
559.228	6439.84
559.59	6464.93
559.953	6477.58
560.316	6551.03
560.679	6496.57
561.041	6504.25
561.404	6530.46
561.767	6597.58
562.129	6558.26
562.492	6663.34
562.854	6619.05
563.217	6582.44
563.579	6646.62
563.941	6676
564.304	6740.85
564.666	6748.54
565.028	6771.14
565.39	6825.6
565.753	6823.11
566.115	6853.62
566.477	6844.81
566.839	6845.94
567.201	6902.66
567.563	6860.17
567.925	7002.09
568.287	7003.67
568.648	7000.51
569.01	7067.85
569.372	7044.57
569.734	7069.88
570.095	7117.79
570.457	7135.65
570.819	7175.64
571.18	7209.99
571.542	7263.1
571.903	7227.85
572.265	7294.06
572.626	7298.13
572.987	7338.35
573.349	7382.64
573.71	7449.76
574.071	7512.36
574.432	7530.89
574.794	7613.15
575.155	7645.24
575.516	7691.56
575.877	7807.49
576.238	7859.92
576.599	7939.01
576.96	7984.66
577.32	8024.89
577.681	8094.49
578.042	8157.77
578.403	8239.57
578.763	8259.68
579.124	8341.94
579.485	8517.76
579.845	8554.59
580.206	8614.02
580.566	8795.49
580.927	8861.02
581.287	8992.32
581.648	9136.72
582.008	9263.5
582.368	9337.62
582.728	9546.66
583.089	9619.65
583.449	9795.24
583.809	9901.67
584.169	10043.14
584.529	10216.02
584.889	10488.33
585.249	10567.42
585.609	10741.43
585.969	10901.42
586.329	11087.63
586.688	11446.27
587.048	11585.47
587.408	11701.63
587.768	11915.86
588.127	12205.34
588.487	12363.3
588.846	12708.38
589.206	12877.87
589.565	13122.83
589.925	13355.37
590.284	13575.7
590.643	13753.78
591.003	14117.16
591.362	14416.58
591.721	14689.57
592.08	14848.44
592.44	15192.38
592.799	15490.23
593.158	15725.25
593.517	15901.74
593.876	16257.21
594.235	16531.1
594.593	16768.61
594.952	17138.77
595.311	17302.84
595.67	17672.32
596.029	17997.96
596.387	18294.67
596.746	18565.18
597.104	18830.25
597.463	19097.59
597.822	19545.04
598.18	19632.04
598.538	19887.4
598.897	20307.05
599.255	20406.94
599.613	20987.26
599.972	21089.18
600.33	21455.5
600.688	21581.14
601.046	22006.67
601.404	22375.25
601.762	22530.95
602.12	22876.25
602.478	23096.81
602.836	23358.27
603.194	23492.5
603.552	23831.48
603.91	24045.48
604.268	24453.83
604.625	24530.67
604.983	24926.59
605.341	25038.23
605.698	25451.1
606.056	25648.61
606.413	25812.44
606.771	26176.05
607.128	26396.83
607.485	26495.36
607.843	26692.87
608.2	27087.21
608.557	27407.66
608.914	27456.92
609.272	27885.38
609.629	27983.69
609.986	28265.49
610.343	28380.96
610.7	28709.09
611.057	28912.02
611.414	29040.38
611.771	29169.64
612.127	29463.19
612.484	29574.38
612.841	29872.9
613.198	29976.63
613.554	30092.56
613.911	30500.23
614.267	30570.96
614.624	30709.72
614.98	30913.78
615.337	31155.35
615.693	31091.85
616.05	31212.07
616.406	31547.89
616.762	31650.93
617.118	31790.36
617.475	31778.84
617.831	32080.53
618.187	32271.93
618.543	32331.37
618.899	32667.86
619.255	32623.79
619.611	32814.97
619.967	32849.09
620.323	33180.84
620.678	33022.87
621.034	33219.93
621.39	33266.71
621.746	33348.74
622.101	33743.31
622.457	33561.39
622.812	33762.74
623.168	33952.12
623.523	34050.42
623.879	34127.93
624.234	33997.09
624.589	34232.33
624.945	34301.26
625.3	34432.56
625.655	34413.35
626.01	34532.67
626.365	34652.44
626.72	34656.05
627.075	34538.09
627.43	34715.94
627.785	34749.83
628.14	34921.81
628.495	34931.07
628.85	34883.39
629.205	34971.75
629.559	35198.64
629.914	35052.65
630.269	35072.54
630.623	35072.54
630.978	35095.14
631.332	35305.3
631.687	35291.29
632.041	35202.93
632.396	35381
632.75	35288.8
633.104	35488.12
633.459	35162.25
633.813	35239.77
634.167	35261.23
634.521	35345.07
634.875	35426.88
635.229	35451.96
635.583	35307.79
635.937	35240.67
636.291	35225.3
636.645	35239.09
636.999	35235.47
637.352	35312.98
637.706	35151.41
638.06	35383.04
638.413	35266.43
638.767	35231.18
639.121	35405.64
639.474	35157.96
639.828	35227.79
640.181	35282.48
640.534	35325.86
640.888	35234.79
641.241	34951.41
641.594	35262.14
641.947	35345.07
642.301	35150.95
642.654	35232.08
643.007	35201.8
643.36	35149.6
643.713	35223.49
644.066	35238.64
644.419	35080.22
644.771	34818.76
645.124	34546.45
645.477	34460.12
645.83	34229.4
646.182	34115.73
646.535	34169.29
646.888	34078.67
647.24	33894.26
647.593	34280.02
647.945	34178.78
648.298	33964.09
648.65	33889.97
649.002	33920.7
649.355	34080.02
649.707	33925
650.059	34082.51
650.411	34398.88
650.763	34542.38
651.115	34870.96
651.467	34809.04
651.819	34863.05
652.171	34654.7
652.523	34571.53
652.875	34769.5
653.227	34571.76
653.578	34800.91
653.93	34626
654.282	34635.71
654.633	34403.4
654.985	34578.54
655.337	34591.65
655.688	34533.12
656.039	34615.83
656.391	34417.64
656.742	34468.71
657.094	34348.72
657.445	34471.65
657.796	34418.54
658.147	34424.19
658.498	34388.26
658.849	34469.39
659.2	34428.26
659.551	34430.97
659.902	34588.71
660.253	34513.68
660.604	34442.95
660.955	34384.42
661.306	34493.8
661.656	34443.63
662.007	34405.21
662.358	34410.63
662.708	34454.25
663.059	34338.77
663.409	34181.26
663.76	34454.93
664.11	34400.01
664.461	34475.27
664.811	34362.05
665.161	34325.21
665.511	34334.93
665.862	34245.89
666.212	34368.15
666.562	34378.09
666.912	34324.08
667.262	34415.15
667.612	34372.44
667.962	34463.74
668.312	34261.49
668.662	34466.45
669.011	34291.99
669.361	34129.51
669.711	34157.76
670.06	34224.65
670.41	34119.57
670.76	34148.27
671.109	34257.87
671.459	34087.93
671.808	34086.58
672.157	34220.81
672.507	33835.73
672.856	34082.06
673.205	34153.92
673.554	34072.79
673.904	33987.37
674.253	34210.41
674.602	34002.74
674.951	33697.21
675.3	33326.82
675.649	33933.13
675.998	33944.43
676.346	33854.04
676.695	34029.85
677.044	33716.64
677.393	33982.85
677.741	33929.97
678.09	33786.7
678.438	33747.83
678.787	33763.42
679.135	33749.64
679.484	33697.43
679.832	33768.17
680.181	33522.75
680.529	33607.72
680.877	33539.92
681.225	33448.85
681.573	33709.18
681.922	33397.55
682.27	33418.8
682.618	33368.63
682.966	33455.86
683.314	33341.96
683.661	33191.91
684.009	33112.14
684.357	33009.32
684.705	33093.83
685.053	32870.56
685.4	33045.02
685.748	32795.99
686.095	32932.48
686.443	32746.5
686.79	32673.51
687.138	32755.99
687.485	32724.8
687.832	32541.08
688.18	32570.23
688.527	32404.13
688.874	32441.42
689.221	32338.37
689.568	32319.62
689.915	32125.95
690.262	32187.42
690.609	32080.53
690.956	31920.98
691.303	32082.79
691.65	31879.18
691.997	31855.9
692.344	31596.02
692.69	31710.14
693.037	31627.21
693.383	31482.12
693.73	31549.92
694.077	31366.65
694.423	31243.49
694.769	31163.26
695.116	31098.41
695.462	30995.81
695.808	30987.22
696.155	31081.46
696.501	30848.24
696.847	30704.29
697.193	30561.02
697.539	30607.57
697.885	30467.46
698.231	30360.35
698.577	30398.99
698.923	30359.22
699.269	30135.94
699.614	29997.87
699.96	29973.92
700.306	29961.71
700.651	29895.73
700.997	29770.53
701.342	29829.06
701.688	29652.34
702.033	29660.25
702.379	29564.66
702.724	29575.96
703.069	29605.11
703.415	29293.48
703.76	29330.09
704.105	29288.06
704.45	29221.84
704.795	28939.59
705.14	28985.69
705.485	29028.4
705.83	28760.84
706.175	29008.29
706.52	28719.94
706.865	28699.15
707.209	28545.48
707.554	28492.6
707.899	28624.12
708.243	28442.66
708.588	28452.6
708.932	28239.95
709.277	28291.02
709.621	28218.03
709.966	27995.21
710.31	28071.14
710.654	28047.19
710.998	27860.52
711.342	27980.75
711.687	27830.47
712.031	27646.07
712.375	27496.69
712.719	27727.65
713.063	27586.63
713.407	27770.36
713.75	27548.22
714.094	27463.02
714.438	27441.78
714.782	27337.6
715.125	27300.54
715.469	27206.08
715.812	27141.67
716.156	26982.13
716.499	26988.68
716.843	26996.14
717.186	26875.69
717.53	26982.13
717.873	26868.23
718.216	26806.99
718.559	26684.06
718.902	26442.71
719.246	26676.15
719.589	26641.35
719.932	26430.05
720.275	26523.38
720.617	26456.49
720.96	26364.74
721.303	26321.58
721.646	26429.38
721.989	26304.86
722.331	26350.51
722.674	26161.81
723.016	26237.29
723.359	26219.21
723.701	26133.34
724.044	25949.61
724.386	25818.54
724.729	25921.37
725.071	26025.32
725.413	25883.63
725.755	26001.59
726.097	25813.35
726.439	25736.96
726.782	25740.58
727.124	25810.63
727.465	25718.66
727.807	25685.21
728.149	25550.08
728.491	25449.51
728.833	25588.27
729.175	25474.15
729.516	25359.57
729.858	25353.02
730.199	25266.24
730.541	25245.68
730.882	25174.72
731.224	25270.31
731.565	25156.19
731.906	25102.4
732.248	25083.2
732.589	25037.77
732.93	24957.55
733.271	24951
733.612	24985.57
733.953	24892.69
734.294	24792.36
734.635	24847.27
734.976	24903.54
735.317	24604.34
735.658	24767.05
735.999	24751.68
736.339	24644.11
736.68	24654.73
737.021	24740.61
737.361	24497.68
737.702	24597.79
738.042	24557.56
738.383	24417.23
738.723	24517.79
739.063	24411.12
739.404	24531.8
739.744	24419.71
740.084	24340.17
740.424	24308.75
740.764	24256.78
741.104	24292.93
741.444	24197.57
741.784	24103.34
742.124	24219.94
742.464	24154.86
742.804	24011.13
743.143	24012.26
743.483	23998.93
743.823	23901.31
744.162	23889.78
744.502	23806.17
744.841	23887.75
745.181	23994.41
745.52	23674.42
745.86	23788.77
746.199	23650.01
746.538	23687.07
746.877	23733.85
747.216	23677.13
747.556	23635.55
747.895	23578.83
748.234	23550.81
748.573	23459.06
748.911	23448.89
749.25	23428.78
749.589	23296.35
749.928	23292.28
750.267	23371.6
750.605	23314.43
750.944	23248.22
751.283	23174.55
751.621	23236.01
751.96	23050.93
752.298	23053.42
752.636	23106.98
752.975	22970.03
753.313	22893.42
753.651	23036.7
753.989	22914.67
754.327	22817.72
754.666	22802.13
755.004	22790.83
755.342	22699.08
755.679	22669.47
756.017	22627.89
756.355	22672.19
756.693	22518.29
757.031	22550.38
757.368	22400.56
757.706	22373.89
758.044	22289.15
758.381	22405.53
758.719	22297.73
759.056	22229.71
759.394	22144.74
759.731	21995.82
760.068	22033.56
760.405	21922.6
760.743	21829.5
761.08	21960.34
