Data from hue_330_FLMS001491_85.txt Node
Date: Mon Feb 06 15:46:02 GMT 2017
User: dcchb
Spectrometer: FLMS00149
Trigger mode: 0
Integration Time (sec): 2.000000E-2
Scans to average: 10
Electric dark correction enabled: true
Nonlinearity correction enabled: false
Boxcar width: 0
XAxis mode: Wavelengths
Number of Pixels in Spectrum: 2048
>>>>>Begin Spectral Data<<<<<
341.393	-1.93
341.776	-1.93
342.16	-1.93
342.543	-60.46
342.927	-54.14
343.31	-76.96
343.693	-52.1
344.077	-62.27
344.46	-72.89
344.843	-34.02
345.226	-42.84
345.61	-34.7
345.993	-19.56
346.376	1
346.759	1.45
347.142	37.39
347.525	50.94
347.908	55.69
348.291	82.81
348.674	78.74
349.057	87.33
349.44	127.1
349.823	139.08
350.206	151.28
350.588	198.29
350.971	199.19
351.354	224.27
351.737	242.13
352.119	235.35
352.502	240.09
352.884	277.61
353.267	286.19
353.65	292.07
354.032	297.72
354.414	306.98
354.797	313.31
355.179	324.16
355.562	320.54
355.944	329.36
356.326	346.76
356.709	344.72
357.091	336.14
357.473	339.98
357.855	337.27
358.238	343.37
358.62	349.69
359.002	334.78
359.384	338.17
359.766	338.85
360.148	333.65
360.53	338.17
360.912	327.32
361.294	341.56
361.676	338.4
362.057	316.93
362.439	335.68
362.821	341.78
363.203	335.91
363.584	338.85
363.966	329.58
364.348	331.62
364.729	313.76
365.111	315.8
365.493	325.06
365.874	310.6
366.256	315.34
366.637	330.94
367.019	328
367.4	316.7
367.781	318.06
368.163	317.83
368.544	319.86
368.925	304.27
369.306	324.38
369.688	314.44
370.069	318.96
370.45	296.59
370.831	321.9
371.212	306.76
371.593	321.45
371.974	316.93
372.355	300.66
372.736	334.78
373.117	319.86
373.498	331.62
373.879	307.21
374.26	318.73
374.641	320.99
375.021	306.08
375.402	291.39
375.783	338.17
376.163	329.81
376.544	329.81
376.925	321.9
377.305	318.96
377.686	327.55
378.066	323.71
378.447	341.11
378.827	328.9
379.208	334.33
379.588	344.95
379.968	318.28
380.349	347.21
380.729	323.48
381.109	350.15
381.489	330.71
381.87	337.49
382.25	314.21
382.63	347.89
383.01	345.63
383.39	333.88
383.77	334.33
384.15	352.63
384.53	352.41
384.91	354.44
385.29	331.84
385.67	357.6
386.049	356.25
386.429	342.24
386.809	367.09
387.189	333.2
387.568	364.16
387.948	337.94
388.328	361.9
388.707	364.61
389.087	359.19
389.466	360.09
389.846	385.85
390.225	369.35
390.605	376.81
390.984	374.78
391.363	380.65
391.743	368.68
392.122	371.61
392.501	361.45
392.881	394.21
393.26	391.73
393.639	381.56
394.018	376.81
394.397	363.93
394.776	396.92
395.155	384.72
395.534	368
395.913	377.26
396.292	408.9
396.671	381.33
397.05	401.9
397.429	410.94
397.808	394.66
398.186	413.65
398.565	406.64
398.944	386.98
399.323	390.82
399.701	392.4
400.08	413.65
400.458	423.59
400.837	401.22
401.215	410.26
401.594	411.16
401.972	416.13
402.351	418.84
402.729	417.49
403.107	418.62
403.486	422.01
403.864	430.37
404.242	413.87
404.62	423.36
404.999	435.57
405.377	423.36
405.755	428.79
406.133	454.1
406.511	443.93
406.889	433.76
407.267	455.68
407.645	442.8
408.023	443.7
408.401	462.46
408.779	469.47
409.156	456.36
409.534	475.34
409.912	478.5
410.29	476.92
410.667	511.72
411.045	500.42
411.422	477.15
411.8	511.72
412.178	524.15
412.555	509.24
412.933	512.18
413.31	538.16
413.687	539.29
414.065	538.84
414.442	548.33
414.819	553.53
415.197	539.75
415.574	562.57
415.951	537.26
416.328	570.93
416.705	575
417.082	605.73
417.46	588.11
417.837	602.34
418.214	598.95
418.591	615.45
418.967	610.48
419.344	627.65
419.721	643.92
420.098	629.69
420.475	641.66
420.852	656.35
421.228	656.8
421.605	666.3
421.982	668.78
422.358	668.1
422.735	672.4
423.111	649.35
423.488	702.45
423.864	712.62
424.241	693.41
424.617	716.46
424.994	720.76
425.37	712.62
425.746	714.66
426.123	744.26
426.499	740.42
426.875	740.19
427.251	765.28
427.627	733.86
428.003	756.24
428.379	770.93
428.756	791.94
429.132	779.51
429.507	812.73
429.883	803.02
430.259	840.53
430.635	818.61
431.011	820.19
431.387	852.51
431.763	843.47
432.138	856.12
432.514	861.77
432.89	884.14
433.265	892.73
433.641	898.38
434.016	897.7
434.392	905.39
434.767	937.25
435.143	927.31
435.518	932.28
435.894	930.02
436.269	939.96
436.644	973.86
437.02	991.03
437.395	969.34
437.77	973.86
438.145	1004.14
438.52	1028.32
438.895	1000.75
439.271	1003.01
439.646	1010.47
440.021	1022.44
440.395	1031.26
440.77	1022.22
441.145	1035.1
441.52	1067.19
441.895	1070.81
442.27	1087.53
442.645	1074.42
443.019	1062.22
443.394	1075.55
443.769	1098.6
444.143	1096.57
444.518	1123.23
444.892	1104.7
445.267	1101.54
445.641	1144.93
446.016	1131.37
446.39	1116
446.764	1142.89
447.139	1133.4
447.513	1155.1
447.887	1167.3
448.262	1162.1
448.636	1168.66
449.01	1191.03
449.384	1168.88
449.758	1206.62
450.132	1193.51
450.506	1178.82
450.88	1179.28
451.254	1186.06
451.628	1226.06
452.002	1215.21
452.376	1209.56
452.75	1230.57
453.123	1236.45
453.497	1247.52
453.871	1258.37
454.244	1274.19
454.618	1306.28
454.992	1285.71
455.365	1291.59
455.739	1333.62
456.112	1349.22
456.486	1317.35
456.859	1359.16
457.232	1333.62
457.606	1362.32
457.979	1369.1
458.352	1396.45
458.725	1415.2
459.099	1383.34
459.472	1466.05
459.845	1424.02
460.218	1428.08
460.591	1459.5
460.964	1437.8
461.337	1479.38
461.71	1503.79
462.083	1509.89
462.456	1503.56
462.829	1511.92
463.201	1567.29
463.574	1537.01
463.947	1544.24
464.32	1611.13
464.692	1567.06
465.065	1614.29
465.438	1623.33
465.81	1629.21
466.183	1642.09
466.555	1670.56
466.928	1693.16
467.3	1647.29
467.672	1721.64
468.045	1723.67
468.417	1722.99
468.789	1762.54
469.161	1764.8
469.534	1802.31
469.906	1831.92
470.278	1830.79
470.65	1838.92
471.022	1901.07
471.394	1886.6
471.766	1920.05
472.138	1937.9
472.51	1943.1
472.882	1983.1
473.253	1995.98
473.625	2009.09
473.997	2059.03
474.369	2065.81
474.74	2101.96
475.112	2137.67
475.484	2127.73
475.855	2173.6
476.227	2195.97
476.598	2271.9
476.97	2239.81
477.341	2333.14
477.713	2313.94
478.084	2329.3
478.455	2407.27
478.827	2420.37
479.198	2475.06
479.569	2440.94
479.94	2511.45
480.311	2522.29
480.682	2583.99
481.053	2627.15
481.424	2652.91
481.795	2662.18
482.166	2709.18
482.537	2776.75
482.908	2769.07
483.279	2810.42
483.65	2819.01
484.021	2829.18
484.391	2937.42
484.762	2919.34
485.133	2959.8
485.503	3004.09
485.874	3052.22
486.244	3046.8
486.615	3118.66
486.985	3137.42
487.356	3197.53
487.726	3264.42
488.097	3274.36
488.467	3262.16
488.837	3361.14
489.207	3356.39
489.578	3455.83
489.948	3408.37
490.318	3489.95
490.688	3487.92
491.058	3526.11
491.428	3534.02
491.798	3593.9
492.168	3643.39
492.538	3682.71
492.908	3651.08
493.278	3768.14
493.648	3753.9
494.017	3770.4
494.387	3838.87
494.757	3867.79
495.126	3906.66
495.496	3882.26
495.866	3901.24
496.235	3964.29
496.605	3967
496.974	4000.9
497.344	4015.13
497.713	4036.38
498.082	4086.09
498.452	4090.16
498.821	4118.86
499.19	4119.09
499.559	4154.79
499.928	4172.42
500.298	4193.21
500.667	4204.73
501.036	4240.21
501.405	4275.69
501.774	4243.38
502.143	4243.6
502.512	4308.91
502.88	4347.1
503.249	4344.17
503.618	4370.15
503.987	4406.76
504.356	4416.93
504.724	4408.8
505.093	4425.52
505.462	4481.11
505.83	4535.8
506.199	4519.08
506.567	4483.14
506.936	4537.61
507.304	4569.02
507.672	4550.49
508.041	4584.16
508.409	4575.8
508.777	4657.83
509.145	4706.87
509.514	4648.79
509.882	4762.23
510.25	4757.71
510.618	4734.66
510.986	4756.81
511.354	4770.82
511.722	4805.17
512.09	4825.28
512.458	4809.46
512.826	4864.38
513.193	4905.05
513.561	4887.65
513.929	4896.24
514.297	4959.97
514.664	4959.74
515.032	4981.21
515.4	4987.76
515.767	5037.25
516.135	5038.61
516.502	5001.55
516.869	5069.12
517.237	5085.39
517.604	5051.49
517.972	5087.42
518.339	5124.71
518.706	5112.28
519.073	5109.12
519.44	5126.29
519.808	5180.53
520.175	5208.32
520.542	5227.31
520.909	5264.14
521.276	5264.37
521.643	5311.6
522.009	5272.05
522.376	5342.11
522.743	5356.57
523.11	5427.3
523.477	5418.04
523.843	5475.89
524.21	5498.71
524.577	5538.26
524.943	5503.91
525.31	5550.01
525.676	5587.52
526.043	5612.83
526.409	5615.77
526.776	5749.33
527.142	5685.37
527.508	5719.04
527.874	5751.81
528.241	5759.72
528.607	5776.9
528.973	5819.15
529.339	5839.95
529.705	5884.01
530.071	5986.16
530.437	6005.36
530.803	5959.04
531.169	5968.98
531.535	6034.74
531.901	6027.51
532.267	6084.46
532.632	6118.36
532.998	6136.43
533.364	6130.79
533.73	6172.59
534.095	6231.35
534.461	6249.2
534.826	6265.24
535.192	6315.64
535.557	6335.53
535.923	6288.52
536.288	6421.4
536.653	6432.92
537.019	6352.02
537.384	6406.03
537.749	6465.01
538.114	6509.08
538.479	6464.11
538.845	6568.06
539.21	6550.89
539.575	6564.45
539.94	6605.8
540.305	6685.35
540.67	6620.04
541.034	6653.48
541.399	6705.69
541.764	6734.39
542.129	6709.53
542.494	6731.22
542.858	6804.89
543.223	6763.08
543.587	6860.03
543.952	6880.6
544.316	6907.49
544.681	6905.91
545.045	7016.64
545.41	7034.04
545.774	7008.73
546.138	6998.11
546.503	7062.74
546.867	7070.65
547.231	7148.61
547.595	7079.69
547.959	7148.61
548.324	7174.83
548.688	7176.86
549.052	7242.62
549.416	7260.92
549.779	7281.72
550.143	7253.69
550.507	7354.71
550.871	7362.17
551.235	7323.97
551.599	7420.47
551.962	7433.8
552.326	7384.99
552.689	7481.26
553.053	7480.58
553.417	7519.9
553.78	7643.51
554.143	7580.46
554.507	7613.23
554.87	7608.94
555.234	7681.7
555.597	7613.23
555.96	7685.55
556.323	7762.15
556.686	7687.58
557.05	7804.19
557.413	7791.31
557.776	7765.32
558.139	7828.37
558.502	7824.75
558.865	7844.86
559.228	7993.34
559.59	7938.2
559.953	7994.24
560.316	8041.47
560.679	8022.26
561.041	8108.13
561.404	8096.84
561.767	8155.36
562.129	8146.33
562.492	8156.49
562.854	8220.67
563.217	8202.37
563.579	8235.36
563.941	8272.65
564.304	8314.46
564.666	8341.35
565.028	8410.95
565.39	8368.92
565.753	8443.27
566.115	8466.54
566.477	8459.54
566.839	8443.72
567.201	8622.25
567.563	8545.86
567.925	8565.52
568.287	8656.82
568.648	8619.99
569.01	8681
569.372	8773.43
569.734	8722.81
570.095	8777.95
570.457	8845.52
570.819	8880.54
571.18	8839.64
571.542	8920.32
571.903	8929.13
572.265	9052.06
572.626	9045.51
572.987	9067.43
573.349	9191.04
573.71	9232.62
574.071	9243.7
574.432	9306.29
574.794	9384.71
575.155	9434.65
575.516	9424.48
575.877	9518.27
576.238	9572.05
576.599	9609.34
576.96	9803
577.32	9768.88
577.681	9883
578.042	9964.81
578.403	10027.63
578.763	10089.78
579.124	10236.44
579.485	10287.51
579.845	10504
580.206	10552.59
580.566	10662.87
580.927	10763.66
581.287	10944.22
581.648	10960.71
582.008	11175.85
582.368	11221.05
582.728	11408.39
583.089	11554.82
583.449	11719.34
583.809	11884.31
584.169	12131.76
584.529	12135.37
584.889	12400.68
585.249	12619.65
585.609	12694.23
585.969	12958.85
586.329	13154.78
586.688	13330.6
587.048	13598.39
587.408	13781.88
587.768	14070.01
588.127	14271.14
588.487	14498.47
588.846	14819.82
589.206	14961.29
589.565	15135.07
589.925	15554.49
590.284	15740.93
590.643	16011.66
591.003	16251.65
591.362	16599.21
591.721	16790.62
592.08	17066.99
592.44	17363.48
592.799	17673.98
593.158	17891.38
593.517	18147.64
593.876	18442.55
594.235	18724.13
594.593	19054.97
594.952	19364.11
595.311	19546.93
595.67	19771.78
596.029	20341.94
596.387	20622.16
596.746	20843.84
597.104	21101.46
597.463	21409.93
597.822	21750.71
598.18	21831.39
598.538	22108.67
598.897	22596.34
599.255	22697.81
599.613	23309.54
599.972	23384.34
600.33	23736.42
600.688	23907.94
601.046	24276.52
601.404	24641.71
601.762	24806
602.12	25136.84
602.478	25488.92
602.836	25725.52
603.194	25668.8
603.552	26229.47
603.91	26311.95
604.268	26652.51
604.625	26929.56
604.983	27195.99
605.341	27377.91
605.698	27785.36
606.056	27868.29
606.413	28172.92
606.771	28527.71
607.128	28837.76
607.485	28741.94
607.843	29095.15
608.2	29433.9
608.557	29742.14
608.914	29717.74
609.272	30071.62
609.629	30346.42
609.986	30618.28
610.343	30607.43
610.7	31129
611.057	31292.84
611.414	31448.99
611.771	31597.69
612.127	31888.75
612.484	31975.3
612.841	32320.6
613.198	32332.81
613.554	32550.43
613.911	32959.91
614.267	32985.9
614.624	33160.58
614.98	33254.37
615.337	33623.62
615.693	33627.46
616.05	33696.39
616.406	34059.32
616.762	34145.87
617.118	34323.72
617.475	34489.14
617.831	34614.1
618.187	34779.98
618.543	34906.07
618.899	35164.6
619.255	35167.54
619.611	35221.32
619.967	35606.17
620.323	35745.83
620.678	35621.54
621.034	35730.01
621.39	35827.63
621.746	35875.99
622.101	36435.75
622.457	36103.56
622.812	36331.12
623.168	36494.51
623.523	36591.23
623.879	36707.83
624.234	36591.68
624.589	36849.75
624.945	36960.48
625.3	37035.96
625.655	37027.37
626.01	37103.98
626.365	37127.94
626.72	37083.87
627.075	37274.37
627.43	37440.24
627.785	37189.63
628.14	37395.5
628.495	37564.08
628.85	37636.62
629.205	37491.09
629.559	37785.32
629.914	37579.9
630.269	37714.59
630.623	37675.49
630.978	37710.75
631.332	37948.48
631.687	38022.83
632.041	37839.56
632.396	38019.89
632.75	37821.03
633.104	37971.08
633.459	37897.41
633.813	37847.92
634.167	38049.04
634.521	38015.82
634.875	38073.67
635.229	38074.13
635.583	37867.58
635.937	37885.66
636.291	37834.58
636.645	38024.86
636.999	37945.99
637.352	38064.86
637.706	37897.18
638.06	38099.21
638.413	38068.7
638.767	38038.19
639.121	38007.46
639.474	37805.88
639.828	37905.09
640.181	37934.92
640.534	37998.87
640.888	37916.39
641.241	37775.38
641.594	37790.52
641.947	38086.56
642.301	37910.06
642.654	37883.62
643.007	37829.39
643.36	37796.62
643.713	37902.38
644.066	37941.7
644.419	37695.38
644.771	37591.65
645.124	37271.66
645.477	37123.87
645.83	36946.92
646.182	36941.27
646.535	36740.38
646.888	36902.63
647.24	36724.33
647.593	36713.03
647.945	36812.01
648.298	36652.24
648.65	36554.62
649.002	36476.43
649.355	36740.83
649.707	36609.08
650.059	36814.5
650.411	37199.12
650.763	37280.02
651.115	37594.14
651.467	37395.5
651.819	37487.25
652.171	37370.42
652.523	37420.81
652.875	37461.49
653.227	37266.24
653.578	37559.56
653.93	37393.01
654.282	37300.14
654.633	37116.41
654.985	37249.74
655.337	37300.59
655.688	37195.28
656.039	37467.36
656.391	37115.28
656.742	37215.62
657.094	37187.37
657.445	37331.77
657.796	37148.05
658.147	37137.2
658.498	37179.91
658.849	37203.19
659.2	37246.8
659.551	37077.77
659.902	37245.22
660.253	37175.17
660.604	37165.22
660.955	37124.32
661.306	37234.37
661.656	37146.92
662.007	37100.14
662.358	37106.69
662.708	37036.87
663.059	37037.32
663.409	36836.87
663.76	37093.13
664.11	37012.91
664.461	37106.92
664.811	37090.42
665.161	36994.38
665.511	36993.7
665.862	36975.85
666.212	37166.58
666.562	37087.94
666.912	37045.23
667.262	37058.11
667.612	36965.45
667.962	37000.03
668.312	36922.74
668.662	37042.97
669.011	36880.03
669.361	36837.32
669.711	36846.36
670.06	36876.19
670.41	36720.72
670.76	36728.17
671.109	36945.12
671.459	36861.73
671.808	36783.31
672.157	36979.24
672.507	36629.19
672.856	36687.5
673.205	36769.98
673.554	36806.14
673.904	36694.28
674.253	36885.23
674.602	36698.57
674.951	36244.12
675.3	36146.49
675.649	36633.71
675.998	36632.58
676.346	36692.24
676.695	36797.1
677.044	36380.16
677.393	36543.77
677.741	36630.32
678.09	36587.16
678.438	36370.89
678.787	36663.32
679.135	36593.94
679.484	36310.1
679.832	36419.25
680.181	36349.2
680.529	36287.51
680.877	36163.67
681.225	36134.97
681.573	36433.04
681.922	36201.63
682.27	36065.59
682.618	36160.5
682.966	35824.47
683.314	36007.97
683.661	35934.3
684.009	35664.92
684.357	35662.66
684.705	35697.01
685.053	35739.5
685.4	35623.12
685.748	35529.56
686.095	35438.49
686.443	35287.76
686.79	35243.47
687.138	35318.27
687.485	35452.27
687.832	35158.27
688.18	35198.72
688.527	35128.89
688.874	34979.07
689.221	35040.08
689.568	35037.37
689.915	34897.03
690.262	34806.87
690.609	34728.45
690.956	34624.5
691.303	34596.93
691.65	34372.08
691.997	34528.46
692.344	34328.24
692.69	34321.46
693.037	34111.07
693.383	33999.43
693.73	34104.06
694.077	33860
694.423	33925.08
694.769	33723.51
695.116	33675.6
695.462	33594.92
695.808	33666.78
696.155	33658.2
696.501	33379.33
696.847	33456.39
697.193	33272.67
697.539	33301.14
697.885	33069.51
698.231	32886.24
698.577	32949.74
698.923	32852.34
699.269	32751.55
699.614	32657.55
699.96	32640.37
700.306	32540.26
700.651	32306.37
700.997	32345.69
701.342	32248.29
701.688	32196.09
702.033	32069.54
702.379	31969.88
702.724	32014.62
703.069	32051.91
703.415	31687.63
703.76	31695.76
704.105	31772.37
704.45	31700.28
704.795	31451.93
705.14	31338.94
705.485	31474.53
705.83	31210.58
706.175	31386.17
706.52	31247.41
706.865	31075.89
707.209	31106.4
707.554	30991.37
707.899	31023.69
708.243	30769.01
708.588	30797.03
708.932	30515
709.277	30662.34
709.621	30636.13
709.966	30410.6
710.31	30491.73
710.654	30201.79
710.998	30364.27
711.342	30245.41
711.687	30144.62
712.031	30035.02
712.375	30042.92
712.719	30022.81
713.063	29912.76
713.407	30088.35
713.75	29766.32
714.094	29727.45
714.438	29667.57
714.782	29696.49
715.125	29629.38
715.469	29577.85
715.812	29466.67
716.156	29312.77
716.499	29247.92
716.843	29425.77
717.186	29135.6
717.53	29356.16
717.873	29279.1
718.216	29180.35
718.559	29122.27
718.902	28858.55
719.246	28932.45
719.589	28852.9
719.932	28725.22
720.275	28820.36
720.617	28659.91
720.96	28686.12
721.303	28643.19
721.646	28759.12
721.989	28520.48
722.331	28612.91
722.674	28522.74
723.016	28483.19
723.359	28318.68
723.701	28358.45
724.044	28235.74
724.386	28143.31
724.729	28270.09
725.071	28253.14
725.413	28226.48
725.755	28131.34
726.097	28020.83
726.439	27836.88
726.782	27815.19
727.124	27933.38
727.465	27831.23
727.807	27783.32
728.149	27725.92
728.491	27657
728.833	27677.11
729.175	27620.84
729.516	27567.06
729.858	27421.3
730.199	27516.21
730.541	27459.04
730.882	27420.39
731.224	27568.87
731.565	27277.35
731.906	27240.96
732.248	27298.59
732.589	27190.12
732.93	27104.47
733.271	27123
733.612	27197.58
733.953	27082.78
734.294	26868.32
734.635	26965.04
734.976	26933.4
735.317	26805.95
735.658	26810.24
735.999	26806.85
736.339	26707.19
736.68	26796
737.021	26679.17
737.361	26617.7
737.702	26805.5
738.042	26632.17
738.383	26635.78
738.723	26726.85
739.063	26495.22
739.404	26440.53
739.744	26434.66
740.084	26443.7
740.424	26395.79
740.764	26485.05
741.104	26359.86
741.444	26229.01
741.784	26215.68
742.124	26222.01
742.464	26242.8
742.804	26100.2
743.143	26103.59
743.483	26053.2
743.823	25916.03
744.162	25940.43
744.502	25985.63
744.841	25858.4
745.181	25988.57
745.52	25764.85
745.86	25823.15
746.199	25748.57
746.538	25641.46
746.877	25736.37
747.216	25637.16
747.556	25622.93
747.895	25620.67
748.234	25496.15
748.573	25452.76
748.911	25418.19
749.25	25457.51
749.589	25245.08
749.928	25358.75
750.267	25387.68
750.605	25238.31
750.944	25205.09
751.283	25009.38
751.621	25171.41
751.96	25005.32
752.298	25008.03
752.636	24972.32
752.975	24816.4
753.313	24810.75
753.651	24902.04
753.989	24671.09
754.327	24685.1
754.666	24584.09
755.004	24701.82
755.342	24602.84
755.679	24618.21
756.017	24330.53
756.355	24488.04
756.693	24404.2
757.031	24378.44
757.368	24187.26
757.706	24288.5
758.044	24122.85
758.381	24179.8
758.719	24022.52
759.056	23982.29
759.394	23930.32
759.731	23765.8
760.068	23794.05
760.405	23630.66
