Data from hue_00_FLMS001491_36.txt Node
Date: Mon Feb 06 15:29:37 GMT 2017
User: dcchb
Spectrometer: FLMS00149
Trigger mode: 0
Integration Time (sec): 2.000000E-2
Scans to average: 10
Electric dark correction enabled: true
Nonlinearity correction enabled: false
Boxcar width: 0
XAxis mode: Wavelengths
Number of Pixels in Spectrum: 2048
>>>>>Begin Spectral Data<<<<<
341.393	-4.36
341.776	-4.36
342.16	-4.36
342.543	-43.01
342.927	-57.7
343.31	-63.57
343.693	-69
344.077	-78.26
344.46	-30.13
344.843	-73.06
345.226	-51.14
345.61	-39.84
345.993	-19.05
346.376	-7.98
346.759	4.45
347.142	30.89
347.525	49.87
347.908	68.18
348.291	78.35
348.674	82.41
349.057	117.89
349.44	132.58
349.823	144.11
350.206	174.61
350.588	198.79
350.971	203.31
351.354	224.33
351.737	236.99
352.119	251.67
352.502	270.66
352.884	283.54
353.267	296.19
353.65	287.15
354.032	296.87
354.414	299.58
354.797	302.29
355.179	326.93
355.562	319.47
355.944	340.03
356.326	333.71
356.709	348.62
357.091	323.76
357.473	326.93
357.855	354.5
358.238	340.71
358.62	357.89
359.002	352.46
359.384	346.36
359.766	346.81
360.148	356.98
360.53	338.68
360.912	339.81
361.294	355.85
361.676	330.77
362.057	334.84
362.439	352.46
362.821	350.65
363.203	323.08
363.584	338
363.966	314.27
364.348	340.71
364.729	307.49
365.111	302.75
365.493	341.39
365.874	323.31
366.256	315.63
366.637	327.6
367.019	316.76
367.4	307.27
367.781	333.93
368.163	320.82
368.544	330.09
368.925	317.44
369.306	323.99
369.688	301.39
370.069	319.02
370.45	306.59
370.831	307.72
371.212	335.06
371.593	343.2
371.974	308.85
372.355	305.01
372.736	322.41
373.117	319.92
373.498	318.11
373.879	312.24
374.26	286.25
374.641	340.26
375.021	332.58
375.402	322.18
375.783	333.93
376.163	340.03
376.544	311.11
376.925	337.55
377.305	331.67
377.686	310.2
378.066	333.93
378.447	317.66
378.827	313.14
379.208	343.65
379.588	339.36
379.968	340.03
380.349	361.5
380.729	329.41
381.109	328.28
381.489	338.45
381.87	330.54
382.25	344.33
382.63	338.45
383.01	318.79
383.39	359.92
383.77	338
384.15	326.02
384.53	330.77
384.91	338.9
385.29	355.4
385.67	363.76
386.049	337.32
386.429	359.92
386.809	349.52
387.189	359.69
387.568	364.67
387.948	329.64
388.328	356.08
388.707	367.38
389.087	348.62
389.466	350.43
389.846	346.36
390.225	362.41
390.605	370.54
390.984	352.24
391.363	375.74
391.743	370.09
392.122	382.97
392.501	366.25
392.881	375.51
393.26	385.68
393.639	347.26
394.018	370.32
394.397	385.46
394.776	364.89
395.155	397.21
395.534	379.13
395.913	370.09
396.292	368.96
396.671	363.08
397.05	386.13
397.429	399.24
397.808	375.06
398.186	374.61
398.565	401.73
398.944	370.09
399.323	385.23
399.701	388.17
400.08	377.09
400.458	376.19
400.837	393.37
401.215	387.94
401.594	401.5
401.972	384.33
402.351	423.87
402.729	401.73
403.107	396.98
403.486	405.79
403.864	412.35
404.242	403.53
404.62	415.74
404.999	412.12
405.377	411.67
405.755	414.16
406.133	412.12
406.511	435.17
406.889	420.26
407.267	422.74
407.645	401.73
408.023	422.29
408.401	409.86
408.779	439.92
409.156	432.91
409.534	438.56
409.912	457.54
410.29	432.23
410.667	418.45
411.045	451.89
411.422	435.85
411.8	456.64
412.178	448.73
412.555	456.87
412.933	465.68
413.31	467.71
413.687	476.53
414.065	466.36
414.442	460.71
414.819	476.53
415.197	451.89
415.574	482.63
415.951	485.57
416.328	482.63
416.705	475.4
417.082	517.88
417.46	505.23
417.837	506.13
418.214	507.26
418.591	506.58
418.967	496.64
419.344	510.65
419.721	505.45
420.098	533.7
420.475	515.4
420.852	525.57
421.228	522.63
421.605	518.56
421.982	538.67
422.358	530.99
422.735	536.41
423.111	542.97
423.488	538.9
423.864	545.9
424.241	552.91
424.617	533.02
424.994	542.97
425.37	555.4
425.746	559.69
426.123	564.21
426.499	540.03
426.875	574.15
427.251	559.24
427.627	554.94
428.003	587.94
428.379	575.06
428.756	589.29
429.132	598.33
429.507	567.6
429.883	589.52
430.259	599.46
430.635	612.34
431.011	607.37
431.387	616.41
431.763	636.3
432.138	625.68
432.514	629.74
432.89	633.81
433.265	667.03
433.641	639.91
434.016	629.74
434.392	670.87
434.767	650.53
435.143	669.97
435.518	682.17
435.894	665.45
436.269	699.57
436.644	686.69
437.02	677.2
437.395	702.06
437.77	708.16
438.145	710.87
438.52	748.38
438.895	721.04
439.271	723.98
439.646	731.21
440.021	724.66
440.395	737.99
440.77	732.11
441.145	735.28
441.52	766.91
441.895	742.96
442.27	762.17
442.645	736.63
443.019	779.12
443.394	774.37
443.769	782.51
444.143	761.72
444.518	782.73
444.892	788.84
445.267	767.59
445.641	801.72
446.016	799
446.39	807.14
446.764	813.92
447.139	784.99
447.513	825.44
447.887	818.66
448.262	813.24
448.636	815.05
449.01	808.72
449.384	825.22
449.758	833.58
450.132	841.72
450.506	846.01
450.88	853.92
451.254	848.04
451.628	853.01
452.002	868.16
452.376	855.05
452.75	868.61
453.123	870.19
453.497	859.34
453.871	866.57
454.244	890.75
454.618	910.64
454.992	923.07
455.365	916.74
455.739	930.07
456.112	940.02
456.486	933.69
456.859	956.06
457.232	966.01
457.606	970.75
457.979	964.2
458.352	973.24
458.725	993.12
459.099	992.67
459.472	997.64
459.845	1023.18
460.218	1041.26
460.591	1026.34
460.964	1040.35
461.337	1076.06
461.71	1068.83
462.083	1078.77
462.456	1065.66
462.829	1090.52
463.201	1095.27
463.574	1115.38
463.947	1111.09
464.32	1148.83
464.692	1136.62
465.065	1145.21
465.438	1183.63
465.81	1170.29
466.183	1208.71
466.555	1227.24
466.928	1208.94
467.3	1229.5
467.672	1233.12
468.045	1257.3
468.417	1286.68
468.789	1269.95
469.161	1309.95
469.534	1308.6
469.906	1327.13
470.278	1360.12
470.65	1319.44
471.022	1382.27
471.394	1394.69
471.766	1409.38
472.138	1413.68
472.51	1467.91
472.882	1533.67
473.253	1484.18
473.625	1473.56
473.997	1536.16
474.369	1533
474.74	1547.01
475.112	1612.99
475.484	1621.81
475.855	1671.52
476.227	1651.64
476.598	1726.89
476.97	1739.09
477.341	1791.07
477.713	1798.75
478.084	1789.71
478.455	1838.3
478.827	1864.97
479.198	1907.45
479.569	1958.3
479.94	1970.73
480.311	2020.22
480.682	2049.82
481.053	2109.48
481.424	2141.12
481.795	2163.49
482.166	2205.97
482.537	2211.62
482.908	2271.51
483.279	2249.14
483.65	2331.62
484.021	2377.27
484.391	2394.44
484.762	2419.3
485.133	2436.02
485.503	2523.7
485.874	2522.12
486.244	2549.69
486.615	2657.49
486.985	2637.6
487.356	2724.83
487.726	2746.07
488.097	2791.95
488.467	2776.81
488.837	2858.16
489.207	2909.91
489.578	2920.98
489.948	2993.3
490.318	3042.11
490.688	3046.4
491.058	3106.06
491.428	3180.86
491.798	3150.58
492.168	3244.36
492.538	3239.17
492.908	3297.7
493.278	3353.29
493.648	3364.59
494.017	3390.12
494.387	3443.91
494.757	3422.89
495.126	3480.52
495.496	3499.95
495.866	3533.62
496.235	3589.89
496.605	3629.44
496.974	3585.6
497.344	3634.41
497.713	3718.48
498.082	3738.36
498.452	3746.72
498.821	3776.55
499.19	3749.44
499.559	3833.73
499.928	3835.31
500.298	3845.48
500.667	3910.56
501.036	3910.34
501.405	3936.32
501.774	3965.93
502.143	3982.2
502.512	4004.34
502.88	4035.3
503.249	4071.91
503.618	4071.01
503.987	4077.34
504.356	4106.26
504.724	4089.31
505.093	4140.16
505.462	4181.97
505.83	4196.2
506.199	4233.72
506.567	4252.02
506.936	4303.09
507.304	4274.17
507.672	4265.58
508.041	4342.64
508.409	4334.73
508.777	4362.98
509.145	4401.85
509.514	4366.14
509.882	4428.74
510.25	4420.83
510.618	4490.66
510.986	4460.83
511.354	4491.11
511.722	4542.63
512.09	4572.69
512.458	4547.83
512.826	4567.04
513.193	4580.83
513.561	4534.5
513.929	4614.95
514.297	4654.95
514.664	4675.29
515.032	4661.95
515.4	4685
515.767	4706.02
516.135	4749.64
516.502	4651.78
516.869	4788.96
517.237	4806.36
517.604	4803.42
517.972	4771.33
518.339	4869.63
518.706	4831.44
519.073	4807.71
519.44	4874.83
519.808	4882.74
520.175	4847.26
520.542	4904.66
520.909	4944.66
521.276	4997.99
521.643	4996.41
522.009	4985.34
522.376	5033.24
522.743	5053.81
523.11	5030.53
523.477	5152.79
523.843	5108.72
524.21	5157.53
524.577	5188.95
524.943	5219.23
525.31	5243.18
525.676	5282.05
526.043	5270.98
526.409	5294.03
526.776	5386.23
527.142	5390.07
527.508	5418.54
527.874	5400.92
528.241	5390.07
528.607	5410.63
528.973	5477.07
529.339	5503.06
529.705	5539.9
530.071	5591.87
530.437	5576.51
530.803	5586.45
531.169	5632.55
531.535	5638.65
531.901	5661.25
532.267	5755.48
532.632	5750.51
532.998	5725.88
533.364	5743.96
533.73	5789.83
534.095	5846.56
534.461	5856.95
534.826	5885.88
535.192	5901.24
535.557	5946.44
535.923	5930.17
536.288	5972.43
536.653	5996.16
537.019	6005.65
537.384	6082.71
537.749	6071.41
538.114	6053.78
538.479	6118.19
538.845	6112.99
539.21	6108.92
539.575	6174.68
539.94	6163.38
540.305	6222.82
540.67	6202.25
541.034	6273.89
541.399	6255.13
541.764	6305.07
542.129	6343.04
542.494	6348.91
542.858	6356.82
543.223	6410.38
543.587	6417.16
543.952	6442.47
544.316	6452.19
544.681	6479.98
545.045	6542.81
545.41	6551.4
545.774	6595.46
546.138	6568.34
546.503	6609.93
546.867	6646.31
547.231	6688.79
547.595	6705.52
547.959	6780.32
548.324	6708.68
548.688	6740.32
549.052	6759.98
549.416	6832.29
549.779	6836.81
550.143	6881.33
550.507	6886.53
550.871	6959.75
551.235	6880.43
551.599	6987.99
551.962	7009.01
552.326	7028.9
552.689	6998.39
553.053	7049.01
553.417	7069.57
553.78	7157.26
554.143	7163.13
554.507	7129.69
554.87	7136.92
555.234	7239.51
555.597	7186.63
555.96	7251.72
556.323	7242.9
556.686	7270.92
557.05	7289
557.413	7301.88
557.776	7278.83
558.139	7339.85
558.502	7412.84
558.865	7439.51
559.228	7444.03
559.59	7481.77
559.953	7512.27
560.316	7581.2
560.679	7485.61
561.041	7603.8
561.404	7626.17
561.767	7694.64
562.129	7573.97
562.492	7706.17
562.854	7748.2
563.217	7735.55
563.579	7785.26
563.941	7802.44
564.304	7846.5
564.666	7900.29
565.028	7906.61
565.39	7933.28
565.753	7950.91
566.115	7966.27
566.477	8011.02
566.839	7990.23
567.201	7985.71
567.563	8037.23
567.925	8148.19
568.287	8114.07
568.648	8152.94
569.01	8142.09
569.372	8203.1
569.734	8241.07
570.095	8309.99
570.457	8323.1
570.819	8416.88
571.18	8415.08
571.542	8492.59
571.903	8443.32
572.265	8526.71
572.626	8540.27
572.987	8602.64
573.349	8635.86
573.71	8709.53
574.071	8793.6
574.432	8785.01
574.794	8906.14
575.155	8896.19
575.516	8891.22
575.877	9072.23
576.238	9084.21
576.599	9176.41
576.96	9215.51
577.32	9213.02
577.681	9399.23
578.042	9466.35
578.403	9489.85
578.763	9624.76
579.124	9751.99
579.485	9788.82
579.845	9991.53
580.206	10032.89
580.566	10151.07
580.927	10261.35
581.287	10388.81
581.648	10491.86
582.008	10772.53
582.368	10826.99
582.728	10977.95
583.089	11087.77
583.449	11300.2
583.809	11461.77
584.169	11588.55
584.529	11797.36
584.889	12006.62
585.249	12057.24
585.609	12285.93
585.969	12697.22
586.329	12771.57
586.688	13024.9
587.048	13232.35
587.408	13474.83
587.768	13634.37
588.127	13886.57
588.487	14141.03
588.846	14429.15
589.206	14602.03
589.565	14839.99
589.925	15255.8
590.284	15472.97
590.643	15638.84
591.003	16056.46
591.362	16346.39
591.721	16593.39
592.08	16876.1
592.44	17244.45
592.799	17457.1
593.158	17769.63
593.517	18081.49
593.876	18263.63
594.235	18590.63
594.593	18793.79
594.952	19281
595.311	19424.28
595.67	19903.13
596.029	20254.76
596.387	20625.6
596.746	20875.76
597.104	21028.75
597.463	21381.97
597.822	21809.75
598.18	22110.76
598.538	22403.86
598.897	22799.33
599.255	22912.32
599.613	23580.1
599.972	23708.23
600.33	23969.24
600.688	24296.47
601.046	24623.69
601.404	24997.01
601.762	25216.44
602.12	25507.96
602.478	25855.29
602.836	26163.54
603.194	26333.7
603.552	26618.89
603.91	26854.36
604.268	27277.63
604.625	27391.98
604.983	27856.82
605.341	27868.12
605.698	28199.87
606.056	28545.39
606.413	28748.33
606.771	29237.13
607.128	29301.76
607.485	29483.9
607.843	29645.48
608.2	30008.63
608.557	30407.04
608.914	30401.84
609.272	30863.52
609.629	31147.58
609.986	31440.91
610.343	31544.18
610.7	31949.37
611.057	31976.72
611.414	32263.94
611.771	32511.16
612.127	32811.72
612.484	33060.76
612.841	33136.46
613.198	33303.46
613.554	33442.21
613.911	33872.03
614.267	34015.76
614.624	34082.42
614.98	34398.57
615.337	34658.91
615.693	34561.28
616.05	34862.06
616.406	35172.34
616.762	35132.56
617.118	35230.64
617.475	35330.53
617.831	35691.87
618.187	35782.27
618.543	35997.4
618.899	36323.95
619.255	36312.65
619.611	36384.28
619.967	36681.45
620.323	36893.2
620.678	36776.82
621.034	36826.31
621.39	37183.81
621.746	37085.96
622.101	37604.59
622.457	37320.08
622.812	37551.71
623.168	37773.17
623.523	37729.56
623.879	38068.98
624.234	37784.02
624.589	38097.23
624.945	38108.76
625.3	38363.44
625.655	38287.28
626.01	38278.7
626.365	38445.47
626.72	38468.97
627.075	38507.39
627.43	38615.64
627.785	38602.98
628.14	38688.63
628.495	38796.65
628.85	38694.51
629.205	38879.13
629.559	39059.02
629.914	38935.63
630.269	39035.74
630.623	38949.41
630.978	38971.33
631.332	39174.27
631.687	39328.61
632.041	39009.75
632.396	39186.24
632.75	39187.37
633.104	39242.97
633.459	39213.36
633.813	39299.91
634.167	39243.64
634.521	39216.3
634.875	39315.73
635.229	39401.83
635.583	39214.27
635.937	39239.8
636.291	39381.94
636.645	39327.71
636.999	39182.63
637.352	39504.43
637.706	39128.39
638.06	39423.98
638.413	39286.58
638.767	39270.08
639.121	39345.79
639.474	39168.39
639.828	39254.72
640.181	39261.27
640.534	39287.48
640.888	39148.96
641.241	39052.69
641.594	39178.33
641.947	39271.67
642.301	39193.48
642.654	39200.48
643.007	39190.99
643.36	39160.03
643.713	39188.28
644.066	39321.61
644.419	39035.51
644.771	38847.27
645.124	38612.93
645.477	38483.21
645.83	38259.49
646.182	38099.04
646.535	38090.68
646.888	37979.27
647.24	37981.3
647.593	38169.55
647.945	37953.06
648.298	37782.89
648.65	37855.43
649.002	37876.9
649.355	37960.06
649.707	37794.64
650.059	37953.73
650.411	38533.38
650.763	38519.14
651.115	38839.36
651.467	38742.19
651.819	38792.81
652.171	38732.92
652.523	38784.45
652.875	38805.46
653.227	38689.31
653.578	38853.15
653.93	38777.89
654.282	38492.93
654.633	38474.17
654.985	38656.09
655.337	38635.3
655.688	38603.89
656.039	38716.88
656.391	38418.58
656.742	38575.19
657.094	38574.06
657.445	38506.94
657.796	38593.94
658.147	38504.23
658.498	38452.03
658.849	38640.27
659.2	38498.13
659.551	38494.74
659.902	38553.49
660.253	38411.57
660.604	38528.86
660.955	38450.44
661.306	38447.05
661.656	38347.17
662.007	38322.09
662.358	38460.84
662.708	38236.21
663.059	38355.76
663.409	38179.04
663.76	38448.18
664.11	38437.79
664.461	38426.94
664.811	38438.92
665.161	38346.94
665.511	38244.8
665.862	38444.57
666.212	38463.1
666.562	38412.03
666.912	38384.91
667.262	38341.52
667.612	38259.49
667.962	38281.86
668.312	38154.86
668.662	38398.24
669.011	38321.63
669.361	38253.16
669.711	38175.42
670.06	38087.06
670.41	38051.81
670.76	38101.53
671.109	38208.64
671.459	38237.79
671.808	38095.2
672.157	38233.05
672.507	37952.38
672.856	38039.38
673.205	38099.04
673.554	38125.48
673.904	37999.61
674.253	38180.85
674.602	38004.58
674.951	37525.5
675.3	37511.71
675.649	37894.3
675.998	38012.26
676.346	37909.67
676.695	38000.96
677.044	37671.26
677.393	37939.5
677.741	37784.02
678.09	37801.42
678.438	37724.14
678.787	37745.15
679.135	37741.76
679.484	37515.1
679.832	37634.42
680.181	37615.21
680.529	37662.22
680.877	37515.78
681.225	37417.48
681.573	37737.02
681.922	37403.01
682.27	37283.92
682.618	37369.57
682.966	37279.4
683.314	37305.39
683.661	37191.95
684.009	37156.47
684.357	36943.36
684.705	37044.38
685.053	36964.16
685.4	36779.3
685.748	36791.5
686.095	36649.36
686.443	36633.32
686.79	36562.36
687.138	36694.11
687.485	36692.07
687.832	36523.49
688.18	36449.14
688.527	36332.53
688.874	36302.25
689.221	36151.3
689.568	36146.32
689.915	35872.88
690.262	36051.64
690.609	35824.07
690.956	35818.2
691.303	35728.48
691.65	35681.93
691.997	35564.42
692.344	35497.3
692.69	35363.97
693.037	35455.95
693.383	35084.66
693.73	35332.33
694.077	34996.3
694.423	34985.9
694.769	35048.27
695.116	34901.84
695.462	34821.84
695.808	34706.59
696.155	34889.41
696.501	34494.39
696.847	34532.13
697.193	34328.29
697.539	34393.38
697.885	34148.64
698.231	34132.59
698.577	34134.85
698.923	33993.39
699.269	33775.31
699.614	33724.24
699.96	33676.33
700.306	33658.25
700.651	33582.55
700.997	33381.88
701.342	33489.9
701.688	33359.73
702.033	33180.53
702.379	33264.59
702.724	33159.06
703.069	33155.89
703.415	32783.02
703.76	32819.41
704.105	32876.81
704.45	32751.84
704.795	32544.61
705.14	32522.01
705.485	32460.09
705.83	32303.03
706.175	32325.63
706.52	32318.18
706.865	32166.77
707.209	32131.06
707.554	32003.16
707.899	32013.78
708.243	31981.01
708.588	31882.48
708.932	31622.15
709.277	31650.85
709.621	31642.94
709.966	31393.91
710.31	31635.03
710.654	31211.76
710.998	31192.78
711.342	31434.13
711.687	31277.3
712.031	31219.22
712.375	31095.38
712.719	31125.21
713.063	30934.26
713.407	31100.13
713.75	30873.69
714.094	30796.18
714.438	30607.03
714.782	30747.14
715.125	30449.98
715.469	30647.26
715.812	30523.19
716.156	30228.51
716.499	30318.23
716.843	30352.13
717.186	30091.12
717.53	30254.73
717.873	30261.51
718.216	30275.97
718.559	30041.85
718.902	29870.78
719.246	30080.72
719.589	29889.76
719.932	29611.81
720.275	29774.06
720.617	29756.44
720.96	29680.05
721.303	29761.41
721.646	29572.03
721.989	29453.39
722.331	29435.31
722.674	29379.72
723.016	29469.21
723.359	29269.22
723.701	29367.07
724.044	29154.64
724.386	29066.28
724.729	29164.13
725.071	29117.36
725.413	29069.9
725.755	29047.98
726.097	29047.53
726.439	28789.68
726.782	28862.22
727.124	28880.98
727.465	28745.16
727.807	28795.56
728.149	28666.07
728.491	28643.02
728.833	28595.56
729.175	28624.04
729.516	28419.07
729.858	28504.04
730.199	28489.12
730.541	28356.92
730.882	28452.51
731.224	28367.77
731.565	28302.24
731.906	28226.31
732.248	28238.96
732.589	28080.55
732.93	28010.72
733.271	28099.76
733.612	28124.39
733.953	28050.94
734.294	27970.04
734.635	27904.28
734.976	28011.4
735.317	27698.64
735.658	27657.51
735.999	27763.49
736.339	27739.76
736.68	27764.4
737.021	27663.83
737.361	27495.7
737.702	27681.01
738.042	27571.18
738.383	27522.6
738.723	27533.67
739.063	27395.14
739.404	27450.06
739.744	27442.6
740.084	27337.52
740.424	27514.91
740.764	27195.82
741.104	27399.66
741.444	27270.85
741.784	27167.35
742.124	27092.78
742.464	27143.17
742.804	26862.05
743.143	26998.32
743.483	27019.78
743.823	26919.22
744.162	26830.41
744.502	26850.3
744.841	26769.17
745.181	26856.62
745.52	26751.09
745.86	26763.97
746.199	26718.1
746.538	26641.94
746.877	26606.69
747.216	26595.39
747.556	26449.86
747.895	26524.88
748.234	26372.8
748.573	26462.51
748.911	26343.87
749.25	26378.67
749.589	26210.09
749.928	26237.88
750.267	26160.15
750.605	26102.07
750.944	26157.21
751.283	25953.15
751.621	26070.66
751.96	25909.98
752.298	25925.35
752.636	25808.74
752.975	25775.07
753.313	25597
753.651	25843.32
753.989	25678.35
754.327	25648.75
754.666	25469.54
755.004	25601.74
755.342	25541.63
755.679	25418.92
756.017	25303.44
756.355	25520.61
756.693	25314.74
757.031	25324.01
757.368	25154.97
757.706	25183
758.044	24990.68
758.381	25122.43
758.719	24986.17
759.056	25031.59
759.394	24902.55
759.731	24766.74
760.068	24734.65
760.405	24564.71
