Data from hue_10_FLMS001491_42.txt Node
Date: Mon Feb 06 15:31:58 GMT 2017
User: dcchb
Spectrometer: FLMS00149
Trigger mode: 0
Integration Time (sec): 2.000000E-2
Scans to average: 10
Electric dark correction enabled: true
Nonlinearity correction enabled: false
Boxcar width: 0
XAxis mode: Wavelengths
Number of Pixels in Spectrum: 2048
>>>>>Begin Spectral Data<<<<<
341.393	-3.01
341.776	-3.01
342.16	-3.01
342.543	-70.35
342.927	-68.77
343.31	-75.32
343.693	-74.42
344.077	-58.6
344.46	-51.59
344.843	-55.44
345.226	-53.63
345.61	-19.73
345.993	-21.31
346.376	11.91
346.759	-0.3
347.142	18.23
347.525	41.74
347.908	61.4
348.291	68.85
348.674	92.58
349.057	115.63
349.44	128.97
349.823	156.31
350.206	178
350.588	197.44
350.971	221.62
351.354	246.93
351.737	236.76
352.119	243.31
352.502	272.46
352.884	288.28
353.267	281.73
353.65	289.41
354.032	272.46
354.414	302.29
354.797	321.95
355.179	319.69
355.562	321.73
355.944	330.54
356.326	351.56
356.709	350.88
357.091	344.33
357.473	352.69
357.855	360.37
358.238	356.76
358.62	355.4
359.002	339.36
359.384	345.68
359.766	345.23
360.148	340.94
360.53	363.54
360.912	331.67
361.294	328.73
361.676	329.19
362.057	347.94
362.439	333.71
362.821	326.25
363.203	336.87
363.584	334.38
363.966	326.02
364.348	333.25
364.729	319.47
365.111	332.58
365.493	334.84
365.874	318.57
366.256	315.63
366.637	309.53
367.019	314.27
367.4	325.8
367.781	322.63
368.163	337.55
368.544	312.69
368.925	321.28
369.306	306.59
369.688	313.37
370.069	301.16
370.45	281.73
370.831	313.82
371.212	331.22
371.593	324.44
371.974	333.48
372.355	331.22
372.736	312.92
373.117	315.63
373.498	333.93
373.879	335.74
374.26	315.18
374.641	324.89
375.021	303.88
375.402	319.92
375.783	339.81
376.163	323.76
376.544	309.07
376.925	312.92
377.305	353.14
377.686	319.02
378.066	345.68
378.447	326.25
378.827	337.32
379.208	323.31
379.588	333.93
379.968	335.74
380.349	327.6
380.729	327.38
381.109	321.28
381.489	356.08
381.87	321.95
382.25	345.68
382.63	345.46
383.01	352.69
383.39	349.3
383.77	337.55
384.15	347.72
384.53	349.07
384.91	318.34
385.29	349.75
385.67	335.97
386.049	349.52
386.429	353.82
386.809	345.68
387.189	338.9
387.568	349.75
387.948	326.93
388.328	354.27
388.707	345.68
389.087	344.33
389.466	368.06
389.846	335.97
390.225	362.18
390.605	374.38
390.984	373.7
391.363	354.5
391.743	371.22
392.122	356.08
392.501	353.14
392.881	361.05
393.26	385.46
393.639	371.9
394.018	357.21
394.397	362.18
394.776	367.15
395.155	379.58
395.534	379.13
395.913	371.67
396.292	392.24
396.671	385.68
397.05	364.44
397.429	357.43
397.808	381.39
398.186	361.05
398.565	368.28
398.944	384.33
399.323	398.56
399.701	368.06
400.08	383.42
400.458	393.82
400.837	376.64
401.215	388.62
401.594	400.14
401.972	395.4
402.351	388.62
402.729	409.41
403.107	394.95
403.486	397.21
403.864	376.87
404.242	405.57
404.62	415.51
404.999	401.27
405.377	394.72
405.755	410.99
406.133	391.78
406.511	393.14
406.889	425.45
407.267	413.03
407.645	425.91
408.023	430.65
408.401	403.31
408.779	414.38
409.156	410.54
409.534	419.81
409.912	420.48
410.29	420.26
410.667	420.03
411.045	432.91
411.422	425
411.8	436.3
412.178	439.01
412.555	413.93
412.933	460.93
413.31	437.66
413.687	463.87
414.065	457.09
414.442	453.48
414.819	443.76
415.197	468.84
415.574	476.08
415.951	479.46
416.328	478.11
416.705	460.48
417.082	453.25
417.46	459.13
417.837	483.08
418.214	500.71
418.591	492.12
418.967	475.85
419.344	491.22
419.721	486.24
420.098	483.76
420.475	484.89
420.852	501.16
421.228	474.49
421.605	523.53
421.982	500.26
422.358	490.31
422.735	500.03
423.111	508.84
423.488	512.68
423.864	506.81
424.241	510.42
424.617	524.21
424.994	537.32
425.37	519.92
425.746	545.23
426.123	555.62
426.499	548.39
426.875	546.13
427.251	519.46
427.627	536.64
428.003	572.34
428.379	564.43
428.756	559.69
429.132	573.25
429.507	558.11
429.883	574.38
430.259	576.86
430.635	573.7
431.011	581.83
431.387	585
431.763	600.59
432.138	577.77
432.514	593.36
432.89	592
433.265	603.76
433.641	616.64
434.016	598.78
434.392	610.53
434.767	599.01
435.143	630.2
435.518	630.2
435.894	632
436.269	634.71
436.644	650.31
437.02	660.48
437.395	645.11
437.77	663.19
438.145	656.18
438.52	658.22
438.895	673.36
439.271	660.25
439.646	696.63
440.021	681.04
440.395	659.12
440.77	700.02
441.145	659.12
441.52	697.76
441.895	690.98
442.27	701.61
442.645	688.05
443.019	718.33
443.394	723.53
443.769	723.98
444.143	731.44
444.518	720.14
444.892	724.43
445.267	730.98
445.641	730.08
446.016	712.23
446.39	721.27
446.764	726.92
447.139	713.13
447.513	766.69
447.887	753.58
448.262	758.55
448.636	745.22
449.01	755.16
449.384	764.2
449.758	776.41
450.132	778.89
450.506	773.02
450.88	764.66
451.254	799
451.628	783.19
452.002	797.2
452.376	793.81
452.75	800.81
453.123	809.17
453.497	813.69
453.871	830.87
454.244	840.81
454.618	836.07
454.992	862.05
455.365	820.02
455.739	852.79
456.112	852.11
456.486	860.02
456.859	871.32
457.232	883.52
457.606	894.82
457.979	894.14
458.352	900.7
458.725	884.43
459.099	894.14
459.472	906.57
459.845	918.78
460.218	936.63
460.591	938.21
460.964	968.27
461.337	963.97
461.71	981.37
462.083	963.97
462.456	1011.2
462.829	1005.55
463.201	1001.71
463.574	1003.97
463.947	1020.69
464.32	1027.02
464.692	1045.33
465.065	1045.55
465.438	1080.13
465.81	1060.47
466.183	1079.68
466.555	1095.27
466.928	1115.61
467.3	1111.09
467.672	1139.11
468.045	1147.24
468.417	1151.76
468.789	1142.27
469.161	1153.8
469.534	1213.91
469.906	1214.81
470.278	1220.69
470.65	1237.86
471.022	1276.73
471.394	1279.9
471.766	1292.32
472.138	1312.89
472.51	1318.54
472.882	1368.93
473.253	1370.06
473.625	1386.11
473.997	1410.06
474.369	1447.12
474.74	1456.61
475.112	1480.34
475.484	1494.58
475.855	1534.13
476.227	1557.63
476.598	1567.57
476.97	1600.11
477.341	1628.81
477.713	1677.17
478.084	1682.6
478.455	1749.26
478.827	1739.32
479.198	1785.42
479.569	1772.76
479.94	1827.68
480.311	1859.99
480.682	1918.52
481.053	1956.49
481.424	1965.98
481.795	1989.48
482.166	2023.6
482.537	2092.08
482.908	2128.46
483.279	2168.46
483.65	2180.44
484.021	2236.71
484.391	2263.6
484.762	2293.65
485.133	2311.51
485.503	2317.61
485.874	2391.28
486.244	2432.41
486.615	2449.13
486.985	2536.36
487.356	2567.55
487.726	2580.88
488.097	2669.69
488.467	2682.57
488.837	2727.54
489.207	2758.05
489.578	2796.24
489.948	2831.27
490.318	2871.72
490.688	2913.07
491.058	2933.64
491.428	3029.45
491.798	3055.67
492.168	3107.19
492.538	3099.96
492.908	3161.88
493.278	3238.71
493.648	3216.12
494.017	3243.46
494.387	3306.51
494.757	3380.86
495.126	3333.85
495.496	3384.02
495.866	3401.87
496.235	3440.97
496.605	3508.09
496.974	3492.72
497.344	3554.64
497.713	3576.78
498.082	3574.07
498.452	3621.08
498.821	3668.99
499.19	3665.82
499.559	3732.49
499.928	3731.36
500.298	3772.71
500.667	3782.2
501.036	3792.15
501.405	3790.34
501.774	3832.37
502.143	3842.09
502.512	3924.57
502.88	3917.11
503.249	3906.95
503.618	3967.73
503.987	3946.04
504.356	4042.99
504.724	4038.69
505.093	3999.15
505.462	4098.8
505.83	4074.17
506.199	4099.48
506.567	4167.28
506.936	4142.87
507.304	4179.48
507.672	4195.07
508.041	4267.61
508.409	4238.46
508.777	4286.14
509.145	4283.21
509.514	4326.37
509.882	4279.36
510.25	4368.18
510.618	4354.84
510.986	4339.25
511.354	4410.66
511.722	4407.5
512.09	4480.94
512.458	4488.62
512.826	4466.03
513.193	4494.27
513.561	4522.75
513.929	4528.62
514.297	4547.38
514.664	4564.78
515.032	4574.05
515.4	4630.99
515.767	4640.71
516.135	4646.81
516.502	4625.8
516.869	4699.92
517.237	4684.1
517.604	4634.38
517.972	4711.9
518.339	4701.5
518.706	4737.21
519.073	4734.72
519.44	4799.58
519.808	4796.64
520.175	4796.19
520.542	4886.58
520.909	4834.6
521.276	4828.73
521.643	4901.04
522.009	4903.76
522.376	4930.42
522.743	4950.08
523.11	4969.29
523.477	4975.84
523.843	5009.29
524.21	5103.75
524.577	5056.97
524.943	5040.02
525.31	5118.89
525.676	5117.76
526.043	5186.23
526.409	5195.27
526.776	5274.82
527.142	5261.26
527.508	5317.08
527.874	5295.16
528.241	5333.8
528.607	5282.05
528.973	5393.01
529.339	5405.21
529.705	5412.89
530.071	5479.79
530.437	5524.08
530.803	5552.78
531.169	5548.03
531.535	5530.18
531.901	5508.26
532.267	5585.77
532.632	5655.83
532.998	5625.77
533.364	5697.41
533.73	5642.72
534.095	5697.41
534.461	5732.89
534.826	5739.44
535.192	5784.41
535.557	5786.44
535.923	5864.41
536.288	5850.62
536.653	5840.68
537.019	5863.28
537.384	5917.74
537.749	5968.59
538.114	5976.95
538.479	5926.33
538.845	5970.85
539.21	5963.39
539.575	5996.61
539.94	6037.28
540.305	6047.68
540.67	6080
541.034	6087.23
541.399	6149.6
541.764	6141.46
542.129	6181.46
542.494	6253.32
542.858	6241.8
543.223	6279.54
543.587	6364.06
543.952	6294.91
544.316	6294.45
544.681	6340.33
545.045	6374.45
545.41	6363.15
545.774	6380.1
546.138	6496.48
546.503	6502.58
546.867	6477.73
547.231	6581.68
547.595	6577.38
547.959	6569.47
548.324	6626.2
548.688	6626.65
549.052	6666.87
549.416	6654.22
549.779	6735.35
550.143	6709.36
550.507	6746.87
550.871	6812.63
551.235	6793.2
551.599	6830.26
551.962	6807.89
552.326	6898.51
552.689	6877.94
553.053	6913.42
553.417	6913.87
553.78	6974.89
554.143	6994.32
554.507	7031.61
554.87	7033.19
555.234	7062.79
555.597	7006.75
555.96	7074.77
556.323	7072.29
556.686	7085.17
557.05	7131.95
557.413	7152.06
557.776	7139.63
558.139	7162.9
558.502	7194.09
558.865	7279.51
559.228	7297.82
559.59	7301.43
559.953	7345.27
560.316	7379.4
560.679	7388.21
561.041	7417.14
561.404	7410.13
561.767	7457.81
562.129	7463.91
562.492	7540.07
562.854	7510.01
563.217	7580.75
563.579	7561.99
563.941	7503.69
564.304	7629.79
564.666	7689.67
565.028	7719.95
565.39	7724.92
565.753	7767.41
566.115	7773.28
566.477	7803.79
566.839	7811.7
567.201	7880.4
567.563	7882.21
567.925	7956.78
568.287	7931.47
568.648	7985.93
569.01	7950.23
569.372	8051.47
569.734	8000.85
570.095	8098.7
570.457	8116.78
570.819	8157.91
571.18	8199.04
571.542	8229.32
571.903	8271.12
572.265	8316.55
572.626	8369.88
572.987	8382.53
573.349	8469.31
573.71	8472.25
574.071	8556.31
574.432	8583.21
574.794	8641.28
575.155	8695.07
575.516	8674.05
575.877	8836.53
576.238	8903.88
576.599	8982.74
576.96	9000.37
577.32	9083.98
577.681	9209.4
578.042	9246.69
578.403	9258.44
578.763	9446.01
579.124	9558.77
579.485	9563.75
579.845	9720.35
580.206	9857.07
580.566	9926.22
580.927	10048.48
581.287	10205.99
581.648	10368.47
582.008	10524.85
582.368	10606.88
582.728	10780.44
583.089	10885.74
583.449	11069.69
583.809	11273.98
584.169	11332.29
584.529	11564.15
584.889	11805.27
585.249	11977.92
585.609	12102.21
585.969	12429.66
586.329	12658.81
586.688	12798.24
587.048	13117.32
587.408	13367.26
587.768	13569.06
588.127	13750.75
588.487	14002.5
588.846	14339.21
589.206	14449.04
589.565	14780.11
589.925	15077.27
590.284	15307.32
590.643	15641.1
591.003	15985.05
591.362	16322.89
591.721	16580.96
592.08	16803.78
592.44	17131.46
592.799	17502.29
593.158	17842.17
593.517	18167.59
593.876	18538.2
594.235	18706.33
594.593	19156.71
594.952	19366.2
595.311	19807.32
595.67	20104.26
596.029	20637.58
596.387	20890.68
596.746	21368.63
597.104	21368.63
597.463	21727.72
597.822	22125.22
598.18	22412.22
598.538	22770.63
598.897	23274.35
599.255	23427.79
599.613	24078.84
599.972	24164.27
600.33	24607.87
600.688	24818.71
601.046	25207.4
601.404	25712.25
601.762	25913.6
602.12	26378.22
602.478	26697.08
602.836	26888.04
603.194	27166.9
603.552	27568.92
603.91	27651.41
604.268	28143.6
604.625	28355.34
604.983	28774.31
605.341	28878.94
605.698	29290.68
606.056	29718.24
606.413	29750.11
606.771	30220.6
607.128	30550.31
607.485	30671.67
607.843	31006.35
608.2	31314.13
608.557	31790.05
608.914	31869.6
609.272	32280.66
609.629	32436.59
609.986	32898.95
610.343	32985.5
610.7	33536.9
611.057	33545.94
611.414	33758.36
611.771	33922.43
612.127	34295.75
612.484	34446.26
612.841	34831.1
613.198	34923.98
613.554	35037.65
613.911	35578.65
614.267	35579.56
614.624	35777.07
614.98	36029.49
615.337	36302.93
615.693	36485.3
616.05	36504.51
616.406	36846.42
616.762	36921.67
617.118	37132.96
617.475	37221.1
617.831	37480.07
618.187	37755.32
618.543	37682.55
618.899	38245.7
619.255	38297.45
619.611	38477.79
619.967	38644.11
620.323	38842.52
620.678	38797.55
621.034	38918.91
621.39	39011.78
621.746	39070.77
622.101	39624.65
622.457	39361.83
622.812	39668.04
623.168	39804.98
623.523	39971.99
623.879	40075.03
624.234	39925.66
624.589	40185.99
624.945	40326.55
625.3	40338.98
625.655	40454.46
626.01	40598.86
626.365	40652.65
626.72	40685.64
627.075	40668.24
627.43	40783.04
627.785	40951.62
628.14	40990.26
628.495	41004.5
628.85	40991.62
629.205	40947.1
629.559	41419.41
629.914	41109.36
630.269	41226.87
630.623	41205.63
630.978	41167.43
631.332	41525.39
631.687	41570.81
632.041	41463.02
632.396	41596.58
632.75	41360.65
633.104	41516.13
633.459	41321.1
633.813	41450.59
634.167	41546.63
634.521	41589.34
634.875	41695.56
635.229	41708.21
635.583	41464.6
635.937	41619.63
636.291	41574.66
636.645	41598.38
636.999	41610.13
637.352	41725.61
637.706	41484.04
638.06	41727.42
638.413	41523.58
638.767	41547.76
639.121	41683.81
639.474	41465.73
639.828	41443.13
640.181	41592.51
640.534	41594.09
640.888	41367.43
641.241	41372.85
641.594	41432.29
641.947	41595.67
642.301	41374.66
642.654	41557.03
643.007	41653.98
643.36	41448.56
643.713	41469.8
644.066	41703.24
644.419	41306.19
644.771	41193.2
645.124	40668.46
645.477	40685.19
645.83	40560.67
646.182	40481.35
646.535	40250.85
646.888	40267.35
647.24	40216.05
647.593	40476.61
647.945	40248.14
648.298	40103.51
648.65	40148.48
649.002	40001.36
649.355	40294.24
649.707	40053.34
650.059	40350.28
650.411	40724.51
650.763	40752.53
651.115	41197.94
651.467	41113.2
651.819	41189.58
652.171	41068.45
652.523	40848.35
652.875	40968.8
653.227	40781.46
653.578	41159.98
653.93	41013.31
654.282	40889.02
654.633	40701.01
654.985	40823.04
655.337	40807.44
655.688	40830.49
656.039	40977.61
656.391	40540.56
656.742	40703.72
657.094	40663.04
657.445	40934.9
657.796	40676.6
658.147	40661.23
658.498	40684.74
658.849	40789.37
659.2	40861.91
659.551	40692.42
659.902	40810.61
660.253	40783.72
660.604	40808.35
660.955	40561.35
661.306	40716.15
661.656	40765.86
662.007	40703.72
662.358	40700.78
662.708	40671.63
663.059	40661.91
663.409	40234.35
663.76	40731.74
664.11	40631.18
664.461	40711.18
664.811	40635.47
665.161	40543.04
665.511	40608.35
665.862	40634.12
666.212	40604.51
666.562	40647
666.912	40449.71
667.262	40627.34
667.612	40550.5
667.962	40606.55
668.312	40546.21
668.662	40795.24
669.011	40498.3
669.361	40604.29
669.711	40448.81
670.06	40362.03
670.41	40263.73
670.76	40254.24
671.109	40515.7
671.459	40454.68
671.808	40290.62
672.157	40416.72
672.507	40284.29
672.856	40305.54
673.205	40320.23
673.554	40517.96
673.904	40160.46
674.253	40488.36
674.602	40289.27
674.951	39727.7
675.3	39602.5
675.649	40068.25
675.998	40184.64
676.346	40120
676.695	40270.06
677.044	39916.62
677.393	40003.85
677.741	40261.02
678.09	39997.97
678.438	39944.19
678.787	40067.35
679.135	39932.89
679.484	39830.75
679.832	39855.38
680.181	39607.7
680.529	39792.1
680.877	39545.1
681.225	39710.75
681.573	39896.96
681.922	39542.17
682.27	39467.14
682.618	39513.01
682.966	39467.59
683.314	39501.04
683.661	39280.48
684.009	39240.25
684.357	39076.42
684.705	39045.46
685.053	39104.66
685.4	39071.22
685.748	38840.26
686.095	38852.47
686.443	38662.42
686.79	38750.77
687.138	38725.92
687.485	38696.99
687.832	38656.09
688.18	38667.84
688.527	38547.62
688.874	38393.72
689.221	38349.88
689.568	38179.26
689.915	38140.62
690.262	38108.76
690.609	38113.5
690.956	37993.73
691.303	37941.98
691.65	37683.68
691.997	37785.6
692.344	37612.73
692.69	37494.76
693.037	37546.51
693.383	37148.11
693.73	37421.54
694.077	37100.87
694.423	37260.64
694.769	37053.19
695.116	36870.82
695.462	36925.96
695.808	36819.75
696.155	36848.68
696.501	36498.4
696.847	36492.08
697.193	36233.33
697.539	36352.65
697.885	36116.95
698.231	36051.41
698.577	36114.91
698.923	36038.98
699.269	35883.05
699.614	35750.85
699.96	35662.27
700.306	35633.12
700.651	35545.89
700.997	35451.43
701.342	35363.29
701.688	35259.34
702.033	35132.79
702.379	35212.34
702.724	35112.45
703.069	35138.89
703.415	34716.76
703.76	34747.72
704.105	34783.42
704.45	34675.4
704.795	34380.04
705.14	34394.51
705.485	34430.89
705.83	34234.96
706.175	34276.77
706.52	34182.53
706.865	34002.65
707.209	34032.48
707.554	33935.31
707.899	33997
708.243	33611.25
708.588	33674.98
708.932	33490.35
709.277	33441.99
709.621	33533.74
709.966	33246.74
710.31	33435.66
710.654	33077.03
710.998	33180.07
711.342	33230.02
711.687	33039.51
712.031	32916.13
712.375	32737.15
712.719	32801.78
713.063	32657.83
713.407	32802.91
713.75	32780.99
714.094	32634.55
714.438	32586.42
714.782	32677.94
715.125	32299.87
715.469	32292.87
715.812	32259.19
716.156	32099.2
716.499	32138.07
716.843	32114.34
717.186	31969.71
717.53	32106.88
717.873	32079.31
718.216	31940.78
718.559	31868.02
718.902	31707.34
719.246	31619.66
719.589	31547.35
719.932	31454.47
720.275	31726.33
720.617	31442.72
720.96	31508.25
721.303	31366.56
721.646	31383.96
721.989	31090.86
722.331	31229.62
722.674	31184.19
723.016	31099.68
723.359	31221.26
723.701	31106.68
724.044	30868.72
724.386	30751.66
724.729	30816.29
725.071	30695.85
725.413	30692
725.755	30630.76
726.097	30555.06
726.439	30415.63
726.782	30396.42
727.124	30614.72
727.465	30556.87
727.807	30428.73
728.149	30290.21
728.491	30290.88
728.833	30288.62
729.175	30224.45
729.516	30186.25
729.858	30099.7
730.199	30107.84
730.541	30012.25
730.882	29959.37
731.224	30048.86
731.565	29809.99
731.906	29845.25
732.248	29869.43
732.589	29712.14
732.93	29619.26
733.271	29581.98
733.612	29635.76
733.953	29648.87
734.294	29525.48
734.635	29508.53
734.976	29582.43
735.317	29345.15
735.658	29420.85
735.999	29407.97
736.339	29242.32
736.68	29439.16
737.021	29272.83
737.361	29118.49
737.702	29268.99
738.042	29278.03
738.383	28982.67
738.723	29031.93
739.063	28921.65
739.404	29019.28
739.744	28877.59
740.084	28878.27
740.424	28826.97
740.764	28735.67
741.104	28848.21
741.444	28666.29
741.784	28603.25
742.124	28720.53
742.464	28672.85
742.804	28544.04
743.143	28571.16
743.483	28568.44
743.823	28450.25
744.162	28404.15
744.502	28398.96
744.841	28283.25
745.181	28224.72
745.52	28185.4
745.86	28232.41
746.199	28269.02
746.538	28107.66
746.877	28284.16
747.216	28170.94
747.556	28058.63
747.895	28118.51
748.234	28036.03
748.573	27944.51
748.911	27887.11
749.25	27819.08
749.589	27749.26
749.928	27815.24
750.267	27825.86
750.605	27657.96
750.944	27572.76
751.283	27554.01
751.621	27559.88
751.96	27412.32
752.298	27408.02
752.636	27389.72
752.975	27271.53
753.313	27215.48
753.651	27344.52
753.989	27118.09
754.327	27183.4
754.666	27032.66
755.004	27143.62
755.342	27024.3
755.679	26975.49
756.017	27000.35
756.355	26888.04
756.693	26852.33
757.031	26903.4
757.368	26660.7
757.706	26721.26
758.044	26501.15
758.381	26554.71
758.719	26548.38
759.056	26534.15
759.394	26451.44
759.731	26225
760.068	26265.91
760.405	26128.51
760.743	26065.01
