Data from hue_120_FLMS001491_00058.txt Node
Date: Tue Feb 07 16:59:41 GMT 2017
User: dcchb
Spectrometer: FLMS00149
Trigger mode: 0
Integration Time (sec): 2.000000E-2
Scans to average: 10
Electric dark correction enabled: true
Nonlinearity correction enabled: false
Boxcar width: 0
XAxis mode: Wavelengths
Number of Pixels in Spectrum: 2048
>>>>>Begin Spectral Data<<<<<
341.393	-24.02
341.776	-24.02
342.16	-24.02
342.543	-51.59
342.927	-76.9
343.31	-81.2
343.693	-75.1
344.077	-76.68
344.46	-61.54
344.843	-58.6
345.226	-71.71
345.61	-38.04
345.993	-7.75
346.376	0.16
346.759	21.62
347.142	50.78
347.525	44.22
347.908	62.53
348.291	85.58
348.674	91.45
349.057	114.28
349.44	128.74
349.823	132.58
350.206	154.95
350.588	206.25
350.971	207.83
351.354	212.81
351.737	228.85
352.119	240.83
352.502	242.41
352.884	273.14
353.267	277.66
353.65	284.67
354.032	305.46
354.414	285.35
354.797	307.27
355.179	303.2
355.562	306.59
355.944	307.94
356.326	338.68
356.709	321.28
357.091	321.05
357.473	348.62
357.855	339.13
358.238	331.22
358.62	318.11
359.002	333.71
359.384	324.67
359.766	330.32
360.148	326.25
360.53	325.8
360.912	348.17
361.294	358.79
361.676	338.68
362.057	347.72
362.439	324.21
362.821	324.89
363.203	347.94
363.584	317.21
363.966	318.57
364.348	337.32
364.729	320.6
365.111	326.02
365.493	309.98
365.874	321.28
366.256	325.57
366.637	301.16
367.019	323.76
367.4	300.03
367.781	313.37
368.163	315.85
368.544	318.34
368.925	308.4
369.306	315.63
369.688	328.51
370.069	309.75
370.45	306.36
370.831	310.66
371.212	314.27
371.593	317.89
371.974	319.24
372.355	290.09
372.736	316.08
373.117	334.16
373.498	296.64
373.879	297.1
374.26	291.67
374.641	310.88
375.021	315.63
375.402	335.97
375.783	329.19
376.163	335.29
376.544	318.34
376.925	321.5
377.305	317.21
377.686	317.89
378.066	334.61
378.447	337.1
378.827	327.38
379.208	337.77
379.588	333.93
379.968	335.06
380.349	322.18
380.729	330.09
381.109	328.51
381.489	337.55
381.87	315.63
382.25	323.08
382.63	327.15
383.01	329.19
383.39	348.85
383.77	358.34
384.15	354.95
384.53	340.94
384.91	346.59
385.29	345.68
385.67	348.39
386.049	354.27
386.429	346.13
386.809	328.96
387.189	351.56
387.568	355.63
387.948	380.03
388.328	368.28
388.707	360.82
389.087	355.4
389.466	373.93
389.846	357.43
390.225	377.77
390.605	363.31
390.984	346.13
391.363	369.19
391.743	368.73
392.122	394.04
392.501	370.54
392.881	377.55
393.26	358.34
393.639	395.63
394.018	376.19
394.397	374.61
394.776	398.56
395.155	385.46
395.534	373.7
395.913	377.77
396.292	390.88
396.671	380.03
397.05	373.03
397.429	384.33
397.808	397.43
398.186	395.17
398.565	384.33
398.944	387.04
399.323	401.27
399.701	414.83
400.08	389.07
400.458	402.63
400.837	385.91
401.215	393.37
401.594	399.47
401.972	410.54
402.351	422.52
402.729	411.67
403.107	415.51
403.486	413.7
403.864	418
404.242	422.97
404.62	420.71
404.999	415.74
405.377	454.38
405.755	424.1
406.133	417.32
406.511	426.58
406.889	434.27
407.267	427.04
407.645	424.1
408.023	425.91
408.401	456.64
408.779	447.83
409.156	445.12
409.534	437.66
409.912	450.09
410.29	440.82
410.667	448.51
411.045	464.55
411.422	455.96
411.8	483.31
412.178	487.6
412.555	471.56
412.933	473.82
413.31	479.46
413.687	456.64
414.065	481.95
414.442	488.73
414.819	500.93
415.197	485.57
415.574	503.19
415.951	484.66
416.328	501.39
416.705	490.99
417.082	516.75
417.46	509.07
417.837	502.97
418.214	514.27
418.591	511.78
418.967	516.07
419.344	514.72
419.721	531.67
420.098	509.75
420.475	519.24
420.852	520.37
421.228	522.4
421.605	510.65
421.982	531.44
422.358	531.89
422.735	539.8
423.111	553.14
423.488	534.6
423.864	552.68
424.241	557.2
424.617	568.5
424.994	569.86
425.37	581.16
425.746	572.12
426.123	549.29
426.499	568.73
426.875	577.99
427.251	596.52
427.627	601.5
428.003	582.06
428.379	589.74
428.756	609.18
429.132	616.41
429.507	615.51
429.883	645.79
430.259	625.22
430.635	633.13
431.011	637.43
431.387	633.13
431.763	636.3
432.138	648.73
432.514	648.95
432.89	668.39
433.265	657.54
433.641	672.91
434.016	683.75
434.392	686.69
434.767	704.32
435.143	690.08
435.518	698.44
435.894	702.51
436.269	694.15
436.644	719.01
437.02	732.11
437.395	728.95
437.77	745.67
438.145	758.78
438.52	751.77
438.895	747.03
439.271	737.31
439.646	759.01
440.021	770.08
440.395	766.46
440.77	761.49
441.145	788.61
441.52	786.12
441.895	805.33
442.27	797.65
442.645	788.38
443.019	781.6
443.394	779.57
443.769	817.54
444.143	825.22
444.518	813.47
444.892	816.86
445.267	817.76
445.641	824.31
446.016	841.94
446.39	819.34
446.764	834.03
447.139	824.31
447.513	830.42
447.887	846.91
448.262	847.82
448.636	897.31
449.01	873.8
449.384	879
449.758	894.14
450.132	900.24
450.506	898.89
450.88	909.28
451.254	885.56
451.628	893.92
452.002	946.12
452.376	936.63
452.75	938.21
453.123	943.41
453.497	943.41
453.871	985.67
454.244	983.18
454.618	969.17
454.992	980.47
455.365	990.19
455.739	1027.92
456.112	1027.02
456.486	1034.93
456.859	1024.99
457.232	1046.46
457.606	1047.13
457.979	1063.4
458.352	1069.51
458.725	1095.04
459.099	1106.57
459.472	1098.43
459.845	1134.81
460.218	1138.66
460.591	1174.59
460.964	1170.52
461.337	1184.53
461.71	1229.28
462.083	1217.07
462.456	1192.67
462.829	1237.41
463.201	1262.04
463.574	1266.56
463.947	1278.54
464.32	1318.76
464.692	1274.47
465.065	1341.59
465.438	1325.09
465.81	1409.61
466.183	1379.78
466.555	1370.74
466.928	1420.46
467.3	1444.64
467.672	1467.01
468.045	1495.03
468.417	1516.73
468.789	1531.87
469.161	1524.86
469.534	1577.52
469.906	1602.6
470.278	1599.44
470.65	1636.04
471.022	1665.87
471.394	1714.01
471.766	1754.69
472.138	1771.63
472.51	1838.3
472.882	1845.53
473.253	1873.55
473.625	1899.54
473.997	1967.79
474.369	2028.12
474.74	2039.2
475.112	2095.69
475.484	2133.43
475.855	2169.36
476.227	2225.86
476.598	2292.52
476.97	2330.94
477.341	2403.03
477.713	2438.51
478.084	2486.42
478.455	2576.13
478.827	2630.59
479.198	2706.3
479.569	2757.15
479.94	2841.21
480.311	2932.28
480.682	3015.9
481.053	3072.39
481.424	3159.85
481.795	3219.96
482.166	3355.55
482.537	3371.59
482.908	3516.67
483.279	3631.47
483.65	3674.41
484.021	3820.39
484.391	3903.56
484.762	3961.86
485.133	4056.55
485.503	4189.2
485.874	4313.94
486.244	4405.24
486.615	4473.94
486.985	4635.29
487.356	4761.16
487.726	4883.64
488.097	4985.56
488.467	5071.43
488.837	5261.49
489.207	5358.66
489.578	5512.78
489.948	5606.34
490.318	5736.05
490.688	5827.8
491.058	6010.39
491.428	6117.96
491.798	6245.64
492.168	6451.74
492.538	6465.75
492.908	6598.17
493.278	6795
493.648	6872.07
494.017	7014.43
494.387	7105.05
494.757	7280.64
495.126	7421.2
495.496	7514.99
495.866	7630.69
496.235	7758.82
496.605	7831.81
496.974	8007.4
497.344	8138.25
497.713	8194.29
498.082	8362.65
498.452	8486.94
498.821	8570.1
499.19	8593.15
499.559	8759.02
499.928	8872.24
500.298	8978.45
500.667	9099.13
501.036	9123.76
501.405	9264.54
501.774	9352.45
502.143	9430.64
502.512	9548.15
502.88	9623.63
503.249	9663.4
503.618	9732.55
503.987	9871.53
504.356	9961.7
504.724	10015.94
505.093	10054.58
505.462	10168.93
505.83	10210.28
506.199	10350.39
506.567	10487.56
506.936	10513.33
507.304	10537.51
507.672	10658.18
508.041	10724.85
508.409	10798.97
508.777	10897.5
509.145	10940.88
509.514	10989.02
509.882	11075.12
510.25	11086.64
510.618	11130.26
510.986	11097.94
511.354	11257.03
511.722	11248.9
512.09	11438.05
512.458	11326.19
512.826	11476.24
513.193	11640.3
513.561	11574.99
513.929	11566.18
514.297	11779.73
514.664	11873.52
515.032	11798.26
515.4	11932.72
515.767	11899.96
516.135	11958.94
516.502	11855.21
516.869	12059.05
517.237	12111.25
517.604	12070.35
517.972	12057.47
518.339	12165.71
518.706	12105.15
519.073	12247.97
519.44	12270.79
519.808	12358.25
520.175	12304.46
520.542	12390.11
520.909	12439.83
521.276	12434.63
521.643	12500.17
522.009	12502.65
522.376	12562.08
522.743	12530
523.11	12583.78
523.477	12713.04
523.843	12753.72
524.21	12816.09
524.577	12884.34
524.943	12853.83
525.31	12875.52
525.676	12935.18
526.043	13001.4
526.409	12967.5
526.776	13040.94
527.142	13089.53
527.508	12981.96
527.874	13108.29
528.241	13143.54
528.607	13078.46
528.973	13184.44
529.339	13092.92
529.705	13113.03
530.071	13154.84
530.437	13104.67
530.803	13209.53
531.169	13174.95
531.535	13125.01
531.901	13142.18
532.267	13106.93
532.632	13171.56
532.998	13198
533.364	13216.98
533.73	13174.5
534.095	13192.12
534.461	13168.62
534.826	13155.29
535.192	13107.83
535.557	13137.21
535.923	13025.58
536.288	13179.02
536.653	13094.5
537.019	13019.02
537.384	13055.41
537.749	13041.62
538.114	13007.72
538.479	12849.76
538.845	12989.64
539.21	12885.24
539.575	12797.33
539.94	12892.25
540.305	12933.6
540.67	12813.6
541.034	12816.09
541.399	12812.93
541.764	12764.11
542.129	12706.04
542.494	12680.27
542.858	12607.73
543.223	12651.12
543.587	12652.48
543.952	12544.23
544.316	12571.58
544.681	12503.78
545.045	12512.82
545.41	12506.04
545.774	12433.95
546.138	12420.39
546.503	12472.37
546.867	12425.82
547.231	12399.6
547.595	12395.08
547.959	12348.31
548.324	12218.37
548.688	12172.26
549.052	12233.51
549.416	12237.8
549.779	12185.6
550.143	12124.58
550.507	12065.83
550.871	12104.47
551.235	12076.67
551.599	12104.24
551.962	12061.31
552.326	12036.22
552.689	12034.87
553.053	11888.2
553.417	11909.22
553.78	12033.29
554.143	11900.41
554.507	11960.97
554.87	11949.9
555.234	11889.79
555.597	11925.94
555.96	11853.4
556.323	11776.79
556.686	11789.45
557.05	11882.55
557.413	11857.24
557.776	11805.04
558.139	11794.87
558.502	11883.23
558.865	11706.51
559.228	11829.22
559.59	11834.65
559.953	11775.21
560.316	11928.43
560.679	11828.54
561.041	11872.61
561.404	11820.18
561.767	11947.41
562.129	11820.64
562.492	11882.78
562.854	11801.43
563.217	11758.49
563.579	11802.78
563.941	11915.77
564.304	11891.14
564.666	11919.62
565.028	11916.68
565.39	11877.58
565.753	11896.79
566.115	11968.43
566.477	11961.42
566.839	12014.08
567.201	12015.43
567.563	11946.51
567.925	12066.96
568.287	11961.87
568.648	11975.89
569.01	11973.63
569.372	12102.44
569.734	12030.8
570.095	12111.7
570.457	12124.58
570.819	12070.57
571.18	12137.69
571.542	12157.35
571.903	12117.12
572.265	12092.49
572.626	12144.92
572.987	12211.13
573.349	12267.18
573.71	12191.93
574.071	12202.77
574.432	12261.53
574.794	12229.89
575.155	12312.37
575.516	12208.42
575.877	12276.22
576.238	12217.24
576.599	12332.26
576.96	12304.46
577.32	12244.58
577.681	12260.62
578.042	12293.62
578.403	12297.01
578.763	12314.63
579.124	12228.53
579.485	12310.34
579.845	12439.38
580.206	12319.15
580.566	12231.25
580.927	12292.94
581.287	12312.15
581.648	12352.15
582.008	12379.04
582.368	12318.93
582.728	12301.53
583.089	12368.64
583.449	12290
583.809	12255.65
584.169	12279.15
584.529	12253.62
584.889	12317.12
585.249	12213.17
585.609	12239.38
585.969	12328.64
586.329	12252.26
586.688	12228.08
587.048	12226.5
587.408	12223.56
587.768	12151.02
588.127	12185.6
588.487	12020.86
588.846	12263.11
589.206	12167.07
589.565	12095.2
589.925	12145.37
590.284	12152.38
590.643	12068.31
591.003	12141.98
591.362	12146.05
591.721	12069.44
592.08	12146.5
592.44	12122.32
592.799	12056.56
593.158	12063.34
593.517	12056.34
593.876	12137.69
594.235	12059.95
594.593	12104.47
594.952	12073.74
595.311	12036.45
595.67	11972.72
596.029	12144.02
596.387	12165.71
596.746	12083.23
597.104	12119.84
597.463	12028.77
597.822	12054.53
598.18	12040.06
598.538	12063.12
598.897	12107.41
599.255	11920.97
599.613	12146.28
599.972	11988.31
600.33	12040.97
600.688	11987.18
601.046	12139.72
601.404	12030.35
601.762	12059.95
602.12	12070.8
602.478	12076.67
602.836	12034.19
603.194	11995.55
603.552	12029.67
603.91	11953.74
604.268	12013.62
604.625	11965.49
604.983	12022.44
605.341	11929.56
605.698	12066.73
606.056	12059.95
606.413	12076
606.771	12067.86
607.128	12079.84
607.485	12018.14
607.843	12036.9
608.2	12106.96
608.557	12137.01
608.914	12043
609.272	12045.49
609.629	12177.24
609.986	12115.09
610.343	12112.83
610.7	12221.08
611.057	12144.92
611.414	12145.6
611.771	12179.04
612.127	12226.5
612.484	12234.64
612.841	12195.77
613.198	12253.62
613.554	12219.27
613.911	12288.42
614.267	12244.13
614.624	12317.57
614.98	12238.7
615.337	12293.39
615.693	12279.15
616.05	12307.85
616.406	12388.76
616.762	12325.71
617.118	12372.49
617.475	12292.49
617.831	12346.95
618.187	12380.17
618.543	12407.29
618.899	12447.51
619.255	12346.05
619.611	12364.8
619.967	12433.73
620.323	12413.61
620.678	12360.28
621.034	12325.03
621.39	12390.56
621.746	12380.17
622.101	12480.05
622.457	12415.2
622.812	12433.05
623.168	12436.21
623.523	12367.51
623.879	12489.54
624.234	12335.88
624.589	12387.4
624.945	12468.75
625.3	12483.67
625.655	12518.47
626.01	12396.89
626.365	12400.96
626.72	12417.91
627.075	12450.45
627.43	12374.75
627.785	12340.17
628.14	12430.11
628.495	12408.19
628.85	12434.63
629.205	12348.53
629.559	12433.5
629.914	12380.17
630.269	12278.25
630.623	12345.37
630.978	12276.67
631.332	12381.75
631.687	12251.81
632.041	12282.09
632.396	12332.26
632.75	12245.94
633.104	12251.36
633.459	12180.85
633.813	12203
634.167	12203.9
634.521	12262.88
634.875	12162.1
635.229	12186.73
635.583	12189.44
635.937	12155.09
636.291	12165.94
636.645	12056.56
636.999	12007.98
637.352	12094.07
637.706	12043.23
638.06	12109.22
638.413	12004.13
638.767	12027.64
639.121	12001.87
639.474	11966.17
639.828	12020.4
640.181	12007.52
640.534	12005.49
640.888	12016.79
641.241	11887.53
641.594	11913.29
641.947	11901.09
642.301	11875.55
642.654	11897.7
643.007	11833.29
643.36	11857.02
643.713	11870.13
644.066	11975.66
644.419	11788.55
644.771	11793.29
645.124	11601.43
645.477	11592.62
645.83	11545.39
646.182	11502
646.535	11512.17
646.888	11535.67
647.24	11474.43
647.593	11539.51
647.945	11466.97
648.298	11514.2
648.65	11429.23
649.002	11412.74
649.355	11493.41
649.707	11483.47
650.059	11525.73
650.411	11624.26
650.763	11621.77
651.115	11742.9
651.467	11726.17
651.819	11699.06
652.171	11728.21
652.523	11647.08
652.875	11649.34
653.227	11672.62
653.578	11660.41
653.93	11737.93
654.282	11576.12
654.633	11678.49
654.985	11631.71
655.337	11669.91
655.688	11674.65
656.039	11721.66
656.391	11706.29
656.742	11661.09
657.094	11718.94
657.445	11761.88
657.796	11736.12
658.147	11655.44
658.498	11664.71
658.849	11730.92
659.2	11707.42
659.551	11593.3
659.902	11835.32
660.253	11690.92
660.604	11671.94
660.955	11722.56
661.306	11720.07
661.656	11721.66
662.007	11828.09
662.358	11798.94
662.708	11836.91
663.059	11752.16
663.409	11706.06
663.76	11723.46
664.11	11817.25
664.461	11798.94
664.811	11693.18
665.161	11744.25
665.511	11776.79
665.862	11719.17
666.212	11851.82
666.562	11864.7
666.912	11742.9
667.262	11739.73
667.612	11793.07
667.962	11753.97
668.312	11792.16
668.662	11766.17
669.011	11780.18
669.361	11695.44
669.711	11729.11
670.06	11694.31
670.41	11598.72
670.76	11651.15
671.109	11747.19
671.459	11726.17
671.808	11622.67
672.157	11667.65
672.507	11664.26
672.856	11612.05
673.205	11701.32
673.554	11720.07
673.904	11623.13
674.253	11678.04
674.602	11624.71
674.951	11488.89
675.3	11403.7
675.649	11604.82
675.998	11616.35
676.346	11544.26
676.695	11623.13
677.044	11480.31
677.393	11590.13
677.741	11583.81
678.09	11550.36
678.438	11469.23
678.787	11438.72
679.135	11511.94
679.484	11393.08
679.832	11440.98
680.181	11382.68
680.529	11335.45
680.877	11397.82
681.225	11324.15
681.573	11482.34
681.922	11287.99
682.27	11304.94
682.618	11349.24
682.966	11225.4
683.314	11292.74
683.661	11178.84
684.009	11167.09
684.357	11073.76
684.705	11167.09
685.053	11105.85
685.4	11097.49
685.748	11016.14
686.095	11068.79
686.443	10950.15
686.79	11049.13
687.138	10952.18
687.485	10958.74
687.832	11009.36
688.18	10980.66
688.527	10869.93
688.874	10867.21
689.221	10881.9
689.568	10821.79
689.915	10807.1
690.262	10803.04
690.609	10755.13
690.956	10727.33
691.303	10697.95
691.65	10684.39
691.997	10633.55
692.344	10525.75
692.69	10507.9
693.037	10450.05
693.383	10384.29
693.73	10425.87
694.077	10362.59
694.423	10441.24
694.769	10297.96
695.116	10276.72
695.462	10265.87
695.808	10234.69
696.155	10252.54
696.501	10154.92
696.847	10121.02
697.193	10092.09
697.539	10137.52
697.885	10012.55
698.231	10056.39
698.577	9957.86
698.923	9971.87
699.269	9928.93
699.614	9871.53
699.96	9830.18
700.306	9895.94
700.651	9746.11
700.997	9744.31
701.342	9780.24
701.688	9656.85
702.033	9620.47
702.379	9655.27
702.724	9607.81
703.069	9568.04
703.415	9463.18
703.76	9488.72
704.105	9514.48
704.45	9413.24
704.795	9432
705.14	9437.2
705.485	9347.03
705.83	9310.87
706.175	9253.7
706.52	9225.45
706.865	9258.44
707.209	9198.78
707.554	9199.01
707.899	9167.15
708.243	9149.29
708.588	9116.53
708.932	9077.2
709.277	8976.64
709.621	9042.4
709.966	8981.61
710.31	9023.19
710.654	8859.81
710.998	8979.13
711.342	8901.62
711.687	8964.44
712.031	8894.38
712.375	8826.14
712.719	8893.71
713.063	8843.31
713.407	8880.15
713.75	8767.16
714.094	8745.46
714.438	8784.33
714.782	8746.59
715.125	8703.66
715.469	8746.82
715.812	8704.56
716.156	8665.24
716.499	8661.85
716.843	8568.29
717.186	8547.05
717.53	8649.87
717.873	8601.74
718.216	8621.62
718.559	8554.51
718.902	8502.76
719.246	8568.97
719.589	8562.19
719.932	8512.25
720.275	8488.07
720.617	8504.11
720.96	8468.63
721.303	8476.54
721.646	8578.46
721.989	8461.18
722.331	8477.22
722.674	8405.36
723.016	8483.77
723.359	8470.22
723.701	8399.71
724.044	8326.04
724.386	8324.46
724.729	8369.65
725.071	8392.25
725.413	8352.7
725.755	8296.66
726.097	8319.71
726.439	8255.98
726.782	8255.76
727.124	8397.45
727.465	8251.01
727.807	8310.67
728.149	8251.69
728.491	8285.59
728.833	8270.22
729.175	8319.94
729.516	8281.52
729.858	8232.26
730.199	8340.05
730.541	8305.7
730.882	8214.63
731.224	8232.26
731.565	8206.27
731.906	8225.48
732.248	8276.55
732.589	8229.54
732.93	8200.62
733.271	8234.06
733.612	8226.83
733.953	8255.98
734.294	8215.08
734.635	8220.73
734.976	8234.29
735.317	8197
735.658	8227.74
735.999	8173.95
736.339	8253.95
736.68	8259.6
737.021	8224.35
737.361	8266.38
737.702	8200.62
738.042	8208.75
738.383	8227.06
738.723	8297.79
739.063	8261.41
739.404	8229.32
739.744	8276.32
740.084	8197.91
740.424	8278.58
740.764	8338.69
741.104	8322.87
741.444	8309.09
741.784	8262.31
742.124	8384.12
742.464	8352.7
742.804	8356.77
743.143	8368.75
743.483	8455.98
743.823	8357.22
744.162	8435.64
744.502	8468.63
744.841	8472.25
745.181	8537.33
745.52	8522.87
745.86	8584.11
746.199	8643.77
746.538	8651.68
746.877	8681.28
747.216	8737.1
747.556	8822.07
747.895	8834.5
748.234	8877.44
748.573	8843.76
748.911	8934.61
749.25	9013.03
749.589	9005.12
749.928	9137.99
750.267	9206.92
750.605	9200.14
750.944	9280.82
751.283	9276.07
751.621	9511.09
751.96	9495.27
752.298	9599
752.636	9692.78
752.975	9784.98
753.313	9843.51
753.651	10041.47
753.989	10077.4
754.327	10160.11
754.666	10250.73
755.004	10435.36
755.342	10537.51
755.679	10619.09
756.017	10755.35
756.355	10936.82
756.693	11039.64
757.031	11128.68
757.368	11180.2
757.706	11377.71
758.044	11405.51
758.381	11690.47
758.719	11801.65
759.056	11944.02
759.394	12021.08
759.731	12167.97
