Data from hue_28_FLMS001491_00059.txt Node
Date: Tue Feb 07 17:17:29 GMT 2017
User: dcchb
Spectrometer: FLMS00149
Trigger mode: 0
Integration Time (sec): 2.000000E-2
Scans to average: 10
Electric dark correction enabled: true
Nonlinearity correction enabled: false
Boxcar width: 0
XAxis mode: Wavelengths
Number of Pixels in Spectrum: 2048
>>>>>Begin Spectral Data<<<<<
341.393	-28.39
341.776	-28.39
342.16	-28.39
342.543	-64.77
342.927	-63.64
343.31	-83.75
343.693	-69.74
344.077	-47.6
344.46	-67.71
344.843	-61.83
345.226	-30.2
345.61	-26.13
345.993	-29.74
346.376	2.12
346.759	27.65
347.142	25.85
347.525	24.04
347.908	35.79
348.291	95
348.674	82.34
349.057	123.92
349.44	130.93
349.823	136.8
350.206	159.85
350.588	190.81
350.971	213.86
351.354	245.28
351.737	253.86
352.119	269.68
352.502	252.28
352.884	286.63
353.267	262.22
353.65	292.51
354.032	309
354.414	301.32
354.797	314.65
355.179	324.82
355.562	316.69
355.944	346.74
356.326	337.93
356.709	352.84
357.091	335.22
357.473	336.12
357.855	333.64
358.238	339.51
358.62	349.91
359.002	355.33
359.384	330.02
359.766	341.09
360.148	349
360.53	353.52
360.912	348.1
361.294	361.21
361.676	331.83
362.057	341.54
362.439	346.74
362.821	330.02
363.203	330.7
363.584	311.26
363.966	325.27
364.348	340.19
364.729	311.71
365.111	313.97
365.493	328.66
365.874	318.95
366.256	319.62
366.637	335.44
367.019	310.13
367.4	332.51
367.781	313.07
368.163	325.5
368.544	323.92
368.925	333.41
369.306	340.87
369.688	327.53
370.069	328.44
370.45	324.6
370.831	313.97
371.212	321.66
371.593	303.13
371.974	302.45
372.355	312.39
372.736	307.2
373.117	322.56
373.498	326.18
373.879	291.15
374.26	311.26
374.641	320.08
375.021	319.4
375.402	316.91
375.783	330.47
376.163	323.69
376.544	327.53
376.925	336.57
377.305	312.17
377.686	333.86
378.066	313.07
378.447	317.59
378.827	343.8
379.208	335.67
379.588	342.45
379.968	349.45
380.349	345.84
380.729	334.09
381.109	336.12
381.489	329.12
381.87	346.74
382.25	347.65
382.63	346.52
383.01	349
383.39	332.28
383.77	349.45
384.15	352.84
384.53	363.47
384.91	349
385.29	358.95
385.67	361.21
386.049	350.13
386.429	335.67
386.809	382.22
387.189	375.89
387.568	344.71
387.948	348.78
388.328	368.44
388.707	374.76
389.087	366.63
389.466	367.53
389.846	374.09
390.225	365.95
390.605	372.5
390.984	368.89
391.363	370.47
391.743	361.43
392.122	391.03
392.501	368.44
392.881	365.95
393.26	369.57
393.639	376.57
394.018	383.13
394.397	369.79
394.776	393.29
395.155	376.57
395.534	373.63
395.913	393.97
396.292	402.11
396.671	394.2
397.05	411.83
397.429	379.28
397.808	390.36
398.186	381.09
398.565	386.97
398.944	384.93
399.323	372.96
399.701	389
400.08	401.43
400.458	417.02
400.837	396.46
401.215	414.76
401.594	383.35
401.972	402.56
402.351	398.49
402.729	390.13
403.107	399.85
403.486	398.72
403.864	404.14
404.242	419.51
404.62	437.14
404.999	424.03
405.377	432.16
405.755	426.29
406.133	431.26
406.511	430.13
406.889	408.44
407.267	429.68
407.645	415.22
408.023	412.28
408.401	452.05
408.779	440.3
409.156	426.74
409.534	428.55
409.912	442.11
410.29	457.47
410.667	444.14
411.045	452.73
411.422	456.8
411.8	471.48
412.178	454.08
412.555	455.21
412.933	465.84
413.31	478.04
413.687	483.46
414.065	482.11
414.442	476.23
414.819	472.39
415.197	487.76
415.574	501.77
415.951	482.56
416.328	494.08
416.705	475.55
417.082	494.99
417.46	488.89
417.837	500.64
418.214	472.16
418.591	492.5
418.967	481.88
419.344	506.29
419.721	492.73
420.098	498.6
420.475	501.09
420.852	508.09
421.228	514.42
421.605	511.94
421.982	523.91
422.358	538.15
422.735	523.69
423.111	536.12
423.488	526.17
423.864	544.7
424.241	543.35
424.617	553.06
424.994	535.44
425.37	564.14
425.746	549.67
426.123	564.14
426.499	559.62
426.875	557.13
427.251	575.44
427.627	590.35
428.003	553.74
428.379	582.89
428.756	589
429.132	574.76
429.507	608.2
429.883	580.63
430.259	596.91
430.635	586.28
431.011	609.56
431.387	612.72
431.763	644.14
432.138	633.74
432.514	606.4
432.89	606.62
433.265	646.85
433.641	644.36
434.016	657.24
434.392	647.3
434.767	690.01
435.143	655.89
435.518	650.24
435.894	659.73
436.269	673.06
436.644	667.19
437.02	681.87
437.395	682.55
437.77	699.5
438.145	691.59
438.52	693.63
438.895	741.31
439.271	699.05
439.646	726.62
440.021	714.42
440.395	718.71
440.77	726.17
441.145	742.89
441.52	732.49
441.895	756.45
442.27	750.57
442.645	753.74
443.019	751.48
443.394	746.05
443.769	756.68
444.143	780.4
444.518	758.71
444.892	774.3
445.267	782.66
445.641	787.63
446.016	791.93
446.39	797.8
446.764	780.63
447.139	763.91
447.513	809.1
447.887	793.51
448.262	769.78
448.636	808.65
449.01	820.63
449.384	806.62
449.758	844.81
450.132	846.39
450.506	854.98
450.88	828.76
451.254	839.61
451.628	839.61
452.002	864.69
452.376	863.11
452.75	857.24
453.123	849.55
453.497	889.33
453.871	897.46
454.244	891.13
454.618	893.17
454.992	914.41
455.365	916.44
455.739	915.09
456.112	916.67
456.486	918.7
456.859	921.42
457.232	956.67
457.606	967.74
457.979	983.79
458.352	1000.51
458.725	993.28
459.099	1005.26
459.472	991.02
459.845	1023.56
460.218	1033.28
460.591	1057.46
460.964	1057.46
461.337	1075.76
461.71	1080.51
462.083	1096.33
462.456	1082.77
462.829	1085.71
463.201	1140.39
463.574	1134.74
463.947	1134.97
464.32	1173.61
464.692	1161.86
465.065	1187.62
465.438	1187.4
465.81	1181.97
466.183	1211.58
466.555	1223.78
466.928	1242.09
467.3	1260.16
467.672	1283.89
468.045	1302.88
468.417	1293.84
468.789	1313.72
469.161	1300.62
469.534	1334.51
469.906	1384.23
470.278	1401.86
470.65	1409.31
471.022	1440.95
471.394	1443.21
471.766	1468.29
472.138	1437.56
472.51	1481.18
472.882	1545.13
473.253	1562.08
473.625	1582.42
473.997	1634.84
474.369	1630.1
474.74	1670.1
475.112	1690.21
475.484	1713.49
475.855	1763.43
476.227	1788.96
476.598	1824.67
476.97	1866.48
477.341	1867.83
477.713	1930.66
478.084	1946.02
478.455	1996.19
478.827	2028.96
479.198	2098.11
479.569	2132.46
479.94	2122.51
480.311	2164.1
480.682	2266.01
481.053	2294.94
481.424	2325.45
481.795	2364.99
482.166	2401.83
482.537	2420.81
482.908	2501.94
483.279	2567.7
483.65	2604.31
484.021	2677.53
484.391	2682.05
484.762	2801.14
485.133	2782.16
485.503	2845.21
485.874	2917.52
486.244	2954.36
486.615	3009.5
486.985	3069.38
487.356	3108.7
487.726	3204.52
488.097	3272.99
488.467	3335.82
488.837	3350.05
489.207	3440.45
489.578	3505.3
489.948	3531.07
490.318	3594.11
490.688	3682.93
491.058	3725.86
491.428	3746.65
491.798	3856.48
492.168	3918.17
492.538	3953.65
492.908	4023.93
493.278	4051.05
493.648	4062.58
494.017	4086.3
494.387	4191.39
494.757	4238.17
495.126	4323.36
495.496	4303.25
495.866	4391.38
496.235	4453.3
496.605	4517.93
496.974	4539.4
497.344	4545.05
497.713	4588.21
498.082	4627.31
498.452	4699.85
498.821	4747.3
499.19	4733.75
499.559	4801.77
499.928	4834.99
500.298	4894.87
500.667	4933.51
501.036	4944.59
501.405	4966.06
501.774	5021.65
502.143	5109.78
502.512	5094.19
502.88	5176.9
503.249	5181.42
503.618	5195.43
503.987	5284.24
504.356	5267.74
504.724	5328.98
505.093	5320.62
505.462	5380.96
505.83	5365.82
506.199	5461.18
506.567	5524.91
506.936	5507.51
507.304	5552.93
507.672	5580.05
508.041	5631.35
508.409	5626.6
508.777	5669.54
509.145	5766.26
509.514	5706.15
509.882	5781.4
510.25	5789.76
510.618	5766.71
510.986	5806.03
511.354	5862.98
511.722	5880.38
512.09	5929.87
512.458	5979.36
512.826	6014.39
513.193	5986.82
513.561	6029.76
513.929	6115.63
514.297	6150.21
514.664	6112.92
515.032	6209.19
515.4	6160.15
515.767	6204.44
516.135	6251.9
516.502	6228.85
516.869	6295.29
517.237	6271.11
517.604	6266.81
517.972	6343.42
518.339	6378
518.706	6425.9
519.073	6419.35
519.44	6462.51
519.808	6523.3
520.175	6486.02
520.542	6533.25
520.909	6550.87
521.276	6550.2
521.643	6625
522.009	6689.85
522.376	6686.46
522.743	6687.14
523.11	6793.8
523.477	6787.02
523.843	6869.96
524.21	6893.01
524.577	6946.12
524.943	6941.6
525.31	6993.8
525.676	7069.96
526.043	7043.52
526.409	7176.85
526.776	7113.34
527.142	7175.26
527.508	7177.98
527.874	7292.1
528.241	7293.9
528.607	7287.12
528.973	7363.28
529.339	7372.32
529.705	7469.04
530.071	7494.58
530.437	7533.9
530.803	7561.02
531.169	7647.57
531.535	7563.28
531.901	7565.99
532.267	7673.56
532.632	7731.18
532.998	7689.37
533.364	7778.19
533.73	7850.5
534.095	7863.83
534.461	7918.75
534.826	7947.22
535.192	7961.01
535.557	8002.13
535.923	7983.6
536.288	8042.36
536.653	8126.42
537.019	8101.57
537.384	8124.16
537.749	8174.79
538.114	8188.8
538.479	8178.4
538.845	8266.08
539.21	8214.56
539.575	8260.43
539.94	8292.52
540.305	8369.13
540.67	8379.53
541.034	8490.93
541.399	8451.84
541.764	8485.96
542.129	8559.63
542.494	8603.02
542.858	8663.59
543.223	8701.1
543.587	8723.02
543.952	8704.94
544.316	8749.91
544.681	8795.11
545.045	8803.24
545.41	8911.26
545.774	8876.46
546.138	8919.85
546.503	8964.59
546.867	8948.78
547.231	9096.12
547.595	9138.38
547.959	9137.92
548.324	9097.02
548.688	9164.59
549.052	9236.68
549.416	9104.25
549.779	9205.72
550.143	9340.18
550.507	9320.07
550.871	9299.05
551.235	9351.03
551.599	9374.3
551.962	9431.7
552.326	9459.05
552.689	9498.59
553.053	9489.1
553.417	9520.06
553.78	9685.03
554.143	9562.55
554.507	9642.09
554.87	9658.36
555.234	9775.87
555.597	9732.26
555.96	9810
556.323	9767.29
556.686	9793.95
557.05	9871.01
557.413	9890.22
557.776	9915.08
558.139	10014.06
558.502	10040.05
558.865	10027.39
559.228	10062.87
559.59	10063.32
559.953	10108.75
560.316	10212.92
560.679	10140.16
561.041	10267.16
561.404	10314.16
561.767	10307.61
562.129	10271.91
562.492	10450.21
562.854	10417.21
563.217	10400.94
563.579	10387.61
563.941	10463.54
564.304	10554.61
564.666	10553.93
565.028	10632.8
565.39	10649.97
565.753	10725.45
566.115	10730.2
566.477	10747.37
566.839	10831.44
567.201	10927.03
567.563	10826.92
567.925	10927.03
568.287	10996.63
568.648	10957.76
569.01	11088.15
569.372	11011.09
569.734	11047.48
570.095	11167.25
570.457	11296.28
570.819	11256.74
571.18	11335.38
571.542	11399.11
571.903	11418.54
572.265	11536.73
572.626	11500.12
572.987	11612.89
573.349	11600.91
573.71	11744.41
574.071	11718.19
574.432	11795.03
574.794	11978.98
575.155	12034.57
575.516	12035.7
575.877	12125.87
576.238	12188.46
576.599	12258.75
576.96	12391.17
577.32	12478.63
577.681	12609.47
578.042	12697.38
578.403	12818.5
578.763	12998.39
579.124	13035.45
579.485	13259.4
579.845	13285.39
580.206	13444.7
580.566	13587.52
580.927	13674.08
581.287	13930.34
581.648	14049.43
582.008	14219.6
582.368	14356.77
582.728	14524.22
583.089	14662.07
583.449	14997.66
583.809	15133.47
584.169	15318.1
584.529	15545.44
584.889	15849.39
585.249	16021.13
585.609	16165.31
585.969	16514
586.329	16636.71
586.688	17007.1
587.048	17176.81
587.408	17379.97
587.768	17633.75
588.127	17996.45
588.487	18300.85
588.846	18567.51
589.206	18760.27
589.565	19097.21
589.925	19491.32
590.284	19737.42
590.643	20014.93
591.003	20374.92
591.362	20748.69
591.721	20919.08
592.08	21360.88
592.44	21710.02
592.799	22087.41
593.158	22325.83
593.517	22633.16
593.876	22989.31
594.235	23358.34
594.593	23650.08
594.952	24068.15
595.311	24339.78
595.67	24650.74
596.029	25170.04
596.387	25405.52
596.746	25826.98
597.104	26097.25
597.463	26441.2
597.822	26745.37
598.18	27098.36
598.538	27456.99
598.897	27750.54
599.255	27915.28
599.613	28637.07
599.972	28652.89
600.33	29163.39
600.688	29287.68
601.046	29761.79
601.404	30132.17
601.762	30436.8
602.12	30915.43
602.478	31122.2
602.836	31443.1
603.194	31620.5
603.552	32007.6
603.91	32238.11
604.268	32640.81
604.625	32881.48
604.983	33160.79
605.341	33192.88
605.698	33757.16
606.056	34108.34
606.413	34212.07
606.771	34551.27
607.128	34784.25
607.485	35005.04
607.843	35219.5
608.2	35652.93
608.557	36020.83
608.914	36141.51
609.272	36400.03
609.629	36709.18
609.986	37044.08
610.343	37123.63
610.7	37469.38
611.057	37702.37
611.414	37864.63
611.771	38095.58
612.127	38406.76
612.484	38542.8
612.841	38952.28
613.198	38917.48
613.554	39089.68
613.911	39520.4
614.267	39688.31
614.624	39845.14
614.98	39941.18
615.337	40353.37
615.693	40460.04
616.05	40521.73
616.406	40833.36
616.762	40839.46
617.118	41091.66
617.475	41171.66
617.831	41458.2
618.187	41636.73
618.543	41874.01
618.899	41993.56
619.255	42052.76
619.611	42171.18
619.967	42359.2
620.323	42638.96
620.678	42577.5
621.034	42622.92
621.39	42731.84
621.746	42840.77
622.101	43361.2
622.457	43081.44
622.812	43154.88
623.168	43503.57
623.523	43484.14
623.879	43701.99
624.234	43379.51
624.589	43748.54
624.945	43856.33
625.3	44072.15
625.655	43967.97
626.01	44071.02
626.365	44165.93
626.72	44191.01
627.075	44113.28
627.43	44113.28
627.785	44235.08
628.14	44330.44
628.495	44556.88
628.85	44428.75
629.205	44519.59
629.559	44746.93
629.914	44530.89
630.269	44736.08
630.623	44632.36
630.978	44492.7
631.332	44893.59
631.687	45030.31
632.041	44889.75
632.396	44931.56
632.75	44743.32
633.104	44910.54
633.459	44816.53
633.813	44833.03
634.167	44944.89
634.521	44716.2
634.875	45035.74
635.229	45024.89
635.583	44873.93
635.937	44902.41
636.291	44813.37
636.645	44939.92
636.999	44906.02
637.352	44962.52
637.706	44745.35
638.06	44972.69
638.413	44982.4
638.767	44892.92
639.121	44961.61
639.474	44715.75
639.828	44674.16
640.181	44807.72
640.534	44786.93
640.888	44656.76
641.241	44579.25
641.594	44649.31
641.947	44913.48
642.301	44823.09
642.654	44835.52
643.007	44880.94
643.36	44731.34
643.713	44730.43
644.066	45001.16
644.419	44616.99
644.771	44426.71
645.124	43974.3
645.477	44002.54
645.83	43740.4
646.182	43516
646.535	43491.37
646.888	43471.03
647.24	43355.55
647.593	43759.61
647.945	43645.04
648.298	43496.79
648.65	43278.95
649.002	43246.86
649.355	43330.47
649.707	43324.82
650.059	43541.54
650.411	43993.28
650.763	44033.05
651.115	44413.61
651.467	44379.48
651.819	44316.43
652.171	44208.41
652.523	44175.87
652.875	44226.04
653.227	43930.68
653.578	44353.72
653.93	44210.22
654.282	44096.78
654.633	44024.92
654.985	44115.76
655.337	44166.16
655.688	44157.79
656.039	44213.61
656.391	44021.07
656.742	43976.1
657.094	43993.73
657.445	44166.61
657.796	44124.35
658.147	43896.78
658.498	43933.17
658.849	44138.13
659.2	43871.02
659.551	43816.11
659.902	43940.4
660.253	43965.48
660.604	43878.93
660.955	43710.12
661.306	44047.74
661.656	43899.27
662.007	43911.7
662.358	43895.43
662.708	43886.16
663.059	43791.02
663.409	43676
663.76	43917.57
664.11	44006.84
664.461	43975.65
664.811	43937.01
665.161	43866.73
665.511	43892.04
665.862	43987.18
666.212	43885.94
666.562	43899.04
666.912	43763.68
667.262	43847.29
667.612	43801.87
667.962	43801.19
668.312	43686.85
668.662	43955.54
669.011	43788.99
669.361	43772.72
669.711	43795.32
670.06	43742.89
670.41	43674.19
670.76	43560.3
671.109	43796
671.459	43583.57
671.808	43620.18
672.157	43613.18
672.507	43436.91
672.856	43439.62
673.205	43549
673.554	43679.16
673.904	43537.02
674.253	43661.31
674.602	43607.07
674.951	42995.56
675.3	42849.81
675.649	43374.99
675.998	43455.44
676.346	43487.98
676.695	43501.54
677.044	43204.15
677.393	43395.55
677.741	43338.83
678.09	43249.8
678.438	43087.09
678.787	43208.89
679.135	43325.95
679.484	42944.94
679.832	43102.23
680.181	43019.52
680.529	43099.06
680.877	42882.8
681.225	42859.3
681.573	43263.58
681.922	42779.98
682.27	42665.18
682.618	42555.58
682.966	42627.66
683.314	42685.06
683.661	42674.67
684.009	42354.9
684.357	42468.8
684.705	42339.08
685.053	42349.71
685.4	42460.66
685.748	42198.98
686.095	42101.58
686.443	41977.74
686.79	41931.19
687.138	41999.43
687.485	41926.44
687.832	41764.64
688.18	41827.46
688.527	41485.55
688.874	41607.58
689.221	41474.02
689.568	41504.98
689.915	41354.48
690.262	41381.6
690.609	41312.22
690.956	41037.42
691.303	41102.28
691.65	40797.66
691.997	41006.46
692.344	40723.08
692.69	40439.25
693.037	40668.17
693.383	40381.17
693.73	40618.9
694.077	40208.29
694.423	40299.14
694.769	40149.31
695.116	39929.88
695.462	40023.44
695.808	39921.75
696.155	39954.74
696.501	39594.52
696.847	39705.93
697.193	39264.82
697.539	39522.44
697.885	39327.86
698.231	39125.84
698.577	39090.58
698.923	39042.9
699.269	38817.6
699.614	38678.84
699.96	38795.67
700.306	38600.43
700.651	38533.31
700.997	38414.44
701.342	38398.17
701.688	38332.18
702.033	38192.07
702.379	38212.64
702.724	38054.9
703.069	38255.58
703.415	37660.11
703.76	37914.34
704.105	37894
704.45	37684.52
704.795	37524.07
705.14	37341.48
705.485	37351.42
705.83	37232.1
706.175	37189.16
706.52	37024.2
706.865	37032.56
707.209	36913.69
707.554	36820.59
707.899	36833.47
708.243	36703.53
708.588	36616.52
708.932	36451.1
709.277	36414.72
709.621	36468.96
709.966	36213.37
710.31	36287.49
710.654	36053.83
710.998	36118.46
711.342	36142.64
711.687	35982.19
712.031	35772.03
712.375	35593.73
712.719	35730.22
713.063	35615.19
713.407	35809.54
713.75	35549.21
714.094	35508.08
714.438	35382.21
714.782	35354.18
715.125	35252.94
715.469	35228.99
715.812	35105.38
716.156	35085.26
716.499	34901.09
716.843	34967.98
717.186	34759.4
717.53	34883.01
717.873	34829.9
718.216	34709.23
718.559	34679.62
718.902	34306.98
719.246	34561.44
719.589	34377.03
719.932	34289.8
720.275	34181.33
720.617	34190.6
720.96	34217.49
721.303	34123.03
721.646	34191.05
721.989	34055.23
722.331	34089.58
722.674	33913.77
723.016	33970.94
723.359	33826.99
723.701	33862.47
724.044	33755.58
724.386	33529.37
724.729	33699.31
725.071	33624.29
725.413	33524.18
725.755	33517.17
726.097	33421.8
726.439	33310.17
726.782	33265.42
727.124	33417.96
727.465	33233.34
727.807	33124.41
728.149	33088.03
728.491	32961.25
728.833	33106.33
729.175	32852.33
729.516	32825.21
729.858	32737.08
730.199	32823.63
730.541	32820.46
730.882	32686.46
731.224	32822.72
731.565	32592.67
731.906	32636.51
732.248	32533.69
732.589	32409.18
732.93	32446.24
733.271	32294.15
733.612	32354.71
733.953	32383.41
734.294	32236.75
734.635	32185.45
734.976	32209.18
735.317	32074.04
735.658	31922.64
735.999	31989.07
736.339	31999.92
736.68	32153.82
737.021	31961.05
737.361	31769.87
737.702	31890.32
738.042	31804.9
738.383	31824.56
738.723	31820.49
739.063	31705.69
739.404	31713.15
739.744	31662.98
740.084	31496.43
740.424	31445.81
740.764	31565.58
741.104	31537.79
741.444	31390.67
741.784	31180.51
742.124	31325.36
742.464	31208.3
742.804	31192.26
743.143	31050.57
743.483	31087.4
743.823	31047.18
744.162	30968.76
744.502	30948.65
744.841	30833.85
745.181	30955.43
745.52	30704.81
745.86	30745.72
746.199	30724.7
746.538	30751.37
746.877	30764.02
747.216	30807.86
747.556	30644.48
747.895	30651.48
748.234	30585.5
748.573	30479.28
748.911	30611.03
749.25	30366.52
749.589	30285.62
749.928	30389.79
750.267	30322.23
750.605	30400.87
750.944	30187.31
751.283	30036.58
751.621	30162.23
751.96	29887.89
752.298	29903.71
752.636	29980.31
752.975	29810.37
753.313	29643.83
753.651	29785.97
753.989	29722.47
754.327	29509.82
754.666	29416.94
755.004	29530.16
755.342	29473.43
755.679	29514.56
756.017	29303.72
756.355	29360.67
756.693	29244.51
757.031	29235.93
757.368	29037.97
757.706	29036.84
758.044	28925.65
758.381	29052.65
758.719	28854.24
759.056	28873.68
759.394	28782.6
759.731	28667.13
760.068	28605.89
