Data from hue_290_FLMS001491_00015.txt Node
Date: Tue Feb 07 15:52:23 GMT 2017
User: dcchb
Spectrometer: FLMS00149
Trigger mode: 0
Integration Time (sec): 2.000000E-2
Scans to average: 10
Electric dark correction enabled: true
Nonlinearity correction enabled: false
Boxcar width: 0
XAxis mode: Wavelengths
Number of Pixels in Spectrum: 2048
>>>>>Begin Spectral Data<<<<<
341.393	-5.85
341.776	-5.85
342.16	-5.85
342.543	-86.75
342.927	-52.85
343.31	-67.09
343.693	-64.83
344.077	-68.9
344.46	-54.21
344.843	-46.3
345.226	-35
345.61	-32.74
345.993	-9.91
346.376	-12.17
346.759	10.65
347.142	23.53
347.525	27.82
347.908	71.44
348.291	81.38
348.674	76.64
349.057	99.69
349.44	116.86
349.823	128.61
350.206	150.53
350.588	186.92
350.971	212.68
351.354	218.1
351.737	223.07
352.119	244.99
352.502	248.61
352.884	244.09
353.267	272.79
353.65	267.37
354.032	281.6
354.414	305.1
354.797	321.83
355.179	303.98
355.562	329.74
355.944	332.67
356.326	334.03
356.709	337.42
357.091	314.82
357.473	336.29
357.855	333.58
358.238	350.08
358.62	331.77
359.002	364.99
359.384	349.62
359.766	340.36
360.148	333.8
360.53	333.13
360.912	318.66
361.294	314.14
361.676	316.86
362.057	332.67
362.439	323.41
362.821	309.62
363.203	338.55
363.584	301.04
363.966	317.76
364.348	321.15
364.729	293.35
365.111	294.03
365.493	306.01
365.874	311.21
366.256	301.94
366.637	314.82
367.019	305.78
367.4	302.39
367.781	317.53
368.163	324.77
368.544	317.99
368.925	315.5
369.306	304.43
369.688	300.13
370.069	301.26
370.45	298.55
370.831	294.26
371.212	310.3
371.593	297.65
371.974	311.43
372.355	330.64
372.736	315.05
373.117	300.81
373.498	305.1
373.879	284.77
374.26	301.94
374.641	286.12
375.021	311.43
375.402	312.11
375.783	321.15
376.163	309.4
376.544	313.47
376.925	323.64
377.305	309.17
377.686	338.78
378.066	320.47
378.447	334.48
378.827	326.12
379.208	332
379.588	322.96
379.968	312.56
380.349	308.49
380.729	334.71
381.109	340.36
381.489	329.51
381.87	337.19
382.25	336.06
382.63	329.51
383.01	327.03
383.39	326.57
383.77	332.22
384.15	348.04
384.53	353.47
384.91	329.74
385.29	349.4
385.67	340.36
386.049	361.37
386.429	374.03
386.809	360.02
387.189	355.5
387.568	346.69
387.948	352.56
388.328	350.53
388.707	340.58
389.087	365.89
389.466	342.17
389.846	365.22
390.225	364.31
390.605	356.63
390.984	356.4
391.363	368.38
391.743	383.07
392.122	361.37
392.501	352.11
392.881	386.01
393.26	395.05
393.639	343.75
394.018	372.67
394.397	371.32
394.776	366.12
395.155	378.32
395.534	393.01
395.913	381.49
396.292	396.85
396.671	389.85
397.05	390.53
397.429	386.46
397.808	372.9
398.186	417.64
398.565	404.09
398.944	412.9
399.323	388.27
399.701	387.14
400.08	411.32
400.458	410.64
400.837	401.6
401.215	419.9
401.594	414.48
401.972	406.35
402.351	431.66
402.729	407.7
403.107	387.36
403.486	433.01
403.864	412.45
404.242	448.15
404.62	438.21
404.999	454.03
405.377	426.46
405.755	438.21
406.133	451.09
406.511	451.32
406.889	459
407.267	451.09
407.645	457.64
408.023	455.61
408.401	477.76
408.779	497.19
409.156	465.78
409.534	468.04
409.912	474.59
410.29	493.57
410.667	487.93
411.045	494.7
411.422	501.03
411.8	514.14
412.178	536.06
412.555	548.71
412.933	563.18
413.31	551.2
413.687	578.32
414.065	572.89
414.442	555.04
414.819	574.25
415.197	588.26
415.574	577.87
415.951	582.84
416.328	598.43
416.705	607.24
417.082	615.61
417.46	609.73
417.837	653.12
418.214	641.14
418.591	636.4
418.967	654.25
419.344	657.64
419.721	650.41
420.098	671.87
420.475	682.95
420.852	696.51
421.228	708.26
421.605	679.78
421.982	707.81
422.358	731.31
422.735	739.44
423.111	738.77
423.488	723.4
423.864	768.37
424.241	744.64
424.617	765.21
424.994	770.86
425.37	771.53
425.746	788.03
426.123	804.07
426.499	800.91
426.875	840.46
427.251	823.51
427.627	844.75
428.003	872.55
428.379	858.54
428.756	872.55
429.132	889.27
429.507	877.75
429.883	874.81
430.259	910.06
430.635	901.47
431.011	900.57
431.387	937.4
431.763	957.74
432.138	980.57
432.514	967.46
432.89	984.41
433.265	998.42
433.641	993
434.016	1004.75
434.392	1049.04
434.767	1031.64
435.143	1048.36
435.518	1081.36
435.894	1083.62
436.269	1086.33
436.644	1115.48
437.02	1139.43
437.395	1120.68
437.77	1131.3
438.145	1159.09
438.52	1160.9
438.895	1177.85
439.271	1182.14
439.646	1208.13
440.021	1201.8
440.395	1206.1
440.77	1218.53
441.145	1215.59
441.52	1237.96
441.895	1242.03
442.27	1270.28
442.645	1254.91
443.019	1275.47
443.394	1265.53
443.769	1281.8
444.143	1279.77
444.518	1297.4
444.892	1294.91
445.267	1303.95
445.641	1312.31
446.016	1318.64
446.39	1331.52
446.764	1310.95
447.139	1317.73
447.513	1327.22
447.887	1346.89
448.262	1329.03
448.636	1363.38
449.01	1372.87
449.384	1376.26
449.758	1390.27
450.132	1416.71
450.506	1366.55
450.88	1400.67
451.254	1407.67
451.628	1442.7
452.002	1439.09
452.376	1445.41
452.75	1454.45
453.123	1456.04
453.497	1469.37
453.871	1472.76
454.244	1512.3
454.618	1494.45
454.992	1526.09
455.365	1522.93
455.739	1530.84
456.112	1566.99
456.486	1556.82
456.859	1529.25
457.232	1585.52
457.606	1579.65
457.979	1580.1
458.352	1621.45
458.725	1630.72
459.099	1622.36
459.472	1662.58
459.845	1684.96
460.218	1658.52
460.591	1698.51
460.964	1692.41
461.337	1758.17
461.71	1752.98
462.083	1782.58
462.456	1767.67
462.829	1757.72
463.201	1799.08
463.574	1810.6
463.947	1793.43
464.32	1843.6
464.692	1830.26
465.065	1838.17
465.438	1839.75
465.81	1892.41
466.183	1936.25
466.555	1938.51
466.928	1933.31
467.3	1959.75
467.672	1983.03
468.045	2006.98
468.417	2009.24
468.789	2009.01
469.161	2041.56
469.534	2022.57
469.906	2068.67
470.278	2096.24
470.65	2088.33
471.022	2144.6
471.394	2166.75
471.766	2152.97
472.138	2178.73
472.51	2247.65
472.882	2240.87
473.253	2264.6
473.625	2290.14
473.997	2286.52
474.369	2332.4
474.74	2385.95
475.112	2378.27
475.484	2369.46
475.855	2398.61
476.227	2433.18
476.598	2507.53
476.97	2539.62
477.341	2523.8
477.713	2578.04
478.084	2569.23
478.455	2604.48
478.827	2634.08
479.198	2687.19
479.569	2699.39
479.94	2775.32
480.311	2739.84
480.682	2769.45
481.053	2872.72
481.424	2898.26
481.795	2925.38
482.166	2931.25
482.537	2966.05
482.908	3019.38
483.279	3032.49
483.65	3055.09
484.021	3077.24
484.391	3151.58
484.762	3127.18
485.133	3168.98
485.503	3185.48
485.874	3249.43
486.244	3245.59
486.615	3343.22
486.985	3303.22
487.356	3374.18
487.726	3404.46
488.097	3467.96
488.467	3452.14
488.837	3496.66
489.207	3548.86
489.578	3587.73
489.948	3569.88
490.318	3635.64
490.688	3647.62
491.058	3679.71
491.428	3709.99
491.798	3719.03
492.168	3819.81
492.538	3768.97
492.908	3832.7
493.278	3875.86
493.648	3820.27
494.017	3916.31
494.387	3940.72
494.757	3954.05
495.126	3975.29
495.496	3979.13
495.866	3975.52
496.235	3986.82
496.605	4027.04
496.974	4096.42
497.344	4072.92
497.713	4138.45
498.082	4136.19
498.452	4142.52
498.821	4189.3
499.19	4175.06
499.559	4217.32
499.928	4203.53
500.298	4245.11
500.667	4245.79
501.036	4295.51
501.405	4267.71
501.774	4273.81
502.143	4316.52
502.512	4365.56
502.88	4406.47
503.249	4342.06
503.618	4396.07
503.987	4353.81
504.356	4441.95
504.724	4395.17
505.093	4408.95
505.462	4469.97
505.83	4498.89
506.199	4487.37
506.567	4518.1
506.936	4553.58
507.304	4608.04
507.672	4587.93
508.041	4598.33
508.409	4639.23
508.777	4601.26
509.145	4606.91
509.514	4616.18
509.882	4660.47
510.25	4686.46
510.618	4711.32
510.986	4684.65
511.354	4709.06
511.722	4723.52
512.09	4785.44
512.458	4735.95
512.826	4808.26
513.193	4766.68
513.561	4787.47
513.929	4812.56
514.297	4910.18
514.664	4893.46
515.032	4831.77
515.4	4938.43
515.767	4899.79
516.135	4934.36
516.502	4848.04
516.869	4890.3
517.237	4970.52
517.604	4948.37
517.972	4975.94
518.339	4989.5
518.706	4997.41
519.073	4950.86
519.44	4990.41
519.808	5074.47
520.175	5032.89
520.542	5098.2
520.909	5095.94
521.276	5059.78
521.643	5119.67
522.009	5170.06
522.376	5191.76
522.743	5133.45
523.11	5271.3
523.477	5255.94
523.843	5261.13
524.21	5291.87
524.577	5323.5
524.943	5310.4
525.31	5352.43
525.676	5432.88
526.043	5395.59
526.409	5397.17
526.776	5484.18
527.142	5451.18
527.508	5427
527.874	5504.52
528.241	5493.22
528.607	5515.82
528.973	5592.65
529.339	5527.57
529.705	5606.21
530.071	5618.19
530.437	5646.66
530.803	5677.62
531.169	5731.18
531.535	5698.64
531.901	5717.84
532.267	5732.31
532.632	5785.64
532.998	5826.09
533.364	5805.75
533.73	5802.14
534.095	5811.85
534.461	5860.89
534.826	5872.87
535.192	5878.97
535.557	5940.44
535.923	5882.13
536.288	5952.19
536.653	5945.18
537.019	5891.17
537.384	5958.52
537.749	5982.92
538.114	6008.46
538.479	6006.65
538.845	6068.8
539.21	6056.59
539.575	6111.28
539.94	6062.02
540.305	6124.61
540.67	6048.68
541.034	6124.16
541.399	6158.51
541.764	6181.56
542.129	6191.96
542.494	6197.61
542.858	6214.55
543.223	6155.35
543.587	6262.24
543.952	6263.37
544.316	6304.72
544.681	6252.97
545.045	6297.04
545.41	6339.52
545.774	6349.24
546.138	6323.03
546.503	6336.13
546.867	6369.35
547.231	6397.15
547.595	6432.4
547.959	6445.73
548.324	6474.89
548.688	6445.06
549.052	6521.89
549.416	6427.66
549.779	6503.59
550.143	6501.33
550.507	6572.96
550.871	6524.83
551.235	6514.43
551.599	6583.58
551.962	6630.59
552.326	6572.06
552.689	6603.24
553.053	6622.68
553.417	6599.4
553.78	6639.63
554.143	6653.41
554.507	6622.23
554.87	6631.27
555.234	6796.46
555.597	6679.85
555.96	6714.65
556.323	6743.58
556.686	6767.99
557.05	6817.02
557.413	6760.98
557.776	6802.56
558.139	6856.35
558.502	6816.57
558.865	6858.83
559.228	6886.4
559.59	6867.19
559.953	6907.19
560.316	7012.27
560.679	7006.85
561.041	6991.48
561.404	7021.76
561.767	7066.51
562.129	7025.15
562.492	7080.97
562.854	7143.8
563.217	7074.19
563.579	7114.42
563.941	7138.82
564.304	7204.58
564.666	7174.75
565.028	7234.64
565.39	7192.16
565.753	7280.29
566.115	7273.28
566.477	7317.12
566.839	7260.4
567.201	7327.75
567.563	7429.21
567.925	7388.53
568.287	7441.19
568.648	7429.66
569.01	7480.06
569.372	7531.36
569.734	7472.6
570.095	7593.95
570.457	7613.16
570.819	7615.87
571.18	7602.99
571.542	7670.56
571.903	7637.57
572.265	7743.1
572.626	7745.36
572.987	7763.21
573.349	7782.87
573.71	7882.76
574.071	7878.69
574.432	7932.48
574.794	7957.11
575.155	8021.06
575.516	8010.89
575.877	8071.68
576.238	8101.74
576.599	8151.45
576.96	8226.7
577.32	8204.56
577.681	8283.43
578.042	8362.07
578.403	8403.2
578.763	8454.72
579.124	8473.25
579.485	8549.63
579.845	8659.01
580.206	8643.19
580.566	8732.91
580.927	8794.6
581.287	8885.44
581.648	8941.49
582.008	9065.1
582.368	9101.48
582.728	9199.33
583.089	9229.39
583.449	9326.79
583.809	9467.8
584.169	9521.59
584.529	9573.34
584.889	9814.69
585.249	9828.47
585.609	9860.33
585.969	10081.57
586.329	10143.49
586.688	10212.42
587.048	10354.33
587.408	10461.9
587.768	10601.11
588.127	10683.36
588.487	10849.46
588.846	11039.51
589.206	11028.21
589.565	11256.68
589.925	11365.61
590.284	11425.04
590.643	11639.5
591.003	11747.52
591.362	11993.39
591.721	11983.67
592.08	12191.8
592.44	12269.54
592.799	12473.37
593.158	12544.11
593.517	12681.95
593.876	12863.42
594.235	12983.42
594.593	13152.45
594.952	13233.13
595.311	13334.82
595.67	13569.16
596.029	13686.67
596.387	13834.24
596.746	14022.94
597.104	14127.79
597.463	14232.2
597.822	14433.55
598.18	14400.33
598.538	14530.04
598.897	14815.68
599.255	14708.34
599.613	15069.91
599.972	15052.06
600.33	15154.21
600.688	15330.25
601.046	15421.09
601.404	15614.98
601.762	15697.92
602.12	15873.74
602.478	16013.39
602.836	15913.06
603.194	16131.58
603.552	16166.16
603.91	16255.42
604.268	16426.04
604.625	16364.57
604.983	16621.29
605.341	16608.41
605.698	16860.6
606.056	16835.07
606.413	16964.33
606.771	17127.71
607.128	17181.05
607.485	17241.16
607.843	17278.44
608.2	17518.66
608.557	17644.08
608.914	17656.06
609.272	17838.2
609.629	17783.52
609.986	17802.95
610.343	17950.29
610.7	18070.29
611.057	18076.84
611.414	18190.06
611.771	18307.8
612.127	18509.82
612.484	18401.58
612.841	18503.04
613.198	18559.54
613.554	18582.14
613.911	18750.04
614.267	18781.46
614.624	18784.39
614.98	18914.79
615.337	19017.38
615.693	19077.49
616.05	19049.24
616.406	19202.24
616.762	19212.63
617.118	19195.68
617.475	19331.5
617.831	19413.98
618.187	19421.21
618.543	19514.54
618.899	19512.96
619.255	19534.43
619.611	19579.17
619.967	19741.2
620.323	19747.53
620.678	19723.58
621.034	19715.44
621.39	19772.62
621.746	19789.79
622.101	20051.7
622.457	19904.14
622.812	19901.43
623.168	19994.3
623.523	20057.81
623.879	20060.52
624.234	19967.64
624.589	20049.44
624.945	20074.3
625.3	20094.64
625.655	20192.49
626.01	20217.58
626.365	20168.76
626.72	20302.55
627.075	20348.87
627.43	20155.2
627.785	20269.55
628.14	20299.16
628.495	20226.84
628.85	20334.63
629.205	20193.4
629.559	20400.85
629.914	20280.85
630.269	20349.1
630.623	20214.86
630.978	20231.13
631.332	20435.88
631.687	20383.9
632.041	20350.45
632.396	20388.19
632.75	20238.14
633.104	20405.14
633.459	20355.2
633.813	20234.3
634.167	20232.49
634.521	20265.71
634.875	20259.83
635.229	20264.58
635.583	20183.68
635.937	20227.52
636.291	20171.7
636.645	20191.36
636.999	20066.17
637.352	20347.29
637.706	20110.01
638.06	20220.06
638.413	20167.18
638.767	20096
639.121	20098.26
639.474	20049.44
639.828	20028.2
640.181	20028.88
640.534	20113.4
640.888	20015.1
641.241	19997.47
641.594	19909.56
641.947	20025.49
642.301	19977.13
642.654	20012.61
643.007	20090.12
643.36	19981.42
643.713	19899.17
644.066	20096.67
644.419	20032.72
644.771	19885.38
645.124	19730.58
645.477	19634.99
645.83	19502.79
646.182	19435.9
646.535	19402.23
646.888	19445.84
647.24	19447.65
647.593	19444.71
647.945	19464.83
648.298	19362.68
648.65	19273.42
649.002	19288.11
649.355	19434.32
649.707	19380.54
650.059	19419.86
650.411	19714.99
650.763	19691.49
651.115	19852.16
651.467	19792.28
651.819	19940.29
652.171	19921.31
652.523	19675.44
652.875	19737.59
653.227	19766.06
653.578	19849
653.93	19832.05
654.282	19725.84
654.633	19719.96
654.985	19764.25
655.337	19793.18
655.688	19747.08
656.039	19914.31
656.391	19775.55
656.742	19799.96
657.094	19754.09
657.445	19853.29
657.796	19836.79
658.147	19794.54
658.498	19785.95
658.849	19878.38
659.2	19822.56
659.551	19753.63
659.902	19925.15
660.253	19879.73
660.604	19916.34
660.955	19858.04
661.306	19897.13
661.656	19793.63
662.007	19867.3
662.358	19865.27
662.708	19903.91
663.059	19877.25
663.409	19809.45
663.76	19961.31
664.11	19989.33
664.461	19945.04
664.811	19881.99
665.161	19970.8
665.511	19930.8
665.862	19888.77
666.212	19925.15
666.562	19932.39
666.912	20007.86
667.262	19947.98
667.612	19966.96
667.962	19952.5
668.312	19871.82
668.662	19928.09
669.011	19948.88
669.361	19915.44
669.711	19879.28
670.06	19947.98
670.41	19824.82
670.76	19752.5
671.109	20002.21
671.459	19865.04
671.808	19783.69
672.157	19800.86
672.507	19622.56
672.856	19811.71
673.205	19787.98
673.554	19822.11
673.904	19720.41
674.253	19886.51
674.602	19716.12
674.951	19520.87
675.3	19412.4
675.649	19712.05
675.998	19649.23
676.346	19718.15
676.695	19666.63
677.044	19563.36
677.393	19583.02
677.741	19599.74
678.09	19583.24
678.438	19519.97
678.787	19620.98
679.135	19465.51
679.484	19348.9
679.832	19486.07
680.181	19379.86
680.529	19417.6
680.877	19428.22
681.225	19270.93
681.573	19504.37
681.922	19295.11
682.27	19236.58
682.618	19206.3
682.966	19172.18
683.314	19149.13
683.661	19173.08
684.009	18992.98
684.357	19036.82
684.705	19055.12
685.053	19097.15
685.4	18971.96
685.748	18845.41
686.095	18863.71
686.443	18889.7
686.79	18735.35
687.138	18884.05
687.485	18809.48
687.832	18689.25
688.18	18719.76
688.527	18584.17
688.874	18604.51
689.221	18501.01
689.568	18548.69
689.915	18437.74
690.262	18385.08
690.609	18402.48
690.956	18234.58
691.303	18221.47
691.65	18212.43
691.997	18205.65
692.344	18081.13
692.69	17966.11
693.037	17982.38
693.383	17889.5
693.73	17850.86
694.077	17864.19
694.423	17865.32
694.769	17720.01
695.116	17732.44
695.462	17716.4
695.808	17531.77
696.155	17667.81
696.501	17529.06
696.847	17530.19
697.193	17275.51
697.539	17474.6
697.885	17353.24
698.231	17209.52
698.577	17187.82
698.923	17175.4
699.269	17073.48
699.614	16964.33
699.96	16900.83
700.306	16936.76
700.651	16751.9
700.997	16713.04
701.342	16683.66
701.688	16724.11
702.033	16585.35
702.379	16621.51
702.724	16464.68
703.069	16507.16
703.415	16355.76
703.76	16297.23
704.105	16294.29
704.45	16302.88
704.795	16148.98
705.14	16080.96
705.485	16134.29
705.83	16041.41
706.175	16010
706.52	15943.11
706.865	15892.72
707.209	15931.81
707.554	15879.38
707.899	15875.32
708.243	15778.37
708.588	15717.58
708.932	15647.3
709.277	15661.99
709.621	15615.89
709.966	15553.52
710.31	15523.01
710.654	15369.79
710.998	15403.69
711.342	15449.57
711.687	15419.06
712.031	15292.96
712.375	15211.15
712.719	15292.06
713.063	15206.63
713.407	15330.47
713.75	15166.41
714.094	15071.5
714.438	15061.55
714.782	15065.17
715.125	14986.07
715.469	15015.23
715.812	14993.08
716.156	14874.44
716.499	14873.76
716.843	14895.91
717.186	14780.43
717.53	14896.81
717.873	14831.28
718.216	14885.96
718.559	14778.85
718.902	14704.27
719.246	14706.31
719.589	14624.5
719.932	14551.51
720.275	14617.27
720.617	14626.76
720.96	14610.94
721.303	14555.35
721.646	14597.38
721.989	14511.96
722.331	14557.16
722.674	14576.14
723.016	14557.39
723.359	14515.35
723.701	14495.24
724.044	14456.82
724.386	14337.5
724.729	14469.03
725.071	14374.11
725.413	14451.85
725.755	14393.77
726.097	14317.17
726.439	14260.67
726.782	14319.65
727.124	14285.3
727.465	14314.45
727.807	14268.81
728.149	14269.26
728.491	14228.35
728.833	14325.75
729.175	14261.12
729.516	14196.94
729.858	14192.88
730.199	14197.4
730.541	14143.84
730.882	14124.4
731.224	14215.93
731.565	14076.95
731.906	14138.87
732.248	14122.82
732.589	14031.52
732.93	14115.59
733.271	14142.03
733.612	14143.61
733.953	14099.77
734.294	14062.71
734.635	14034.46
734.976	14092.54
735.317	14029.49
735.658	14064.74
735.999	14104.06
736.339	14007.57
736.68	14126.89
737.021	14086.89
737.361	14005.76
737.702	14045.99
738.042	14014.58
738.383	14043.95
738.723	14076.72
739.063	14029.72
739.404	14081.24
739.744	14053.22
740.084	14007.8
740.424	14078.75
740.764	14011.86
741.104	14136.83
741.444	14060.9
741.784	14059.32
742.124	14102.71
742.464	14119.66
742.804	14143.84
743.143	14191.52
743.483	14115.82
743.823	14104.06
744.162	14138.87
744.502	14161.69
744.841	14183.84
745.181	14216.83
745.52	14240.33
745.86	14342.25
746.199	14321.23
746.538	14306.54
746.877	14389.25
747.216	14461.79
747.556	14419.54
747.895	14549.25
748.234	14516.26
748.573	14625.18
748.911	14613.43
749.25	14734.78
749.589	14765.74
749.928	14781.79
750.267	14933.65
750.605	14905.4
750.944	14988.56
751.283	15019.97
751.621	15115.56
751.96	15208.22
752.298	15213.64
752.636	15271.94
752.975	15377.93
753.313	15531.37
753.651	15540.18
753.989	15593.29
754.327	15708.32
754.666	15760.74
755.004	15915.77
755.342	15977.24
755.679	16069.66
756.017	16124.58
756.355	16326.15
756.693	16373.38
757.031	16510.55
757.368	16501.74
757.706	16608.18
758.044	16757.78
758.381	16797.78
758.719	16952.58
759.056	17111.67
759.394	17142.4
759.731	17145.79
