Data from hue_80_FLMS001491_74.txt Node
Date: Mon Feb 06 15:23:31 GMT 2017
User: dcchb
Spectrometer: FLMS00149
Trigger mode: 0
Integration Time (sec): 2.000000E-2
Scans to average: 10
Electric dark correction enabled: true
Nonlinearity correction enabled: false
Boxcar width: 0
XAxis mode: Wavelengths
Number of Pixels in Spectrum: 2048
>>>>>Begin Spectral Data<<<<<
341.393	12.87
341.776	12.87
342.16	12.87
342.543	-77.3
342.927	-69.16
343.31	-64.87
343.693	-86.79
344.077	-79.56
344.46	-41.14
344.843	-51.31
345.226	-40.01
345.61	-34.59
345.993	-30.75
346.376	10.83
346.759	7.22
347.142	16.48
347.525	41.11
347.908	49.7
348.291	82.02
348.674	108.23
349.057	113.43
349.44	138.97
349.823	159.3
350.206	141
350.588	190.04
350.971	202.69
351.354	212.86
351.737	234.33
352.119	253.99
352.502	245.86
352.884	278.17
353.267	294.89
353.65	301.67
354.032	287.66
354.414	297.15
354.797	309.36
355.179	323.37
355.562	307.55
355.944	345.29
356.326	324.05
356.709	329.47
357.091	329.69
357.473	350.71
357.855	347.55
358.238	343.93
358.62	339.41
359.002	344.84
359.384	343.03
359.766	333.54
360.148	322.24
360.53	328.79
360.912	321.79
361.294	329.92
361.676	334.21
362.057	356.36
362.439	338.51
362.821	337.6
363.203	328.11
363.584	309.13
363.966	310.94
364.348	321.56
364.729	311.16
365.111	319.75
365.493	333.31
365.874	304.61
366.256	315.01
366.637	332.86
367.019	317.72
367.4	313.65
367.781	329.02
368.163	315.01
368.544	324.5
368.925	315.68
369.306	322.69
369.688	310.03
370.069	311.39
370.45	307.55
370.831	322.69
371.212	313.42
371.593	331.5
371.974	312.75
372.355	318.62
372.736	322.01
373.117	317.04
373.498	335.57
373.879	305.51
374.26	315.68
374.641	320.2
375.021	329.92
375.402	317.27
375.783	322.24
376.163	326.98
376.544	325.4
376.925	326.3
377.305	324.27
377.686	333.54
378.066	343.48
378.447	311.16
378.827	322.01
379.208	336.7
379.588	335.12
379.968	331.73
380.349	333.54
380.729	332.41
381.109	346.64
381.489	345.97
381.87	330.6
382.25	361.78
382.63	341.67
383.01	366.53
383.39	342.58
383.77	349.13
384.15	349.13
384.53	349.13
384.91	344.84
385.29	332.18
385.67	338.06
386.049	355.68
386.429	343.48
386.809	343.03
387.189	340.54
387.568	345.74
387.948	352.52
388.328	363.14
388.707	344.38
389.087	363.37
389.466	349.81
389.846	358.17
390.225	348.45
390.605	369.47
390.984	372.63
391.363	374.89
391.743	380.31
392.122	374.89
392.501	360.43
392.881	379.86
393.26	376.7
393.639	378.51
394.018	355.91
394.397	351.62
394.776	391.39
395.155	370.15
395.534	382.57
395.913	385.96
396.292	390.48
396.671	382.35
397.05	389.58
397.429	371.5
397.808	385.74
398.186	392.52
398.565	390.94
398.944	381.22
399.323	383.7
399.701	388.45
400.08	406.3
400.458	379.64
400.837	392.29
401.215	422.12
401.594	399.52
401.972	396.81
402.351	399.52
402.729	392.52
403.107	390.26
403.486	414.21
403.864	404.72
404.242	408.56
404.62	408.56
404.999	404.27
405.377	416.25
405.755	433.87
406.133	412.86
406.511	411.05
406.889	423.93
407.267	432.52
407.645	444.04
408.023	420.54
408.401	432.29
408.779	455.12
409.156	444.49
409.534	434.78
409.912	440.65
410.29	455.57
410.667	435.68
411.045	456.25
411.422	458.5
411.8	456.25
412.178	448.79
412.555	464.38
412.933	482.46
413.31	467.77
413.687	460.09
414.065	461.44
414.442	447.43
414.819	494.66
415.197	466.41
415.574	476.58
415.951	476.81
416.328	491.05
416.705	477.49
417.082	472.06
417.46	488.56
417.837	511.84
418.214	483.59
418.591	487.88
418.967	501.22
419.344	488.33
419.721	513.19
420.098	487.88
420.475	509.58
420.852	508.45
421.228	527.43
421.605	509.8
421.982	527.2
422.358	543.93
422.735	539.63
423.111	530.82
423.488	533.31
423.864	530.37
424.241	550.25
424.617	575.11
424.994	566.75
425.37	543.02
425.746	542.57
426.123	567.65
426.499	557.03
426.875	562.91
427.251	567.88
427.627	572.4
428.003	597.48
428.379	567.43
428.756	582.12
429.132	596.81
429.507	608.56
429.883	603.59
430.259	609.01
430.635	640.2
431.011	626.86
431.387	627.77
431.763	617.6
432.138	648.33
432.514	620.08
432.89	630.7
433.265	657.37
433.641	656.24
434.016	645.39
434.392	664.83
434.767	671.15
435.143	685.62
435.518	666.86
435.894	694.66
436.269	712.51
436.644	700.53
437.02	703.02
437.395	721.1
437.77	696.01
438.145	720.64
438.52	712.28
438.895	706.86
439.271	726.97
439.646	720.64
440.021	730.81
440.395	737.37
440.77	755.22
441.145	736.24
441.52	770.14
441.895	755.67
442.27	776.24
442.645	750.02
443.019	762.9
443.394	775.56
443.769	774.43
444.143	766.97
444.518	797.03
444.892	802.45
445.267	805.61
445.641	811.72
446.016	798.16
446.39	814.88
446.764	801.55
447.139	787.31
447.513	830.25
447.887	826.86
448.262	836.57
448.636	835.67
449.01	837.7
449.384	816.69
449.758	850.36
450.132	867.76
450.506	879.74
450.88	853.07
451.254	873.18
451.628	866.18
452.002	894.43
452.376	892.62
452.75	909.11
453.123	915.22
453.497	924.03
453.871	936.23
454.244	918.61
454.618	941.2
454.992	946.63
455.365	962.67
455.739	983.91
456.112	985.27
456.486	979.4
456.859	1005.16
457.232	999.28
457.606	1042.67
457.979	1057.81
458.352	1060.52
458.725	1051.03
459.099	1082.9
459.472	1088.32
459.845	1121.76
460.218	1105.27
460.591	1121.76
460.964	1141.2
461.337	1129.9
461.71	1139.62
462.083	1176.9
462.456	1208.77
462.829	1179.62
463.201	1188.66
463.574	1195.21
463.947	1222.33
464.32	1257.13
464.692	1248.31
465.065	1273.62
465.438	1292.16
465.81	1307.52
466.183	1358.37
466.555	1344.81
466.928	1351.14
467.3	1408.99
467.672	1406.73
468.045	1438.37
468.417	1431.59
468.789	1440.85
469.161	1474.75
469.534	1526.05
469.906	1529.21
470.278	1591.81
470.65	1563.11
471.022	1613.28
471.394	1657.8
471.766	1674.97
472.138	1716.78
472.51	1748.41
472.882	1784.57
473.253	1814.85
473.625	1855.53
473.997	1862.99
474.369	1925.13
474.74	1945.47
475.112	1973.04
475.484	2065.92
475.855	2072.25
476.227	2164.45
476.598	2214.62
476.97	2243.32
477.341	2313.82
477.713	2348.85
478.084	2399.7
478.455	2487.15
478.827	2529.64
479.198	2673.36
479.569	2710.88
479.94	2771.66
480.311	2791.32
480.682	2919.91
481.053	3062.28
481.424	3141.6
481.795	3189.96
482.166	3273.8
482.537	3349.5
482.908	3469.27
483.279	3513.79
483.65	3651.19
484.021	3737.06
484.391	3837.85
484.762	3926.66
485.133	4029.03
485.503	4119.43
485.874	4236.26
486.244	4360.55
486.615	4469.25
486.985	4553.54
487.356	4772.97
487.726	4817.03
488.097	4991.27
488.467	5085.05
488.837	5257.47
489.207	5363.46
489.578	5491.37
489.948	5639.39
490.318	5744.92
490.688	5888.64
491.058	6068.53
491.428	6170.67
491.798	6291.57
492.168	6488.63
492.538	6619.92
492.908	6723.65
493.278	6901.05
493.648	7011.78
494.017	7135.17
494.387	7320.25
494.757	7376.52
495.126	7582.16
495.496	7645.66
495.866	7828.25
496.235	7972.88
496.605	8134.69
496.974	8204.74
497.344	8348.47
497.713	8464.85
498.082	8604.51
498.452	8778.96
498.821	8936.7
499.19	8970.82
499.559	9098.5
499.928	9248.33
500.298	9427.31
500.667	9568.1
501.036	9644.93
501.405	9782.55
501.774	9823.91
502.143	9998.59
502.512	10063.22
502.88	10284.91
503.249	10278.13
503.618	10389.32
503.987	10472.7
504.356	10540.5
504.724	10767.16
505.093	10832.24
505.462	10914.95
505.83	11051.22
506.199	11161.95
506.567	11355.85
506.936	11378.67
507.304	11534.37
507.672	11551.77
508.041	11676.29
508.409	11793.57
508.777	11822.95
509.145	11976.85
509.514	11975.72
509.882	12163.28
510.25	12138.65
510.618	12347.68
510.986	12360.34
511.354	12474.01
511.722	12578.86
512.09	12748.8
512.458	12711.29
512.826	12812.76
513.193	12878.07
513.561	12917.84
513.929	13056.14
514.297	13206.64
514.664	13304.27
515.032	13314.21
515.4	13423.81
515.767	13409.58
516.135	13523.92
516.502	13526.64
516.869	13661.55
517.237	13697.25
517.604	13722.11
517.972	13929.11
518.339	13986.06
518.706	13956.68
519.073	13987.87
519.44	14062.89
519.808	14323.9
520.175	14196
520.542	14396.9
520.909	14447.74
521.276	14406.39
521.643	14602.54
522.009	14656.1
522.376	14716.89
522.743	14771.12
523.11	14854.74
523.477	14930.44
523.843	15049.08
524.21	15198.68
524.577	15293.37
524.943	15179.02
525.31	15263.54
525.676	15429.86
526.043	15467.15
526.409	15531.33
526.776	15672.79
527.142	15642.51
527.508	15768.16
527.874	15792.34
528.241	15913.47
528.607	15788.05
528.973	15968.38
529.339	15894.94
529.705	16062.84
530.071	16053.8
530.437	16126.12
530.803	16216.96
531.169	16208.6
531.535	16186
531.901	16183.52
532.267	16277.52
532.632	16237.3
532.998	16371.31
533.364	16380.35
533.73	16390.97
534.095	16358.2
534.461	16405.2
534.826	16449.04
535.192	16553.67
535.557	16537.86
535.923	16428.71
536.288	16492.43
536.653	16530.62
537.019	16418.31
537.384	16538.76
537.749	16543.28
538.114	16547.35
538.479	16529.49
538.845	16587.12
539.21	16521.36
539.575	16520.46
539.94	16559.55
540.305	16609.94
540.67	16502.38
541.034	16576.05
541.399	16543.05
541.764	16611.98
542.129	16611.98
542.494	16580.34
542.858	16623.05
543.223	16482.94
543.587	16639.32
543.952	16524.75
544.316	16628.48
544.681	16510.74
545.045	16553.22
545.41	16520.46
545.774	16552.32
546.138	16485.65
546.503	16512.77
546.867	16558.19
547.231	16558.42
547.595	16541.47
547.959	16569.95
548.324	16458.76
548.688	16445.2
549.052	16502.38
549.416	16482.72
549.779	16378.99
550.143	16503.28
550.507	16520
550.871	16440.91
551.235	16498.31
551.599	16508.7
551.962	16519.1
552.326	16467.35
552.689	16541.7
553.053	16515.71
553.417	16554.13
553.78	16626.44
554.143	16531.75
554.507	16525.65
554.87	16516.16
555.234	16615.14
555.597	16431.87
555.96	16563.62
556.323	16533.56
556.686	16594.8
557.05	16627.57
557.413	16597.06
557.776	16626.22
558.139	16667.57
558.502	16649.27
558.865	16597.97
559.228	16744.4
559.59	16644.07
559.953	16717.74
560.316	16759.55
560.679	16751.18
561.041	16838.64
561.404	16929.71
561.767	16919.54
562.129	16879.32
562.492	17050.39
562.854	16903.95
563.217	16870.73
563.579	17007.22
563.941	17086.09
564.304	17034.79
564.666	17075.47
565.028	17101.23
565.39	17188.46
565.753	17299.19
566.115	17339.42
566.477	17257.61
566.839	17264.39
567.201	17408.79
567.563	17414.44
567.925	17388
568.287	17428.45
568.648	17425.06
569.01	17495.35
569.372	17614.66
569.734	17531.95
570.095	17710.71
570.457	17583.7
570.819	17652.18
571.18	17606.3
571.542	17813.98
571.903	17628.9
572.265	17769.46
572.626	17765.39
572.987	17782.8
573.349	17886.97
573.71	17809.69
574.071	17864.83
574.432	17957.48
574.794	18016.24
575.155	18010.13
575.516	17898.27
575.877	18015.56
576.238	18042.68
576.599	18057.59
576.96	17973.52
577.32	18035.67
577.681	18007.42
578.042	18143.46
578.403	18073.86
578.763	18210.58
579.124	18116.12
579.485	18184.59
579.845	18209.45
580.206	18157.7
580.566	18191.37
580.927	18126.74
581.287	18244.03
581.648	18234.08
582.008	18267.75
582.368	18201.54
582.728	18131.03
583.089	18190.92
583.449	18173.07
583.809	18143.92
584.169	18243.12
584.529	18101.88
584.889	18180.3
585.249	18162.45
585.609	18135.1
585.969	18199.73
586.329	18053.52
586.688	18110.47
587.048	18101.43
587.408	18071.38
587.768	18108.21
588.127	18019.85
588.487	17996.8
588.846	18103.92
589.206	18083.58
589.565	17963.13
589.925	18130.58
590.284	17940.31
590.643	18003.58
591.003	18090.81
591.362	18089
591.721	18086.97
592.08	18010.13
592.44	18034.54
592.799	18036.8
593.158	17961.77
593.517	18013.3
593.876	18034.77
594.235	18010.81
594.593	18018.27
594.952	18067.99
595.311	18003.81
595.67	18027.08
596.029	18032.28
596.387	18047.87
596.746	18092.39
597.104	17950.25
597.463	17956.35
597.822	18051.94
598.18	17984.15
598.538	17963.58
598.897	18063.69
599.255	17819.18
599.613	18116.8
599.972	18024.6
600.33	17975.78
600.688	18007.65
601.046	17957.03
601.404	18047.87
601.762	18000.64
602.12	18029.12
602.478	18111.15
602.836	18126.74
603.194	17983.02
603.552	17991.15
603.91	17942.56
604.268	18020.98
604.625	17988.89
604.983	18063.01
605.341	17931.49
605.698	18104.59
606.056	18142.79
606.413	18033.86
606.771	18110.7
607.128	18167.64
607.485	18112.96
607.843	18135.33
608.2	18107.76
608.557	18201.32
608.914	18168.77
609.272	18317.92
609.629	18192.73
609.986	18263.69
610.343	18124.26
610.7	18322.67
611.057	18338.49
611.414	18316.11
611.771	18354.08
612.127	18382.33
612.484	18417.13
612.841	18434.98
613.198	18316.79
613.554	18375.1
613.911	18488.31
614.267	18540.29
614.624	18388.88
614.98	18554.98
615.337	18545.49
615.693	18644.24
616.05	18483.34
616.406	18610.8
616.762	18483.12
617.118	18514.3
617.475	18530.57
617.831	18635.88
618.187	18550.23
618.543	18525.83
618.899	18721.08
619.255	18702.54
619.611	18748.65
619.967	18717.69
620.323	18774.41
620.678	18686.95
621.034	18663.9
621.39	18718.14
621.746	18698.7
622.101	18891.92
622.457	18724.69
622.812	18737.8
623.168	18739.61
623.523	18790.45
623.879	18752.71
624.234	18674.98
624.589	18680.85
624.945	18833.61
625.3	18762.2
625.655	18832.49
626.01	18811.47
626.365	18865.25
626.72	18741.87
627.075	18766.5
627.43	18727.18
627.785	18660.96
628.14	18691.92
628.495	18753.17
628.85	18700.96
629.205	18683.11
629.559	18829.32
629.914	18756.78
630.269	18807.4
630.623	18688.08
630.978	18706.39
631.332	18621.64
631.687	18717.23
632.041	18744.35
632.396	18684.47
632.75	18550.46
633.104	18694.18
633.459	18562.44
633.813	18444.25
634.167	18589.33
634.521	18554.3
634.875	18549.33
635.229	18555.2
635.583	18510.23
635.937	18468.65
636.291	18434.98
636.645	18413.29
636.999	18383.46
637.352	18379.39
637.706	18391.14
638.06	18390.46
638.413	18360.41
638.767	18265.49
639.121	18415.77
639.474	18251.48
639.828	18261.65
640.181	18306.85
640.534	18244.03
640.888	18255.33
641.241	18111.15
641.594	18142.79
641.947	18244.48
642.301	18073.63
642.654	18078.38
643.007	18183.69
643.36	18022.79
643.713	18067.99
644.066	18145.95
644.419	18053.52
644.771	17903.02
645.124	17743.7
645.477	17707.54
645.83	17619.18
646.182	17553.87
646.535	17413.77
646.888	17616.25
647.24	17505.97
647.593	17515.23
647.945	17523.14
648.298	17360.66
648.65	17467.1
649.002	17332.86
649.355	17514.55
649.707	17360.89
650.059	17441.34
650.411	17763.36
650.763	17762
651.115	17846.52
651.467	17816.01
651.819	17879.97
652.171	17865.28
652.523	17915.45
652.875	17781.67
653.227	17795.9
653.578	17910.93
653.93	17819.63
654.282	17830.48
654.633	17809.91
654.985	17814.21
655.337	17788.67
655.688	17787.54
656.039	17968.55
656.391	17704.61
656.742	17735.11
657.094	17794.55
657.445	17803.81
657.796	17794.77
658.147	17793.64
658.498	17776.47
658.849	17877.26
659.2	17844.26
659.551	17715.68
659.902	17920.64
660.253	17843.13
660.604	17763.81
660.955	17760.2
661.306	17872.51
661.656	17843.58
662.007	17856.01
662.358	17877.71
662.708	17858.05
663.059	17843.36
663.409	17761.55
663.76	17888.56
664.11	17872.96
664.461	17909.57
664.811	17956.12
665.161	18000.19
665.511	17854.88
665.862	17867.54
666.212	17935.56
666.562	17932.4
666.912	17838.61
667.262	17908.44
667.612	17815.11
667.962	17765.62
668.312	17796.81
668.662	17880.19
669.011	17910.48
669.361	17826.64
669.711	17834.09
670.06	17862.34
670.41	17757.71
670.76	17774.89
671.109	17883.81
671.459	17830.25
671.808	17754.77
672.157	17800.87
672.507	17807.65
672.856	17724.04
673.205	17735.11
673.554	17795.68
673.904	17750.48
674.253	17807.2
674.602	17789.8
674.951	17537.15
675.3	17450.15
675.649	17716.36
675.998	17645.62
676.346	17598.62
676.695	17611.05
677.044	17579.18
677.393	17625.29
677.741	17659.41
678.09	17539.64
678.438	17569.69
678.787	17589.35
679.135	17535.57
679.484	17391.39
679.832	17513.42
680.181	17463.93
680.529	17417.38
680.877	17437.49
681.225	17358.4
681.573	17473.2
681.922	17393.65
682.27	17306.65
682.618	17388.91
682.966	17227.1
683.314	17230.49
683.661	17170.16
684.009	17119.76
684.357	17064.85
684.705	17058.07
685.053	17096.03
685.4	16956.83
685.748	16865.76
686.095	16896.72
686.443	16763.39
686.79	16778.3
687.138	16845.87
687.485	16794.12
687.832	16753.67
688.18	16800.67
688.527	16648.59
688.874	16526.78
689.221	16642.94
689.568	16526.56
689.915	16522.72
690.262	16580.57
690.609	16476.61
690.956	16338.31
691.303	16377.86
691.65	16315.26
691.997	16194.14
692.344	16113.01
692.69	16075.72
693.037	16087.25
693.383	15934.71
693.73	16033.91
694.077	15948.04
694.423	15880.47
694.769	15768.84
695.116	15753.7
695.462	15754.37
695.808	15750.53
696.155	15755.96
696.501	15569.75
696.847	15543.98
697.193	15388.96
697.539	15567.94
697.885	15381.28
698.231	15278.91
698.577	15303.09
698.923	15207.04
699.269	15142.19
699.614	15045.92
699.96	15062.19
700.306	15056.77
700.651	14995.07
700.997	14967.05
701.342	14868.07
701.688	14822.65
702.033	14744
702.379	14689.09
702.724	14675.31
703.069	14699.71
703.415	14483.45
703.76	14504.01
704.105	14557.57
704.45	14425.37
704.795	14427.63
705.14	14274.86
705.485	14332.72
705.83	14270.12
706.175	14268.54
706.52	14178.37
706.865	14178.82
707.209	14079.16
707.554	14039.62
707.899	14113.51
708.243	13884.59
708.588	13989.9
708.932	13841.66
709.277	13822.22
709.621	13853.86
709.966	13676.91
710.31	13831.03
710.654	13673.75
710.998	13810.7
711.342	13725.73
711.687	13614.77
712.031	13648.21
712.375	13619.97
712.719	13561.89
713.063	13534.55
713.407	13472.85
713.75	13474.89
714.094	13480.54
714.438	13406.64
714.782	13451.38
715.125	13278.28
715.469	13324.61
715.812	13304.72
716.156	13249.36
716.499	13150.6
716.843	13182.92
717.186	13180.66
717.53	13178.17
717.873	13188.11
718.216	13107.21
718.559	12998.51
718.902	12933.43
719.246	13056.14
719.589	12968.91
719.932	12918.06
720.275	12942.47
720.617	12899.76
720.96	12878.07
721.303	12779.99
721.646	12881.23
721.989	12781.8
722.331	12868.35
722.674	12817.5
723.016	12769.14
723.359	12795.81
723.701	12839.87
724.044	12760.33
724.386	12638.98
724.729	12727.79
725.071	12775.7
725.413	12688.69
725.755	12736.6
726.097	12645.76
726.439	12684.17
726.782	12648.69
727.124	12659.31
727.465	12617.96
727.807	12614.57
728.149	12578.19
728.491	12583.84
728.833	12654.34
729.175	12533.89
729.516	12605.76
729.858	12544.06
730.199	12530.28
730.541	12575.47
730.882	12579.77
731.224	12594.68
731.565	12500.67
731.906	12521.24
732.248	12531.18
732.589	12519.88
732.93	12447.57
733.271	12463.16
733.612	12527.79
733.953	12462.48
734.294	12478.53
734.635	12468.81
734.976	12462.26
735.317	12445.53
735.658	12445.99
735.999	12484.4
736.339	12491.86
736.68	12459.32
737.021	12441.47
737.361	12396.04
737.702	12509.94
738.042	12402.37
738.383	12504.06
738.723	12468.13
739.063	12486.66
739.404	12547.23
739.744	12431.98
740.084	12517.4
740.424	12450.28
740.764	12471.75
741.104	12556.72
741.444	12503.16
741.784	12562.37
742.124	12610.5
742.464	12612.31
742.804	12638.75
743.143	12569.37
743.483	12570.05
743.823	12617.73
744.162	12579.77
744.502	12657.73
744.841	12678.52
745.181	12750.39
745.52	12698.18
745.86	12824.06
746.199	12785.86
746.538	12923.26
746.877	12914.67
747.216	12996.25
747.556	13029.7
747.895	12979.31
748.234	13071.73
748.573	13067.21
748.911	13177.94
749.25	13215.23
749.589	13227.21
749.928	13416.81
750.267	13410.25
750.605	13431.05
750.944	13596.24
751.283	13486.41
751.621	13677.82
751.96	13639.4
752.298	13754.88
752.636	13934.76
752.975	13944.7
753.313	13959.84
753.651	14176.56
753.989	14227.41
754.327	14241.65
754.666	14304.47
755.004	14478.02
755.342	14586.27
755.679	14699.26
756.017	14765.7
756.355	15013.6
756.693	14995.52
