Data from hue_210_FLMS001491_00048.txt Node
Date: Tue Feb 07 16:41:16 GMT 2017
User: dcchb
Spectrometer: FLMS00149
Trigger mode: 0
Integration Time (sec): 2.000000E-2
Scans to average: 10
Electric dark correction enabled: true
Nonlinearity correction enabled: false
Boxcar width: 0
XAxis mode: Wavelengths
Number of Pixels in Spectrum: 2048
>>>>>Begin Spectral Data<<<<<
341.393	-10.82
341.776	-10.82
342.16	-10.82
342.543	-56.69
342.927	-67.99
343.31	-66.64
343.693	-62.34
344.077	-69.12
344.46	-51.27
344.843	-58.5
345.226	-34.32
345.61	-36.35
345.993	-15.11
346.376	8.84
346.759	-4.72
347.142	11.1
347.525	37.09
347.908	49.97
348.291	70.99
348.674	100.36
349.057	120.03
349.44	125.9
349.823	132.91
350.206	165.67
350.588	190.53
350.971	225.56
351.354	229.63
351.737	239.34
352.119	263.07
352.502	251.77
352.884	264.65
353.267	276.18
353.65	305.33
354.032	297.2
354.414	319.34
354.797	318.66
355.179	304.43
355.562	314.82
355.944	336.74
356.326	325.67
356.709	339
357.091	338.32
357.473	354.14
357.855	361.15
358.238	341.49
358.62	323.41
359.002	323.86
359.384	343.75
359.766	348.95
360.148	330.19
360.53	349.62
360.912	348.72
361.294	326.12
361.676	313.47
362.057	331.77
362.439	334.26
362.821	335.84
363.203	322.73
363.584	327.03
363.966	317.08
364.348	317.99
364.729	325.67
365.111	307.82
365.493	324.54
365.874	311.66
366.256	297.65
366.637	312.56
367.019	313.47
367.4	318.66
367.781	313.47
368.163	323.18
368.544	320.7
368.925	330.19
369.306	299.68
369.688	308.95
370.069	314.82
370.45	310.08
370.831	309.4
371.212	316.86
371.593	301.72
371.974	310.3
372.355	317.76
372.736	308.27
373.117	322.05
373.498	324.54
373.879	310.53
374.26	309.4
374.641	330.87
375.021	326.35
375.402	319.79
375.783	323.64
376.163	327.03
376.544	327.7
376.925	325.9
377.305	317.08
377.686	331.09
378.066	333.8
378.447	341.04
378.827	324.77
379.208	335.61
379.588	306.46
379.968	335.39
380.349	338.32
380.729	325.22
381.109	338.1
381.489	326.57
381.87	335.16
382.25	364.09
382.63	329.74
383.01	338.78
383.39	345.1
383.77	345.1
384.15	348.27
384.53	352.11
384.91	348.04
385.29	362.28
385.67	330.19
386.049	348.95
386.429	344.43
386.809	370.41
387.189	338.78
387.568	358.66
387.948	346.23
388.328	346.69
388.707	353.69
389.087	354.82
389.466	356.4
389.846	353.69
390.225	361.83
390.605	365.22
390.984	364.09
391.363	363.18
391.743	362.73
392.122	373.58
392.501	381.71
392.881	388.72
393.26	371.09
393.639	374.93
394.018	387.81
394.397	379
394.776	384.65
395.155	389.4
395.534	380.13
395.913	394.14
396.292	395.95
396.671	381.04
397.05	382.62
397.429	394.82
397.808	410.41
398.186	407.48
398.565	394.59
398.944	408.61
399.323	414.71
399.701	409.73
400.08	415.38
400.458	398.89
400.837	432.79
401.215	414.93
401.594	405.44
401.972	417.87
402.351	444.54
402.729	424.88
403.107	448.38
403.486	440.69
403.864	432.11
404.242	422.39
404.62	435.72
404.999	454.93
405.377	447.47
405.755	448.38
406.133	451.77
406.511	449.51
406.889	470.07
407.267	460.36
407.645	483.86
408.023	493.12
408.401	489.28
408.779	496.51
409.156	499.68
409.534	514.59
409.912	484.08
410.29	512.33
410.667	534.7
411.045	539.45
411.422	550.52
411.8	558.21
412.178	559.34
412.555	559.56
412.933	575.15
413.31	588.94
413.687	593.01
414.065	583.74
414.442	625.77
414.819	613.35
415.197	636.17
415.574	633.46
415.951	647.47
416.328	663.29
416.705	662.84
417.082	683.17
417.46	677.07
417.837	666
418.214	693.34
418.591	690.41
418.967	719.11
419.344	720.46
419.721	721.37
420.098	731.53
420.475	714.81
420.852	750.97
421.228	790.06
421.605	785.09
421.982	788.03
422.358	788.93
422.735	815.37
423.111	830.06
423.488	844.53
423.864	846.79
424.241	891.3
424.617	882.94
424.994	879.33
425.37	913.22
425.746	926.56
426.123	954.81
426.499	959.1
426.875	953.68
427.251	940.12
427.627	985.54
428.003	1012.88
428.379	1001.58
428.756	1032.77
429.132	1032.77
429.507	1030.06
429.883	1066.21
430.259	1085.88
430.635	1072.09
431.011	1080.9
431.387	1111.64
431.763	1143.73
432.138	1139.89
432.514	1177.4
432.89	1169.04
433.265	1205.19
433.641	1236.15
434.016	1233.44
434.392	1265.76
434.767	1276.83
435.143	1281.12
435.518	1334.23
435.894	1352.76
436.269	1364.29
436.644	1394.12
437.02	1411.52
437.395	1422.14
437.77	1465.98
438.145	1502.59
438.52	1527.22
438.895	1535.13
439.271	1538.52
439.646	1607.44
440.021	1618.97
440.395	1627.1
440.77	1621.68
441.145	1654
441.52	1674.11
441.895	1680.66
442.27	1715.69
442.645	1741.23
443.019	1758.4
443.394	1758.63
443.769	1790.26
444.143	1756.59
444.518	1850.15
444.892	1812.41
445.267	1848.34
445.641	1879.53
446.016	1880.43
446.39	1913.2
446.764	1914.55
447.139	1919.3
447.513	1934.89
447.887	1931.73
448.262	1961.11
448.636	1957.26
449.01	1999.52
449.384	2013.53
449.758	2018.28
450.132	2047.43
450.506	2052.4
450.88	2064.61
451.254	2062.12
451.628	2117.26
452.002	2145.06
452.376	2152.51
452.75	2140.54
453.123	2189.58
453.497	2225.73
453.871	2275
454.244	2273.41
454.618	2300.53
454.992	2342.57
455.365	2304.83
455.739	2361.77
456.112	2389.34
456.486	2388.21
456.859	2400.42
457.232	2474.31
457.606	2473.41
457.979	2505.5
458.352	2524.03
458.725	2557.93
459.099	2588.43
459.472	2636.34
459.845	2647.64
460.218	2653.29
460.591	2704.82
460.964	2719.96
461.337	2763.35
461.71	2798.37
462.083	2838.37
462.456	2851.48
462.829	2849.22
463.201	2917.01
463.574	2921.53
463.947	2966.73
464.32	3044.47
464.692	3037.69
465.065	3042.66
465.438	3092.6
465.81	3146.61
466.183	3196.33
466.555	3251.24
466.928	3295.99
467.3	3239.72
467.672	3306.16
468.045	3412.37
468.417	3374.85
468.789	3387.51
469.161	3479.03
469.534	3509.99
469.906	3568.07
470.278	3600.16
470.65	3599.71
471.022	3713.38
471.394	3719.93
471.766	3759.7
472.138	3790.44
472.51	3923.31
472.882	3921.96
473.253	3956.76
473.625	4033.37
473.997	4087.83
474.369	4140.71
474.74	4181.84
475.112	4243.98
475.484	4280.82
475.855	4320.37
476.227	4386.81
476.598	4496.41
476.97	4531.66
477.341	4598.78
477.713	4669.51
478.084	4687.81
478.455	4813.69
478.827	4850.07
479.198	4973
479.569	4933.01
479.94	5173.9
480.311	5125.77
480.682	5231.76
481.053	5339.77
481.424	5398.53
481.795	5486.89
482.166	5531.86
482.537	5540.45
482.908	5637.85
483.279	5695.25
483.65	5785.86
484.021	5886.43
484.391	5941.79
484.762	5982.02
485.133	6109.7
485.503	6085.07
485.874	6225.63
486.244	6252.97
486.615	6362.35
486.985	6432.4
487.356	6580.87
487.726	6546.07
488.097	6700.42
488.467	6671.72
488.837	6816.35
489.207	6855.22
489.578	6976.12
489.948	6984.25
490.318	7055.89
490.688	7095.66
491.058	7214.08
491.428	7294.75
491.798	7289.1
492.168	7456.33
492.538	7456.1
492.908	7537.68
493.278	7676.44
493.648	7687.74
494.017	7744.68
494.387	7757.34
494.757	7837.56
495.126	7911.23
495.496	7879.14
495.866	7914.85
496.235	8049.31
496.605	8063.32
496.974	8131.57
497.344	8153.94
497.713	8226.7
498.082	8216.31
498.452	8286.14
498.821	8299.47
499.19	8301.73
499.559	8389.41
499.928	8343.99
500.298	8429.86
500.667	8509.41
501.036	8535.17
501.405	8526.13
501.774	8590.08
502.143	8619.69
502.512	8575.85
502.88	8652.91
503.249	8672.34
503.618	8757.76
503.987	8732.23
504.356	8804.32
504.724	8762.28
505.093	8854.48
505.462	8820.59
505.83	8888.38
506.199	8932.67
506.567	8961.6
506.936	8927.93
507.304	9082.95
507.672	9050.19
508.041	9059.68
508.409	9067.36
508.777	9193.91
509.145	9183.29
509.514	9170.63
509.882	9172.67
510.25	9227.13
510.618	9275.94
510.986	9224.42
511.354	9240.92
511.722	9372.89
512.09	9366.56
512.458	9290.41
512.826	9363.17
513.193	9358.88
513.561	9400.23
513.929	9444.53
514.297	9430.06
514.664	9487.46
515.032	9429.38
515.4	9525.65
515.767	9529.04
516.135	9470.06
516.502	9431.64
516.869	9572.88
517.237	9597.06
517.604	9559.1
517.972	9562.04
518.339	9579.21
518.706	9564.75
519.073	9522.94
519.44	9574.01
519.808	9641.81
520.175	9604.75
520.542	9693.33
520.909	9623.73
521.276	9657.4
521.643	9647.91
522.009	9664.18
522.376	9757.06
522.743	9810.17
523.11	9774.23
523.477	9798.64
523.843	9825.53
524.21	9784.4
524.577	9879.77
524.943	9867.57
525.31	9856.27
525.676	9910.95
526.043	9859.88
526.409	9912.54
526.776	9949.6
527.142	10012.42
527.508	9949.15
527.874	9980.33
528.241	10008.13
528.607	9955.25
528.973	9970.16
529.339	9934.23
529.705	10023.27
530.071	10014.23
530.437	10002.03
530.803	9953.44
531.169	10017.84
531.535	9965.19
531.901	9933.55
532.267	9922.03
532.632	9948.24
532.998	9982.36
533.364	9942.14
533.73	9884.29
534.095	9853.55
534.461	9865.53
534.826	9904.4
535.192	9925.19
535.557	9904.17
535.923	9791.18
536.288	9795.48
536.653	9803.61
537.019	9720.45
537.384	9753.44
537.749	9766.1
538.114	9768.36
538.479	9672.77
538.845	9732.2
539.21	9614.01
539.575	9586.22
539.94	9558.87
540.305	9570.62
540.67	9580.34
541.034	9516.39
541.399	9546.9
541.764	9526.56
542.129	9518.65
542.494	9484.07
542.858	9457.86
543.223	9382.83
543.587	9390.06
543.952	9368.37
544.316	9366.34
544.681	9234.59
545.045	9313.23
545.41	9273.68
545.774	9226.68
546.138	9210.86
546.503	9212.44
546.867	9168.37
547.231	9203.4
547.595	9127.47
547.959	9127.02
548.324	9085.21
548.688	9068.49
549.052	9055.38
549.416	8990.07
549.779	8974.03
550.143	8877.76
550.507	8921.6
550.871	8924.77
551.235	8870.76
551.599	8850.19
551.962	8864.2
552.326	8833.24
552.689	8849.29
553.053	8734.04
553.417	8740.82
553.78	8835.05
554.143	8745.56
554.507	8731.55
554.87	8738.56
555.234	8683.19
555.597	8650.87
555.96	8626.24
556.323	8675.96
556.686	8675.51
557.05	8628.05
557.413	8655.62
557.776	8579.46
558.139	8593.93
558.502	8587.37
558.865	8592.57
559.228	8556.64
559.59	8621.95
559.953	8593.02
560.316	8596.64
560.679	8582.18
561.041	8630.99
561.404	8644.77
561.767	8594.6
562.129	8581.95
562.492	8590.54
562.854	8604.1
563.217	8580.37
563.579	8547.6
563.941	8560.26
564.304	8630.08
564.666	8655.17
565.028	8619.24
565.39	8621.5
565.753	8641.16
566.115	8650.65
566.477	8649.52
566.839	8683.42
567.201	8661.5
567.563	8670.99
567.925	8644.09
568.287	8693.58
568.648	8662.17
569.01	8727.26
569.372	8755.96
569.734	8703.53
570.095	8711.66
570.457	8759.35
570.819	8759.8
571.18	8750.53
571.542	8794.6
571.903	8749.85
572.265	8762.06
572.626	8751.66
572.987	8788.5
573.349	8810.42
573.71	8841.6
574.071	8854.94
574.432	8874.6
574.794	8863.07
575.155	8832.11
575.516	8853.13
575.877	8855.61
576.238	8926.57
576.599	8906.46
576.96	8966.8
577.32	8921.6
577.681	9025.33
578.042	8997.31
578.403	8989.62
578.763	8977.87
579.124	8948.72
579.485	9027.81
579.845	8994.82
580.206	9029.85
580.566	8974.03
580.927	8974.26
581.287	9055.84
581.648	9011.54
582.008	9004.76
582.368	9021.49
582.728	9063.74
583.089	9007.25
583.449	9129.73
583.809	9056.06
584.169	9082.5
584.529	9055.84
584.889	9140.35
585.249	9110.52
585.609	9078.89
585.969	9183.97
586.329	9151.43
586.688	9091.54
587.048	9125.66
587.408	9119.34
587.768	9146.45
588.127	9153.23
588.487	9124.99
588.846	9227.81
589.206	9103.52
589.565	9137.19
589.925	9133.35
590.284	9213.57
590.643	9211.09
591.003	9177.64
591.362	9195.27
591.721	9223.06
592.08	9191.65
592.44	9124.31
592.799	9221.93
593.158	9169.73
593.517	9241.14
593.876	9177.64
594.235	9166.79
594.593	9186
594.952	9169.28
595.311	9163.86
595.67	9259.9
596.029	9228.49
596.387	9289.73
596.746	9271.42
597.104	9201.37
597.463	9204.53
597.822	9251.54
598.18	9201.59
598.538	9164.08
598.897	9311.2
599.255	9175.38
599.613	9256.28
599.972	9238.43
600.33	9194.59
600.688	9240.01
601.046	9197.07
601.404	9230.97
601.762	9268.71
602.12	9311.87
602.478	9226.23
602.836	9249.05
603.194	9258.54
603.552	9330.4
603.91	9265.55
604.268	9262.61
604.625	9220.58
604.983	9312.1
605.341	9195.27
605.698	9226.68
606.056	9300.57
606.413	9255.83
606.771	9316.17
607.128	9315.72
607.485	9303.06
607.843	9270.52
608.2	9362.04
608.557	9327.01
608.914	9343.06
609.272	9342.16
609.629	9357.97
609.986	9364.98
610.343	9339.9
610.7	9416.73
611.057	9348.26
611.414	9325.88
611.771	9363.4
612.127	9350.97
612.484	9413.34
612.841	9371.31
613.198	9409.72
613.554	9381.93
613.911	9456.5
614.267	9428.25
614.624	9426.9
614.98	9443.4
615.337	9478.65
615.693	9451.31
616.05	9404.07
616.406	9545.77
616.762	9475.49
617.118	9524.52
617.475	9475.49
617.831	9524.3
618.187	9510.51
618.543	9478.88
618.899	9536.73
619.255	9580.57
619.611	9508.25
619.967	9570.62
620.323	9567.69
620.678	9457.41
621.034	9494.24
621.39	9549.16
621.746	9490.85
622.101	9579.21
622.457	9472.77
622.812	9526.33
623.168	9573.56
623.523	9509.16
623.879	9612.2
624.234	9522.49
624.589	9581.25
624.945	9508.93
625.3	9561.36
625.655	9526.33
626.01	9555.26
626.365	9572.66
626.72	9538.31
627.075	9505.54
627.43	9512.32
627.785	9489.27
628.14	9510.29
628.495	9578.53
628.85	9516.84
629.205	9440.46
629.559	9567.91
629.914	9402.49
630.269	9473.45
630.623	9414.92
630.978	9453.79
631.332	9428.93
631.687	9480.68
632.041	9400.23
632.396	9405.43
632.75	9399.56
633.104	9384.87
633.459	9362.95
633.813	9374.25
634.167	9340.12
634.521	9341.25
634.875	9327.92
635.229	9373.79
635.583	9280.69
635.937	9287.02
636.291	9271.65
636.645	9305.32
636.999	9267.58
637.352	9314.13
637.706	9228.03
638.06	9241.59
638.413	9174.93
638.767	9209.28
639.121	9205.21
639.474	9230.97
639.828	9131.09
640.181	9247.92
640.534	9214.25
640.888	9169.28
641.241	9045.89
641.594	9150.3
641.947	9158.43
642.301	9115.95
642.654	9194.36
643.007	9175.38
643.36	9156.17
643.713	9066.46
644.066	9059.45
644.419	9053.35
644.771	9019.68
645.124	8904.43
645.477	8895.84
645.83	8821.04
646.182	8849.74
646.535	8743.3
646.888	8771.32
647.24	8720.02
647.593	8933.8
647.945	8820.59
648.298	8770.65
648.65	8769.06
649.002	8724.54
649.355	8812
649.707	8810.42
650.059	8814.94
650.411	8887.03
650.763	8926.8
651.115	9001.6
651.467	8952.79
651.819	9017.19
652.171	8962.05
652.523	8953.01
652.875	8973.13
653.227	8972.45
653.578	9015.84
653.93	8978.55
654.282	8970.64
654.633	8950.08
654.985	8913.01
655.337	8901.94
655.688	9032.79
656.039	8956.85
656.391	8928.61
656.742	8962.5
657.094	8996.4
657.445	8964.76
657.796	8988.94
658.147	8930.19
658.498	9004.99
658.849	8956.85
659.2	9009.96
659.551	8952.79
659.902	8955.27
660.253	8954.82
660.604	9008.15
660.955	8934.71
661.306	9025.55
661.656	8984.42
662.007	9043.63
662.358	9002.28
662.708	8991.66
663.059	8970.41
663.409	9042.28
663.76	9015.61
664.11	9065.33
664.461	9004.09
664.811	9004.09
665.161	9043.63
665.511	8978.32
665.862	9006.8
666.212	8984.88
666.562	9021.49
666.912	9049.73
667.262	8967.93
667.612	9066
667.962	9034.59
668.312	8945.33
668.662	9033.01
669.011	9001.83
669.361	9018.55
669.711	8995.72
670.06	9013.58
670.41	8957.31
670.76	8917.53
671.109	8987.36
671.459	8961.83
671.808	8924.77
672.157	9019.45
672.507	8930.41
672.856	8969.51
673.205	8953.24
673.554	8963.63
673.904	8951.43
674.253	8971.09
674.602	8864.65
674.951	8751.89
675.3	8742.4
675.649	8882.96
675.998	8872.79
676.346	8864.2
676.695	8891.55
677.044	8763.87
677.393	8849.06
677.741	8777.42
678.09	8820.14
678.438	8837.08
678.787	8807.71
679.135	8756.18
679.484	8776.97
679.832	8795.05
680.181	8703.08
680.529	8744.43
680.877	8711.21
681.225	8761.38
681.573	8755.73
681.922	8686.35
682.27	8621.95
682.618	8659.69
682.966	8546.47
683.314	8690.42
683.661	8610.88
684.009	8566.58
684.357	8585.34
684.705	8509.41
685.053	8542.63
685.4	8612.68
685.748	8467.6
686.095	8433.7
686.443	8386.02
686.79	8375.85
687.138	8374.72
687.485	8375.18
687.832	8342.41
688.18	8352.13
688.527	8280.04
688.874	8303.76
689.221	8251.34
689.568	8218.34
689.915	8276.42
690.262	8258.34
690.609	8247.04
690.956	8191
691.303	8137.44
691.65	8132.7
691.997	8139.48
692.344	8069.42
692.69	8093.15
693.037	8131.34
693.383	8014.28
693.73	8033.49
694.077	7904.45
694.423	7978.35
694.769	7859.26
695.116	7882.53
695.462	7858.13
695.808	7839.14
696.155	7828.52
696.501	7731.35
696.847	7706.72
697.193	7688.41
697.539	7768.86
697.885	7647.74
698.231	7611.58
698.577	7624.46
698.923	7568.64
699.269	7529.55
699.614	7547.17
699.96	7526.61
700.306	7432.6
700.651	7439.15
700.997	7389.44
701.342	7423.34
701.688	7332.94
702.033	7270.8
702.379	7268.54
702.724	7340.4
703.069	7322.55
703.415	7185.83
703.76	7182.21
704.105	7165.04
704.45	7241.65
704.795	7136.34
705.14	7145.83
705.485	7054.76
705.83	7044.59
706.175	7025.38
706.52	7007.08
706.865	7017.7
707.209	6951.03
707.554	6991.26
707.899	6989.22
708.243	6921.2
708.588	6903.35
708.932	6858.6
709.277	6855.67
709.621	6827.87
709.966	6765.5
710.31	6788.1
710.654	6777.7
710.998	6759.85
711.342	6768.44
711.687	6705.84
712.031	6668.33
712.375	6653.86
712.719	6713.52
713.063	6680.08
713.407	6692.96
713.75	6645.73
714.094	6630.36
714.438	6696.8
714.782	6631.72
715.125	6648.67
715.469	6630.59
715.812	6642.34
716.156	6596.01
716.499	6510.37
716.843	6536.13
717.186	6510.37
717.53	6522.57
717.873	6589.23
718.216	6557.82
718.559	6528.22
718.902	6396.24
719.246	6487.32
719.589	6436.92
719.932	6407.09
720.275	6412.74
720.617	6449.8
720.96	6418.39
721.303	6454.77
721.646	6398.73
721.989	6366.87
722.331	6419.07
722.674	6401.22
723.016	6415.23
723.359	6371.84
723.701	6428.79
724.044	6345.85
724.386	6357.6
724.729	6340.2
725.071	6368
725.413	6387.66
725.755	6340.88
726.097	6348.79
726.439	6300.2
726.782	6254.55
727.124	6297.94
727.465	6330.94
727.807	6305.17
728.149	6342.46
728.491	6271.28
728.833	6353.99
729.175	6302.91
729.516	6307.43
729.858	6272.63
730.199	6302.24
730.541	6207.55
730.882	6334.32
731.224	6248.23
731.565	6303.59
731.906	6250.26
732.248	6275.8
732.589	6283.03
732.93	6204.61
733.271	6257.94
733.612	6243.03
733.953	6253.42
734.294	6267.66
734.635	6267.89
734.976	6264.95
735.317	6259.07
735.658	6304.95
735.999	6297.04
736.339	6288
736.68	6283.25
737.021	6321.44
737.361	6325.51
737.702	6336.58
738.042	6260.88
738.383	6337.94
738.723	6290.48
739.063	6288.68
739.404	6371.61
739.744	6292.52
740.084	6266.98
740.424	6322.8
740.764	6383.14
741.104	6403.93
741.444	6429.46
741.784	6344.27
742.124	6381.56
742.464	6415.23
742.804	6437.6
743.143	6434.89
743.483	6499.52
743.823	6424.49
744.162	6468.78
744.502	6496.35
744.841	6545.17
745.181	6659.97
745.52	6587.2
745.86	6624.94
746.199	6632.4
746.538	6706.74
746.877	6753.3
747.216	6771.38
747.556	6842.56
747.895	6833.07
748.234	6864.03
748.573	6906.29
748.911	6921.2
749.25	7036.91
749.589	7089.11
749.928	7140.18
750.267	7264.02
750.605	7275.54
750.944	7292.94
751.283	7411.58
751.621	7487.97
751.96	7540.85
752.298	7626.72
752.636	7686.38
752.975	7742.42
753.313	7857
753.651	7976.09
753.989	8051.79
754.327	8183.54
754.666	8196.42
755.004	8353.25
755.342	8463.99
755.679	8642.29
756.017	8705.56
756.355	8871.89
756.693	8982.84
757.031	9035.72
757.368	9236.4
757.706	9355.71
758.044	9456.05
758.381	9662.83
758.719	9736.72
759.056	9952.08
759.394	10090.16
759.731	10197.95
760.068	10392.75
760.405	10484.5
760.743	10609.92
761.08	10813.98
761.417	10950.25
761.754	11136.01
762.091	11329
762.428	11482.89
762.765	11571.25
763.102	11767.85
763.438	11960.84
763.775	12000.62
764.112	12210.78
764.449	12409.65
764.785	12538
765.122	12607.38
765.458	12813.48
765.795	12958.33
766.131	13183.18
766.467	13347.02
766.804	13424.76
767.14	13535.04
767.476	13784.3
767.812	13897.52
768.148	14060.68
768.485	14166.66
768.821	14294.79
