Data from hue_170_FLMS001491_00070.txt Node
Date: Tue Feb 07 16:49:03 GMT 2017
User: dcchb
Spectrometer: FLMS00149
Trigger mode: 0
Integration Time (sec): 2.000000E-2
Scans to average: 10
Electric dark correction enabled: true
Nonlinearity correction enabled: false
Boxcar width: 0
XAxis mode: Wavelengths
Number of Pixels in Spectrum: 2048
>>>>>Begin Spectral Data<<<<<
341.393	-2.16
341.776	-2.16
342.16	-2.16
342.543	-46.91
342.927	-91.2
343.31	-78.32
343.693	-72.67
344.077	-36.06
344.46	-44.65
344.843	-59.33
345.226	-32.89
345.61	-34.93
345.993	-35.38
346.376	0.32
346.759	16.82
347.142	23.6
347.525	49.82
347.908	48.23
348.291	65.63
348.674	81.23
349.057	108.57
349.44	122.81
349.823	146.76
350.206	188.34
350.588	199.19
350.971	191.73
351.354	247.55
351.737	225.86
352.119	256.36
352.502	265.4
352.884	285.52
353.267	286.42
353.65	288.9
354.032	301.33
354.414	296.59
354.797	297.72
355.179	338.85
355.562	324.84
355.944	322.58
356.326	337.94
356.709	336.36
357.091	320.32
357.473	331.16
357.855	354.67
358.238	335.01
358.62	321.67
359.002	341.33
359.384	336.59
359.766	336.81
360.148	304.27
360.53	332.29
360.912	333.88
361.294	324.16
361.676	331.62
362.057	332.75
362.439	321.9
362.821	313.54
363.203	317.6
363.584	328.23
363.966	313.54
364.348	327.77
364.729	303.37
365.111	324.84
365.493	312.86
365.874	323.25
366.256	330.71
366.637	301.33
367.019	290.26
367.4	324.84
367.781	301.79
368.163	314.89
368.544	299.75
368.925	290.49
369.306	309.92
369.688	302.92
370.069	303.59
370.45	313.54
370.831	300.66
371.212	299.3
371.593	300.43
371.974	304.27
372.355	298.85
372.736	316.25
373.117	334.55
373.498	307.89
373.879	320.99
374.26	322.8
374.641	325.51
375.021	311.28
375.402	331.84
375.783	330.94
376.163	308.79
376.544	351.05
376.925	308.57
377.305	325.06
377.686	322.8
378.066	329.58
378.447	340.43
378.827	341.33
379.208	337.27
379.588	335.68
379.968	333.65
380.349	330.03
380.729	332.29
381.109	325.51
381.489	319.19
381.87	348.11
382.25	339.75
382.63	331.84
383.01	324.16
383.39	323.03
383.77	344.95
384.15	349.02
384.53	346.53
384.91	356.93
385.29	338.4
385.67	342.24
386.049	340.65
386.429	352.86
386.809	343.59
387.189	355.8
387.568	357.15
387.948	340.2
388.328	358.96
388.707	353.99
389.087	360.09
389.466	372.52
389.846	349.92
390.225	356.7
390.605	365.06
390.984	371.61
391.363	380.65
391.743	366.64
392.122	378.39
392.501	381.56
392.881	354.89
393.26	375
393.639	374.55
394.018	354.67
394.397	373.87
394.776	376.13
395.155	387.89
395.534	356.47
395.913	379.98
396.292	382.24
396.671	401.44
397.05	395.12
397.429	389.24
397.808	400.09
398.186	413.65
398.565	409.81
398.944	385.85
399.323	388.34
399.701	401.44
400.08	403.48
400.458	393.31
400.837	410.03
401.215	414.55
401.594	416.13
401.972	417.04
402.351	421.1
402.729	426.53
403.107	422.01
403.486	434.21
403.864	409.81
404.242	438.28
404.62	451.39
404.999	425.62
405.377	443.25
405.755	438.73
406.133	457.04
406.511	449.35
406.889	468.56
407.267	467.21
407.645	457.94
408.023	459.97
408.401	455.68
408.779	480.09
409.156	466.98
409.534	483.02
409.912	495.23
410.29	501.1
410.667	492.97
411.045	517.6
411.422	503.14
411.8	523.47
412.178	505.4
412.555	507.66
412.933	529.35
413.31	528.9
413.687	522.57
414.065	548.33
414.442	546.3
414.819	546.3
415.197	549.24
415.574	555.34
415.951	579.97
416.328	578.61
416.705	580.65
417.082	583.13
417.46	569.35
417.837	585.62
418.214	602.34
418.591	599.18
418.967	609.35
419.344	601.44
419.721	623.13
420.098	615
420.475	638.27
420.852	640.53
421.228	621.55
421.605	639.18
421.982	646.41
422.358	669.46
422.735	662
423.111	677.82
423.488	697.93
423.864	684.83
424.241	699.06
424.617	699.74
424.994	707.88
425.37	701.1
425.746	724.83
426.123	730.48
426.499	739.74
426.875	729.12
427.251	759.63
427.627	753.98
428.003	751.72
428.379	760.98
428.756	794.88
429.132	780.87
429.507	789.46
429.883	804.15
430.259	827.2
430.635	836.69
431.011	829.23
431.387	868.1
431.763	861.55
432.138	851.83
432.514	873.3
432.89	868.32
433.265	885.95
433.641	899.74
434.016	905.16
434.392	935.22
434.767	956.23
435.143	953.07
435.518	964.37
435.894	980.19
436.269	984.93
436.644	1017.93
437.02	1023.57
437.395	1032.16
437.77	1055.44
438.145	1054.76
438.52	1049.34
438.895	1058.83
439.271	1085.95
439.646	1100.41
440.021	1100.63
440.395	1108.32
440.77	1114.87
441.145	1137.24
441.52	1165.49
441.895	1184.47
442.27	1161.42
442.645	1178.37
443.019	1169.79
443.394	1201.42
443.769	1216.56
444.143	1230.8
444.518	1242.78
444.892	1248.2
445.267	1252.95
445.641	1225.15
446.016	1275.55
446.39	1285.94
446.764	1291.36
447.139	1273.06
447.513	1290.46
447.887	1329.78
448.262	1310.12
448.636	1295.21
449.01	1314.87
449.384	1343.34
449.758	1363.45
450.132	1378.14
450.506	1386.05
450.88	1389.21
451.254	1427.63
451.628	1397.35
452.002	1454.3
452.376	1438.71
452.75	1452.94
453.123	1459.5
453.497	1493.84
453.871	1520.06
454.244	1505.82
454.618	1527.29
454.992	1568.19
455.365	1576.78
455.739	1635.76
456.112	1632.6
456.486	1670.56
456.859	1660.39
457.232	1715.76
457.606	1682.99
457.979	1709.43
458.352	1782.2
458.725	1747.62
459.099	1786.72
459.472	1821.29
459.845	1838.24
460.218	1828.75
460.591	1877.79
460.964	1887.51
461.337	1943.78
461.71	1983.32
462.083	2012.93
462.456	2002.53
462.829	2003.21
463.201	2066.71
463.574	2077.78
463.947	2115.75
464.32	2170.21
464.692	2160.27
465.065	2165.69
465.438	2218.8
465.81	2261.96
466.183	2303.09
466.555	2352.13
466.928	2363.88
467.3	2382.41
467.672	2442.75
468.045	2470.32
468.417	2505.8
468.789	2508.51
469.161	2606.13
469.534	2600.03
469.906	2708.5
470.278	2693.59
470.65	2769.29
471.022	2823.08
471.394	2917.99
471.766	2896.52
472.138	2979.46
472.51	3007.93
472.882	3095.38
473.253	3144.2
473.625	3245.89
473.997	3276.4
474.369	3317.07
474.74	3355.04
475.112	3448.37
475.484	3537.86
475.855	3606.56
476.227	3663.05
476.598	3773.56
476.97	3826.21
477.341	3928.81
477.713	4030.05
478.084	4061.69
478.455	4211.29
478.827	4238.41
479.198	4421.9
479.569	4416.48
479.94	4559.75
480.311	4649.92
480.682	4762.01
481.053	4901.66
481.424	5002.23
481.795	5093.07
482.166	5205.16
482.537	5273.86
482.908	5432.05
483.279	5536.45
483.65	5683.34
484.021	5815.31
484.391	5948.87
484.762	6012.82
485.133	6096.21
485.503	6169.88
485.874	6418.24
486.244	6526.48
486.615	6655.74
486.985	6791.78
487.356	6907.94
487.726	7052.57
488.097	7159.23
488.467	7289.62
488.837	7415.72
489.207	7599.22
489.578	7722.61
489.948	7760.57
490.318	7978.42
490.688	8050.51
491.058	8222.71
491.428	8431.52
491.798	8487.56
492.168	8694.11
492.538	8778.85
492.908	8921.45
493.278	9017.49
493.648	9161.44
494.017	9231.49
494.387	9335.9
494.757	9533.41
495.126	9628.09
495.496	9654.08
495.866	9748.54
496.235	9983.57
496.605	10025.37
496.974	10061.98
497.344	10229.66
497.713	10300.39
498.082	10450.45
498.452	10522.76
498.821	10593.94
499.19	10572.7
499.559	10814.05
499.928	10821.06
500.298	10904.22
500.667	11024.67
501.036	10997.78
501.405	11161.16
501.774	11185.57
502.143	11356.18
502.512	11388.95
502.88	11462.85
503.249	11494.26
503.618	11593.47
503.987	11670.75
504.356	11767.7
504.724	11826.91
505.093	11806.12
505.462	11896.06
505.83	11956.62
506.199	12117.07
506.567	12166.78
506.936	12070.52
507.304	12286.56
507.672	12251.3
508.041	12431.18
508.409	12475.48
508.777	12463.05
509.145	12619.88
509.514	12493.56
509.882	12634.34
510.25	12715.24
510.618	12769.93
510.986	12754.79
511.354	12824.85
511.722	12920.21
512.09	13001.34
512.458	13020.77
512.826	13129.47
513.193	13134.44
513.561	13141.9
513.929	13251.28
514.297	13354.78
514.664	13298.73
515.032	13259.86
515.4	13456.92
515.767	13458.73
516.135	13473.64
516.502	13372.85
516.869	13558.39
517.237	13551.61
517.604	13437.03
517.972	13666.63
518.339	13662.56
518.706	13701.66
519.073	13675.45
519.44	13817.36
519.808	13796.57
520.175	13827.31
520.542	13811.94
520.909	13853.75
521.276	13844.03
521.643	13991.6
522.009	14039.73
522.376	14064.59
522.743	14115.43
523.11	14191.36
523.477	14157.92
523.843	14279.05
524.21	14306.62
524.577	14295.77
524.943	14356.56
525.31	14296.9
525.676	14413.28
526.043	14509.77
526.409	14446.05
526.776	14525.59
527.142	14500.28
527.508	14614.63
527.874	14561.52
528.241	14604.46
528.607	14517.68
528.973	14596.1
529.339	14695.31
529.705	14671.13
530.071	14684.23
530.437	14641.52
530.803	14739.15
531.169	14714.97
531.535	14596.1
531.901	14654.63
532.267	14660.05
532.632	14628.41
532.998	14730.78
533.364	14627.74
533.73	14601.3
534.095	14673.61
534.461	14667.74
534.826	14667.51
535.192	14505.48
535.557	14663.22
535.923	14580.28
536.288	14487.63
536.653	14520.17
537.019	14523.33
537.384	14483.79
537.749	14461.41
538.114	14481.07
538.479	14399.27
538.845	14393.17
539.21	14282.66
539.575	14270.68
539.94	14284.02
540.305	14253.06
540.67	14219.16
541.034	14223.68
541.399	14195.21
541.764	14145.72
542.129	14160.86
542.494	14118.37
542.858	14009.9
543.223	13942.33
543.587	14006.06
543.952	13917.02
544.316	13887.42
544.681	13864.82
545.045	13855.1
545.41	13858.94
545.774	13751.6
546.138	13705.28
546.503	13690.59
546.867	13718.16
547.231	13697.82
547.595	13627.99
547.959	13658.27
548.324	13507.77
548.688	13545.51
549.052	13519.07
549.416	13542.34
549.779	13441.78
550.143	13454.66
550.507	13458.28
550.871	13410.59
551.235	13317.49
551.599	13303.48
551.962	13240.2
552.326	13261.45
552.689	13331.5
553.053	13154.56
553.417	13122.01
553.78	13228.45
554.143	13182.35
554.507	13089.7
554.87	13086.76
555.234	13125.86
555.597	13073.88
555.96	13011.06
556.323	13057.61
556.686	12999.31
557.05	13044.73
557.413	13029.13
557.776	12990.27
558.139	12959.98
558.502	13035.24
558.865	12970.15
559.228	12953.2
559.59	12908.01
559.953	12942.13
560.316	13046.54
560.679	12909.14
561.041	12942.36
561.404	12960.89
561.767	13020.32
562.129	12946.43
562.492	13006.99
562.854	13015.12
563.217	12898.29
563.579	12954.33
563.941	12958.18
564.304	12998.63
564.666	13091.73
565.028	13093.31
565.39	12994.56
565.753	13035.69
566.115	13066.2
566.477	13055.8
566.839	13101.9
567.201	13050.15
567.563	13049.02
567.925	13140.54
568.287	13061.68
568.648	13129.92
569.01	13144.84
569.372	13166.08
569.734	13121.11
570.095	13227.77
570.457	13183.93
570.819	13174.67
571.18	13120.43
571.542	13254.21
571.903	13203.82
572.265	13249.47
572.626	13253.08
572.987	13258.06
573.349	13237.26
573.71	13312.74
574.071	13269.81
574.432	13312.97
574.794	13422.34
575.155	13395.23
575.516	13186.64
575.877	13326.98
576.238	13308.9
576.599	13323.14
576.96	13269.58
577.32	13258.51
577.681	13408.79
578.042	13359.07
578.403	13392.52
578.763	13362.69
579.124	13315.23
579.485	13328.79
579.845	13392.52
580.206	13406.98
580.566	13320.2
580.927	13321.33
581.287	13465.51
581.648	13319.52
582.008	13395.9
582.368	13370.82
582.728	13341.89
583.089	13345.96
583.449	13290.37
583.809	13362.01
584.169	13340.77
584.529	13264.83
584.889	13328.56
585.249	13258.73
585.609	13202.69
585.969	13193.42
586.329	13200.88
586.688	13177.61
587.048	13300.54
587.408	13196.59
587.768	13233.2
588.127	13122.47
588.487	13126.53
588.846	13238.85
589.206	13098.74
589.565	13141.22
589.925	13244.5
590.284	13078.85
590.643	13157.49
591.003	13134.89
591.362	13156.82
591.721	13135.35
592.08	13093.31
592.44	13072.07
592.799	13153.2
593.158	13004.28
593.517	12946.88
593.876	13028.91
594.235	13008.12
594.593	12958.18
594.952	12968.35
595.311	12973.54
595.67	12951.62
596.029	13058.74
596.387	13033.88
596.746	13056.7
597.104	12974
597.463	12877.27
597.822	13055.35
598.18	12934.45
598.538	12926.31
598.897	12993.88
599.255	12897.16
599.613	13120.66
599.972	12955.69
600.33	12995.69
600.688	12936.93
601.046	12936.26
601.404	13010.83
601.762	12917.27
602.12	13017.84
602.478	12908.23
602.836	12924.96
603.194	12896.26
603.552	12986.65
603.91	12886.99
604.268	12957.27
604.625	12886.31
604.983	12988.01
605.341	12834.34
605.698	13011.28
606.056	12909.82
606.413	12898.97
606.771	12952.98
607.128	12905.75
607.485	12885.18
607.843	12908.91
608.2	13039.3
608.557	13019.64
608.914	12945.75
609.272	13083.37
609.629	13091.51
609.986	13147.1
610.343	12983.71
610.7	13165.4
611.057	13095.35
611.414	13096.48
611.771	13125.18
612.127	13105.74
612.484	13030.72
612.841	13226.19
613.198	13107.55
613.554	13124.95
613.911	13160.88
614.267	13152.3
614.624	13187.55
614.98	13078.17
615.337	13189.58
615.693	13263.7
616.05	13132.18
616.406	13331.95
616.762	13146.19
617.118	13231.62
617.475	13152.75
617.831	13301.67
618.187	13279.07
618.543	13316.13
618.899	13388
619.255	13276.36
619.611	13289.24
619.967	13419.41
620.323	13298.05
620.678	13297.6
621.034	13258.06
621.39	13298.51
621.746	13246.98
622.101	13467.77
622.457	13309.35
622.812	13340.77
623.168	13345.96
623.523	13283.59
623.879	13370.82
624.234	13300.54
624.589	13306.42
624.945	13284.27
625.3	13251.95
625.655	13338.51
626.01	13210.6
626.365	13277.26
626.72	13278.85
627.075	13313.2
627.43	13331.5
627.785	13259.19
628.14	13206.53
628.495	13194.1
628.85	13214.21
629.205	13278.85
629.559	13284.72
629.914	13252.18
630.269	13257.6
630.623	13181.9
630.978	13167.44
631.332	13179.41
631.687	13222.12
632.041	13124.5
632.396	13123.14
632.75	13096.93
633.104	13163.37
633.459	13095.35
633.813	12992.3
634.167	13087.21
634.521	13084.5
634.875	13093.99
635.229	13087.21
635.583	13017.84
635.937	12942.13
636.291	12963.83
636.645	12926.09
636.999	12966.99
637.352	12963.15
637.706	12914.56
638.06	12868.46
638.413	12917.5
638.767	12826.2
639.121	12841.8
639.474	12825.52
639.828	12854.9
640.181	12805.41
640.534	12762.25
640.888	12777.16
641.241	12689.26
641.594	12702.82
641.947	12800.89
642.301	12762.25
642.654	12716.15
643.007	12736.49
643.36	12731.74
643.713	12752.76
644.066	12764.51
644.419	12754.11
644.771	12577.85
645.124	12526.55
645.477	12531.97
645.83	12352.77
646.182	12283.17
646.535	12287.46
646.888	12306.22
647.24	12194.81
647.593	12305.54
647.945	12191.19
648.298	12148.03
648.65	12147.58
649.002	12148.03
649.355	12311.87
649.707	12213.34
650.059	12270.74
650.411	12437.96
650.763	12449.72
651.115	12545.53
651.467	12511.86
651.819	12512.76
652.171	12482.71
652.523	12506.44
652.875	12467.79
653.227	12408.13
653.578	12554.35
653.93	12429.83
654.282	12484.74
654.633	12490.17
654.985	12527.45
655.337	12558.41
655.688	12522.93
656.039	12498.98
656.391	12519.32
656.742	12501.24
657.094	12526.55
657.445	12583.5
657.796	12560.45
658.147	12503.72
658.498	12421.47
658.849	12543.95
659.2	12486.78
659.551	12468.25
659.902	12560.22
660.253	12509.15
660.604	12566.32
660.955	12423.28
661.306	12552.99
661.656	12522.71
662.007	12475.03
662.358	12553.89
662.708	12538.07
663.059	12557.51
663.409	12461.47
663.76	12540.33
664.11	12494.91
664.461	12630.28
664.811	12608.58
665.161	12559.32
665.511	12537.62
665.862	12566.77
666.212	12559.09
666.562	12587.11
666.912	12523.84
667.262	12542.37
667.612	12631.63
667.962	12640.44
668.312	12641.12
668.662	12655.13
669.011	12627.56
669.361	12612.87
669.711	12533.33
670.06	12643.83
670.41	12501.47
670.76	12569.94
671.109	12530.16
671.459	12434.57
671.808	12494.01
672.157	12544.18
672.507	12462.14
672.856	12381.02
673.205	12469.83
673.554	12544.63
673.904	12457.4
674.253	12484.52
674.602	12405.65
674.951	12238.87
675.3	12221.92
675.649	12340.57
675.998	12371.52
676.346	12282.71
676.695	12366.55
677.044	12297.4
677.393	12366.55
677.741	12350.06
678.09	12359.32
678.438	12331.53
678.787	12298.31
679.135	12281.81
679.484	12239.78
679.832	12271.87
680.181	12232.55
680.529	12213.56
680.877	12224.64
681.225	12155.03
681.573	12233.9
681.922	12120.23
682.27	12090.4
682.618	12115.71
682.966	12055.38
683.314	12066.22
683.661	11973.8
684.009	12002.27
684.357	11938.99
684.705	11967.69
685.053	11910.07
685.4	11941.25
685.748	11788.72
686.095	11814.7
686.443	11738.32
686.79	11739.68
687.138	11813.12
687.485	11790.75
687.832	11707.36
688.18	11717.3
688.527	11670.98
688.874	11548.5
689.221	11583.07
689.568	11533.35
689.915	11510.76
690.262	11537.65
690.609	11489.29
690.956	11409.74
691.303	11367.94
691.65	11386.24
691.997	11294.04
692.344	11239.35
692.69	11230.54
693.037	11180.37
693.383	11085.46
693.73	11147.38
694.077	11093.59
694.423	11085.23
694.769	10999.36
695.116	10914.61
695.462	10889.53
695.808	10820.61
696.155	10863.09
696.501	10825.35
696.847	10744.68
697.193	10694.73
697.539	10707.39
697.885	10668.97
698.231	10630.1
698.577	10626.03
698.923	10654.06
699.269	10573.83
699.614	10511.46
699.96	10425.81
700.306	10433.95
700.651	10360.28
700.997	10277.12
701.342	10303.1
701.688	10243.45
702.033	10226.04
702.379	10228.76
702.724	10187.85
703.069	10211.36
703.415	10088.2
703.76	10066.27
704.105	10047.29
704.45	10013.85
704.795	9939.95
705.14	9934.3
705.485	9892.49
705.83	9875.55
706.175	9892.27
706.52	9821.76
706.865	9815.66
707.209	9727.98
707.554	9719.17
707.899	9735.21
708.243	9655.21
708.588	9607.08
708.932	9597.81
709.277	9552.62
709.621	9551.94
709.966	9515.55
710.31	9535.22
710.654	9434.65
710.998	9464.71
711.342	9424.94
711.687	9427.2
712.031	9309.46
712.375	9293.19
712.719	9311.04
713.063	9353.75
713.407	9386.29
713.75	9306.07
714.094	9207.31
714.438	9207.77
714.782	9241.21
715.125	9246.41
715.469	9240.08
715.812	9101.78
716.156	9142.91
716.499	9186.75
716.843	9080.54
717.186	9130.25
717.53	9157.37
717.873	9148.11
718.216	9057.26
718.559	9031.5
718.902	9014.1
719.246	8987.21
719.589	8995.79
719.932	8959.19
720.275	8963.48
720.617	8957.15
720.96	8904.72
721.303	8930.49
721.646	8917.83
721.989	8836.93
722.331	8903.14
722.674	8869.7
723.016	8923.48
723.359	8898.17
723.701	8846.42
724.044	8824.73
724.386	8833.76
724.729	8858.62
725.071	8824.27
725.413	8786.53
725.755	8841.22
726.097	8784.27
726.439	8718.74
726.782	8758.29
727.124	8844.16
727.465	8732.3
727.807	8755.8
728.149	8755.35
728.491	8691.17
728.833	8814.33
729.175	8730.72
729.516	8681.9
729.858	8711.06
730.199	8721.9
730.541	8707.44
730.882	8710.83
731.224	8749.02
731.565	8678.06
731.906	8729.59
732.248	8721.68
732.589	8662.02
732.93	8615.69
733.271	8701.11
733.612	8674
733.953	8680.55
734.294	8683.94
734.635	8636.48
734.976	8742.92
735.317	8709.7
735.658	8725.07
735.999	8737.5
736.339	8716.03
736.68	8712.86
737.021	8759.42
737.361	8659.98
737.702	8753.09
738.042	8794.67
738.383	8723.26
738.723	8746.99
739.063	8802.58
739.404	8766.2
739.744	8822.69
740.084	8729.59
740.424	8752.86
740.764	8863.82
741.104	8817.27
741.444	8746.76
741.784	8773.2
742.124	8885.74
742.464	8818.85
742.804	8864.05
743.143	8848.23
743.483	8926.42
743.823	8909.7
744.162	8933.2
744.502	9018.39
744.841	9010.94
745.181	9036.7
745.52	9075.11
745.86	9196.69
746.199	9130.93
746.538	9170.25
746.877	9307.42
747.216	9307.65
747.556	9375.9
747.895	9393.07
748.234	9409.57
748.573	9432.62
748.911	9485.27
749.25	9527.31
749.589	9618.6
749.928	9745.15
750.267	9823.12
750.605	9826.73
750.944	9921.65
751.283	9974.07
751.621	10023.34
751.96	10150.11
752.298	10250.68
752.636	10304.01
752.975	10448.86
753.313	10512.36
753.651	10654.06
753.989	10722.3
754.327	10873.03
754.666	10891.56
755.004	11053.82
755.342	11148.05
755.679	11299.01
756.017	11390.76
756.355	11600.7
756.693	11648.38
757.031	11897.87
757.368	11880.01
757.706	12146.45
