Data from hue_30_FLMS001491_12.txt Node
Date: Mon Feb 06 15:04:49 GMT 2017
User: dcchb
Spectrometer: FLMS00149
Trigger mode: 0
Integration Time (sec): 2.000000E-2
Scans to average: 10
Electric dark correction enabled: true
Nonlinearity correction enabled: false
Boxcar width: 0
XAxis mode: Wavelengths
Number of Pixels in Spectrum: 2048
>>>>>Begin Spectral Data<<<<<
341.393	-25.59
341.776	-25.59
342.16	-25.59
342.543	-58.81
342.927	-67.17
343.31	-63.78
343.693	-78.25
344.077	-64.69
344.46	-59.04
344.843	-54.74
345.226	-40.06
345.61	-40.06
345.993	-23.33
346.376	-5.93
346.759	26.61
347.142	34.07
347.525	18.93
347.908	60.96
348.291	94.63
348.674	85.82
349.057	108.87
349.44	103.9
349.823	146.38
350.206	152.93
350.588	213.95
350.971	172.59
351.354	215.76
351.737	239.71
352.119	252.82
352.502	275.64
352.884	268.86
353.267	286.26
353.65	295.98
354.032	309.77
354.414	312.7
354.797	307.73
355.179	316.32
355.562	297.56
355.944	315.64
356.326	308.41
356.709	333.27
357.091	319.71
357.473	345.47
357.855	340.73
358.238	340.95
358.62	313.61
359.002	342.99
359.384	332.82
359.766	348.63
360.148	338.24
360.53	337.56
360.912	326.26
361.294	328.52
361.676	350.44
362.057	331.91
362.439	333.04
362.821	333.49
363.203	329.2
363.584	313.61
363.966	338.47
364.348	316.77
364.729	328.97
365.111	314.29
365.493	325.13
365.874	313.38
366.256	320.84
366.637	319.26
367.019	305.92
367.4	326.94
367.781	313.38
368.163	329.43
368.544	314.96
368.925	315.42
369.306	315.87
369.688	319.48
370.069	323.55
370.45	315.42
370.831	314.29
371.212	323.1
371.593	321.97
371.974	314.74
372.355	321.52
372.736	328.52
373.117	314.74
373.498	315.42
373.879	293.27
374.26	295.08
374.641	310.9
375.021	330.56
375.402	318.58
375.783	331.23
376.163	310.22
376.544	343.21
376.925	332.14
377.305	311.35
377.686	327.39
378.066	319.71
378.447	312.93
378.827	314.74
379.208	339.82
379.588	329.65
379.968	347.5
380.349	315.19
380.729	332.14
381.109	342.08
381.489	335.98
381.87	337.11
382.25	320.61
382.63	333.49
383.01	358.13
383.39	337.11
383.77	329.2
384.15	349.09
384.53	363.1
384.91	339.82
385.29	355.41
385.67	353.38
386.049	356.77
386.429	355.19
386.809	342.99
387.189	349.99
387.568	350.22
387.948	343.66
388.328	350.22
388.707	347.5
389.087	345.7
389.466	359.03
389.846	364.45
390.225	368.07
390.605	377.33
390.984	369.2
391.363	370.1
391.743	369.65
392.122	373.72
392.501	366.26
392.881	375.98
393.26	370.1
393.639	386.6
394.018	371.46
394.397	383.66
394.776	374.17
395.155	360.84
395.534	365.81
395.913	374.85
396.292	393.61
396.671	405.81
397.05	383.44
397.429	381.85
397.808	366.04
398.186	380.5
398.565	389.54
398.944	373.27
399.323	369.65
399.701	375.98
400.08	384.34
400.458	395.19
400.837	407.16
401.215	401.06
401.594	401.51
401.972	378.01
402.351	388.86
402.729	402.42
403.107	401.29
403.486	426.15
403.864	406.71
404.242	416.66
404.62	408.97
404.999	412.14
405.377	416.88
405.755	418.69
406.133	410.1
406.511	417.11
406.889	410.1
407.267	411.46
407.645	403.32
408.023	424.11
408.401	438.35
408.779	436.99
409.156	413.72
409.534	439.48
409.912	436.32
410.29	444.23
410.667	444.45
411.045	449.42
411.422	461.4
411.8	465.02
412.178	457.78
412.555	454.39
412.933	453.49
413.31	478.35
413.687	468.18
414.065	470.44
414.442	465.02
414.819	469.54
415.197	477.45
415.574	493.26
415.951	491.23
416.328	470.67
416.705	480.38
417.082	477.67
417.46	490.55
417.837	507.05
418.214	479.48
418.591	488.97
418.967	510.44
419.344	514.51
419.721	492.36
420.098	507.95
420.475	491.23
420.852	488.52
421.228	498.01
421.605	513.83
421.982	538.23
422.358	532.81
422.735	543.21
423.111	528.97
423.488	518.8
423.864	535.97
424.241	552.02
424.617	565.13
424.994	538.69
425.37	563.32
425.746	550.66
426.123	561.06
426.499	551.12
426.875	559.93
427.251	576.65
427.627	569.42
428.003	600.15
428.379	557.67
428.756	586.59
429.132	578.01
429.507	612.58
429.883	590.89
430.259	604.45
430.635	596.76
431.011	620.27
431.387	644.9
431.763	622.07
432.138	631.57
432.514	636.99
432.89	661.17
433.265	622.07
433.641	633.37
434.016	644.22
434.392	660.72
434.767	651.9
435.143	657.55
435.518	657.55
435.894	691.9
436.269	698.91
436.644	679.02
437.02	701.62
437.395	717.89
437.77	713.15
438.145	694.16
438.52	710.89
438.895	706.59
439.271	713.37
439.646	721.28
440.021	721.51
440.395	737.33
440.77	742.52
441.145	754.27
441.52	760.38
441.895	731
442.27	743.43
442.645	775.06
443.019	759.92
443.394	743.43
443.769	754.5
444.143	769.64
444.518	763.77
444.892	790.88
445.267	793.59
445.641	782.97
446.016	776.87
446.39	764.22
446.764	798.11
447.139	790.43
447.513	810.77
447.887	804.22
448.262	805.57
448.636	828.17
449.01	800.15
449.384	818.91
449.758	827.27
450.132	862.75
450.506	853.03
450.88	847.38
451.254	848.51
451.628	875.17
452.002	875.4
452.376	870.43
452.75	890.09
453.123	890.32
453.497	898.68
453.871	884.89
454.244	939.81
454.618	896.87
454.992	935.96
455.365	937.09
455.739	970.09
456.112	954.49
456.486	977.54
456.859	997.88
457.232	979.13
457.606	957.21
457.979	989.52
458.352	1017.32
458.725	1036.3
459.099	1013.7
459.472	1023.19
459.845	1060.93
460.218	1055.51
460.591	1100.48
460.964	1036.98
461.337	1115.62
461.71	1106.81
462.083	1126.69
462.456	1121.72
462.829	1124.66
463.201	1145
463.574	1157.65
463.947	1198.78
464.32	1195.17
464.692	1193.13
465.065	1200.36
465.438	1241.04
465.81	1246.69
466.183	1213.02
466.555	1274.03
466.928	1272.9
467.3	1276.29
467.672	1315.39
468.045	1338.21
468.417	1307.93
468.789	1334.37
469.161	1397.19
469.534	1400.36
469.906	1404.43
470.278	1431.77
470.65	1444.88
471.022	1458.89
471.394	1495.95
471.766	1507.25
472.138	1512.9
472.51	1540.47
472.882	1597.64
473.253	1597.64
473.625	1636.06
473.997	1662.72
474.369	1672.44
474.74	1694.14
475.112	1725.32
475.484	1769.61
475.855	1782.5
476.227	1835.38
476.598	1900.23
476.97	1888.93
477.341	1911.31
477.713	1928.93
478.084	1977.07
478.455	2040.57
478.827	2099.78
479.198	2103.84
479.569	2139.32
479.94	2187.23
480.311	2239.43
480.682	2320.33
481.053	2356.27
481.424	2382.25
481.795	2422.03
482.166	2483.27
482.537	2544.96
482.908	2606.88
483.279	2635.35
483.65	2696.6
484.021	2729.82
484.391	2775.46
484.762	2811.4
485.133	2860.43
485.503	2908.57
485.874	3007.77
486.244	3022.91
486.615	3103.36
486.985	3141.78
487.356	3183.59
487.726	3293.42
488.097	3307.43
488.467	3343.81
488.837	3433.98
489.207	3511.94
489.578	3554.43
489.948	3600.98
490.318	3680.07
490.688	3696.34
491.058	3789
491.428	3859.28
491.798	3872.38
492.168	3990.57
492.538	4037.58
492.908	4054.75
493.278	4150.12
493.648	4155.77
494.017	4214.07
494.387	4282.32
494.757	4327.74
495.126	4413.39
495.496	4441.41
495.866	4432.82
496.235	4522.76
496.605	4569.31
496.974	4617.9
497.344	4661.97
497.713	4669.88
498.082	4773.6
498.452	4816.31
498.821	4881.4
499.19	4832.58
499.559	4942.19
499.928	4990.55
500.298	5035.07
500.667	5050.66
501.036	5071
501.405	5117.32
501.774	5142.41
502.143	5203.42
502.512	5226.02
502.88	5252.69
503.249	5216.3
503.618	5324.78
503.987	5340.37
504.356	5384.43
504.724	5451.78
505.093	5458.78
505.462	5500.14
505.83	5550.98
506.199	5580.36
506.567	5667.59
506.936	5642.06
507.304	5724.99
507.672	5739.45
508.041	5746.23
508.409	5767.7
508.777	5824.2
509.145	5830.52
509.514	5843.18
509.882	5885.66
510.25	5892.44
510.618	5998.88
510.986	5964.76
511.354	6075.72
511.722	6103.74
512.09	6174.47
512.458	6161.82
512.826	6203.4
513.193	6258.54
513.561	6255.37
513.929	6290.4
514.297	6380.57
514.664	6397.97
515.032	6350.06
515.4	6465.08
515.767	6427.12
516.135	6496.5
516.502	6435.48
516.869	6559.77
517.237	6614.91
517.604	6583.5
517.972	6629.6
518.339	6649.94
518.706	6677.73
519.073	6673.44
519.44	6680.45
519.808	6775.13
520.175	6779.2
520.542	6872.98
520.909	6891.06
521.276	6821.23
521.643	6917.05
522.009	7032.98
522.376	7050.38
522.743	7039.76
523.11	7070.27
523.477	7175.57
523.843	7145.07
524.21	7247.44
524.577	7274.33
524.943	7333.08
525.31	7387.09
525.676	7416.25
526.043	7431.61
526.409	7499.86
526.776	7533.76
527.142	7564.26
527.508	7609.23
527.874	7630.48
528.241	7691.72
528.607	7722.9
528.973	7787.76
529.339	7744.6
529.705	7787.76
530.071	7909.57
530.437	7998.15
530.803	7954.08
531.169	7965.84
531.535	8047.42
531.901	8016.23
532.267	8107.98
532.632	8092.84
532.998	8098.49
533.364	8219.61
533.73	8238.6
534.095	8307.75
534.461	8319.72
534.826	8377.35
535.192	8390.68
535.557	8480.85
535.923	8478.14
536.288	8492.15
536.653	8553.84
537.019	8564.01
537.384	8605.59
537.749	8630.23
538.114	8669.55
538.479	8660.73
538.845	8724.01
539.21	8713.84
539.575	8747.96
539.94	8777.11
540.305	8870.22
540.67	8863.89
541.034	8912.03
541.399	8959.03
541.764	8965.58
542.129	8989.31
542.494	9052.81
542.858	9020.5
543.223	9129.65
543.587	9197.44
543.952	9154.73
544.316	9241.28
544.681	9239.02
545.045	9313.37
545.41	9354.95
545.774	9362.64
546.138	9371.45
546.503	9407.83
546.867	9424.78
547.231	9546.13
547.595	9515.85
547.959	9615.06
548.324	9600.37
548.688	9591.1
549.052	9679.69
549.416	9702.29
549.779	9737.31
550.143	9733.25
550.507	9879.91
550.871	9820.7
551.235	9830.19
551.599	9798.33
551.962	9973.69
552.326	9913.13
552.689	9987.7
553.053	9966.46
553.417	9918.33
553.78	10104.08
554.143	10157.87
554.507	10154.03
554.87	10120.36
555.234	10296.62
555.597	10187.02
555.96	10218.21
556.323	10354.25
556.686	10304.76
557.05	10391.31
557.413	10382.95
557.776	10401.03
558.139	10504.53
558.502	10512.44
558.865	10518.09
559.228	10582.72
559.59	10649.61
559.953	10599.89
560.316	10664.07
560.679	10732.54
561.041	10767.34
561.404	10824.97
561.767	10848.47
562.129	10841.69
562.492	10950.16
562.854	10948.58
563.217	10962.14
563.579	10987
563.941	11084.85
564.304	11144.51
564.666	11229.93
565.028	11155.13
565.39	11189.25
565.753	11243.26
566.115	11285.07
566.477	11356.93
566.839	11363.03
567.201	11496.82
567.563	11390.83
567.925	11476.93
568.287	11513.99
568.648	11544.05
569.01	11563.48
569.372	11632.86
569.734	11674.21
570.095	11769.13
570.457	11744.95
570.819	11852.29
571.18	11829.24
571.542	11918.73
571.903	11928.22
572.265	12010.48
572.626	12087.31
572.987	12165.95
573.349	12144.93
573.71	12249.11
574.071	12364.82
574.432	12399.39
574.794	12531.82
575.155	12549.67
575.516	12593.74
575.877	12643.45
576.238	12721.19
576.599	12770
576.96	12965.03
577.32	12995.08
577.681	13043.89
578.042	13159.15
578.403	13295.19
578.763	13378.8
579.124	13313.72
579.485	13511.45
579.845	13740.83
580.206	13767.94
580.566	13893.59
580.927	13969.52
581.287	14153.7
581.648	14252
582.008	14529.96
582.368	14520.47
582.728	14800.91
583.089	14903.73
583.449	15138.75
583.809	15268.02
584.169	15487.45
584.529	15642.24
584.889	15841.33
585.249	15946.87
585.609	16118.16
585.969	16402.22
586.329	16473.41
586.688	16776.68
587.048	16990.46
587.408	17128.53
587.768	17338.92
588.127	17565.81
588.487	17638.8
588.846	18034.95
589.206	18142.29
589.565	18392.45
589.925	18603.52
590.284	18853.69
590.643	19115.37
591.003	19361.47
591.362	19764.17
591.721	19820.44
592.08	20139.07
592.44	20543.36
592.799	20615.45
593.158	20902.44
593.517	21156.22
593.876	21410.68
594.235	21684.57
594.593	21866.26
594.952	22154.39
595.311	22391.22
595.67	22796.86
596.029	23169.73
596.387	23273.23
596.746	23545.31
597.104	23735.82
597.463	24045.41
597.822	24373.77
598.18	24399.98
598.538	24667.77
598.897	25028.21
599.255	25037.03
599.613	25603.11
599.972	25670.68
600.33	26031.12
600.688	25987.73
601.046	26375.07
601.404	26752.46
601.762	26902.74
602.12	27234.03
602.478	27437.64
602.836	27607.81
603.194	27833.34
603.552	28000.34
603.91	28089.15
604.268	28496.82
604.625	28623.6
604.983	28913.99
605.341	28862.01
605.698	29391.49
606.056	29570.24
606.413	29676.68
606.771	29951.47
607.128	30171.35
607.485	30115.31
607.843	30430.33
608.2	30725.92
608.557	31019.01
608.914	31120.93
609.272	31369.74
609.629	31435.5
609.986	31721.14
610.343	31736.74
610.7	32197.74
611.057	32155.71
611.414	32237.51
611.771	32482.03
612.127	32856.25
612.484	32906.42
612.841	32986.87
613.198	33104.38
613.554	33331.27
613.911	33521.55
614.267	33510.47
614.624	33743.46
614.98	33964.47
615.337	34177.12
615.693	34292.38
616.05	34273.62
616.406	34551.8
616.762	34527.17
617.118	34597.45
617.475	34852.36
617.831	34862.08
618.187	35074.95
618.543	35072.92
618.899	35414.15
619.255	35422.97
619.611	35434.27
619.967	35666.12
620.323	35819.34
620.678	35817.53
621.034	35891.66
621.39	35957.19
621.746	35936.4
622.101	36311.31
622.457	36031.31
622.812	36279.44
623.168	36532.99
623.523	36493
623.879	36763.5
624.234	36467.91
624.589	36741.12
624.945	36882.14
625.3	36956.03
625.655	36892.76
626.01	36897.05
626.365	37067.67
626.72	37101.79
627.075	37219.98
627.43	37196.71
627.785	37127.55
628.14	37379.53
628.495	37374.1
628.85	37312.63
629.205	37127.33
629.559	37585.62
629.914	37338.62
630.269	37398.51
630.623	37396.7
630.978	37234.22
631.332	37545.17
631.687	37729.8
632.041	37452.74
632.396	37544.04
632.75	37524.83
633.104	37583.81
633.459	37449.35
633.813	37537.26
634.167	37578.39
634.521	37648.22
634.875	37669.91
635.229	37450.71
635.583	37365.51
635.937	37405.74
636.291	37426.3
636.645	37503.59
636.999	37369.13
637.352	37529.13
637.706	37321
638.06	37446.87
638.413	37382.69
638.767	37402.12
639.121	37504.95
639.474	37220.89
639.828	37259.53
640.181	37452.52
640.534	37354.44
640.888	37343.82
641.241	37176.37
641.594	37289.36
641.947	37388.11
642.301	37347.44
642.654	37315.12
643.007	37294.33
643.36	37206.2
643.713	37110.83
644.066	37436.02
644.419	37104.96
644.771	36831.29
645.124	36638.08
645.477	36580.45
645.83	36310.63
646.182	36312.44
646.535	36009.84
646.888	36300.91
647.24	36053.46
647.593	36200.57
647.945	36180.46
648.298	35974.14
648.65	35974.14
649.002	35927.36
649.355	36057.53
649.707	35975.27
650.059	36212.78
650.411	36531.19
650.763	36594.69
651.115	37017.73
651.467	36906.77
651.819	36827
652.171	36716.94
652.523	36648.02
652.875	36651.18
653.227	36589.26
653.578	36852.08
653.93	36668.81
654.282	36606.89
654.633	36499.77
654.985	36570.06
655.337	36769.82
655.688	36535.48
656.039	36696.83
656.391	36314.69
656.742	36582.71
657.094	36484.41
657.445	36783.61
657.796	36612.77
658.147	36452.54
658.498	36495.71
658.849	36450.28
659.2	36537.97
659.551	36375.26
659.902	36483.5
660.253	36590.62
660.604	36599.43
660.955	36354.69
661.306	36426.1
661.656	36440.79
662.007	36500.45
662.358	36330.74
662.708	36366.44
663.059	36325.32
663.409	36169.16
663.76	36486.67
664.11	36425.43
664.461	36432.88
664.811	36470.62
665.161	36370.06
665.511	36341.59
665.862	36482.6
666.212	36411.87
666.562	36405.31
666.912	36309.27
667.262	36316.28
667.612	36316.73
667.962	36327.12
668.312	36258.65
668.662	36438.08
669.011	36187.24
669.361	36167.81
669.711	36234.92
670.06	36145.66
670.41	36165.32
670.76	36084.42
671.109	36239.89
671.459	36136.62
671.808	36034.7
672.157	36261.59
672.507	36029.28
672.856	36090.29
673.205	36082.84
673.554	36085.32
673.904	35905.44
674.253	36181.82
674.602	36001.26
674.951	35680.36
675.3	35309.98
675.649	35977.3
675.998	35956.96
676.346	35904.54
676.695	36128.26
677.044	35742.05
677.393	35815.5
677.741	35961.26
678.09	35679.91
678.438	35827.48
678.787	35741.38
679.135	35593.58
679.484	35559.91
679.832	35790.87
680.181	35442.63
680.529	35620.93
680.877	35402.4
681.225	35446.92
681.573	35611.44
681.922	35400.82
682.27	35267.94
682.618	35254.38
682.966	35184.78
683.314	35350.65
683.661	35127.38
684.009	35011.45
684.357	34936.65
684.705	34880.83
685.053	35165.8
685.4	35011.45
685.748	34823.89
686.095	34737.56
686.443	34653.04
686.79	34542.54
687.138	34717.45
687.485	34515.65
687.832	34473.39
688.18	34495.99
688.527	34210.57
688.874	34304.58
689.221	34155.2
689.568	34132.38
689.915	34138.03
690.262	33997.02
690.609	33960.41
690.956	33883.57
691.303	33923.35
691.65	33748.66
691.997	33798.6
692.344	33497.37
692.69	33573.75
693.037	33586.41
693.383	33290.14
693.73	33397.94
694.077	33112.97
694.423	33212.18
694.769	33077.04
695.116	33072.75
695.462	32912.3
695.808	32953.88
696.155	32821
696.501	32633.21
696.847	32847.67
697.193	32380.34
697.539	32600.22
697.885	32407
698.231	32234.58
698.577	32232.54
698.923	32237.51
699.269	32005.43
699.614	32088.82
699.96	31896.51
700.306	31885.88
700.651	31716.17
700.997	31689.96
701.342	31590.75
701.688	31580.58
702.033	31448.16
702.379	31384.2
702.724	31322.28
703.069	31312.11
703.415	31003.42
703.76	31080.93
704.105	31125.9
704.45	31033.93
704.795	30828.74
705.14	30706.71
705.485	30737.89
705.83	30487.73
706.175	30637.33
706.52	30517.79
706.865	30410.22
707.209	30335.64
707.554	30252.26
707.899	30381.07
708.243	30177.23
708.588	30115.99
708.932	29979.04
709.277	29860.18
709.621	29932.49
709.966	29777.01
710.31	29885.26
710.654	29483.69
710.998	29595.55
711.342	29593.06
711.687	29580.41
712.031	29436.01
712.375	29336.8
712.719	29360.98
713.063	29243.69
713.407	29295.9
713.75	29122.34
714.094	29078.73
714.438	29048.67
714.782	29195.11
715.125	28970.48
715.469	28930.71
715.812	28749.02
716.156	28641.9
716.499	28742.24
716.843	28700.21
717.186	28474.45
717.53	28560.77
717.873	28603.94
718.216	28571.62
718.559	28296.6
718.902	28210.73
719.246	28330.27
719.589	28230.84
719.932	28094.35
720.275	28249.6
720.617	27997.4
720.96	28077.4
721.303	28036.49
721.646	27984.97
721.989	27898.19
722.331	27935.71
722.674	27841.92
723.016	27844.86
723.359	27770.29
723.701	27810.96
724.044	27510.86
724.386	27473.35
724.729	27559.44
725.071	27502.05
725.413	27460.69
725.755	27412.78
726.097	27279.68
726.439	27152
726.782	27236.06
727.124	27259.34
727.465	27131.89
727.807	27111.1
728.149	27075.39
728.491	27004.88
728.833	27091.66
729.175	27009.85
729.516	26926.24
729.858	26847.37
730.199	26852.12
730.541	26877.2
730.882	26808.5
731.224	26905.45
731.565	26697.77
731.906	26793.14
732.248	26740.94
732.589	26619.36
732.93	26466.82
733.271	26566.02
733.612	26533.71
733.953	26477.67
734.294	26342.98
734.635	26313.15
734.976	26401.51
735.317	26308.86
735.658	26216.88
735.999	26325.35
736.339	26110.22
736.68	26367.84
737.021	26125.13
737.361	26175.07
737.702	26218.24
738.042	25956.32
738.383	26013.95
738.723	26105.25
739.063	25933.95
739.404	25962.42
739.744	25874.74
740.084	25808.08
740.424	25846.27
740.764	25691.7
741.104	25855.99
741.444	25560.63
741.784	25529.67
742.124	25539.38
742.464	25534.64
742.804	25573.51
743.143	25445.38
743.483	25487.63
743.823	25374.19
744.162	25293.52
744.502	25352.27
744.841	25232.27
745.181	25300.3
745.52	25224.14
745.86	25246.29
746.199	25201.31
746.538	25205.61
746.877	25186.85
747.216	25231.6
747.556	25051.49
747.895	25169.23
748.234	25017.82
748.573	25007.87
748.911	24963.58
749.25	24959.74
749.589	24764.94
749.928	24800.2
750.267	24791.38
750.605	24719.97
750.944	24642.23
751.283	24616.02
751.621	24677.94
751.96	24488.34
752.298	24499.86
752.636	24477.27
752.975	24371.28
753.313	24366.08
753.651	24440.66
753.989	24319.98
754.327	24188.23
754.666	24085.86
755.004	24195.69
755.342	24190.27
755.679	24050.61
756.017	23964.96
756.355	24039.31
756.693	23868.69
757.031	23926.09
757.368	23792.31
757.706	23752.09
758.044	23708.25
758.381	23755.7
758.719	23623.05
759.056	23653.78
759.394	23629.6
