Data from hue_250_FLMS001491_00009.txt Node
Date: Tue Feb 07 16:00:28 GMT 2017
User: dcchb
Spectrometer: FLMS00149
Trigger mode: 0
Integration Time (sec): 2.000000E-2
Scans to average: 10
Electric dark correction enabled: true
Nonlinearity correction enabled: false
Boxcar width: 0
XAxis mode: Wavelengths
Number of Pixels in Spectrum: 2048
>>>>>Begin Spectral Data<<<<<
341.393	5.9
341.776	5.9
342.16	5.9
342.543	-73.87
342.927	-70.03
343.31	-75.9
343.693	-66.86
344.077	-61.44
344.46	-64.83
344.843	-51.5
345.226	-41.1
345.61	-46.98
345.993	-10.14
346.376	-0.65
346.759	16.52
347.142	32.57
347.525	30.54
347.908	52.91
348.291	83.42
348.674	95.62
349.057	107.82
349.44	123.41
349.823	117.99
350.206	170.19
350.588	175.62
350.971	193.02
351.354	208.61
351.737	234.82
352.119	235.05
352.502	261.49
352.884	260.36
353.267	279.57
353.65	286.8
354.032	294.26
354.414	287.48
354.797	301.49
355.179	319.57
355.562	298.78
355.944	330.19
356.326	308.72
356.709	318.21
357.091	344.2
357.473	333.58
357.855	330.87
358.238	351.21
358.62	333.35
359.002	330.87
359.384	322.05
359.766	323.41
360.148	315.27
360.53	330.19
360.912	296.74
361.294	318.21
361.676	316.4
362.057	318.44
362.439	342.84
362.821	327.7
363.203	323.18
363.584	309.85
363.966	328.83
364.348	331.32
364.729	303.52
365.111	289.06
365.493	315.27
365.874	313.01
366.256	320.25
366.637	299.23
367.019	302.39
367.4	302.17
367.781	304.65
368.163	291.32
368.544	312.34
368.925	303.98
369.306	299.91
369.688	296.97
370.069	313.24
370.45	304.43
370.831	329.51
371.212	308.49
371.593	308.72
371.974	304.43
372.355	292.9
372.736	325.22
373.117	304.88
373.498	303.52
373.879	301.04
374.26	308.49
374.641	315.73
375.021	307.36
375.402	325.9
375.783	323.41
376.163	315.27
376.544	316.4
376.925	315.95
377.305	304.2
377.686	317.08
378.066	328.38
378.447	310.53
378.827	322.51
379.208	333.8
379.588	325.9
379.968	332.22
380.349	315.05
380.729	324.99
381.109	321.38
381.489	315.73
381.87	339.45
382.25	333.13
382.63	322.96
383.01	341.04
383.39	356.86
383.77	340.36
384.15	351.88
384.53	326.35
384.91	340.58
385.29	341.26
385.67	352.11
386.049	343.52
386.429	344.43
386.809	334.26
387.189	349.62
387.568	348.72
387.948	341.49
388.328	354.82
388.707	348.04
389.087	350.53
389.466	355.05
389.846	342.62
390.225	352.79
390.605	355.95
390.984	356.4
391.363	371.54
391.743	373.35
392.122	368.38
392.501	356.4
392.881	366.12
393.26	357.98
393.639	373.8
394.018	388.94
394.397	376.06
394.776	372.22
395.155	379.23
395.534	383.3
395.913	353.01
396.292	387.59
396.671	372.9
397.05	381.49
397.429	381.71
397.808	380.58
398.186	390.75
398.565	390.3
398.944	393.92
399.323	386.01
399.701	382.39
400.08	401.83
400.458	412.22
400.837	405.89
401.215	414.25
401.594	407.48
401.972	411.77
402.351	394.14
402.729	420.58
403.107	408.15
403.486	417.64
403.864	415.61
404.242	419
404.62	417.64
404.999	422.39
405.377	426.01
405.755	445.89
406.133	446.34
406.511	432.11
406.889	458.55
407.267	426.68
407.645	454.71
408.023	467.36
408.401	447.02
408.779	480.69
409.156	474.37
409.534	485.44
409.912	472.33
410.29	486.12
410.667	498.09
411.045	498.77
411.422	512.78
411.8	506
412.178	523.63
412.555	533.12
412.933	524.08
413.31	554.82
413.687	549.17
414.065	561.37
414.442	546.68
414.819	579
415.197	550.3
415.574	558.66
415.951	587.36
416.328	569.96
416.705	603.63
417.082	587.13
417.46	617.87
417.837	598.66
418.214	605.21
418.591	619.9
418.967	642.05
419.344	611.54
419.721	631.2
420.098	632.78
420.475	661.03
420.852	638.88
421.228	648.37
421.605	673.23
421.982	687.92
422.358	683.4
422.735	704.87
423.111	697.64
423.488	724.98
423.864	721.37
424.241	736.73
424.617	759.33
424.994	716.85
425.37	742.61
425.746	768.14
426.123	762.27
426.499	790.74
426.875	772.89
427.251	799.33
427.627	842.27
428.003	841.36
428.379	842.04
428.756	861.93
429.132	836.84
429.507	846.11
429.883	865.77
430.259	885.43
430.635	874.13
431.011	879.33
431.387	921.13
431.763	922.26
432.138	924.75
432.514	943.73
432.89	967.46
433.265	934.01
433.641	980.57
434.016	996.61
434.392	1025.54
434.767	1040
435.143	1050.4
435.518	1049.27
435.894	1060.57
436.269	1081.58
436.644	1108.7
437.02	1104.63
437.395	1103.05
437.77	1101.24
438.145	1171.52
438.52	1201.8
438.895	1194.35
439.271	1166.33
439.646	1188.92
440.021	1223.5
440.395	1253.33
440.77	1237.28
441.145	1286.1
441.52	1280.45
441.895	1291.75
442.27	1302.14
442.645	1318.86
443.019	1318.86
443.394	1310.95
443.769	1322.03
444.143	1355.02
444.518	1367.45
444.892	1352.31
445.267	1386.66
445.641	1402.93
446.016	1415.58
446.39	1395.92
446.764	1407
447.139	1401.8
447.513	1421.91
447.887	1432.31
448.262	1471.63
448.636	1458.07
449.01	1491.74
449.384	1523.15
449.758	1491.29
450.132	1534.45
450.506	1534.45
450.88	1536.49
451.254	1529.25
451.628	1532.64
452.002	1578.52
452.376	1574.9
452.75	1630.95
453.123	1610.16
453.497	1634.56
453.871	1630.72
454.244	1682.02
454.618	1694
454.992	1673.43
455.365	1708.91
455.739	1745.97
456.112	1757.04
456.486	1772.64
456.859	1780.09
457.232	1797.04
457.606	1790.94
457.979	1840.43
458.352	1850.83
458.725	1864.16
459.099	1902.58
459.472	1914.55
459.845	1971.28
460.218	1910.71
460.591	1973.08
460.964	1952.07
461.337	2016.92
461.71	2011.05
462.083	2037.49
462.456	2020.99
462.829	2042.91
463.201	2093.08
463.574	2082.69
463.947	2137.15
464.32	2161.55
464.692	2206.75
465.065	2223.25
465.438	2238.61
465.81	2253.53
466.183	2250.36
466.555	2315.67
466.928	2330.59
467.3	2329.46
467.672	2354.99
468.045	2445.84
468.417	2411.94
468.789	2439.29
469.161	2461.43
469.534	2462.56
469.906	2503.24
470.278	2529
470.65	2591.37
471.022	2618.72
471.394	2677.7
471.766	2691.03
472.138	2691.93
472.51	2757.47
472.882	2743.91
473.253	2839.28
473.625	2857.81
473.997	2895.32
474.369	2936.22
474.74	2959.95
475.112	2978.48
475.484	3010.34
475.855	3066.39
476.227	3091.7
476.598	3164.24
476.97	3184.13
477.341	3229.77
477.713	3278.81
478.084	3329.66
478.455	3404.23
478.827	3420.28
479.198	3517.22
479.569	3553.16
479.94	3539.82
480.311	3644
480.682	3677.22
481.053	3753.38
481.424	3840.61
481.795	3823.88
482.166	3855.52
482.537	3858.01
482.908	3982.52
483.279	4020.49
483.65	4074.72
484.021	4156.76
484.391	4158.56
484.762	4207.38
485.133	4237.66
485.503	4289.63
485.874	4359.69
486.244	4401.49
486.615	4448.05
486.985	4469.29
487.356	4572.79
487.726	4596.07
488.097	4670.19
488.467	4688.27
488.837	4738.43
489.207	4836.51
489.578	4886
489.948	4878.54
490.318	4971.42
490.688	4946.79
491.058	5039.22
491.428	5078.99
491.798	5103.62
492.168	5151.98
492.538	5240.12
492.908	5260
493.278	5351.98
493.648	5327.57
494.017	5394.01
494.387	5454.8
494.757	5467
495.126	5509.04
495.496	5506.1
495.866	5528.47
496.235	5625.19
496.605	5668.58
496.974	5677.39
497.344	5685.08
497.713	5728.69
498.082	5759.65
498.452	5773.44
498.821	5815.92
499.19	5839.42
499.559	5803.04
499.928	5896.14
500.298	5932.98
500.667	6008.01
501.036	5974.79
501.405	5980.89
501.774	5998.06
502.143	6036.03
502.512	6069.93
502.88	6080.77
503.249	6076.7
503.618	6168.45
503.987	6175.46
504.356	6162.35
504.724	6247.1
505.093	6221.33
505.462	6198.28
505.83	6203.03
506.199	6346.3
506.567	6368.22
506.936	6312.4
507.304	6386.75
507.672	6458.16
508.041	6421.1
508.409	6458.39
508.777	6475.34
509.145	6525.28
509.514	6494.09
509.882	6518.05
510.25	6469.91
510.618	6581.32
510.986	6605.28
511.354	6570.48
511.722	6660.42
512.09	6669.23
512.458	6602.34
512.826	6681.21
513.193	6727.08
513.561	6723.92
513.929	6779.06
514.297	6799.4
514.664	6768.44
515.032	6806.85
515.4	6801.66
515.767	6812.73
516.135	6853.18
516.502	6733.86
516.869	6865.16
517.237	6899.28
517.604	6852.5
517.972	6941.31
518.339	6949
518.706	6942.9
519.073	6930.69
519.44	6916
519.808	7011.6
520.175	6990.13
520.542	7030.35
520.909	7042.78
521.276	7000.75
521.643	7036
522.009	7101.31
522.376	7094.76
522.743	7085.04
523.11	7140.18
523.477	7142.67
523.843	7207.3
524.21	7202.55
524.577	7266.05
524.943	7216.34
525.31	7278.25
525.676	7294.3
526.043	7333.62
526.409	7320.74
526.776	7354.64
527.142	7410
527.508	7330.23
527.874	7398.48
528.241	7454.75
528.607	7408.87
528.973	7459.04
529.339	7486.84
529.705	7513.5
530.071	7556.89
530.437	7446.84
530.803	7554.63
531.169	7515.08
531.535	7471.24
531.901	7527.51
532.267	7548.08
532.632	7500.62
532.998	7518.7
533.364	7515.76
533.73	7523.45
534.095	7543.78
534.461	7582.88
534.826	7549.21
535.192	7492.03
535.557	7569.77
535.923	7540.39
536.288	7530.9
536.653	7538.59
537.019	7474.41
537.384	7487.97
537.749	7541.52
538.114	7559.6
538.479	7468.31
538.845	7529.1
539.21	7525.71
539.575	7574.29
539.94	7511.92
540.305	7528.19
540.67	7520.51
541.034	7540.17
541.399	7532.94
541.764	7523.45
542.129	7502.2
542.494	7471.02
542.858	7518.25
543.223	7516.21
543.587	7569.77
543.952	7410.91
544.316	7492.94
544.681	7460.4
545.045	7411.58
545.41	7453.17
545.774	7425.82
546.138	7437.57
546.503	7449.32
546.867	7498.59
547.231	7470.79
547.595	7474.63
547.959	7432.38
548.324	7478.25
548.688	7444.58
549.052	7426.27
549.416	7426.27
549.779	7413.17
550.143	7324.81
550.507	7382.66
550.871	7415.43
551.235	7387.63
551.599	7483.22
551.962	7386.05
552.326	7350.8
552.689	7405.71
553.053	7378.37
553.417	7365.48
553.78	7452.94
554.143	7416.33
554.507	7390.12
554.87	7364.13
555.234	7461.53
555.597	7366.39
555.96	7405.48
556.323	7432.6
556.686	7395.54
557.05	7431.25
557.413	7404.35
557.776	7424.92
558.139	7457.46
558.502	7412.71
558.865	7431.02
559.228	7450.91
559.59	7496.33
559.953	7445.03
560.316	7493.62
560.679	7492.71
561.041	7543.56
561.404	7556.89
561.767	7619.71
562.129	7601.86
562.492	7625.59
562.854	7599.38
563.217	7607.29
563.579	7670.79
563.941	7630.56
564.304	7741.52
564.666	7689.77
565.028	7763.21
565.39	7682.09
565.753	7750.56
566.115	7724.8
566.477	7760.73
566.839	7754.85
567.201	7853.38
567.563	7812.93
567.925	7836.43
568.287	7916.2
568.648	7806.15
569.01	7916.88
569.372	7974.28
569.734	7969.31
570.095	7953.94
570.457	7965.24
570.819	7986.03
571.18	7953.04
571.542	7999.59
571.903	8023.09
572.265	8003.21
572.626	8082.75
572.987	8120.04
573.349	8082.98
573.71	8126.82
574.071	8157.33
574.432	8121.17
574.794	8238
575.155	8187.38
575.516	8201.85
575.877	8227.61
576.238	8249.08
576.599	8282.07
576.96	8326.81
577.32	8290.88
577.681	8282.97
578.042	8281.62
578.403	8297.89
578.763	8345.8
579.124	8383.31
579.485	8369.3
579.845	8420.82
580.206	8381.05
580.566	8414.04
580.927	8422.86
581.287	8476.64
581.648	8426.93
582.008	8523.19
582.368	8492.91
582.728	8502.18
583.089	8520.93
583.449	8510.54
583.809	8590.76
584.169	8586.92
584.529	8608.16
584.889	8626.69
585.249	8603.64
585.609	8578.56
585.969	8661.72
586.329	8582.4
586.688	8638.67
587.048	8712.34
587.408	8649.52
587.768	8676.64
588.127	8745.79
588.487	8649.97
588.846	8701.72
589.206	8717.09
589.565	8751.44
589.925	8819.91
590.284	8742.17
590.643	8769.06
591.003	8819.91
591.362	8832.11
591.721	8840.7
592.08	8805.45
592.44	8771.55
592.799	8839.57
593.158	8827.59
593.517	8890.19
593.876	8934.93
594.235	8798.67
594.593	8842.51
594.952	8816.29
595.311	8856.29
595.67	8883.18
596.029	8943.3
596.387	8973.58
596.746	8895.61
597.104	8983.29
597.463	8940.36
597.822	8971.09
598.18	8933.13
598.538	8947.36
598.897	8969.51
599.255	8903.52
599.613	8953.92
599.972	8921.6
600.33	8987.14
600.688	8951.66
601.046	8940.58
601.404	9075.04
601.762	9012.9
602.12	9069.85
602.478	9110.75
602.836	9056.51
603.194	9001.37
603.552	9041.82
603.91	8972.22
604.268	9068.26
604.625	9060.58
604.983	9022.16
605.341	9094.48
605.698	9070.3
606.056	9099.68
606.413	9078.66
606.771	9181.26
607.128	9182.16
607.485	9044.31
607.843	9067.13
608.2	9132.22
608.557	9083.41
608.914	9113.69
609.272	9125.66
609.629	9187.58
609.986	9229.39
610.343	9198.2
610.7	9192.1
611.057	9226.45
611.414	9196.62
611.771	9218.32
612.127	9282.27
612.484	9283.85
612.841	9286.11
613.198	9229.84
613.554	9258.54
613.911	9272.1
614.267	9284.98
614.624	9277.98
614.98	9249.95
615.337	9312.55
615.693	9288.82
616.05	9286.11
616.406	9323.62
616.762	9388.03
617.118	9290.18
617.475	9322.27
617.831	9349.61
618.187	9418.99
618.543	9426.9
618.899	9457.41
619.255	9377.86
619.611	9335.6
619.967	9397.3
620.323	9435.94
620.678	9417.86
621.034	9350.97
621.39	9367.24
621.746	9416.5
622.101	9468.48
622.457	9405.66
622.812	9372.21
623.168	9433.68
623.523	9444.98
623.879	9417.41
624.234	9346.22
624.589	9461.47
624.945	9524.98
625.3	9405.2
625.655	9529.5
626.01	9418.76
626.365	9396.84
626.72	9409.5
627.075	9355.94
627.43	9393.45
627.785	9376.73
628.14	9366.56
628.495	9327.92
628.85	9381.02
629.205	9323.85
629.559	9368.14
629.914	9292.67
630.269	9317.07
630.623	9312.1
630.978	9316.17
631.332	9282.72
631.687	9352.32
632.041	9308.71
632.396	9344.42
632.75	9285.89
633.104	9250.41
633.459	9237.3
633.813	9219.45
634.167	9210.63
634.521	9152.33
634.875	9209.5
635.229	9178.09
635.583	9184.42
635.937	9129.73
636.291	9131.77
636.645	9198.43
636.999	9171.31
637.352	9153.01
637.706	9077.76
638.06	9132.67
638.413	9059
638.767	9103.29
639.121	9108.26
639.474	9006.57
639.828	9157.75
640.181	9032.11
640.534	9055.38
640.888	9040.02
641.241	8954.6
641.594	8987.59
641.947	9026.46
642.301	8959.57
642.654	9034.59
643.007	9066.23
643.36	8932.45
643.713	8960.24
644.066	8988.72
644.419	8908.04
644.771	8856.97
645.124	8843.41
645.477	8782.4
645.83	8748.27
646.182	8704.21
646.535	8642.51
646.888	8673.47
647.24	8640.48
647.593	8715.73
647.945	8637.54
648.298	8632.34
648.65	8639.35
649.002	8602.74
649.355	8671.66
649.707	8596.19
650.059	8686.13
650.411	8780.59
650.763	8759.8
651.115	8802.28
651.467	8866.69
651.819	8820.14
652.171	8806.8
652.523	8726.13
652.875	8794.37
653.227	8748.5
653.578	8814.71
653.93	8843.41
654.282	8699.91
654.633	8665.56
654.985	8746.69
655.337	8785.11
655.688	8826.91
656.039	8809.51
656.391	8767.03
656.742	8740.82
657.094	8832.11
657.445	8768.16
657.796	8743.3
658.147	8762.06
658.498	8781.94
658.849	8754.83
659.2	8753.7
659.551	8692.23
659.902	8816.75
660.253	8820.36
660.604	8810.42
660.955	8729.97
661.306	8850.64
661.656	8731.1
662.007	8740.59
662.358	8792.79
662.708	8756.63
663.059	8728.39
663.409	8710.08
663.76	8821.27
664.11	8764.32
664.461	8757.31
664.811	8742.17
665.161	8755.96
665.511	8778.55
665.862	8731.32
666.212	8751.44
666.562	8826.46
666.912	8796.18
667.262	8712.12
667.612	8755.73
667.962	8756.86
668.312	8743.75
668.662	8770.19
669.011	8735.84
669.361	8783.07
669.711	8779.91
670.06	8690.65
670.41	8730.19
670.76	8673.02
671.109	8715.96
671.459	8671.66
671.808	8720.7
672.157	8690.42
672.507	8636.41
672.856	8672.34
673.205	8625.11
673.554	8673.47
673.904	8707.37
674.253	8726.8
674.602	8660.59
674.951	8530.2
675.3	8517.32
675.649	8585.79
675.998	8644.55
676.346	8651.78
676.695	8610.88
677.044	8546.47
677.393	8559.8
677.741	8619.69
678.09	8574.94
678.438	8547.6
678.787	8570.88
679.135	8504.66
679.484	8520.48
679.832	8548.5
680.181	8577.66
680.529	8537.88
680.877	8529.97
681.225	8510.31
681.573	8519.13
681.922	8458.34
682.27	8362.29
682.618	8476.42
682.966	8424.67
683.314	8395.29
683.661	8412.24
684.009	8368.17
684.357	8335.63
684.705	8357.55
685.053	8277.78
685.4	8291.79
685.748	8279.36
686.095	8242.75
686.443	8215.18
686.79	8192.81
687.138	8197.55
687.485	8180.15
687.832	8185.12
688.18	8113.71
688.527	8139.25
688.874	8125.69
689.221	8145.35
689.568	8077.1
689.915	8041.4
690.262	8040.49
690.609	7988.97
690.956	7976.09
691.303	7987.84
691.65	7946.71
691.997	7912.36
692.344	7870.78
692.69	7886.6
693.037	7826.04
693.383	7809.77
693.73	7797.79
694.077	7744.01
694.423	7724.12
694.769	7692.71
695.116	7676.66
695.462	7638.92
695.808	7635.53
696.155	7684.8
696.501	7574.07
696.847	7599.15
697.193	7512.6
697.539	7595.76
697.885	7493.84
698.231	7483.45
698.577	7467.4
698.923	7510.34
699.269	7409.1
699.614	7365.48
699.96	7317.58
700.306	7285.49
700.651	7391.25
700.997	7293.17
701.342	7295.66
701.688	7327.75
702.033	7227.86
702.379	7188.54
702.724	7172.95
703.069	7196.68
703.415	7113.51
703.76	7042.33
704.105	7113.51
704.45	7058.37
704.795	6988.09
705.14	6982.67
705.485	7043.68
705.83	7010.47
706.175	6974.08
706.52	7023.57
706.865	6929.11
707.209	6920.98
707.554	6943.12
707.899	6909.68
708.243	6831.71
708.588	6790.13
708.932	6763.24
709.277	6804.37
709.621	6782.67
709.966	6816.8
710.31	6774.99
710.654	6697.03
710.998	6736.35
711.342	6677.14
711.687	6705.16
712.031	6725.05
712.375	6608.44
712.719	6657.03
713.063	6598.27
713.407	6642.11
713.75	6584.49
714.094	6550.36
714.438	6604.37
714.782	6559.4
715.125	6529.8
715.469	6542.46
715.812	6527.31
716.156	6465.39
716.499	6493.64
716.843	6518.27
717.186	6427.43
717.53	6481.21
717.873	6494.09
718.216	6482.12
718.559	6450.71
718.902	6373.19
719.246	6424.94
719.589	6398.28
719.932	6340.43
720.275	6366.41
720.617	6426.07
720.96	6370.03
721.303	6375.45
721.646	6347.21
721.989	6305.4
722.331	6354.21
722.674	6269.24
723.016	6358.96
723.359	6321.9
723.701	6326.19
724.044	6310.6
724.386	6269.02
724.729	6286.19
725.071	6328
725.413	6258.39
725.755	6258.62
726.097	6267.43
726.439	6276.93
726.782	6281.9
727.124	6259.52
727.465	6250.71
727.807	6252.07
728.149	6189.7
728.491	6182.92
728.833	6247.32
729.175	6173.43
729.516	6222.92
729.858	6135.69
730.199	6180.66
730.541	6154.44
730.882	6166.19
731.224	6217.49
731.565	6132.97
731.906	6171.39
732.248	6138.17
732.589	6119.64
732.93	6147.66
733.271	6081.45
733.612	6141.56
733.953	6148.79
734.294	6123.71
734.635	6183.82
734.976	6122.13
735.317	6138.85
735.658	6157.15
735.999	6172.3
736.339	6148.12
736.68	6158.28
737.021	6186.98
737.361	6178.17
737.702	6210.26
738.042	6155.8
738.383	6136.36
738.723	6191.96
739.063	6132.3
739.404	6190.15
739.744	6148.57
740.084	6182.46
740.424	6223.59
740.764	6171.62
741.104	6206.42
741.444	6142.24
741.784	6198.74
742.124	6161.22
742.464	6161.9
742.804	6227.21
743.143	6225.18
743.483	6248.23
743.823	6242.58
744.162	6198.74
744.502	6255.23
744.841	6262.91
745.181	6334.1
745.52	6305.17
745.86	6359.18
746.199	6337.94
746.538	6415.45
746.877	6430.82
747.216	6454.77
747.556	6474.66
747.895	6485.51
748.234	6499.97
748.573	6526.18
748.911	6555.56
749.25	6616.13
749.589	6631.04
749.928	6697.71
750.267	6725.05
750.605	6755.1
750.944	6839.4
751.283	6873.29
751.621	7008.21
751.96	6986.96
752.298	7079.39
752.636	7122.1
752.975	7137.02
753.313	7131.82
753.651	7313.73
753.989	7313.51
754.327	7405.48
754.666	7492.26
755.004	7505.59
755.342	7664.23
755.679	7708.07
756.017	7751.01
756.355	7858.58
756.693	7938.58
757.031	8069.65
757.368	8063.09
757.706	8188.97
758.044	8313.93
758.381	8414.72
758.719	8499.47
759.056	8632.8
759.394	8721.61
759.731	8748.5
760.068	8914.82
760.405	8957.31
760.743	9040.92
761.08	9235.72
761.417	9305.55
761.754	9431.19
762.091	9518.2
762.428	9614.46
762.765	9745.76
763.102	9828.92
763.438	9915.93
763.775	9965.19
764.112	10125.19
764.449	10225.52
764.785	10299.42
765.122	10329.47
765.458	10392.52
765.795	10585.29
766.131	10612.86
766.467	10768.56
766.804	10813.08
767.14	10854.21
767.476	10974.43
767.812	11064.6
768.148	11114.54
768.485	11152.05
768.821	11227.3
769.157	11321.31
769.492	11395.21
769.828	11485.38
770.164	11464.36
