Data from hue_350_FLMS001491_92.txt Node
Date: Mon Feb 06 15:38:46 GMT 2017
User: dcchb
Spectrometer: FLMS00149
Trigger mode: 0
Integration Time (sec): 2.000000E-2
Scans to average: 10
Electric dark correction enabled: true
Nonlinearity correction enabled: false
Boxcar width: 0
XAxis mode: Wavelengths
Number of Pixels in Spectrum: 2048
>>>>>Begin Spectral Data<<<<<
341.393	-6.74
341.776	-6.74
342.16	-6.74
342.543	-72.72
342.927	-46.74
343.31	-76.34
343.693	-92.61
344.077	-46.51
344.46	-77.24
344.843	-45.61
345.226	-44.48
345.61	-34.31
345.993	-10.35
346.376	-13.74
346.759	-6.29
347.142	28.97
347.525	59.25
347.908	59.48
348.291	78.01
348.674	90.44
349.057	131.34
349.44	117.1
349.823	135.63
350.206	166.82
350.588	187.61
350.971	222.86
351.354	227.16
351.737	253.37
352.119	232.8
352.502	251.56
352.884	274.84
353.267	280.26
353.65	292.69
354.032	303.76
354.414	282.97
354.797	319.58
355.179	307.83
355.562	327.72
355.944	319.81
356.326	334.72
356.709	336.08
357.091	326.36
357.473	341.73
357.855	321.62
358.238	323.65
358.62	340.6
359.002	326.81
359.384	335.85
359.766	341.05
360.148	359.13
360.53	328.62
360.912	351.67
361.294	352.35
361.676	344.44
362.057	322.29
362.439	332.24
362.821	321.39
363.203	321.62
363.584	327.72
363.966	316.42
364.348	311.67
364.729	314.84
365.111	311.22
365.493	313.48
365.874	308.51
366.256	332.24
366.637	318.68
367.019	325.68
367.4	310.77
367.781	316.87
368.163	304.67
368.544	308.51
368.925	292.46
369.306	331.11
369.688	306.93
370.069	317.32
370.45	313.71
370.831	302.63
371.212	302.41
371.593	302.18
371.974	291.56
372.355	298.34
372.736	298.79
373.117	321.16
373.498	303.99
373.879	319.58
374.26	318.23
374.641	330.66
375.021	313.03
375.402	324.1
375.783	299.02
376.163	331.33
376.544	313.48
376.925	314.61
377.305	346.7
377.686	317.55
378.066	322.97
378.447	332.24
378.827	320.71
379.208	335.63
379.588	337.66
379.968	348.73
380.349	324.33
380.729	336.3
381.109	343.76
381.489	349.64
381.87	345.57
382.25	303.31
382.63	334.72
383.01	356.64
383.39	327.94
383.77	338.56
384.15	330.43
384.53	352.35
384.91	329.3
385.29	359.13
385.67	346.25
386.049	353.93
386.429	346.02
386.809	350.77
387.189	343.54
387.568	375.63
387.948	351.22
388.328	370.2
388.707	367.94
389.087	335.4
389.466	359.81
389.846	356.19
390.225	361.84
390.605	356.87
390.984	351.22
391.363	362.29
391.743	351.9
392.122	373.14
392.501	357.55
392.881	350.32
393.26	364.55
393.639	355.97
394.018	382.63
394.397	374.04
394.776	372.01
395.155	384.67
395.534	376.08
395.913	381.73
396.292	375.17
396.671	390.09
397.05	391.44
397.429	380.15
397.808	378.34
398.186	378.34
398.565	379.02
398.944	388.05
399.323	383.31
399.701	385.12
400.08	398.68
400.458	361.39
400.837	402.97
401.215	416.08
401.594	407.26
401.972	373.14
402.351	389.41
402.729	403.2
403.107	391.22
403.486	397.55
403.864	411.11
404.242	410.2
404.62	408.62
404.999	440.71
405.377	412.91
405.755	409.07
406.133	429.41
406.511	414.95
406.889	429.64
407.267	426.92
407.645	424.89
408.023	440.03
408.401	411.56
408.779	419.24
409.156	438.22
409.534	407.94
409.912	425.12
410.29	450.2
410.667	457.88
411.045	449.75
411.422	448.84
411.8	452.01
412.178	426.92
412.555	464.66
412.933	458.56
413.31	479.35
413.687	474.61
414.065	466.47
414.442	467.37
414.819	491.1
415.197	474.83
415.574	462.18
415.951	477.32
416.328	485.91
416.705	493.14
417.082	490.2
417.46	501.27
417.837	508.5
418.214	518.45
418.591	520.03
418.967	501.95
419.344	511.89
419.721	506.24
420.098	536.07
420.475	503.76
420.852	507.6
421.228	539.46
421.605	533.36
421.982	552.8
422.358	530.88
422.735	560.71
423.111	553.02
423.488	533.59
423.864	534.94
424.241	543.98
424.617	546.69
424.994	562.51
425.37	565.68
425.746	569.07
426.123	560.93
426.499	572.46
426.875	573.36
427.251	601.83
427.627	573.81
428.003	600.03
428.379	596.41
428.756	583.53
429.132	617.88
429.507	628.05
429.883	612.23
430.259	597.99
430.635	620.14
431.011	646.58
431.387	633.47
431.763	625.56
432.138	651.78
432.514	669.86
432.89	654.49
433.265	677.99
433.641	655.39
434.016	660.59
434.392	658.78
434.767	669.86
435.143	691.32
435.518	715.28
435.894	702.85
436.269	699.68
436.644	695.17
437.02	727.48
437.395	694.49
437.77	721.83
438.145	734.71
438.52	735.39
438.895	718.44
439.271	715.5
439.646	747.82
440.021	759.34
440.395	767.71
440.77	751.44
441.145	753.92
441.52	773.81
441.895	788.27
442.27	787.14
442.645	781.72
443.019	785.56
443.394	753.92
443.769	782.39
444.143	804.99
444.518	806.12
444.892	778.55
445.267	805.67
445.641	818.33
446.016	832.56
446.39	823.98
446.764	807.03
447.139	810.19
447.513	827.37
447.887	840.92
448.262	810.64
448.636	817.42
449.01	824.43
449.384	874.14
449.758	854.94
450.132	857.65
450.506	863.07
450.88	878.89
451.254	874.14
451.628	883.86
452.002	905.56
452.376	906.23
452.75	892
453.123	913.69
453.497	910.07
453.871	916.63
454.244	940.36
454.618	942.62
454.992	935.16
455.365	948.49
455.739	964.76
456.112	956.4
456.486	991.65
456.859	966.8
457.232	990.52
457.606	985.1
457.979	992.56
458.352	1005.44
458.725	1031.65
459.099	1044.08
459.472	1046.12
459.845	1039.56
460.218	1076.17
460.591	1053.12
460.964	1057.19
461.337	1081.14
461.71	1093.57
462.083	1106.23
462.456	1108.26
462.829	1122.27
463.201	1126.79
463.574	1126.79
463.947	1165.66
464.32	1166.57
464.692	1194.81
465.065	1179.9
465.438	1211.08
465.81	1226.45
466.183	1210.86
466.555	1244.3
466.928	1261.03
467.3	1245.21
467.672	1271.42
468.045	1293.34
468.417	1309.84
468.789	1324.98
469.161	1307.58
469.534	1343.74
469.906	1369.72
470.278	1380.12
470.65	1407.01
471.022	1417.63
471.394	1465.54
471.766	1460.34
472.138	1485.2
472.51	1484.3
472.882	1504.41
473.253	1542.37
473.625	1542.83
473.997	1604.07
474.369	1622.37
474.74	1594.35
475.112	1622.82
475.484	1651.52
475.855	1686.78
476.227	1702.82
476.598	1741.01
476.97	1768.81
477.341	1787.79
477.713	1813.78
478.084	1838.19
478.455	1883.61
478.827	1919.54
479.198	1975.58
479.569	1972.42
479.94	2032.08
480.311	2073.43
480.682	2082.02
481.053	2103.72
481.424	2183.71
481.795	2174.22
482.166	2200.44
482.537	2224.62
482.908	2290.15
483.279	2289.47
483.65	2318.85
484.021	2419.64
484.391	2431.62
484.762	2477.27
485.133	2470.26
485.503	2531.95
485.874	2572.63
486.244	2554.78
486.615	2678.39
486.985	2682.91
487.356	2726.3
487.726	2755.9
488.097	2791.83
488.467	2792.96
488.837	2894.2
489.207	2880.64
489.578	2950.47
489.948	2976.69
490.318	2994.31
490.688	2990.47
491.058	3086.74
491.428	3106.4
491.798	3153.18
492.168	3207.87
492.538	3288.77
492.908	3286.51
493.278	3316.11
493.648	3312.95
494.017	3341.88
494.387	3370.35
494.757	3413.74
495.126	3456.22
495.496	3476.34
495.866	3493.06
496.235	3552.04
496.605	3586.16
496.974	3591.81
497.344	3636.33
497.713	3618.7
498.082	3655.77
498.452	3715.88
498.821	3779.6
499.19	3749.32
499.559	3752.71
499.928	3806.5
500.298	3818.7
500.667	3835.2
501.036	3845.36
501.405	3866.83
501.774	3870.45
502.143	3891.69
502.512	3983.67
502.88	3970.11
503.249	3980.5
503.618	3964.91
503.987	3989.77
504.356	3999.03
504.724	4057.34
505.093	4081.07
505.462	4143.44
505.83	4084
506.199	4170.1
506.567	4191.12
506.936	4164.45
507.304	4233.6
507.672	4244.22
508.041	4205.36
508.409	4277.22
508.777	4318.8
509.145	4331.23
509.514	4318.35
509.882	4314.96
510.25	4371.23
510.618	4378.91
510.986	4393.37
511.354	4427.27
511.722	4432.24
512.09	4499.13
512.458	4498
512.826	4477.89
513.193	4528.28
513.561	4527.15
513.929	4550.43
514.297	4622.29
514.664	4621.62
515.032	4633.59
515.4	4647.83
515.767	4660.03
516.135	4623.42
516.502	4625.68
516.869	4727.15
517.237	4671.78
517.604	4724.89
517.972	4723.76
518.339	4772.12
518.706	4765.57
519.073	4784.32
519.44	4781.84
519.808	4833.81
520.175	4843.3
520.542	4901.83
520.909	4890.76
521.276	4940.25
521.643	4946.13
522.009	4935.28
522.376	4996.07
522.743	5052.56
523.11	5037.65
523.477	5077.65
523.843	5115.39
524.21	5123.3
524.577	5152.9
524.943	5198.32
525.31	5202.17
525.676	5246.23
526.043	5233.13
526.409	5275.38
526.776	5326.46
527.142	5303.86
527.508	5376.85
527.874	5356.29
528.241	5485.77
528.607	5417.53
528.973	5471.54
529.339	5495.72
529.705	5538.88
530.071	5602.83
530.437	5543.17
530.803	5635.83
531.169	5609.61
531.535	5634.47
531.901	5640.12
532.267	5662.04
532.632	5702.72
532.998	5742.04
533.364	5777.29
533.73	5760.12
534.095	5758.54
534.461	5860.68
534.826	5850.06
535.192	5888.93
535.557	5949.04
535.923	5865.65
536.288	5970.73
536.653	5953.33
537.019	5970.05
537.384	6025.65
537.749	6029.04
538.114	6071.52
538.479	6046.44
538.845	6123.5
539.21	6103.84
539.575	6189.71
539.94	6109.94
540.305	6246.66
540.67	6201.46
541.034	6278.97
541.399	6266.54
541.764	6309.48
542.129	6254.57
542.494	6344.51
542.858	6356.94
543.223	6401.46
543.587	6436.71
543.952	6428.12
544.316	6464.51
544.681	6476.48
545.045	6520.1
545.41	6534.79
545.774	6534.33
546.138	6524.39
546.503	6558.06
546.867	6609.13
547.231	6674.9
547.595	6704.05
547.959	6740.2
548.324	6757.38
548.688	6823.82
549.052	6737.94
549.416	6804.84
549.779	6831.5
550.143	6872.18
550.507	6923.02
550.871	6944.04
551.235	6915.57
551.599	6910.14
551.962	7023.36
552.326	6969.12
552.689	6980.2
553.053	7021.1
553.417	7008.9
553.78	7163.7
554.143	7063.59
554.507	7102.91
554.87	7165.28
555.234	7169.12
555.597	7145.62
555.96	7216.12
556.323	7150.81
556.686	7248.67
557.05	7306.97
557.413	7319.62
557.776	7284.37
558.139	7383.35
558.502	7380.87
558.865	7383.8
559.228	7473.74
559.59	7481.65
559.953	7454.08
560.316	7523.69
560.679	7574.98
561.041	7564.14
561.404	7598.94
561.767	7678.48
562.129	7595.77
562.492	7706.96
562.854	7671.93
563.217	7708.99
563.579	7728.88
563.941	7732.04
564.304	7793.06
564.666	7819.95
565.028	7887.74
565.39	7828.31
565.753	7934.3
566.115	7938.36
566.477	7935.88
566.839	7949.66
567.201	8007.97
567.563	8041.86
567.925	8109.43
568.287	8068.76
568.648	8132.03
569.01	8218.81
569.372	8234.18
569.734	8218.13
570.095	8254.29
570.457	8302.65
570.819	8309.65
571.18	8368.86
571.542	8404.12
571.903	8446.83
572.265	8478.92
572.626	8579.48
572.987	8548.29
573.349	8626.26
573.71	8644.33
574.071	8708.51
574.432	8693.15
574.794	8792.58
575.155	8793.03
575.516	8856.98
575.877	8929.75
576.238	9005.23
576.599	9183.3
576.96	9187.6
577.32	9237.77
577.681	9287.26
578.042	9397.54
578.403	9416.52
578.763	9536.29
579.124	9619
579.485	9673.23
579.845	9846.79
580.206	9954.81
580.566	9959.55
580.927	10070.96
581.287	10263.73
581.648	10280.22
582.008	10412.2
582.368	10503.72
582.728	10722.02
583.089	10834.11
583.449	11002.01
583.809	11022.35
584.169	11331.5
584.529	11374.21
584.889	11679.96
585.249	11751.82
585.609	11960.41
585.969	12156.78
586.329	12295.09
586.688	12552.48
587.048	12649.65
587.408	12878.8
587.768	13072.24
588.127	13278.79
588.487	13613.47
588.846	13798.1
589.206	13986.34
589.565	14168.94
589.925	14502.71
590.284	14745.42
590.643	14931.85
591.003	15185.86
591.362	15474.66
591.721	15771.61
592.08	15952.39
592.44	16329.33
592.799	16520.74
593.158	16763.9
593.517	17064.45
593.876	17393.03
594.235	17596.42
594.593	17930.42
594.952	18116.4
595.311	18461.7
595.67	18745.31
596.029	19116.38
596.387	19438.4
596.746	19713.42
597.104	19906.19
597.463	20231.83
597.822	20653.96
598.18	20712.04
598.538	21035.42
598.897	21373.27
599.255	21455.07
599.613	22094.83
599.972	22127.37
600.33	22584.31
600.688	22734.59
601.046	23104.29
601.404	23551.29
601.762	23638.29
602.12	24052.29
602.478	24304.49
602.836	24469.68
603.194	24651.82
603.552	25052.04
603.91	25156.22
604.268	25522.54
604.625	25671.68
604.983	26118
605.341	26191.67
605.698	26539.46
606.056	26877.98
606.413	27042.04
606.771	27375.37
607.128	27655.81
607.485	27634.57
607.843	27892.42
608.2	28402.69
608.557	28545.05
608.914	28684.71
609.272	29085.61
609.629	29260.06
609.986	29563.33
610.343	29655.99
610.7	30088.06
611.057	30179.81
611.414	30350.43
611.771	30620.25
612.127	30864.99
612.484	31005.78
612.841	31137.75
613.198	31318.77
613.554	31336.62
613.911	31864.74
614.267	31951.97
614.624	31994.91
614.98	32320.1
615.337	32575.46
615.693	32618.85
616.05	32771.38
616.406	33041.21
616.762	33087.08
617.118	33167.08
617.475	33428.77
617.831	33605.49
618.187	33752.83
618.543	33854.52
618.899	34143.78
619.255	34185.13
619.611	34330.67
619.967	34577.21
620.323	34727.26
620.678	34553.71
621.034	34667.61
621.39	34831.22
621.746	34963.42
622.101	35400.69
622.457	35205.67
622.812	35389.17
623.168	35397.3
623.523	35697.86
623.879	35776.05
624.234	35643.62
624.589	35807.91
624.945	35898.99
625.3	36013.33
625.655	36018.53
626.01	36175.36
626.365	36109.83
626.72	36258.52
627.075	36368.58
627.43	36455.36
627.785	36378.75
628.14	36673.65
628.495	36587.33
628.85	36643.6
629.205	36520.21
629.559	36927.66
629.914	36823.48
630.269	36873.88
630.623	36672.07
630.978	36748.23
631.332	36958.62
631.687	37129.46
632.041	36899.41
632.396	37038.39
632.75	36967.66
633.104	37168.33
633.459	37010.59
633.813	36979.64
634.167	36914.1
634.521	37095.11
634.875	37170.36
635.229	37001.78
635.583	36918.85
635.937	36979.86
636.291	37041.78
636.645	37032.29
636.999	37041.55
637.352	37328.33
637.706	36901.67
638.06	37025.28
638.413	37111.16
638.767	36878.39
639.121	37073.19
639.474	36898.51
639.828	36966.53
640.181	37049.69
640.534	37174.21
640.888	37038.62
641.241	36859.41
641.594	36975.12
641.947	37122.91
642.301	36908
642.654	36981.22
643.007	37007.43
643.36	36961.78
643.713	36981.89
644.066	36932.18
644.419	36903.93
644.771	36572.87
645.124	36260.33
645.477	36291.07
645.83	36070.05
646.182	35825.32
646.535	35802.72
646.888	35896.5
647.24	35648.6
647.593	35915.03
647.945	35822.83
648.298	35767.24
648.65	35803.62
649.002	35620.8
649.355	35627.35
649.707	35635.49
650.059	35961.36
650.411	36161.13
650.763	36279.99
651.115	36643.15
651.467	36522.7
651.819	36503.72
652.171	36440.21
652.523	36550.04
652.875	36472.53
653.227	36353.89
653.578	36513.66
653.93	36432.3
654.282	36308.01
654.633	36305.53
654.985	36426.2
655.337	36451.74
655.688	36292.42
656.039	36398.41
656.391	36171.52
656.742	36260.33
657.094	36238.41
657.445	36380.55
657.796	36286.77
658.147	36269.82
658.498	36263.95
658.849	36289.03
659.2	36298.75
659.551	36147.79
659.902	36235.47
660.253	36091.52
660.604	36266.66
660.955	36103.5
661.306	36191.86
661.656	36233.21
662.007	36120
662.358	36040.9
662.708	36079.32
663.059	36077.74
663.409	35868.93
663.76	36031.41
664.11	36033.9
664.461	36127.91
664.811	36021.69
665.161	36129.94
665.511	36085.2
665.862	36024.63
666.212	36149.15
666.562	36073.67
666.912	36043.39
667.262	35988.7
667.612	35970.4
667.962	35987.12
668.312	36051.52
668.662	36240.9
669.011	36171.75
669.361	35976.05
669.711	35981.24
670.06	35923.17
670.41	35831.64
670.76	35873.22
671.109	35986.21
671.459	35924.07
671.808	35832.32
672.157	35901.47
672.507	35769.72
672.856	35737.18
673.205	35763.85
673.554	35793.68
673.904	35813.56
674.253	36032.77
674.602	35845.2
674.951	35330.19
675.3	35076.41
675.649	35627.35
675.998	35618.99
676.346	35677.52
676.695	35875.94
677.044	35497.41
677.393	35658.54
677.741	35580.58
678.09	35498.54
678.438	35465.78
678.787	35529.73
679.135	35533.35
679.484	35231.43
679.832	35500.35
680.181	35206.57
680.529	35423.97
680.877	35179.91
681.225	35251.09
681.573	35439.11
681.922	35127.71
682.27	35179.23
682.618	35108.95
682.966	34982.63
683.314	35102.4
683.661	34908.95
684.009	34663.99
684.357	34904.89
684.705	34715.51
685.053	34702.41
685.4	34710.77
685.748	34547.61
686.095	34451.34
686.443	34463.09
686.79	34380.61
687.138	34422.41
687.485	34353.04
687.832	34301.51
688.18	34334.51
688.527	34053.38
688.874	34039.6
689.221	34076.66
689.568	34051.8
689.915	33865.82
690.262	33721.42
690.609	33872.15
690.956	33538.6
691.303	33660.4
691.65	33517.81
691.997	33493.4
692.344	33346.96
692.69	33416.11
693.037	33229.68
693.383	33048.44
693.73	33118.95
694.077	32974.99
694.423	33018.61
694.769	32824.94
695.116	32766.41
695.462	32669.92
695.808	32670.6
696.155	32694.32
696.501	32431.96
696.847	32416.59
697.193	32210.49
697.539	32434.22
697.885	32092.76
698.231	31961.91
698.577	31996.94
698.923	31940.9
699.269	31942.25
699.614	31680.11
699.96	31483.73
700.306	31691.41
700.651	31492.77
700.997	31434.02
701.342	31267.69
701.688	31329.61
702.033	31108.83
702.379	31177.75
702.724	31091.43
703.069	31171.43
703.415	30674.26
703.76	30847.37
704.105	30779.57
704.45	30712.91
704.795	30538.67
705.14	30486.47
705.485	30424.78
705.83	30396.08
706.175	30354.72
706.52	30248.74
706.865	30063.66
707.209	30081.96
707.554	30032.02
707.899	30136.65
708.243	29743.22
708.588	29920.16
708.932	29723.33
709.277	29720.84
709.621	29722.88
709.966	29489.44
710.31	29651.69
710.654	29313.4
710.998	29437.46
711.342	29397.69
711.687	29227.3
712.031	29188.2
712.375	29041.54
712.719	29138.49
713.063	29074.76
713.407	29116.34
713.75	28927.87
714.094	28930.58
714.438	28680.64
714.782	28817.59
715.125	28746.63
715.469	28686.52
715.812	28512.51
716.156	28453.31
716.499	28446.07
716.843	28529.24
717.186	28271.62
717.53	28357.94
717.873	28444.94
718.216	28279.52
718.559	28135.8
718.902	28003.83
719.246	28114.78
719.589	27983.26
719.932	27783.27
720.275	27910.95
720.617	27821.23
720.96	27800.22
721.303	27778.3
721.646	27791.4
721.989	27630.05
722.331	27722.7
722.674	27682.03
723.016	27645.42
723.359	27540.11
723.701	27570.84
724.044	27462.37
724.386	27341.7
724.729	27411.3
725.071	27266.67
725.413	27278.2
725.755	27242.94
726.097	27052.21
726.439	27054.25
726.782	27034.13
727.124	27111.42
727.465	26942.61
727.807	26847.7
728.149	26910.3
728.491	26911.65
728.833	26877.3
729.175	26703.52
729.516	26739.45
729.858	26640.7
730.199	26727.02
730.541	26694.48
730.882	26613.13
731.224	26692.22
731.565	26519.57
731.906	26512.34
732.248	26562.96
732.589	26347.82
732.93	26400.48
733.271	26413.59
733.612	26455.17
733.953	26334.04
734.294	26176.53
734.635	26160.26
734.976	26219.92
735.317	26076.87
735.658	25992.58
735.999	26042.97
736.339	25981.96
736.68	25932.24
737.021	25941.96
737.361	25843.2
737.702	25926.59
738.042	25864.45
738.383	25826.26
738.723	25782.42
739.063	25766.6
739.404	25699.71
739.744	25695.19
740.084	25525.25
740.424	25642.08
740.764	25478.02
741.104	25701.29
741.444	25384.69
741.784	25349.21
742.124	25458.58
742.464	25343.33
742.804	25323.44
743.143	25268.53
743.483	25224.92
743.823	25118.48
744.162	25135.88
744.502	25113.28
744.841	25092.72
745.181	25180.17
745.52	24936.11
745.86	25005.71
746.199	25090
746.538	25014.75
746.877	25012.27
747.216	24937.24
747.556	24766.85
747.895	24899.5
748.234	24845.26
748.573	24680.75
748.911	24806.85
749.25	24657.93
749.589	24511.04
749.928	24555.1
750.267	24576.12
750.605	24472.85
750.944	24465.84
751.283	24477.36
751.621	24508.1
751.96	24374.54
752.298	24354.66
752.636	24281.44
752.975	24188.78
753.313	24076.92
753.651	24258.61
753.989	24210.48
754.327	23990.6
754.666	23893.65
755.004	24020.88
755.342	23944.05
755.679	23857.27
756.017	23821.56
756.355	23842.58
756.693	23722.58
757.031	23744.73
757.368	23644.62
757.706	23595.81
758.044	23473.1
758.381	23572.08
758.719	23484.4
759.056	23454.34
759.394	23361.69
759.731	23193.78
760.068	23103.39
760.405	23041.24
760.743	23077.18
