Data from hue_140_FLMS001491_00087.txt Node
Date: Tue Feb 07 16:56:32 GMT 2017
User: dcchb
Spectrometer: FLMS00149
Trigger mode: 0
Integration Time (sec): 2.000000E-2
Scans to average: 10
Electric dark correction enabled: true
Nonlinearity correction enabled: false
Boxcar width: 0
XAxis mode: Wavelengths
Number of Pixels in Spectrum: 2048
>>>>>Begin Spectral Data<<<<<
341.393	-14.7
341.776	-14.7
342.16	-14.7
342.543	-70.97
342.927	-90.86
343.31	-63.97
343.693	-65.1
344.077	-63.52
344.46	-54.02
344.843	-61.03
345.226	-71.65
345.61	-37.75
345.993	-4.31
346.376	-15.15
346.759	10.61
347.142	12.19
347.525	39.31
347.908	70.72
348.291	103.03
348.674	84.73
349.057	115.92
349.44	125.41
349.823	126.54
350.206	168.57
350.588	203.14
350.971	209.47
351.354	217.38
351.737	236.36
352.119	257.61
352.502	235.23
352.884	271.62
353.267	266.65
353.65	307.32
354.032	297.38
354.414	319.75
354.797	298.28
355.179	313.2
355.562	335.57
355.944	331.5
356.326	355.23
356.709	334.89
357.091	327.89
357.473	344.84
357.855	338.28
358.238	338.28
358.62	319.75
359.002	335.34
359.384	350.49
359.766	323.14
360.148	340.99
360.53	322.92
360.912	340.09
361.294	329.47
361.676	326.3
362.057	352.29
362.439	335.34
362.821	322.01
363.203	339.86
363.584	319.53
363.966	303.71
364.348	320.66
364.729	329.47
365.111	313.42
365.493	319.53
365.874	315.01
366.256	297.61
366.637	294.22
367.019	307.1
367.4	331.05
367.781	315.91
368.163	308.45
368.544	318.4
368.925	305.51
369.306	301.67
369.688	304.38
370.069	307.55
370.45	303.71
370.831	312.75
371.212	301.67
371.593	316.14
371.974	298.74
372.355	321.11
372.736	317.04
373.117	308.68
373.498	318.4
373.879	303.48
374.26	298.28
374.641	302.8
375.021	313.65
375.402	313.42
375.783	299.64
376.163	327.21
376.544	323.59
376.925	329.47
377.305	324.95
377.686	330.37
378.066	321.33
378.447	323.37
378.827	326.08
379.208	327.89
379.588	324.5
379.968	331.95
380.349	327.66
380.729	332.63
381.109	330.82
381.489	334.44
381.87	339.41
382.25	312.29
382.63	348
383.01	327.43
383.39	338.28
383.77	360.88
384.15	331.73
384.53	340.32
384.91	346.87
385.29	359.75
385.67	354.33
386.049	344.38
386.429	346.19
386.809	361.33
387.189	330.15
387.568	345.06
387.948	353.2
388.328	368.79
388.707	369.02
389.087	345.29
389.466	352.74
389.846	356.59
390.225	353.87
390.605	363.82
390.984	364.72
391.363	383.48
391.743	370.37
392.122	369.92
392.501	367.21
392.881	340.99
393.26	362.46
393.639	366.53
394.018	359.3
394.397	384.83
394.776	375.12
395.155	377.15
395.534	374.44
395.913	376.25
396.292	364.72
396.671	378.96
397.05	382.35
397.429	389.81
397.808	377.6
398.186	368.56
398.565	390.03
398.944	389.81
399.323	386.87
399.701	390.26
400.08	413.76
400.458	408.79
400.837	397.26
401.215	408.11
401.594	406.98
401.972	400.2
402.351	415.57
402.729	402.91
403.107	414.44
403.486	408.34
403.864	399.98
404.242	398.85
404.62	412.86
404.999	414.89
405.377	410.6
405.755	403.37
406.133	422.57
406.511	445.85
406.889	429.13
407.267	433.42
407.645	402.91
408.023	435.45
408.401	429.35
408.779	435.91
409.156	442.23
409.534	439.07
409.912	432.06
410.29	428.68
410.667	441.78
411.045	441.56
411.422	450.82
411.8	436.13
412.178	452.18
412.555	453.08
412.933	460.54
413.31	478.62
413.687	474.55
414.065	478.17
414.442	463.7
414.819	476.36
415.197	488.56
415.574	492.63
415.951	472.74
416.328	492.63
416.705	489.01
417.082	500.31
417.46	511.61
417.837	514.55
418.214	509.58
418.591	496.7
418.967	506.64
419.344	518.84
419.721	526.53
420.098	515.9
420.475	509.13
420.852	526.98
421.228	533.31
421.605	521.33
421.982	529.01
422.358	539.63
422.735	525.62
423.111	542.34
423.488	542.34
423.864	550.03
424.241	560.42
424.617	543.7
424.994	526.07
425.37	561.33
425.746	569.91
426.123	559.29
426.499	590.93
426.875	560.42
427.251	598.61
427.627	591.38
428.003	597.03
428.379	587.32
428.756	595
429.132	617.82
429.507	595
429.883	617.37
430.259	620.31
430.635	633.19
431.011	653.3
431.387	623.92
431.763	642.23
432.138	649.91
432.514	635
432.89	638.61
433.265	637.26
433.641	664.38
434.016	672.06
434.392	678.16
434.767	683.58
435.143	686.97
435.518	676.58
435.894	718.61
436.269	672.06
436.644	709.12
437.02	703.24
437.395	700.08
437.77	738.05
438.145	745.95
438.52	754.54
438.895	722.45
439.271	725.16
439.646	746.63
440.021	743.92
440.395	766.75
440.77	748.21
441.145	769.23
441.52	753.86
441.895	765.62
442.27	790.93
442.645	776.24
443.019	797.93
443.394	786.86
443.769	820.53
444.143	803.81
444.518	806.29
444.892	813.07
445.267	842.9
445.641	821.21
446.016	821.21
446.39	825.5
446.764	844.48
447.139	826.86
447.513	837.03
447.887	844.48
448.262	851.71
448.636	865.95
449.01	877.93
449.384	897.59
449.758	871.6
450.132	887.87
450.506	887.19
450.88	886.97
451.254	891.49
451.628	905.27
452.002	913.86
452.376	906.63
452.75	916.57
453.123	931.71
453.497	950.7
453.871	929.68
454.244	959.06
454.618	1007.64
454.992	981.43
455.365	1000.86
455.739	1018.94
456.112	1030.92
456.486	1025.95
456.859	1050.35
457.232	1071.6
457.606	1055.55
457.979	1057.81
458.352	1088.32
458.725	1093.74
459.099	1108.21
459.472	1124.02
459.845	1128.09
460.218	1156.34
460.591	1133.29
460.964	1191.82
461.337	1147.3
461.71	1202.89
462.083	1209.45
462.456	1219.16
462.829	1252.38
463.201	1275.21
463.574	1254.87
463.947	1284.92
464.32	1289.22
464.692	1328.54
465.065	1336.22
465.438	1347.3
465.81	1388.2
466.183	1411.25
466.555	1416.45
466.928	1432.04
467.3	1458.7
467.672	1488.31
468.045	1497.8
468.417	1509.32
468.789	1535.54
469.161	1555.65
469.534	1569.66
469.906	1640.17
470.278	1656.44
470.65	1681.3
471.022	1726.72
471.394	1731.69
471.766	1754.06
472.138	1789.32
472.51	1846.72
472.882	1842.2
473.253	1917.9
473.625	1941.4
473.997	2022.08
474.369	2017.11
474.74	2056.88
475.112	2138.23
475.484	2149.53
475.855	2241.73
476.227	2265.91
476.598	2345.23
476.97	2371.22
477.341	2474.5
477.713	2493.71
478.084	2490.09
478.455	2612.35
478.827	2715.85
479.198	2781.16
479.569	2823.64
479.94	2919.23
480.311	2980.02
480.682	3060.92
481.053	3153.35
481.424	3246.23
481.795	3327.13
482.166	3398.77
482.537	3496.17
482.908	3590.17
483.279	3679.89
483.65	3787.46
484.021	3925.76
484.391	4006.89
484.762	4064.96
485.133	4174.11
485.503	4262.7
485.874	4401.9
486.244	4526.87
486.615	4613.2
486.985	4719.18
487.356	4904.72
487.726	4946.52
488.097	5113.98
488.467	5203.01
488.837	5322.78
489.207	5489.11
489.578	5571.82
489.948	5692.04
490.318	5879.61
490.688	5908.53
491.058	6095.64
491.428	6186.94
491.798	6315.53
492.168	6521.17
492.538	6617.89
492.908	6800.26
493.278	6907.15
493.648	6968.39
494.017	7112.34
494.387	7204.09
494.757	7378.1
495.126	7495.83
495.496	7601.14
495.866	7687.69
496.235	7871.64
496.605	7960.45
496.974	8124.29
497.344	8158.87
497.713	8223.05
498.082	8410.61
498.452	8527.67
498.821	8561.57
499.19	8686.31
499.559	8788.91
499.928	8917.49
500.298	9004.27
500.667	9125.4
501.036	9256.92
501.405	9300.53
501.774	9335.56
502.143	9498.27
502.512	9546.4
502.88	9693.52
503.249	9639.73
503.618	9766.73
503.987	9861.87
504.356	9977.8
504.724	10077.91
505.093	10053.51
505.462	10128.76
505.83	10273.16
506.199	10388.64
506.567	10449.88
506.936	10442.65
507.304	10594.96
507.672	10599.48
508.041	10675.64
508.409	10774.17
508.777	10869.08
509.145	10851.68
509.514	10932.81
509.882	10994.95
510.25	10997.21
510.618	11141.84
510.986	11183.87
511.354	11160.37
511.722	11308.84
512.09	11363.08
512.458	11313.13
512.826	11500.47
513.193	11501.6
513.561	11554.48
513.929	11600.13
514.297	11618.44
514.664	11781.15
515.032	11704.99
515.4	11784.76
515.767	11866.79
516.135	11867.47
516.502	11808.26
516.869	12000.8
517.237	11910.86
517.604	11917.41
517.972	12007.58
518.339	12063.85
518.706	12059.56
519.073	12043.51
519.44	12130.29
519.808	12182.94
520.175	12138.65
520.542	12258.19
520.909	12282.6
521.276	12248.93
521.643	12382.03
522.009	12444.18
522.376	12358.3
522.743	12436.95
523.11	12506.78
523.477	12546.55
523.843	12604.63
524.21	12699.54
524.577	12688.92
524.943	12683.72
525.31	12673.55
525.676	12737.96
526.043	12767.11
526.409	12845.98
526.776	12951.74
527.142	12886.65
527.508	12841.68
527.874	12894.56
528.241	13019.53
528.607	12929.82
528.973	12948.57
529.339	12887.33
529.705	12937.95
530.071	12996.03
530.437	12984.5
530.803	13014.56
531.169	13022.24
531.535	12932.3
531.901	12964.16
532.267	12968.46
532.632	12997.16
532.998	12948.8
533.364	12998.29
533.73	12950.38
534.095	13006.42
534.461	12968.01
534.826	12964.16
535.192	12925.52
535.557	12939.98
535.923	12886.65
536.288	12912.64
536.653	12893.66
537.019	12750.61
537.384	12821.57
537.749	12824.51
538.114	12779.76
538.479	12691.63
538.845	12823.83
539.21	12720.56
539.575	12703.15
539.94	12742.02
540.305	12665.42
540.67	12620.9
541.034	12552.88
541.399	12556.04
541.764	12488.92
542.129	12516.94
542.494	12438.98
542.858	12453.67
543.223	12393.33
543.587	12359.89
543.952	12309.04
544.316	12281.47
544.681	12296.84
545.045	12300.23
545.41	12299.55
545.774	12207.57
546.138	12180.68
546.503	12136.39
546.867	12093.91
547.231	12205.77
547.595	12084.41
547.959	12080.57
548.324	12023.17
548.688	12019.56
549.052	11947.92
549.416	11930.07
549.779	11933.23
550.143	11908.6
550.507	11899.79
550.871	11824.76
551.235	11792.44
551.599	11808.04
551.962	11772.78
552.326	11770.3
552.689	11735.04
553.053	11691.2
553.417	11698.21
553.78	11758.09
554.143	11686.23
554.507	11606.01
554.87	11535.73
555.234	11673.58
555.597	11557.2
555.96	11598.1
556.323	11588.83
556.686	11534.82
557.05	11589.96
557.413	11585.22
557.776	11501.15
558.139	11567.14
558.502	11461.38
558.865	11443.75
559.228	11513.36
559.59	11487.14
559.953	11510.64
560.316	11536.41
560.679	11528.5
561.041	11531.66
561.404	11632.9
561.767	11562.62
562.129	11499.8
562.492	11590.19
562.854	11512.9
563.217	11474.49
563.579	11603.75
563.941	11623.18
564.304	11561.04
564.666	11655.5
565.028	11603.3
565.39	11661.6
565.753	11696.63
566.115	11635.16
566.477	11665.67
566.839	11613.24
567.201	11686.91
567.563	11630.41
567.925	11747.02
568.287	11673.8
568.648	11657.76
569.01	11694.37
569.372	11753.58
569.734	11651.43
570.095	11776.63
570.457	11697.53
570.819	11755.61
571.18	11692.33
571.542	11821.6
571.903	11742.5
572.265	11835.38
572.626	11886.45
572.987	11789.51
573.349	11792.44
573.71	11864.08
574.071	11894.14
574.432	11930.97
574.794	11956.06
575.155	11890.07
575.516	11925.1
575.877	11927.36
576.238	11886.68
576.599	11931.2
576.96	11910.41
577.32	11957.86
577.681	11929.16
578.042	11982.04
578.403	11883.52
578.763	11870.63
579.124	11887.36
579.485	11889.62
579.845	11916.51
580.206	11942.95
580.566	11969.16
580.927	11929.62
581.287	11958.54
581.648	11840.8
582.008	11983.17
582.368	11941.14
582.728	11990.86
583.089	11952.67
583.449	11862.27
583.809	11973.23
584.169	11942.04
584.529	11933.01
584.889	12050.97
585.249	11878.77
585.609	11891.88
585.969	11870.18
586.329	11836.74
586.688	11868.83
587.048	11852.56
587.408	11836.74
587.768	11727.81
588.127	11759.22
588.487	11804.42
588.846	11908.37
589.206	11755.38
589.565	11793.12
589.925	11851.2
590.284	11740.92
590.643	11810.3
591.003	11774.82
591.362	11788.38
591.721	11826.12
592.08	11740.92
592.44	11790.18
592.799	11746.12
593.158	11719.45
593.517	11648.04
593.876	11809.39
594.235	11676.97
594.593	11749.73
594.952	11798.09
595.311	11670.64
595.67	11678.77
596.029	11776.63
596.387	11792.44
596.746	11772.56
597.104	11721.94
597.463	11667.93
597.822	11777.53
598.18	11711.77
598.538	11648.04
598.897	11726.23
599.255	11561.26
599.613	11728.94
599.972	11666.57
600.33	11697.31
600.688	11676.52
601.046	11737.76
601.404	11747.7
601.762	11619.57
602.12	11652.11
602.478	11742.5
602.836	11729.39
603.194	11722.62
603.552	11692.79
603.91	11661.37
604.268	11677.64
604.625	11613.92
604.983	11695.05
605.341	11532.56
605.698	11642.62
606.056	11714.25
606.413	11676.52
606.771	11690.75
607.128	11710.86
607.485	11666.12
607.843	11717.19
608.2	11747.02
608.557	11780.02
608.914	11708.38
609.272	11788.38
609.629	11753.8
609.986	11879.22
610.343	11787.47
610.7	11834.25
611.057	11771.43
611.414	11722.62
611.771	11829.05
612.127	11904.08
612.484	11815.95
612.841	11890.97
613.198	11884.87
613.554	11834.48
613.911	11801.48
614.267	11904.08
614.624	11850.3
614.98	11881.03
615.337	11954.93
615.693	11915.83
616.05	11895.72
616.406	11975.26
616.762	11929.39
617.118	11915.38
617.475	11875.83
617.831	11899.79
618.187	11968.94
618.543	11953.57
618.899	12027.01
619.255	11992.66
619.611	11954.7
619.967	12036.96
620.323	12036.05
620.678	11958.54
621.034	11993.12
621.39	11965.77
621.746	12002.38
622.101	12075.37
622.457	11984.76
622.812	11951.31
623.168	12054.58
623.523	12001.93
623.879	12125.99
624.234	12014.13
624.589	12013.68
624.945	12010.74
625.3	12001.03
625.655	12073.57
626.01	11983.63
626.365	12016.39
626.72	12042.83
627.075	12074.92
627.43	11975.94
627.785	11976.17
628.14	12033.12
628.495	12020.23
628.85	11946.79
629.205	11921.71
629.559	12100.91
629.914	12002.83
630.269	11991.99
630.623	12007.81
630.978	11934.14
631.332	11956.73
631.687	11959.67
632.041	11899.56
632.396	11956.28
632.75	11883.06
633.104	11990.18
633.459	11799.22
633.813	11837.87
634.167	11843.74
634.521	11813.01
634.875	11866.34
635.229	11862.05
635.583	11772.56
635.937	11767.13
636.291	11675.61
636.645	11762.84
636.999	11658.66
637.352	11703.86
637.706	11604.2
638.06	11686.68
638.413	11660.7
638.767	11622.28
639.121	11578.44
639.474	11587.25
639.828	11598.55
640.181	11571.66
640.534	11600.81
640.888	11537.08
641.241	11534.82
641.594	11524.65
641.947	11577.08
642.301	11552.9
642.654	11561.26
643.007	11546.57
643.36	11540.7
643.713	11552.45
644.066	11504.09
644.419	11461.61
644.771	11393.58
645.124	11292.12
645.477	11360.14
645.83	11259.35
646.182	11161.5
646.535	11126.47
646.888	11095.06
647.24	11074.72
647.593	11152.91
647.945	11083.99
648.298	11085.34
648.65	11097.1
649.002	11050.77
649.355	11171.9
649.707	11133.93
650.059	11152.69
650.411	11277.88
650.763	11239.24
651.115	11395.39
651.467	11359.91
651.819	11347.48
652.171	11352.91
652.523	11345.45
652.875	11313.13
653.227	11240.14
653.578	11353.81
653.93	11364.21
654.282	11290.54
654.633	11266.81
654.985	11306.36
655.337	11340.48
655.688	11365.34
656.039	11394.71
656.391	11223.42
656.742	11310.2
657.094	11341.38
657.445	11311.1
657.796	11350.42
658.147	11324.21
658.498	11368.27
658.849	11428.39
659.2	11335.51
659.551	11321.5
659.902	11380.48
660.253	11369.63
660.604	11397.2
660.955	11277.66
661.306	11329.18
661.656	11355.17
662.007	11387.03
662.358	11280.37
662.708	11328.95
663.059	11411.89
663.409	11380.48
663.76	11433.13
664.11	11340.25
664.461	11341.61
664.811	11361.04
665.161	11336.18
665.511	11396.75
665.862	11431.55
666.212	11481.94
666.562	11453.92
666.912	11409.4
667.262	11435.84
667.612	11427.48
667.962	11450.31
668.312	11406.01
668.662	11417.31
669.011	11406.01
669.361	11413.47
669.711	11361.95
670.06	11383.64
670.41	11372.79
670.76	11320.37
671.109	11363.98
671.459	11396.97
671.808	11298.9
672.157	11377.77
672.507	11236.98
672.856	11239.92
673.205	11293.7
673.554	11323.98
673.904	11263.64
674.253	11339.57
674.602	11288.73
674.951	11144.1
675.3	11092.35
675.649	11228.39
675.998	11288.73
676.346	11190.88
676.695	11202.4
677.044	11120.82
677.393	11186.81
677.741	11238.79
678.09	11229.97
678.438	11195.62
678.787	11162.4
679.135	11142.97
679.484	11046.25
679.832	11081.95
680.181	11035.63
680.529	11118.56
680.877	10994.05
681.225	11055.74
681.573	11121.28
681.922	11026.36
682.27	11005.8
682.618	10879.02
682.966	10905.46
683.314	10996.53
683.661	10934.39
684.009	10944.78
684.357	10813.94
684.705	10816.2
685.053	10776.2
685.4	10867.27
685.748	10744.34
686.095	10806.26
686.443	10748.63
686.79	10752.02
687.138	10730.33
687.485	10707.5
687.832	10706.37
688.18	10636.09
688.527	10576.66
688.874	10554.51
689.221	10545.25
689.568	10526.94
689.915	10405.36
690.262	10448.52
690.609	10427.96
690.956	10391.35
691.303	10391.35
691.65	10271.81
691.997	10333.27
692.344	10263.9
692.69	10198.59
693.037	10231.58
693.383	10152.04
693.73	10167.63
694.077	10058.25
694.423	10100.06
694.769	10008.76
695.116	10004.69
695.462	9942.32
695.808	9950.68
696.155	9973.28
696.501	9904.36
696.847	9865.04
697.193	9785.04
697.539	9766.06
697.885	9688.77
698.231	9654.42
698.577	9667.08
698.923	9618.49
699.269	9599.96
699.614	9528.1
699.96	9574.42
700.306	9496.23
700.651	9525.16
700.997	9401.09
701.342	9404.71
701.688	9386.63
702.033	9342.11
702.379	9350.02
702.724	9258.73
703.069	9344.37
703.415	9288.1
703.76	9177.37
704.105	9200.65
704.45	9130.82
704.795	9092.4
705.14	9044.27
705.485	9073.19
705.83	9004.49
706.175	9043.82
706.52	8986.19
706.865	8973.99
707.209	8967.66
707.554	8914.33
707.899	8883.14
708.243	8794.56
708.588	8841.56
708.932	8773.77
709.277	8774.22
709.621	8765.18
709.966	8685.86
710.31	8735.58
710.654	8673.66
710.998	8627.56
711.342	8630.27
711.687	8616.26
712.031	8614
712.375	8568.35
712.719	8579.2
713.063	8524.28
713.407	8537.84
713.75	8510.95
714.094	8541.46
714.438	8478.18
714.782	8510.72
715.125	8487.45
715.469	8416.04
715.812	8445.41
716.156	8387.11
716.499	8369.03
716.843	8390.27
717.186	8369.48
717.53	8362.03
717.873	8322.7
718.216	8318.64
718.559	8294.91
718.902	8263.27
719.246	8227.11
719.589	8257.85
719.932	8217.62
720.275	8232.99
720.617	8224.63
720.96	8150.51
721.303	8223.95
721.646	8191.86
721.989	8200.45
722.331	8216.49
722.674	8161.35
723.016	8144.63
723.359	8144.63
723.701	8129.94
724.044	8118.19
724.386	8071.19
724.729	8125.87
725.071	8129.72
725.413	8191.18
725.755	8083.16
726.097	8080
726.439	8070.96
726.782	8089.49
727.124	8076.61
727.465	8035.48
727.807	8049.04
728.149	8021.7
728.491	8044.29
728.833	8028.7
729.175	7978.76
729.516	8047.91
729.858	8008.14
730.199	8075.03
730.541	8016.27
730.882	8050.85
731.224	8021.7
731.565	7962.04
731.906	7968.36
732.248	8024.18
732.589	7967.46
732.93	7976.05
733.271	7975.6
733.612	7986.67
733.953	7950.51
734.294	7961.81
734.635	7930.85
734.976	7987.35
735.317	7941.7
735.658	7972.88
735.999	7939.89
736.339	7964.97
736.68	7981.7
737.021	8023.28
737.361	8001.36
737.702	8015.14
738.042	8017.85
738.383	8057.85
738.723	7987.57
739.063	8013.33
739.404	8025.76
739.744	8077.29
740.084	8007.91
740.424	8055.82
740.764	8014.92
741.104	8097.17
741.444	8086.78
741.784	8036.61
742.124	8107.12
742.464	8119.77
742.804	8152.31
743.143	8138.53
743.483	8131.3
743.823	8172.65
744.162	8161.35
744.502	8269.37
744.841	8216.04
745.181	8311.18
745.52	8294.01
745.86	8350.05
746.199	8405.19
746.538	8388.47
746.877	8451.29
747.216	8554.56
747.556	8535.35
747.895	8590.27
748.234	8577.84
748.573	8617.84
748.911	8712.75
749.25	8677.27
749.589	8826.87
749.928	8877.04
750.267	9004.04
750.605	9006.08
750.944	9044.49
751.283	9084.94
751.621	9169.24
751.96	9271.38
752.298	9356.58
752.636	9478.38
752.975	9505.95
753.313	9587.76
753.651	9778.26
753.989	9781.88
754.327	9880.4
754.666	9925.37
755.004	10135.76
755.342	10298.7
755.679	10320.39
756.017	10505.7
756.355	10669.08
756.693	10743.66
757.031	10912.92
757.368	11021.39
757.706	11067.27
758.044	11285.79
758.381	11391.55
758.719	11529.63
759.056	11736.63
759.394	11862.27
759.731	11950.86
