Data from hue_34_FLMS001491_00069.txt Node
Date: Tue Feb 07 17:25:59 GMT 2017
User: dcchb
Spectrometer: FLMS00149
Trigger mode: 0
Integration Time (sec): 2.000000E-2
Scans to average: 10
Electric dark correction enabled: true
Nonlinearity correction enabled: false
Boxcar width: 0
XAxis mode: Wavelengths
Number of Pixels in Spectrum: 2048
>>>>>Begin Spectral Data<<<<<
341.393	-25.79
341.776	-25.79
342.16	-25.79
342.543	-43.87
342.927	-65.34
343.31	-67.6
343.693	-60.37
344.077	-71.66
344.46	-61.95
344.843	-59.91
345.226	-42.74
345.61	-40.93
345.993	-16.07
346.376	-0.25
346.759	11.72
347.142	27.54
347.525	53.08
347.908	47.2
348.291	98.05
348.674	83.59
349.057	100.31
349.44	114.09
349.823	147.54
350.206	148.22
350.588	178.05
350.971	220.3
351.354	237.03
351.737	224.15
352.119	247.65
352.502	263.24
352.884	268.44
353.267	291.26
353.65	273.18
354.032	316.8
354.414	297.59
354.797	298.04
355.179	329
355.562	325.84
355.944	349.57
356.326	355.22
356.709	337.36
357.091	331.71
357.473	348.89
357.855	341.66
358.238	359.74
358.62	340.98
359.002	341.21
359.384	338.27
359.766	343.01
360.148	340.08
360.53	330.36
360.912	351.37
361.294	321.55
361.676	330.36
362.057	373.97
362.439	320.64
362.821	345.95
363.203	326.97
363.584	324.71
363.966	330.81
364.348	332.84
364.729	346.4
365.111	344.82
365.493	319.51
365.874	317.48
366.256	316.35
366.637	326.97
367.019	313.64
367.4	326.06
367.781	300.53
368.163	309.57
368.544	318.61
368.925	315.44
369.306	308.21
369.688	305.27
370.069	326.97
370.45	305.27
370.831	324.26
371.212	314.54
371.593	323.81
371.974	314.77
372.355	316.35
372.736	347.31
373.117	317.93
373.498	329.68
373.879	311.38
374.26	324.71
374.641	300.3
375.021	317.7
375.402	343.47
375.783	330.36
376.163	321.77
376.544	322.9
376.925	358.83
377.305	354.99
377.686	335.1
378.066	350.25
378.447	351.6
378.827	334.88
379.208	330.13
379.588	356.57
379.968	328.32
380.349	334.2
380.729	349.12
381.109	340.53
381.489	330.58
381.87	343.01
382.25	346.63
382.63	343.69
383.01	359.51
383.39	364.48
383.77	324.48
384.15	346.18
384.53	343.69
384.91	346.63
385.29	356.35
385.67	354.31
386.049	380.75
386.429	346.4
386.809	354.76
387.189	366.52
387.568	368.32
387.948	365.39
388.328	360.19
388.707	363.58
389.087	360.64
389.466	386.18
389.846	366.74
390.225	371.04
390.605	364.71
390.984	371.71
391.363	387.31
391.743	374.2
392.122	368.78
392.501	360.64
392.881	359.06
393.26	376.69
393.639	383.69
394.018	372.84
394.397	393.63
394.776	383.01
395.155	387.98
395.534	383.69
395.913	378.72
396.292	402.22
396.671	386.18
397.05	369.68
397.429	389.57
397.808	385.5
398.186	410.58
398.565	401.54
398.944	396.8
399.323	405.16
399.701	394.76
400.08	402.9
400.458	397.25
400.837	394.76
401.215	423.01
401.594	387.76
401.972	405.61
402.351	397.25
402.729	427.98
403.107	404.48
403.486	425.27
403.864	429.56
404.242	402.22
404.62	422.56
404.999	432.05
405.377	414.65
405.755	416.46
406.133	424.37
406.511	437.47
406.889	459.62
407.267	456.23
407.645	436.8
408.023	443.12
408.401	440.64
408.779	460.52
409.156	460.3
409.534	457.81
409.912	464.37
410.29	449.9
410.667	455.33
411.045	442.67
411.422	462.33
411.8	458.94
412.178	451.94
412.555	471.6
412.933	445.84
413.31	481.77
413.687	465.04
414.065	505.27
414.442	507.76
414.819	468.21
415.197	512.5
415.574	515.66
415.951	514.31
416.328	489
416.705	515.21
417.082	513.86
417.46	500.52
417.837	524.93
418.214	529.22
418.591	524.03
418.967	524.25
419.344	495.1
419.721	529.22
420.098	533.07
420.475	546.4
420.852	569
421.228	524.48
421.605	543.01
421.982	554.99
422.358	533.74
422.735	523.8
423.111	550.24
423.488	574.19
423.864	561.76
424.241	566.06
424.617	567.87
424.994	572.84
425.37	577.36
425.746	564.93
426.123	581.65
426.499	571.03
426.875	574.65
427.251	578.94
427.627	587.98
428.003	599.28
428.379	614.19
428.756	597.47
429.132	613.06
429.507	625.27
429.883	635.44
430.259	660.52
430.635	620.07
431.011	635.89
431.387	639.05
431.763	654.42
432.138	652.38
432.514	676.34
432.89	653.29
433.265	663.91
433.641	673.63
434.016	664.81
434.392	668.43
434.767	677.24
435.143	706.39
435.518	707.98
435.894	706.39
436.269	710.91
436.644	714.76
437.02	726.96
437.395	702.33
437.77	742.1
438.145	726.51
438.52	735.09
438.895	755.21
439.271	733.74
439.646	773.74
440.021	759.05
440.395	747.97
440.77	724.47
441.145	769.22
441.52	766.51
441.895	756.79
442.27	774.64
442.645	782.1
443.019	795.21
443.394	788.43
443.769	804.92
444.143	810.8
444.518	818.26
444.892	800.18
445.267	802.66
445.641	843.57
446.016	845.6
446.39	851.7
446.764	821.19
447.139	841.31
447.513	827.75
447.887	833.85
448.262	848.31
448.636	846.5
449.01	863
449.384	863.68
449.758	865.26
450.132	892.15
450.506	882.43
450.88	905.26
451.254	894.19
451.628	884.92
452.002	907.52
452.376	892.15
452.75	914.52
453.123	936.44
453.497	941.64
453.871	935.31
454.244	939.16
454.618	963.11
454.992	972.15
455.365	988.87
455.739	993.17
456.112	997.23
456.486	1020.06
456.859	992.94
457.232	1045.37
457.606	1041.53
457.979	1030
458.352	1039.49
458.725	1081.53
459.099	1089.66
459.472	1086.04
459.845	1116.78
460.218	1105.25
460.591	1133.95
460.964	1136.67
461.337	1159.49
461.71	1162.43
462.083	1160.85
462.456	1203.33
462.829	1187.29
463.201	1209.43
463.574	1219.6
463.947	1217.11
464.32	1266.83
464.692	1280.16
465.065	1278.58
465.438	1303.44
465.81	1300.28
466.183	1351.12
466.555	1353.38
466.928	1383.44
467.3	1363.33
467.672	1396.32
468.045	1413.04
468.417	1421.86
468.789	1442.87
469.161	1470.44
469.534	1506.6
469.906	1502.08
470.278	1497.79
470.65	1540.95
471.022	1606.48
471.394	1608.97
471.766	1620.04
472.138	1670.21
472.51	1701.85
472.882	1762.41
473.253	1730.77
473.625	1774.61
473.997	1822.3
474.369	1842.64
474.74	1888.28
475.112	1902.97
475.484	1924.21
475.855	1987.49
476.227	2011.67
476.598	2078.56
476.97	2124.89
477.341	2154.27
477.713	2189.29
478.084	2239.23
478.455	2309.06
478.827	2344.09
479.198	2374.82
479.569	2399.23
479.94	2473.81
480.311	2553.8
480.682	2620.02
481.053	2674.03
481.424	2726
481.795	2776.62
482.166	2851.42
482.537	2893
482.908	3020.46
483.279	3073.79
483.65	3126.22
484.021	3210.28
484.391	3278.53
484.762	3303.39
485.133	3383.16
485.503	3489.15
485.874	3587.9
486.244	3646.66
486.615	3710.61
486.985	3771.17
487.356	3901.56
487.726	3906.31
488.097	4070.6
488.467	4148.79
488.837	4265.62
489.207	4352.17
489.578	4406.86
489.948	4521.89
490.318	4575.67
490.688	4633.97
491.058	4708.55
491.428	4851.6
491.798	4904.02
492.168	5060.4
492.538	5116.9
492.908	5212.26
493.278	5292.94
493.648	5343.33
494.017	5450.22
494.387	5507.85
494.757	5631.24
495.126	5682.53
495.496	5779.93
495.866	5806.15
496.235	5937.89
496.605	6001.4
496.974	6098.12
497.344	6117.1
497.713	6220.6
498.082	6322.74
498.452	6427.83
498.821	6478.45
499.19	6456.98
499.559	6600.02
499.928	6637.09
500.298	6725.67
500.667	6812.22
501.036	6851.09
501.405	6931.77
501.774	6944.2
502.143	7030.3
502.512	7119.33
502.88	7150.74
503.249	7201.36
503.618	7339.67
503.987	7341.93
504.356	7405.2
504.724	7452.66
505.093	7552.09
505.462	7507.57
505.83	7631.18
506.199	7673.22
506.567	7845.64
506.936	7863.72
507.304	7926.77
507.672	7973.77
508.041	8066.88
508.409	8148.01
508.777	8193.2
509.145	8193.2
509.514	8294.67
509.882	8314.56
510.25	8321.56
510.618	8396.36
510.986	8451.5
511.354	8510.93
511.722	8644.72
512.09	8721.32
512.458	8723.13
512.826	8781.44
513.193	8796.35
513.561	8838.61
513.929	8897.59
514.297	8978.49
514.664	9041.32
515.032	9114.76
515.4	9165.61
515.767	9192.5
516.135	9257.58
516.502	9244.47
516.869	9346.62
517.237	9417.13
517.604	9406.73
517.972	9473.62
518.339	9519.5
518.706	9540.29
519.073	9572.83
519.44	9629.78
519.808	9701.86
520.175	9700.73
520.542	9887.62
520.909	9918.81
521.276	9862.09
521.643	10004.68
522.009	10011.23
522.376	10138.24
522.743	10182.75
523.11	10282.64
523.477	10334.39
523.843	10426.36
524.21	10413.03
524.577	10536.64
524.943	10583.42
525.31	10678.34
525.676	10758.33
526.043	10791.78
526.409	10798.33
526.776	11000.36
527.142	11008.04
527.508	11048.95
527.874	11129.17
528.241	11140.24
528.607	11189.28
528.973	11331.88
529.339	11300.24
529.705	11488.71
530.071	11466.34
530.437	11550.63
530.803	11682.15
531.169	11658.42
531.535	11670.4
531.901	11737.29
532.267	11796.27
532.632	11861.81
532.998	11905.65
533.364	11994.46
533.73	11990.62
534.095	12098.41
534.461	12099.99
534.826	12186.77
535.192	12254.56
535.557	12364.84
535.923	12311.29
536.288	12304.28
536.653	12422.24
537.019	12398.74
537.384	12416.59
537.749	12589.92
538.114	12634.67
538.479	12612.3
538.845	12720.77
539.21	12806.64
539.575	12709.47
539.94	12832.4
540.305	12867.66
540.67	12902.68
541.034	13007.99
541.399	13066.29
541.764	13075.56
542.129	13157.14
542.494	13147.65
542.858	13287.98
543.223	13184.26
543.587	13343.12
543.952	13327.53
544.316	13408.21
544.681	13450.24
545.045	13511.48
545.41	13563
545.774	13557.81
546.138	13609.33
546.503	13650.91
546.867	13687.3
547.231	13842.77
547.595	13948.76
547.959	13916.22
548.324	13924.35
548.688	13980.17
549.052	14101.3
549.416	14111.24
549.779	14143.78
550.143	14218.58
550.507	14271.01
550.871	14315.3
551.235	14265.59
551.599	14428.97
551.962	14461.96
552.326	14430.33
552.689	14558.46
553.053	14484.79
553.417	14562.3
553.78	14716.65
554.143	14604.33
554.507	14723.65
554.87	14795.97
555.234	14916.19
555.597	14894.72
555.96	14992.12
556.323	15012.01
556.686	15024.21
557.05	15071.67
557.413	15184.21
557.776	15166.35
558.139	15298.55
558.502	15291.32
558.865	15437.31
559.228	15410.87
559.59	15449.51
559.953	15491.54
560.316	15705.32
560.679	15658.77
561.041	15713
561.404	15765.66
561.767	15831.19
562.129	15856.73
562.492	16011.08
562.854	15963.85
563.217	16099.66
563.579	16118.42
563.941	16097.85
564.304	16283.16
564.666	16443.83
565.028	16417.39
565.39	16435.47
565.753	16538.75
566.115	16515.47
566.477	16613.55
566.839	16736.71
567.201	16834.33
567.563	16764.05
567.925	16923.59
568.287	16940.09
568.648	16922.24
569.01	17016.25
569.372	17131.72
569.734	17079.3
570.095	17229.58
570.457	17344.83
570.819	17341.89
571.18	17373.98
571.542	17535.33
571.903	17539.85
572.265	17678.83
572.626	17698.72
572.987	17760.63
573.349	17888.54
573.71	17933.29
574.071	18083.34
574.432	18059.38
574.794	18299.83
575.155	18323.11
575.516	18399.71
575.877	18481.75
576.238	18600.39
576.599	18710.67
576.96	18864.33
577.32	18985.01
577.681	19054.84
578.042	19110.2
578.403	19286.24
578.763	19375.06
579.124	19557.42
579.485	19700.7
579.845	19896.62
580.206	19929.84
580.566	20059.56
580.927	20199.21
581.287	20403.73
581.648	20493.22
582.008	20724.17
582.368	20893.21
582.728	21087.1
583.089	21178.17
583.449	21357.38
583.809	21557.82
584.169	21838.95
584.529	21915.55
584.889	22209.56
585.249	22304.7
585.609	22451.36
585.969	22773.38
586.329	22949.88
586.688	23233.71
587.048	23469.19
587.408	23588.28
587.768	23619.01
588.127	23955.73
588.487	24127.92
588.846	24538.99
589.206	24592.77
589.565	24879.77
589.925	25197.5
590.284	25323.83
590.643	25648.34
591.003	25987.54
591.362	26234.99
591.721	26386.17
592.08	26603.34
592.44	27015.53
592.799	27201.29
593.158	27311.34
593.517	27614.61
593.876	28021.83
594.235	27995.62
594.593	28352.9
594.952	28641.03
595.311	28684.42
595.67	29003.95
596.029	29439.2
596.387	29682.58
596.746	29787.66
597.104	30048.45
597.463	30251.83
597.822	30593.29
598.18	30711.93
598.538	31017.91
598.897	31352.59
599.255	31259.04
599.613	31810.66
599.972	31903.31
600.33	32251.1
600.688	32245
601.046	32671.2
601.404	32935.15
601.762	33037.75
602.12	33324.07
602.478	33552.54
602.836	33620.56
603.194	33824.85
603.552	34035.24
603.91	34104.16
604.268	34482.68
604.625	34656.01
604.983	34883.35
605.341	34809.45
605.698	35271.36
606.056	35368.76
606.413	35408.53
606.771	35767.84
607.128	35991.34
607.485	35964
607.843	36182.07
608.2	36472.01
608.557	36729.18
608.914	36512.23
609.272	37005.1
609.629	37158.99
609.986	37471.53
610.343	37356.96
610.7	37761.69
611.057	37796.72
611.414	38004.17
611.771	37999.2
612.127	38195.13
612.484	38493.42
612.841	38646.41
613.198	38681.21
613.554	38666.53
613.911	38914.43
614.267	39000.08
614.624	39181.77
614.98	39226.06
615.337	39493.4
615.693	39530.23
616.05	39651.36
616.406	39814.74
616.762	39847.51
617.118	40057.22
617.475	40093.15
617.831	40176.54
618.187	40206.37
618.543	40426.03
618.899	40723.87
619.255	40628.28
619.611	40689.52
619.967	40948.05
620.323	41052.45
620.678	40976.75
621.034	40965.67
621.39	41088.38
621.746	41205.44
622.101	41560.46
622.457	41338.32
622.812	41329.51
623.168	41669.84
623.523	41586.9
623.879	41778.99
624.234	41560.69
624.589	41880.23
624.945	41838.19
625.3	41981.92
625.655	42016.27
626.01	42089.03
626.365	42220.33
626.72	42058.3
627.075	42238.41
627.43	42117.06
627.785	42032.09
628.14	42238.41
628.495	42351.85
628.85	42197.96
629.205	42148.02
629.559	42389.14
629.914	42274.79
630.269	42338.07
630.623	42274.11
630.978	42138.3
631.332	42332.64
631.687	42515.46
632.041	42281.8
632.396	42445.64
632.75	42159.54
633.104	42361.57
633.459	42145.98
633.813	42311.4
634.167	42251.06
634.521	42255.36
634.875	42398.86
635.229	42358.63
635.583	42053.78
635.937	42272.98
636.291	42312.98
636.645	42221.46
636.999	42233.66
637.352	42311.18
637.706	42135.14
638.06	42328.35
638.413	42190.5
638.767	42135.59
639.121	42177.17
639.474	42043.39
639.828	42104.18
640.181	42199.31
640.534	42111.86
640.888	41996.61
641.241	41889.27
641.594	41962.48
641.947	42186.89
642.301	41982.82
642.654	41955.93
643.007	42018.98
643.36	41764.07
643.713	41802.26
644.066	42010.39
644.419	41915.48
644.771	41600.01
645.124	41259.68
645.477	41202.28
645.83	40949.4
646.182	40836.64
646.535	40650.88
646.888	40855.39
647.24	40490.66
647.593	40734.72
647.945	40603.42
648.298	40509.64
648.65	40553.26
649.002	40271.23
649.355	40549.41
649.707	40492.24
650.059	40734.49
650.411	41233.24
650.763	41152.79
651.115	41513.68
651.467	41278.21
651.819	41423.29
652.171	41203.18
652.523	41281.15
652.875	41325.66
653.227	40939.23
653.578	41418.54
653.93	41334.7
654.282	41059.46
654.633	41077.54
654.985	41193.46
655.337	41167.25
655.688	41198.44
656.039	41249.28
656.391	41034.37
656.742	41080.25
657.094	41157.99
657.445	41139.91
657.796	41144.43
658.147	41035.95
658.498	40894.72
658.849	41077.08
659.2	41026.24
659.551	40912.79
659.902	40999.8
660.253	41064.65
660.604	41033.7
660.955	40992.57
661.306	41004.77
661.656	40917.54
662.007	40871.44
662.358	40830.99
662.708	40909.18
663.059	40987.37
663.409	40592.35
663.76	41036.18
664.11	40834.38
664.461	40933.13
664.811	40845.68
665.161	40955.73
665.511	40769.75
665.862	40722.74
666.212	40755.06
666.562	40897.65
666.912	40700.82
667.262	40585.8
667.612	40748.96
667.962	40815.85
668.312	40679.58
668.662	40936.52
669.011	40735.17
669.361	40668.51
669.711	40649.07
670.06	40523.65
670.41	40642.97
670.76	40575.63
671.109	40659.92
671.459	40503.54
671.808	40492.47
672.157	40550.54
672.507	40351
672.856	40415.63
673.205	40489.3
673.554	40611.56
673.904	40477.33
674.253	40579.47
674.602	40554.39
674.951	39851.13
675.3	39755.54
675.649	40336.99
675.998	40327.05
676.346	40366.14
676.695	40524.1
677.044	40191.01
677.393	40242.76
677.741	40284.34
678.09	40210.44
678.438	40158.92
678.787	40366.82
679.135	40163.89
679.484	40043.44
679.832	40112.14
680.181	39806.38
680.529	39847.29
680.877	39811.81
681.225	39857
681.573	40127.28
681.922	39751.24
682.27	39679.38
682.618	39857
682.966	39562.55
683.314	39819.72
683.661	39459.5
684.009	39328.88
684.357	39453.62
684.705	39368.65
685.053	39325.27
685.4	39278.94
685.748	39109.23
686.095	39150.13
686.443	38980.64
686.79	39035.56
687.138	38830.59
687.485	38963.47
687.832	38836.69
688.18	38851.61
688.527	38643.02
688.874	38622.91
689.221	38417.94
689.568	38390.6
689.915	38292.98
690.262	38360.77
690.609	38238.97
690.956	38111.06
691.303	37996.26
691.65	37968.92
691.997	37954
692.344	37662.94
692.69	37595.14
693.037	37653.22
693.383	37397.18
693.73	37640.11
694.077	37361.93
694.423	37316.28
694.769	37338.88
695.116	37278.31
695.462	37182.5
695.808	36885.33
696.155	37071.77
696.501	36726.01
696.847	36667.93
697.193	36592.46
697.539	36654.6
697.885	36483.98
698.231	36451.44
698.577	36410.31
698.923	36246.25
699.269	36076.31
699.614	35976.88
699.96	35822.76
700.306	35898.01
700.651	35643.78
700.997	35465.93
701.342	35533.05
701.688	35481.52
702.033	35356.1
702.379	35295.31
702.724	35300.51
703.069	35271.59
703.415	34814.88
703.76	34999.5
704.105	34894.65
704.45	34986.85
704.795	34561.77
705.14	34630.7
705.485	34484.71
705.83	34456.24
706.175	34418.95
706.52	34269.13
706.865	34175.12
707.209	34209.02
707.554	34092.41
707.899	34234.1
708.243	33864.62
708.588	33893.32
708.932	33656.49
709.277	33721.8
709.621	33724.06
709.966	33508.92
710.31	33581.46
710.654	33228.25
710.998	33315.03
711.342	33351.19
711.687	33251.75
712.031	33108.25
712.375	33058.99
712.719	33097.18
713.063	32933.57
713.407	33029.61
713.75	32880.01
714.094	32877.07
714.438	32633.01
714.782	32634.59
715.125	32597.76
715.469	32706
715.812	32433.24
716.156	32380.14
716.499	32337.88
716.843	32225.79
717.186	32102.63
717.53	32310.53
717.873	32235.51
718.216	32184.66
718.559	31955.52
718.902	31811.11
719.246	31731.79
719.589	31710.32
719.932	31619.03
720.275	31699.7
720.617	31554.85
720.96	31547.84
721.303	31533.15
721.646	31551.46
721.989	31404.34
722.331	31414.96
722.674	31371.12
723.016	31369.09
723.359	31313.95
723.701	31348.75
724.044	31181.52
724.386	30935.88
724.729	31065.14
725.071	31100.62
725.413	31084.8
725.755	31040.51
726.097	30871.48
726.439	30574.31
726.782	30669.67
727.124	30975.88
727.465	30685.49
727.807	30736.56
728.149	30552.61
728.491	30647.75
728.833	30507.64
729.175	30415.9
729.516	30448.44
729.858	30373.86
730.199	30392.62
730.541	30313.98
730.882	30282.57
731.224	30330.47
731.565	30093.87
731.906	30053.87
732.248	30132.06
732.589	29937.04
732.93	29837.38
733.271	29955.34
733.612	29960.54
733.953	29911.5
734.294	29806.65
734.635	29744.95
734.976	29785.63
735.317	29685.29
735.658	29612.75
735.999	29584.28
736.339	29449.59
736.68	29504.28
737.021	29458.41
737.361	29401.91
737.702	29508.35
738.042	29316.72
738.383	29241.91
738.723	29291.4
739.063	29216.6
739.404	29269.03
739.744	29139.32
740.084	29180.45
740.424	29239.2
740.764	29012.77
741.104	29085.08
741.444	29064.29
741.784	28878.99
742.124	28955.37
742.464	28945.2
742.804	28885.99
743.143	28834.47
743.483	28765.32
743.823	28626.56
744.162	28658.88
744.502	28808.71
744.841	28531.2
745.181	28546.79
745.52	28535.72
745.86	28473.57
746.199	28418.43
746.538	28417.76
746.877	28488.94
747.216	28399.68
747.556	28332.56
747.895	28176.18
748.234	28191.09
748.573	28182.96
748.911	28114.26
749.25	28072.68
749.589	27926.7
749.928	27981.61
750.267	27998.78
750.605	27912.46
750.944	27914.49
751.283	27789.3
751.621	27765.57
751.96	27675.85
752.298	27721.95
752.636	27606.25
752.975	27537.1
753.313	27482.19
753.651	27550.66
753.989	27368.97
754.327	27335.07
754.666	27328.52
755.004	27258.92
755.342	27239.71
755.679	27180.73
756.017	26997.45
756.355	27144.34
756.693	27034.52
757.031	27026.38
757.368	26921.3
757.706	26666.84
758.044	26610.8
