Data from hue_20_FLMS001491_100.txt Node
Date: Mon Feb 06 15:35:01 GMT 2017
User: dcchb
Spectrometer: FLMS00149
Trigger mode: 0
Integration Time (sec): 2.000000E-2
Scans to average: 10
Electric dark correction enabled: true
Nonlinearity correction enabled: false
Boxcar width: 0
XAxis mode: Wavelengths
Number of Pixels in Spectrum: 2048
>>>>>Begin Spectral Data<<<<<
341.393	-16.52
341.776	-16.52
342.16	-16.52
342.543	-51.1
342.927	-77.99
343.31	-48.84
343.693	-78.67
344.077	-59.91
344.46	-66.24
344.843	-44.77
345.226	-39.35
345.61	-35.06
345.993	-6.13
346.376	-15.4
346.759	13.3
347.142	30.71
347.525	37.71
347.908	55.11
348.291	67.99
348.674	78.61
349.057	110.93
349.44	128.78
349.823	150.25
350.206	162
350.588	196.12
350.971	225.95
351.354	239.74
351.737	230.02
352.119	248.33
352.502	263.69
352.884	272.96
353.267	291.72
353.65	284.71
354.032	292.62
354.414	305.05
354.797	338.27
355.179	294.88
355.562	333.07
355.944	339.4
356.326	317.7
356.709	338.49
357.091	347.99
357.473	346.18
357.855	329.45
358.238	346.63
358.62	317.03
359.002	336.46
359.384	354.76
359.766	336.46
360.148	342.34
360.53	353.41
360.912	357.25
361.294	356.8
361.676	352.73
362.057	326.29
362.439	321.32
362.821	325.84
363.203	338.49
363.584	316.12
363.966	334.65
364.348	339.85
364.729	331.71
365.111	309.79
365.493	344.14
365.874	338.27
366.256	331.94
366.637	338.27
367.019	332.62
367.4	317.7
367.781	322.45
368.163	319.29
368.544	324.71
368.925	319.74
369.306	321.55
369.688	335.56
370.069	333.07
370.45	316.8
370.831	313.64
371.212	312.28
371.593	323.81
371.974	323.13
372.355	331.71
372.736	320.19
373.117	331.71
373.498	330.13
373.879	339.4
374.26	338.04
374.641	334.2
375.021	314.77
375.402	333.52
375.783	322.22
376.163	336.46
376.544	328.55
376.925	316.35
377.305	339.17
377.686	345.5
378.066	345.5
378.447	330.81
378.827	348.89
379.208	338.04
379.588	352.28
379.968	351.6
380.349	349.57
380.729	346.4
381.109	349.57
381.489	367.65
381.87	361.54
382.25	348.89
382.63	350.02
383.01	361.32
383.39	349.34
383.77	353.18
384.15	343.47
384.53	349.12
384.91	351.83
385.29	372.17
385.67	369
386.049	385.5
386.429	353.86
386.809	358.38
387.189	355.67
387.568	383.69
387.948	385.95
388.328	378.94
388.707	372.39
389.087	359.51
389.466	390.92
389.846	372.17
390.225	377.81
390.605	373.75
390.984	390.24
391.363	366.97
391.743	394.76
392.122	390.24
392.501	391.37
392.881	399.06
393.26	400.64
393.639	418.04
394.018	387.53
394.397	401.77
394.776	385.05
395.155	390.47
395.534	394.76
395.913	406.97
396.292	408.32
396.671	399.51
397.05	398.83
397.429	416.68
397.808	407.64
398.186	387.31
398.565	434.76
398.944	406.06
399.323	397.48
399.701	415.55
400.08	432.5
400.458	436.34
400.837	428.66
401.215	429.34
401.594	419.17
401.972	431.82
402.351	404.93
402.729	434.31
403.107	440.41
403.486	446.51
403.864	435.67
404.242	442.45
404.62	460.98
404.999	462.33
405.377	462.11
405.755	452.84
406.133	444.48
406.511	443.35
406.889	454.88
407.267	455.55
407.645	460.52
408.023	487.64
408.401	475.44
408.779	485.61
409.156	482.9
409.534	467.98
409.912	489.68
410.29	487.42
410.667	494.65
411.045	488.09
411.422	509.11
411.8	509.56
412.178	530.35
412.555	521.99
412.933	537.58
413.31	510.92
413.687	536
414.065	545.27
414.442	538.71
414.819	540.52
415.197	523.8
415.574	537.36
415.951	571.48
416.328	536.45
416.705	540.75
417.082	552.27
417.46	544.14
417.837	554.53
418.214	562.44
418.591	564.7
418.967	582.33
419.344	572.61
419.721	582.78
420.098	587.75
420.475	585.27
420.852	578.94
421.228	581.43
421.605	602.67
421.982	590.92
422.358	604.02
422.735	596.11
423.111	603.12
423.488	623.23
423.864	638.37
424.241	611.03
424.617	607.64
424.994	625.49
425.37	621.88
425.746	637.02
426.123	642.21
426.499	647.64
426.875	634.08
427.251	665.72
427.627	658.49
428.003	662.78
428.379	675.43
428.756	668.2
429.132	678.37
429.507	688.09
429.883	702.33
430.259	695.55
430.635	704.36
431.011	723.57
431.387	726.05
431.763	735.77
432.138	746.62
432.514	736.68
432.89	733.96
433.265	749.33
433.641	774.87
434.016	765.38
434.392	777.13
434.767	787.52
435.143	794.08
435.518	784.36
435.894	786.62
436.269	809.89
436.644	807.63
437.02	839.72
437.395	807.18
437.77	829.1
438.145	828.88
438.52	855.32
438.895	844.02
439.271	852.15
439.646	855.54
440.021	884.92
440.395	860.74
440.77	858.25
441.145	882.43
441.52	868.88
441.895	887.18
442.27	888.54
442.645	906.16
443.019	910.91
443.394	917.91
443.769	924.02
444.143	910.91
444.518	931.25
444.892	927.4
445.267	942.77
445.641	947.07
446.016	969.89
446.39	975.54
446.764	946.39
447.139	950.23
447.513	983
447.887	969.44
448.262	964.47
448.636	967.4
449.01	1003.11
449.384	1010.11
449.758	995.88
450.132	1010.34
450.506	988.42
450.88	1015.99
451.254	1041.3
451.628	1042.88
452.002	1077.46
452.376	1064.12
452.75	1067.51
453.123	1076.55
453.497	1087.4
453.871	1088.98
454.244	1128.76
454.618	1116.33
454.992	1157.46
455.365	1120.39
455.739	1161.07
456.112	1166.72
456.486	1185.03
456.859	1198.13
457.232	1216.21
457.606	1203.78
457.979	1249.43
458.352	1250.33
458.725	1235.87
459.099	1301.63
459.472	1269.54
459.845	1278.58
460.218	1293.72
460.591	1345.02
460.964	1335.08
461.337	1348.86
461.71	1343.21
462.083	1397.45
462.456	1400.16
462.829	1390.44
463.201	1384.79
463.574	1387.96
463.947	1429.76
464.32	1436.32
464.692	1474.06
465.065	1486.26
465.438	1532.13
465.81	1521.74
466.183	1520.84
466.555	1585.92
466.928	1582.08
467.3	1589.08
467.672	1618.91
468.045	1618.91
468.417	1671.34
468.789	1658.46
469.161	1674.73
469.534	1722.64
469.906	1728.06
470.278	1736.65
470.65	1804.67
471.022	1801.96
471.394	1854.16
471.766	1851
472.138	1877.21
472.51	1902.97
472.882	1938.45
473.253	1960.82
473.625	1988.39
473.997	2038.34
474.369	2042.86
474.74	2053.93
475.112	2102.52
475.484	2148.39
475.855	2152.46
476.227	2184.77
476.598	2258.67
476.97	2290.53
477.341	2316.75
477.713	2368.72
478.084	2358.55
478.455	2452.11
478.827	2447.82
479.198	2511.09
479.569	2530.75
479.94	2595.16
480.311	2651.2
480.682	2702.95
481.053	2751.99
481.424	2807.36
481.795	2829.5
482.166	2908.6
482.537	2931.42
482.908	3000.8
483.279	3015.26
483.65	3071.53
484.021	3190.62
484.391	3175.71
484.762	3209.15
485.133	3255.93
485.503	3313.56
485.874	3370.28
486.244	3411.86
486.615	3477.85
486.985	3522.37
487.356	3636.03
487.726	3629.48
488.097	3700.89
488.467	3733.88
488.837	3788.12
489.207	3900.66
489.578	3932.98
489.948	3965.74
490.318	4024.72
490.688	4057.27
491.058	4118.51
491.428	4160.09
491.798	4228.34
492.168	4287.54
492.538	4304.72
492.908	4397.14
493.278	4413.42
493.648	4478.27
494.017	4546.74
494.387	4602.11
494.757	4598.72
495.126	4692.73
495.496	4700.19
495.866	4713.52
496.235	4778.38
496.605	4825.16
496.974	4855.21
497.344	4958.71
497.713	4964.36
498.082	4933.85
498.452	5030.35
498.821	5036.9
499.19	5089.78
499.559	5143.79
499.928	5148.76
500.298	5156.22
500.667	5236.22
501.036	5263.56
501.405	5306.05
501.774	5267.4
502.143	5342.43
502.512	5354.41
502.88	5452.48
503.249	5428.76
503.618	5497
503.987	5560.28
504.356	5576.32
504.724	5592.59
505.093	5623.78
505.462	5707.62
505.83	5690.44
506.199	5699.03
506.567	5812.25
506.936	5777.9
507.304	5873.94
507.672	5860.38
508.041	5890.89
508.409	5965.69
508.777	5943.32
509.145	6003.66
509.514	5995.29
509.882	6040.72
510.25	6073.03
510.618	6100.83
510.986	6125.01
511.354	6132.92
511.722	6212.24
512.09	6335.17
512.458	6263.76
512.826	6247.94
513.193	6369.52
513.561	6347.83
513.929	6383.53
514.297	6475.28
514.664	6530.42
515.032	6520.93
515.4	6606.58
515.767	6591.89
516.135	6608.84
516.502	6559.57
516.869	6670.98
517.237	6721.15
517.604	6677.31
517.972	6814.71
518.339	6809.74
518.706	6882.05
519.073	6881.15
519.44	6903.29
519.808	6963.86
520.175	6938.77
520.542	7037.98
520.909	7016.51
521.276	7092.44
521.643	7124.53
522.009	7154.81
522.376	7165.21
522.743	7233.45
523.11	7266.9
523.477	7398.2
523.843	7375.37
524.21	7492.66
524.577	7534.91
524.943	7543.95
525.31	7588.02
525.676	7640.9
526.043	7719.32
526.409	7794.8
526.776	7838.64
527.142	7847.22
527.508	7822.82
527.874	7933.1
528.241	7977.62
528.607	8029.37
528.973	8049.93
529.339	8129.7
529.705	8133.09
530.071	8195.24
530.437	8286.53
530.803	8281.56
531.169	8301.9
531.535	8413.76
531.901	8383.71
532.267	8417.83
532.632	8472.07
532.998	8504.83
533.364	8578.05
533.73	8593.19
534.095	8613.76
534.461	8646.07
534.826	8714.77
535.192	8734.88
535.557	8827.99
535.923	8802.68
536.288	8905.05
536.653	8883.13
537.019	8908.21
537.384	8943.47
537.749	9014.42
538.114	9084.48
538.479	9077.47
538.845	9120.64
539.21	9096.91
539.575	9153.63
539.94	9205.38
540.305	9230.01
540.67	9279.05
541.034	9287.64
541.399	9334.42
541.764	9372.15
542.129	9409.22
542.494	9468.2
542.858	9486.05
543.223	9515.88
543.587	9600.62
543.952	9566.73
544.316	9650.34
544.681	9625.26
545.045	9661.19
545.41	9689.43
545.774	9753.84
546.138	9776.21
546.503	9788.64
546.867	9811.01
547.231	9914.29
547.595	9954.96
547.959	9955.42
548.324	9987.05
548.688	10049.88
549.052	10080.38
549.416	10013.49
549.779	10131.46
550.143	10160.83
550.507	10260.27
550.871	10242.19
551.235	10307.72
551.599	10383.65
551.962	10367.61
552.326	10398.79
552.689	10518.57
553.053	10391.34
553.417	10474.27
553.78	10614.83
554.143	10526.25
554.507	10542.52
554.87	10647.38
555.234	10771.21
555.597	10716.3
555.96	10718.33
556.323	10790.87
556.686	10775.51
557.05	10888.27
557.413	10888.72
557.776	10963.3
558.139	10954.49
558.502	11037.65
558.865	11031.32
559.228	11102.73
559.59	11165.55
559.953	11184.31
560.316	11300.47
560.679	11260.69
561.041	11414.81
561.404	11373.91
561.767	11447.58
562.129	11410.29
562.492	11563.28
562.854	11569.61
563.217	11617.07
563.579	11638.08
563.941	11633.34
564.304	11699.55
564.666	11826.33
565.028	11843.95
565.39	11874.46
565.753	11863.16
566.115	11996.04
566.477	12041.24
566.839	12075.59
567.201	12174.79
567.563	12136.38
567.925	12214.79
568.287	12262.7
568.648	12358.97
569.01	12316.71
569.372	12420.89
569.734	12400.1
570.095	12483.94
570.457	12548.57
570.819	12543.14
571.18	12593.54
571.542	12668.57
571.903	12686.42
572.265	12754.89
572.626	12817.71
572.987	12908.33
573.349	12893.87
573.71	13034.21
574.071	13077.14
574.432	13024.04
574.794	13273.07
575.155	13262.45
575.516	13231.71
575.877	13297.48
576.238	13447.75
576.599	13575.21
576.96	13561.2
577.32	13621.99
577.681	13715.09
578.042	13750.34
578.403	13845.48
578.763	13853.62
579.124	13950.34
579.485	14181.75
579.845	14176.55
580.206	14303.55
580.566	14386.26
580.927	14567.95
581.287	14667.16
581.648	14739.25
582.008	14947.38
582.368	15026.24
582.728	15052.23
583.089	15113.02
583.449	15256.52
583.809	15514.82
584.169	15612.89
584.529	15708.71
584.889	15980.57
585.249	16079.55
585.609	16281.58
585.969	16495.81
586.329	16680.66
586.688	16909.36
587.048	17016.02
587.408	17165.85
587.768	17383.47
588.127	17626.17
588.487	17738.71
588.846	18122.66
589.206	18279.27
589.565	18481.97
589.925	18752.47
590.284	18921.96
590.643	19262.74
591.003	19483.3
591.362	19763.97
591.721	19970.97
592.08	20210.74
592.44	20643.5
592.799	20779.99
593.158	21029.02
593.517	21358.51
593.876	21610.03
594.235	21864.48
594.593	22217.47
594.952	22447.07
595.311	22719.37
595.67	22970.44
596.029	23380.83
596.387	23702.4
596.746	24066.23
597.104	24223.29
597.463	24446.79
597.822	24830.96
598.18	25071.63
598.538	25402.24
598.897	25785.73
599.255	25821.44
599.613	26546.39
599.972	26522.21
600.33	26856.89
600.688	27002.43
601.046	27535.07
601.404	27955.17
601.762	27917.88
602.12	28397.87
602.478	28626.56
602.836	28986.1
603.194	29090.73
603.552	29448.46
603.91	29531.62
604.268	29999.41
604.625	30151.5
604.983	30491.15
605.341	30623.57
605.698	31096.33
606.056	31288.87
606.413	31503.1
606.771	31976.98
607.128	32072.57
607.485	32332.23
607.843	32448.38
608.2	32964.3
608.557	33204.75
608.914	33215.14
609.272	33799.54
609.629	33966.08
609.986	34321.56
610.343	34353.87
610.7	34863.69
611.057	34832.73
611.414	35071.14
611.771	35333.51
612.127	35557.91
612.484	35748.64
612.841	36016.88
613.198	35977.56
613.554	36231.79
613.911	36727.37
614.267	36843.97
614.624	36924.2
614.98	37046.46
615.337	37310.18
615.693	37472.66
616.05	37495.26
616.406	37947.45
616.762	37961.01
617.118	38222.02
617.475	38347.89
617.831	38609.8
618.187	38736.58
618.543	38916.24
618.899	39241.65
619.255	39146.29
619.611	39410.46
619.967	39563.23
620.323	39721.64
620.678	39633.05
621.034	39623.79
621.39	39777.23
621.746	39911.01
622.101	40342.64
622.457	40019.48
622.812	40414.05
623.168	40522.75
623.523	40635.29
623.879	40847.94
624.234	40695.17
624.589	40950.76
624.945	41001.61
625.3	41154.82
625.655	41249.51
626.01	41293.35
626.365	41341.26
626.72	41367.7
627.075	41516.62
627.43	41647.69
627.785	41484.98
628.14	41699.44
628.495	41641.81
628.85	41741.93
629.205	41724.75
629.559	41982.82
629.914	41872.77
630.269	41932.65
630.623	41814.24
630.978	41774.69
631.332	42130.39
631.687	42075.93
632.041	42057.17
632.396	42133.33
632.75	42065.53
633.104	42105.31
633.459	41901.92
633.813	42025.99
634.167	42021.01
634.521	42081.13
634.875	42192.53
635.229	42179.43
635.583	41916.61
635.937	42153.44
636.291	42080.45
636.645	42153.89
636.999	41994.57
637.352	42081.58
637.706	41929.72
638.06	42212.42
638.413	42085.42
638.767	41964.29
639.121	42021.01
639.474	41942.15
639.828	42027.12
640.181	42175.59
640.534	42084.97
640.888	41939.21
641.241	41761.36
641.594	41977.63
641.947	41959.09
642.301	41867.35
642.654	42121.8
643.007	41956.83
643.36	42093.55
643.713	41964.07
644.066	42235.47
644.419	41843.17
644.771	41569.05
645.124	41202.5
645.477	41169.28
645.83	40924.32
646.182	40874.38
646.535	40678.68
646.888	40892
647.24	40551.9
647.593	40866.92
647.945	40706.47
648.298	40543.76
648.65	40537.21
649.002	40530.43
649.355	40707.6
649.707	40586.7
650.059	40778.11
650.411	41077.99
650.763	41204.09
651.115	41712.32
651.467	41615.83
651.819	41522.5
652.171	41397.53
652.523	41477.07
652.875	41469.62
653.227	41230.3
653.578	41503.51
653.93	41354.14
654.282	41334.03
654.633	41094.03
654.985	41348.04
655.337	41166.8
655.688	41202.5
656.039	41308.94
656.391	41051.1
656.742	41199.79
657.094	41146.46
657.445	41293.35
657.796	41148.04
658.147	41088.16
658.498	41129.51
658.849	41272.78
659.2	41104.2
659.551	41051.1
659.902	41215.61
660.253	41054.03
660.604	41025.56
660.955	40968.16
661.306	41134.26
661.656	40969.74
662.007	40901.95
662.358	41081.15
662.708	40993.7
663.059	40942.85
663.409	40774.72
663.76	41025.33
664.11	41006.58
664.461	41030.53
664.811	41045.67
665.161	40964.09
665.511	40965.67
665.862	40948.27
666.212	41037.54
666.562	41074.82
666.912	41002.74
667.262	40908.73
667.612	41006.8
667.962	40999.35
668.312	40924.55
668.662	41033.02
669.011	40910.53
669.361	40864.43
669.711	40957.54
670.06	40876.64
670.41	40704.66
670.76	40879.35
671.109	40924.77
671.459	40779.69
671.808	40727.71
672.157	40813.59
672.507	40600.71
672.856	40589.86
673.205	40722.97
673.554	40831.89
673.904	40687.72
674.253	40951.21
674.602	40816.53
674.951	40163.21
675.3	40020.16
675.649	40700.37
675.998	40695.62
676.346	40432.58
676.695	40633.48
677.044	40430.77
677.393	40496.76
677.741	40544.67
678.09	40475.29
678.438	40396.88
678.787	40407.5
679.135	40344.9
679.484	40270.55
679.832	40203.43
680.181	39989.65
680.529	40203.43
680.877	39968.19
681.225	40071.23
681.573	40273.26
681.922	39877.57
682.27	39964.34
682.618	39751.69
682.966	39715.31
683.314	39873.05
683.661	39765.93
684.009	39646.39
684.357	39527.75
684.705	39524.58
685.053	39574.75
685.4	39473.74
685.748	39273.06
686.095	39257.02
686.443	39241.88
686.79	39125.72
687.138	39212.05
687.485	39117.14
687.832	38922.11
688.18	39028.55
688.527	38902.9
688.874	38834.2
689.221	38616.36
689.568	38643.48
689.915	38367.32
690.262	38583.14
690.609	38429.02
690.956	38276.71
691.303	38215.01
691.65	38064.96
691.997	38112.64
692.344	37909.71
692.69	37821.35
693.037	37866.55
693.383	37457.97
693.73	37684.18
694.077	37521.92
694.423	37465.43
694.769	37403.73
695.116	37250.29
695.462	37291.19
695.808	37135.94
696.155	37173.01
696.501	36896.18
696.847	36926.68
697.193	36622.51
697.539	36843.97
697.885	36463.65
698.231	36472.23
698.577	36392.69
698.923	36331.22
699.269	36178.46
699.614	36019.14
699.96	35993.6
700.306	35926.03
700.651	35804.68
700.997	35726.04
701.342	35758.13
701.688	35647.85
702.033	35406.5
702.379	35521.75
702.724	35420.74
703.069	35376.22
703.415	34877.7
703.76	35198.37
704.105	35055.55
704.45	34909.56
704.795	34666.4
705.14	34691.04
705.485	34662.11
705.83	34440.2
706.175	34516.13
706.52	34557.93
706.865	34316.58
707.209	34275.23
707.554	34204.5
707.899	34167.21
708.243	34063.26
708.588	33889.02
708.932	33892.41
709.277	33790.5
709.621	33954.11
709.966	33701.01
710.31	33625.3
710.654	33445.65
710.998	33541.91
711.342	33424.4
711.687	33296.27
712.031	33241.58
712.375	33048.82
712.719	33121.36
713.063	33179.66
713.407	33185.99
713.75	32957.98
714.094	32963.17
714.438	32868.71
714.782	32859.9
715.125	32676.85
715.469	32719.56
715.812	32472.56
716.156	32395.73
716.499	32388.5
716.843	32500.81
717.186	32295.39
717.53	32409.97
717.873	32336.3
718.216	32123.19
718.559	32079.35
718.902	31875.29
719.246	32016.76
719.589	31835.97
719.932	31768.85
720.275	31807.72
720.617	31745.8
720.96	31684.11
721.303	31599.59
721.646	31625.13
721.989	31423.55
722.331	31605.24
722.674	31447.28
723.016	31449.31
723.359	31461.97
723.701	31460.16
724.044	31223.56
724.386	30984.47
724.729	31235.08
725.071	31108.76
725.413	30991.02
725.755	31007.29
726.097	30913.96
726.439	30838.26
726.782	30832.16
727.124	30830.35
727.465	30638.26
727.807	30807.3
728.149	30673.97
728.491	30528.89
728.833	30677.58
729.175	30530.02
729.516	30415.9
729.858	30411.38
730.199	30425.39
730.541	30356.91
730.882	30321.66
731.224	30419.96
731.565	30149.24
731.906	30063.36
732.248	30120.99
732.589	29969.13
732.93	29884.84
733.271	30035.11
733.612	29989.01
733.953	29992.63
734.294	29903.82
734.635	29851.16
734.976	29897.49
735.317	29576.37
735.658	29762.13
735.999	29704.28
736.339	29593.54
736.68	29640.32
737.021	29572.75
737.361	29553.77
737.702	29629.48
738.042	29543.6
738.383	29429.25
738.723	29489.59
739.063	29429.25
739.404	29380.89
739.744	29351.06
740.084	29218.64
740.424	29329.14
740.764	29137.06
741.104	29213.44
741.444	29045.08
741.784	29001.7
742.124	28962.6
742.464	28857.97
742.804	28796.05
743.143	28827.46
743.483	28805.99
743.823	28676.96
744.162	28694.36
744.502	28788.14
744.841	28552.22
745.181	28609.16
745.52	28641.48
745.86	28579.11
746.199	28571.88
746.538	28622.27
746.877	28511.54
747.216	28581.37
747.556	28328.94
747.895	28391.54
748.234	28352.22
748.573	28318.32
748.911	28304.31
749.25	28247.82
749.589	28154.49
749.928	28268.83
750.267	28188.84
750.605	28096.63
750.944	28051.44
751.283	28053.47
751.621	28082.4
751.96	27819.35
752.298	27893.7
752.636	27813.48
752.975	27832.91
753.313	27702.75
753.651	27744.33
753.989	27669.75
754.327	27603.77
754.666	27470.21
755.004	27497.78
755.342	27455.07
755.679	27402.87
756.017	27271.57
756.355	27317.45
756.693	27193.61
757.031	27154.06
757.368	27069.54
757.706	27043.78
758.044	27024.57
758.381	26967.62
