Data from hue_120_FLMS001491_00043.txt Node
Date: Tue Feb 07 16:59:26 GMT 2017
User: dcchb
Spectrometer: FLMS00149
Trigger mode: 0
Integration Time (sec): 2.000000E-2
Scans to average: 10
Electric dark correction enabled: true
Nonlinearity correction enabled: false
Boxcar width: 0
XAxis mode: Wavelengths
Number of Pixels in Spectrum: 2048
>>>>>Begin Spectral Data<<<<<
341.393	-36.43
341.776	-36.43
342.16	-36.43
342.543	-87.5
342.927	-57.44
343.31	-56.09
343.693	-67.61
344.077	-54.73
344.46	-46.14
344.843	-83.43
345.226	-71
345.61	-36.88
345.993	-20.38
346.376	-14.73
346.759	29.79
347.142	13.97
347.525	53.06
347.908	56.91
348.291	71.14
348.674	107.75
349.057	118.37
349.44	120.41
349.823	154.3
350.206	179.16
350.588	176.22
350.971	208.31
351.354	220.06
351.737	234.08
352.119	258.48
352.502	260.29
352.884	281.53
353.267	282.44
353.65	300.51
354.032	311.14
354.414	301.64
354.797	307.07
355.179	317.46
355.562	318.59
355.944	311.36
356.326	344.81
356.709	312.04
357.091	333.51
357.473	340.74
357.855	355.65
358.238	319.05
358.62	338.25
359.002	355.88
359.384	352.26
359.766	328.76
360.148	356.56
360.53	336.22
360.912	344.36
361.294	338.93
361.676	336.67
362.057	333.51
362.439	342.77
362.821	323.79
363.203	338.71
363.584	347.52
363.966	316.11
364.348	350.46
364.729	330.12
365.111	308.88
365.493	343.9
365.874	317.69
366.256	324.69
366.637	313.62
367.019	319.27
367.4	309.33
367.781	317.01
368.163	318.59
368.544	320.63
368.925	316.56
369.306	343.68
369.688	306.84
370.069	319.05
370.45	304.13
370.831	316.56
371.212	337.8
371.593	319.27
371.974	317.92
372.355	309.55
372.736	314.07
373.117	315.2
373.498	331.7
373.879	322.89
374.26	334.64
374.641	335.77
375.021	311.81
375.402	328.31
375.783	330.8
376.163	339.61
376.544	336.45
376.925	325.82
377.305	330.34
377.686	332.38
378.066	344.13
378.447	329.67
378.827	339.61
379.208	328.76
379.588	347.75
379.968	342.77
380.349	352.49
380.729	349.1
381.109	338.25
381.489	335.77
381.87	352.49
382.25	371.25
382.63	352.04
383.01	360.17
383.39	359.5
383.77	366.05
384.15	361.53
384.53	364.02
384.91	354.3
385.29	346.62
385.67	357.69
386.049	375.54
386.429	347.75
386.809	374.41
387.189	362.89
387.568	367.86
387.948	343.45
388.328	373.73
388.707	352.72
389.087	360.63
389.466	384.58
389.846	379.16
390.225	387.07
390.605	389.55
390.984	376.44
391.363	350.23
391.743	414.86
392.122	394.98
392.501	384.58
392.881	389.1
393.26	391.81
393.639	399.04
394.018	383.22
394.397	395.43
394.776	374.41
395.155	402.21
395.534	398.59
395.913	387.07
396.292	399.72
396.671	403.11
397.05	409.21
397.429	403.56
397.808	417.57
398.186	404.24
398.565	430.45
398.944	409.89
399.323	415.77
399.701	422.32
400.08	423.9
400.458	423.9
400.837	427.52
401.215	419.38
401.594	407.18
401.972	431.58
402.351	438.36
402.729	440.17
403.107	440.4
403.486	437.91
403.864	441.08
404.242	422.55
404.62	446.73
404.999	439.27
405.377	451.47
405.755	457.57
406.133	455.99
406.511	486.27
406.889	470.68
407.267	487.18
407.645	478.36
408.023	478.14
408.401	464.13
408.779	472.71
409.156	478.36
409.534	486.72
409.912	504.35
410.29	491.24
410.667	488.53
411.045	487.18
411.422	546.16
411.8	518.81
412.178	490.79
412.555	520.85
412.933	515.42
413.31	528.76
413.687	526.05
414.065	551.36
414.442	545.48
414.819	540.96
415.197	540.96
415.574	541.41
415.951	536.21
416.328	577.34
416.705	573.05
417.082	538.47
417.46	558.36
417.837	591.58
418.214	567.17
418.591	584.58
418.967	570.79
419.344	586.16
419.721	592.26
420.098	573.05
420.475	602.88
420.852	584.8
421.228	631.58
421.605	592.03
421.982	617.57
422.358	617.57
422.735	620.05
423.111	639.94
423.488	646.27
423.864	632.26
424.241	628.42
424.617	627.06
424.994	669.32
425.37	642.65
425.746	653.5
426.123	653.05
426.499	673.61
426.875	669.32
427.251	663.44
427.627	685.59
428.003	692.37
428.379	727.17
428.756	712.71
429.132	718.36
429.507	723.78
429.883	731.24
430.259	717
430.635	746.15
431.011	751.58
431.387	731.01
431.763	764.01
432.138	768.3
432.514	779.37
432.89	762.2
433.265	793.16
433.641	792.48
434.016	817.34
434.392	810.78
434.767	811.91
435.143	867.73
435.518	858.24
435.894	841.74
436.269	853.27
436.644	827.05
437.02	880.39
437.395	869.77
437.77	874.28
438.145	888.07
438.52	907.05
438.895	876.54
439.271	910.22
439.646	949.99
440.021	916.32
440.395	925.58
440.77	923.32
441.145	932.81
441.52	952.25
441.895	963.1
442.27	966.26
442.645	965.81
443.019	983.43
443.394	969.65
443.769	1007.84
444.143	987.05
444.518	984.34
444.892	1006.94
445.267	1034.28
445.641	1013.49
446.016	1014.85
446.39	1024.11
446.764	1048.74
447.139	1041.29
447.513	1049.87
447.887	1041.29
448.262	1087.84
448.636	1063.43
449.01	1071.57
449.384	1079.03
449.758	1094.17
450.132	1109.08
450.506	1114.05
450.88	1126.71
451.254	1127.61
451.628	1160.38
452.002	1165.58
452.376	1148.4
452.75	1175.75
453.123	1178.23
453.497	1201.06
453.871	1231.79
454.244	1204.67
454.618	1243.54
454.992	1207.16
455.365	1259.36
455.739	1300.71
456.112	1285.12
456.486	1315.63
456.859	1311.56
457.232	1352.69
457.606	1342.97
457.979	1354.95
458.352	1359.47
458.725	1406.25
459.099	1399.24
459.472	1440.82
459.845	1469.52
460.218	1477.43
460.591	1438.56
460.964	1480.14
461.337	1524.44
461.71	1529.63
462.083	1555.62
462.456	1571.67
462.829	1590.42
463.201	1587.49
463.574	1617.54
463.947	1657.09
464.32	1706.81
464.692	1649.86
465.065	1702.96
465.438	1748.39
465.81	1775.96
466.183	1799.23
466.555	1815.05
466.928	1838.55
467.3	1839.01
467.672	1885.11
468.045	1928.49
468.417	1959.68
468.789	2004.42
469.161	2019.11
469.534	2061.37
469.906	2120.81
470.278	2160.8
470.65	2146.57
471.022	2200.8
471.394	2268.15
471.766	2294.36
472.138	2311.08
472.51	2389.05
472.882	2411.42
473.253	2471.08
473.625	2525.09
473.997	2611.41
474.369	2591.53
474.74	2717.85
475.112	2756.27
475.484	2809.38
475.855	2894.34
476.227	2943.16
476.598	2972.08
476.97	3061.12
477.341	3117.39
477.713	3221.57
478.084	3262.47
478.455	3382.24
478.827	3454.1
479.198	3571.84
479.569	3615.91
479.94	3760.76
480.311	3845.73
480.682	3935.45
481.053	4020.64
481.424	4171.6
481.795	4232.61
482.166	4316.45
482.537	4449.78
482.908	4565.94
483.279	4668.54
483.65	4799.38
484.021	4955.08
484.391	5030.11
484.762	5138.35
485.133	5278.91
485.503	5380.83
485.874	5570.88
486.244	5652.46
486.615	5862.85
486.985	5920.48
487.356	6141.04
487.726	6241.6
488.097	6407.7
488.467	6536.73
488.837	6720.68
489.207	6853.11
489.578	7011.3
489.948	7129.04
490.318	7325.64
490.688	7445.86
491.058	7684.95
491.428	7779.64
491.798	7898.73
492.168	8162.91
492.538	8241.55
492.908	8485.16
493.278	8622.78
493.648	8696.23
494.017	8888.76
494.387	9052.6
494.757	9142.99
495.126	9291.24
495.496	9404.91
495.866	9506.6
496.235	9700.04
496.605	9847.61
496.974	9986.14
497.344	10159.92
497.713	10239.24
498.082	10389.51
498.452	10583.86
498.821	10653.01
499.19	10726.46
499.559	10879.45
499.928	10956.51
500.298	11098.2
500.667	11288.7
501.036	11329.15
501.405	11493.67
501.774	11514.68
502.143	11647.56
502.512	11774.11
502.88	11904.05
503.249	11936.59
503.618	11997.16
503.987	12071.73
504.356	12222.69
504.724	12347.43
505.093	12449.35
505.462	12520.53
505.83	12663.35
506.199	12730.24
506.567	12833.07
506.936	12843.69
507.304	13067.41
507.672	13088.88
508.041	13122.55
508.409	13243.23
508.777	13337.69
509.145	13529.77
509.514	13419.72
509.882	13565.7
510.25	13708.3
510.618	13736.32
510.986	13816.32
511.354	13884.56
511.722	13940.16
512.09	14031.68
512.458	14056.54
512.826	14154.61
513.193	14210.43
513.561	14193.03
513.929	14394.16
514.297	14398
514.664	14502.85
515.032	14549.63
515.4	14641.38
515.767	14708.72
516.135	14825.33
516.502	14613.81
516.869	14912.33
517.237	14812.68
517.604	14817.42
517.972	15014.03
518.339	14942.84
518.706	14977.87
519.073	15044.31
519.44	15090.63
519.808	15217.18
520.175	15178.09
520.542	15301.02
520.909	15418.54
521.276	15320.46
521.643	15458.99
522.009	15565.2
522.376	15529.49
522.743	15588.47
523.11	15670.51
523.477	15835.25
523.843	15826.21
524.21	15886.55
524.577	15945.75
524.943	15923.38
525.31	16038.41
525.676	16133.54
526.043	16148.23
526.409	16087.22
526.776	16282.47
527.142	16321.34
527.508	16263.94
527.874	16290.38
528.241	16369.24
528.607	16317.04
528.973	16483.37
529.339	16361.11
529.705	16500.54
530.071	16538.51
530.437	16562.91
530.803	16505.96
531.169	16632.74
531.535	16542.57
531.901	16488.56
532.267	16550.93
532.632	16556.58
532.998	16527.43
533.364	16619.63
533.73	16596.81
534.095	16669.58
534.461	16635.9
534.826	16651.05
535.192	16651.27
535.557	16695.11
535.923	16604.94
536.288	16617.37
536.653	16660.99
537.019	16508.9
537.384	16536.47
537.749	16499.41
538.114	16579.41
538.479	16476.59
538.845	16458.28
539.21	16511.39
539.575	16392.29
539.94	16400.2
540.305	16468.68
540.67	16305.07
541.034	16367.89
541.399	16360.66
541.764	16369.24
542.129	16411.5
542.494	16323.14
542.858	16260.32
543.223	16278.63
543.587	16271.17
543.952	16194.79
544.316	16216.93
544.681	16124.96
545.045	16152.98
545.41	16180.32
545.774	16197.72
546.138	16124.28
546.503	16106.88
546.867	16056.48
547.231	16014.68
547.595	16050.38
547.959	15915.25
548.324	15934.23
548.688	16048.8
549.052	15997.96
549.416	15899.65
549.779	15791.18
550.143	15817.62
550.507	15825.53
550.871	15855.81
551.235	15858.98
551.599	15786.21
551.962	15792.54
552.326	15758.87
552.689	15769.26
553.053	15664.86
553.417	15726.55
553.78	15880.67
554.143	15683.39
554.507	15715.48
554.87	15756.61
555.234	15788.24
555.597	15657.4
555.96	15693.33
556.323	15618.98
556.686	15564.97
557.05	15650.62
557.413	15629.6
557.776	15580.11
558.139	15687.23
558.502	15681.81
558.865	15557.51
559.228	15632.77
559.59	15666.89
559.953	15663.73
560.316	15753.89
560.679	15649.94
561.041	15846.09
561.404	15774.68
561.767	15888.58
562.129	15689.49
562.492	15884.96
562.854	15853.78
563.217	15827.34
563.579	15794.12
563.941	15938.07
564.304	15873.21
564.666	15858.3
565.028	15953.21
565.39	15966.32
565.753	15911.18
566.115	15996.37
566.477	16038.63
566.839	16101.68
567.201	16122.7
567.563	16066.88
567.925	16187.1
568.287	16164.05
568.648	16098.29
569.01	16253.77
569.372	16214.67
569.734	16197.95
570.095	16301.68
570.457	16316.36
570.819	16264.39
571.18	16358.85
571.542	16331.73
571.903	16370.37
572.265	16450.82
572.626	16399.98
572.987	16331.96
573.349	16481.33
573.71	16418.06
574.071	16479.75
574.432	16588.9
574.794	16677.71
575.155	16507.32
575.516	16476.59
575.877	16606.07
576.238	16602.23
576.599	16633.42
576.96	16558.84
577.32	16578.5
577.681	16669.12
578.042	16673.42
578.403	16657.15
578.763	16684.26
579.124	16527.21
579.485	16676.13
579.845	16750.93
580.206	16724.72
580.566	16719.97
580.927	16620.54
581.287	16707.09
581.648	16651.72
582.008	16793.64
582.368	16744.83
582.728	16684.94
583.089	16735.34
583.449	16658.73
583.809	16672.29
584.169	16640.42
584.529	16605.17
584.889	16764.94
585.249	16640.2
585.609	16636.36
585.969	16684.04
586.329	16621.89
586.688	16620.31
587.048	16591.39
587.408	16589.35
587.768	16570.6
588.127	16548.22
588.487	16447.89
588.846	16678.62
589.206	16480.88
589.565	16498.51
589.925	16484.04
590.284	16476.13
590.643	16505.06
591.003	16571.27
591.362	16572.4
591.721	16534.21
592.08	16551.84
592.44	16562.46
592.799	16594.32
593.158	16477.04
593.517	16445.63
593.876	16574.44
594.235	16541.22
594.593	16504.16
594.952	16428
595.311	16435.68
595.67	16512.07
596.029	16452.63
596.387	16570.82
596.746	16540.09
597.104	16452.86
597.463	16506.64
597.822	16529.47
598.18	16495.57
598.538	16418.28
598.897	16571.27
599.255	16319.53
599.613	16586.87
599.972	16475.91
600.33	16454.21
600.688	16428
601.046	16552.52
601.404	16541.67
601.762	16517.49
602.12	16553.19
602.478	16491.95
602.836	16540.99
603.194	16403.37
603.552	16466.19
603.91	16401.11
604.268	16486.76
604.625	16372.86
604.983	16453.99
605.341	16441.56
605.698	16397.49
606.056	16470.71
606.413	16469.81
606.771	16433.65
607.128	16478.39
607.485	16537.83
607.843	16494.89
608.2	16515.68
608.557	16647.88
608.914	16637.03
609.272	16648.79
609.629	16682.91
609.986	16740.53
610.343	16528.34
610.7	16693.76
611.057	16698.5
611.414	16730.82
611.771	16648.33
612.127	16752.29
612.484	16719.29
612.841	16674.77
613.198	16688.78
613.554	16759.97
613.911	16837.48
614.267	16773.98
614.624	16705.06
614.98	16759.29
615.337	16884.71
615.693	16833.19
616.05	16872.96
616.406	16937.59
616.762	16844.94
617.118	16848.1
617.475	16896.46
617.831	16951.83
618.187	16971.49
618.543	16940.98
618.899	16981.21
619.255	17064.37
619.611	17023.01
619.967	17094.2
620.323	17019.4
620.678	16948.89
621.034	17002.67
621.39	16943.69
621.746	16934.2
622.101	17168.09
622.457	17043.35
622.812	17006.97
623.168	17004.26
623.523	16953.86
623.879	17150.47
624.234	16944.14
624.589	17048.1
624.945	17106.85
625.3	17071.6
625.655	17074.08
626.01	17042.67
626.365	17016.69
626.72	17019.17
627.075	17022.56
627.43	17000.87
627.785	16945.05
628.14	16970.58
628.495	17030.47
628.85	16901.89
629.205	16964.26
629.559	16913.64
629.914	16945.05
630.269	16930.36
630.623	16950.92
630.978	16894.2
631.332	16947.31
631.687	16924.48
632.041	16881.32
632.396	16873.41
632.75	16905.95
633.104	16891.72
633.459	16846.75
633.813	16719.97
634.167	16717.48
634.521	16821.44
634.875	16752.74
635.229	16709.12
635.583	16633.19
635.937	16636.81
636.291	16605.4
636.645	16602.23
636.999	16547.32
637.352	16648.79
637.706	16531.27
638.06	16528.34
638.413	16542.12
638.767	16506.42
639.121	16557.94
639.474	16463.03
639.828	16484.72
640.181	16481.56
640.534	16451.5
640.888	16388.23
641.241	16318.62
641.594	16301.22
641.947	16440.43
642.301	16355.69
642.654	16345.06
643.007	16330.6
643.36	16321.11
643.713	16346.42
644.066	16261
644.419	16171.51
644.771	16137.84
645.124	15997.28
645.477	16014
645.83	15885.19
646.182	15873.44
646.535	15806.55
646.888	15856.94
647.24	15703.05
647.593	15766.77
647.945	15739.66
648.298	15614.24
648.65	15637.74
649.002	15627.34
649.355	15734.46
649.707	15697.4
650.059	15850.84
650.411	16087.67
650.763	15912.31
651.115	16149.82
651.467	16111.62
651.819	16082.25
652.171	16018.52
652.523	16045.41
652.875	16145.75
653.227	16018.75
653.578	16025.3
653.93	16057.84
654.282	15975.13
654.633	15910.27
654.985	15930.84
655.337	16062.81
655.688	16021.46
656.039	16076.15
656.391	15885.42
656.742	16071.17
657.094	15947.56
657.445	16112.08
657.796	16014.23
658.147	16006.99
658.498	16065.3
658.849	16105.97
659.2	16037.5
659.551	16016.26
659.902	16131.28
660.253	15957.73
660.604	16114.11
660.955	15950.95
661.306	16031.85
661.656	16012.87
662.007	16038.63
662.358	16021.46
662.708	16032.08
663.059	16086.77
663.409	15957.05
663.76	16137.61
664.11	16065.75
664.461	16105.3
664.811	16143.94
665.161	16053.09
665.511	16067.33
665.862	16024.17
666.212	16145.75
666.562	16125.18
666.912	16049.48
667.262	16059.42
667.612	16037.5
667.962	16046.32
668.312	16023.27
668.662	16103.94
669.011	16032.98
669.361	16048.8
669.711	15909.6
670.06	15887
670.41	15891.74
670.76	15873.66
671.109	16011.97
671.459	15906.21
671.808	15926.09
672.157	16032.53
672.507	15863.95
672.856	15872.99
673.205	15899.2
673.554	15889.26
673.904	15844.51
674.253	15953.44
674.602	15848.13
674.951	15676.83
675.3	15590.06
675.649	15838.64
675.998	15887.9
676.346	15840.45
676.695	15910.73
677.044	15701.01
677.393	15890.16
677.741	15872.99
678.09	15792.31
678.438	15771.97
678.787	15727.68
679.135	15647.46
679.484	15629.38
679.832	15626.44
680.181	15582.15
680.529	15567.23
680.877	15453.11
681.225	15610.85
681.573	15618.98
681.922	15485.65
682.27	15388.03
682.618	15366.79
682.966	15405.2
683.314	15446.78
683.661	15344.19
684.009	15306.67
684.357	15246.34
684.705	15221.93
685.053	15208.6
685.4	15187.13
685.748	15101.03
686.095	15164.53
686.443	15122.95
686.79	15031.2
687.138	15071.43
687.485	15026
687.832	14920.47
688.18	14998.66
688.527	14924.08
688.874	14850.87
689.221	14826.91
689.568	14686.58
689.915	14722.28
690.262	14704.2
690.609	14617.88
690.956	14617.88
691.303	14532.46
691.65	14482.29
691.997	14506.02
692.344	14392.12
692.69	14387.38
693.037	14381.5
693.383	14263.76
693.73	14273.25
694.077	14188.06
694.423	14204.56
694.769	14116.2
695.116	14112.81
695.462	14041.62
695.808	14045.69
696.155	14011.11
696.501	13813.38
696.847	13845.47
697.193	13785.13
697.539	13819.48
697.885	13782.87
698.231	13657
698.577	13686.38
698.923	13621.29
699.269	13598.24
699.614	13516.21
699.96	13394.63
700.306	13469.43
700.651	13329.1
700.997	13285.48
701.342	13234.19
701.688	13241.19
702.033	13183.34
702.379	13118.03
702.724	13194.86
703.069	13092.72
703.415	12956
703.76	13036
704.105	13027.41
704.45	12851.6
704.795	12863.8
705.14	12815.21
705.485	12805.27
705.83	12741.54
706.175	12796.68
706.52	12727.53
706.865	12650.92
707.209	12677.82
707.554	12546.29
707.899	12534.32
708.243	12515.33
708.588	12555.33
708.932	12373.19
709.277	12356.02
709.621	12373.42
709.966	12326.41
710.31	12364.15
710.654	12149.02
710.998	12273.76
711.342	12186.53
711.687	12106.53
712.031	12140.66
712.375	12090.94
712.719	12180.65
713.063	12041.45
713.407	12212.74
713.75	12081.9
714.094	11977.04
714.438	12012.52
714.782	12022.24
715.125	11913.32
715.469	12029.92
715.812	11813.66
716.156	11823.83
716.499	11806.43
716.843	11875.13
717.186	11697.5
717.53	11746.77
717.873	11827.9
718.216	11784.73
718.559	11715.13
718.902	11599.2
719.246	11707.67
719.589	11703.83
719.932	11603.49
720.275	11616.38
720.617	11568.69
720.96	11652.31
721.303	11551.52
721.646	11570.95
721.989	11456.38
722.331	11554.91
722.674	11529.15
723.016	11528.92
723.359	11464.74
723.701	11488.92
724.044	11397.85
724.386	11318.53
724.729	11335.48
725.071	11391.75
725.413	11383.84
725.755	11381.81
726.097	11361.92
726.439	11266.1
726.782	11262.26
727.124	11326.67
727.465	11314.69
727.807	11331.19
728.149	11298.64
728.491	11229.94
728.833	11333.22
729.175	11251.19
729.516	11216.61
729.858	11179.55
730.199	11226.1
730.541	11224.3
730.882	11177.29
731.224	11158.08
731.565	11161.25
731.906	11243.73
732.248	11173.68
732.589	11179.1
732.93	11100.46
733.271	11128.03
733.612	11152.66
733.953	11164.64
734.294	11116.73
734.635	11093.9
734.976	11050.74
735.317	11081.47
735.658	11107.91
735.999	11127.12
736.339	11161.92
736.68	11204.63
737.021	11136.61
737.361	11038.76
737.702	11184.52
738.042	11184.3
738.383	11113.79
738.723	11237.85
739.063	11085.09
739.404	11156.73
739.744	11107.24
740.084	11164.18
740.424	11145.43
740.764	11138.65
741.104	11274.46
741.444	11196.5
741.784	11195.14
742.124	11210.96
742.464	11251.19
742.804	11214.13
743.143	11247.57
743.483	11273.33
743.823	11272.88
744.162	11255.71
744.502	11341.13
744.841	11243.73
745.181	11404.18
745.52	11402.37
745.86	11489.83
746.199	11479.88
746.538	11545.64
746.877	11525.08
747.216	11671.06
747.556	11641.23
747.895	11650.27
748.234	11704.28
748.573	11775.92
748.911	11847.33
749.25	11900.66
749.589	11910.38
749.928	12029.92
750.267	12184.95
750.605	12128
750.944	12291.61
751.283	12256.81
751.621	12457.48
751.96	12419.07
752.298	12549.91
752.636	12699.96
752.975	12700.87
753.313	12795.33
753.651	12972.5
753.989	13033.29
754.327	13126.84
754.666	13165.71
755.004	13432.15
755.342	13481.19
755.679	13639.6
