Data from hue_290_FLMS001491_00011.txt Node
Date: Tue Feb 07 15:52:22 GMT 2017
User: dcchb
Spectrometer: FLMS00149
Trigger mode: 0
Integration Time (sec): 2.000000E-2
Scans to average: 10
Electric dark correction enabled: true
Nonlinearity correction enabled: false
Boxcar width: 0
XAxis mode: Wavelengths
Number of Pixels in Spectrum: 2048
>>>>>Begin Spectral Data<<<<<
341.393	-4.39
341.776	-4.39
342.16	-4.39
342.543	-99.76
342.927	-51.17
343.31	-69.02
343.693	-84.39
344.077	-80.1
344.46	-71.06
344.843	-30.83
345.226	-34.9
345.61	-45.52
345.993	-21.12
346.376	1.03
346.759	20.69
347.142	37.87
347.525	47.81
347.908	67.7
348.291	78.54
348.674	92.78
349.057	90.52
349.44	106.79
349.823	133.46
350.206	161.25
350.588	197.18
350.971	212.55
351.354	227.01
351.737	217.75
352.119	224.75
352.502	246.45
352.884	261.14
353.267	271.98
353.65	275.37
354.032	297.29
354.414	310.85
354.797	290.06
355.179	314.47
355.562	329.38
355.944	316.28
356.326	307.01
356.709	318.31
357.091	333
357.473	313.11
357.855	320.34
358.238	335.94
358.62	312.21
359.002	322.38
359.384	346.33
359.766	342.04
360.148	336.62
360.53	329.16
360.912	333.68
361.294	332.32
361.676	306.33
362.057	321.47
362.439	329.61
362.821	328.25
363.203	338.42
363.584	335.03
363.966	318.76
364.348	322.83
364.729	308.14
365.111	308.14
365.493	317.41
365.874	315.83
366.256	311.31
366.637	306.33
367.019	305.66
367.4	311.76
367.781	333.68
368.163	299.33
368.544	305.88
368.925	293.45
369.306	304.98
369.688	298.2
370.069	297.29
370.45	297.97
370.831	301.59
371.212	309.05
371.593	305.43
371.974	298.42
372.355	302.49
372.736	317.18
373.117	312.21
373.498	311.31
373.879	314.24
374.26	311.08
374.641	275.83
375.021	308.59
375.402	318.99
375.783	318.76
376.163	329.38
376.544	298.42
376.925	313.79
377.305	320.12
377.686	313.11
378.066	336.84
378.447	325.77
378.827	326.67
379.208	320.34
379.588	331.87
379.968	323.51
380.349	341.81
380.729	313.11
381.109	315.6
381.489	341.14
381.87	310.85
382.25	329.38
382.63	338.42
383.01	330.74
383.39	326.67
383.77	324.41
384.15	307.92
384.53	353.11
384.91	330.74
385.29	319.67
385.67	332.55
386.049	344.75
386.429	335.94
386.809	339.33
387.189	333.68
387.568	346.56
387.948	360.12
388.328	354.92
388.707	344.75
389.087	344.3
389.466	355.6
389.846	360.12
390.225	349.95
390.605	362.38
390.984	357.18
391.363	356.73
391.743	356.73
392.122	358.08
392.501	361.02
392.881	367.35
393.26	353.56
393.639	373
394.018	366.9
394.397	362.6
394.776	385.2
395.155	386.56
395.534	368.25
395.913	392.21
396.292	374.35
396.671	382.04
397.05	380.68
397.429	375.26
397.808	389.04
398.186	368.48
398.565	410.29
398.944	401.47
399.323	393.11
399.701	402.83
400.08	404.41
400.458	400.57
400.837	389.95
401.215	405.31
401.594	400.12
401.972	409.83
402.351	405.99
402.729	406.44
403.107	415.03
403.486	403.96
403.864	431.53
404.242	436.5
404.62	435.37
404.999	417.97
405.377	447.35
405.755	451.64
406.133	442.38
406.511	441.25
406.889	433.34
407.267	430.17
407.645	457.29
408.023	465.43
408.401	458.65
408.779	465.88
409.156	470.85
409.534	492.77
409.912	494.13
410.29	507.23
410.667	482.15
411.045	501.36
411.422	504.29
411.8	499.77
412.178	506.55
412.555	535.48
412.933	535.93
413.31	555.59
413.687	532.54
414.065	563.28
414.442	589.94
414.819	590.62
415.197	613.22
415.574	616.61
415.951	588.36
416.328	586.33
416.705	589.49
417.082	601.24
417.46	633.78
417.837	629.94
418.214	649.38
418.591	651.18
418.967	666.55
419.344	657.28
419.721	665.65
420.098	679.88
420.475	695.02
420.852	686.66
421.228	673.1
421.605	708.58
421.982	721.69
422.358	715.36
422.735	711.97
423.111	737.96
423.488	743.84
423.864	753.55
424.241	776.15
424.617	777.73
424.994	780.22
425.37	779.54
425.746	780.22
426.123	794.46
426.499	795.36
426.875	844.17
427.251	829.94
427.627	862.7
428.003	859.77
428.379	870.39
428.756	862.7
429.132	889.37
429.507	906.77
429.883	889.6
430.259	900.67
430.635	931.4
431.011	907
431.387	928.01
431.763	943.83
432.138	938.41
432.514	982.47
432.89	956.94
433.265	1007.56
433.641	1017.73
434.016	1018.63
434.392	1047.56
434.767	1032.42
435.143	1049.82
435.518	1071.06
435.894	1105.63
436.269	1082.36
436.644	1115.8
437.02	1102.02
437.395	1116.26
437.77	1157.84
438.145	1157.38
438.52	1156.25
438.895	1198.51
439.271	1202.13
439.646	1206.2
440.021	1229.7
440.395	1222.02
440.77	1230.6
441.145	1225.41
441.52	1274.22
441.895	1223.15
442.27	1255.91
442.645	1259.53
443.019	1281.22
443.394	1289.13
443.769	1290.49
444.143	1295.01
444.518	1289.13
444.892	1289.58
445.267	1302.24
445.641	1326.65
446.016	1296.82
446.39	1317.83
446.764	1315.57
447.139	1356.02
447.513	1357.38
447.887	1305.18
448.262	1384.95
448.636	1349.7
449.01	1380.88
449.384	1372.52
449.758	1402.35
450.132	1382.46
450.506	1385.63
450.88	1411.39
451.254	1410.94
451.628	1437.6
452.002	1454.78
452.376	1464.27
452.75	1445.06
453.123	1473.99
453.497	1478.05
453.871	1499.3
454.244	1469.92
454.618	1494.1
454.992	1511.73
455.365	1492.07
455.739	1528.45
456.112	1582.01
456.486	1588.79
456.859	1540.88
457.232	1598.5
457.606	1592.63
457.979	1619.75
458.352	1614.77
458.725	1634.43
459.099	1655.22
459.472	1639.86
459.845	1704.94
460.218	1709.91
460.591	1687.31
460.964	1711.04
461.337	1749.46
461.71	1753.98
462.083	1788.1
462.456	1770.02
462.829	1756.69
463.201	1807.31
463.574	1783.58
463.947	1814.77
464.32	1867.87
464.692	1838.72
465.065	1867.87
465.438	1887.31
465.81	1928.89
466.183	1916.23
466.555	1935.9
466.928	1975.89
467.3	1939.29
467.672	1962.34
468.045	1982.9
468.417	2015.89
468.789	2030.81
469.161	2045.05
469.534	2072.61
469.906	2069.45
470.278	2109.22
470.65	2075.78
471.022	2142.9
471.394	2181.09
471.766	2210.69
472.138	2209.11
472.51	2277.13
472.882	2264.47
473.253	2277.81
473.625	2305.6
473.997	2342.89
474.369	2352.61
474.74	2363.23
475.112	2366.62
475.484	2443
475.855	2432.83
476.227	2497.46
476.598	2520.51
476.97	2521.42
477.341	2570.68
477.713	2578.36
478.084	2565.71
478.455	2621.53
478.827	2619.72
479.198	2747.85
479.569	2697.01
479.94	2761.41
480.311	2789.43
480.682	2815.65
481.053	2878.24
481.424	2913.5
481.795	2929.77
482.166	2944
482.537	2986.04
482.908	3056.09
483.279	3062.42
483.65	3101.51
484.021	3092.48
484.391	3163.21
484.762	3174.96
485.133	3175.64
485.503	3216.77
485.874	3274.62
486.244	3313.49
486.615	3278.46
486.985	3318.23
487.356	3388.96
487.726	3432.81
488.097	3480.49
488.467	3469.41
488.837	3524.33
489.207	3588.06
489.578	3612.46
489.948	3605.68
490.318	3618.34
490.688	3638.22
491.058	3689.75
491.428	3704.89
491.798	3771.55
492.168	3804.55
492.538	3841.38
492.908	3826.24
493.278	3859.01
493.648	3885.45
494.017	3962.73
494.387	3962.06
494.757	3972.68
495.126	4012.9
495.496	3994.6
495.866	4010.19
496.235	4073.69
496.605	4052.9
496.974	4056.29
497.344	4123.86
497.713	4134.93
498.082	4190.75
498.452	4206.12
498.821	4221.94
499.19	4174.93
499.559	4245.21
499.928	4230.07
500.298	4263.07
500.667	4298.77
501.036	4276.17
501.405	4319.79
501.774	4316.62
502.143	4388.71
502.512	4356.62
502.88	4396.4
503.249	4361.14
503.618	4450.63
503.987	4476.39
504.356	4432.33
504.724	4466.9
505.093	4542.38
505.462	4466.45
505.83	4548.03
506.199	4514.58
506.567	4563.62
506.936	4569.72
507.304	4636.39
507.672	4614.92
508.041	4651.3
508.409	4650.85
508.777	4593.68
509.145	4700.12
509.514	4680
509.882	4750.06
510.25	4682.04
510.618	4718.87
510.986	4727.01
511.354	4790.51
511.722	4794.13
512.09	4849.72
512.458	4772.66
512.826	4844.29
513.193	4871.86
513.561	4845.42
513.929	4882.48
514.297	4905.99
514.664	4928.36
515.032	4892.65
515.4	4932.2
515.767	4935.36
516.135	4935.36
516.502	4926.55
516.869	4980.34
517.237	5007.45
517.604	4964.74
517.972	5008.81
518.339	4957.74
518.706	5058.07
519.073	5047.68
519.44	5051.29
519.808	5103.95
520.175	5104.4
520.542	5107.11
520.909	5138.98
521.276	5124.96
521.643	5154.34
522.009	5172.65
522.376	5201.57
522.743	5214.23
523.11	5239.99
523.477	5280.89
523.843	5297.39
524.21	5361.57
524.577	5350.27
524.943	5367.9
525.31	5367.9
525.676	5413.09
526.043	5449.02
526.409	5437.72
526.776	5498.06
527.142	5505.52
527.508	5497.84
527.874	5569.02
528.241	5550.94
528.607	5621
528.973	5596.59
529.339	5633.2
529.705	5652.63
530.071	5648.11
530.437	5713.65
530.803	5727.21
531.169	5713.88
531.535	5690.6
531.901	5756.36
532.267	5807.43
532.632	5787.32
532.998	5784.83
533.364	5852.18
533.73	5874.32
534.095	5917.49
534.461	5895.79
534.826	5938.05
535.192	5976.02
535.557	5977.37
535.923	5964.26
536.288	6024.15
536.653	5980.76
537.019	6047.43
537.384	6054.66
537.749	6090.81
538.114	6065.05
538.479	6052.85
538.845	6050.59
539.21	6135.78
539.575	6103.02
539.94	6130.81
540.305	6201.55
540.67	6154.54
541.034	6187.99
541.399	6233.18
541.764	6222.56
542.129	6243.35
542.494	6252.84
542.858	6254.43
543.223	6241.09
543.587	6265.05
543.952	6332.16
544.316	6364.93
544.681	6286.29
545.045	6343.46
545.41	6406.96
545.774	6422.78
546.138	6418.94
546.503	6408.09
546.867	6420.75
547.231	6478.37
547.595	6476.34
547.959	6500.52
548.324	6496
548.688	6526.51
549.052	6491.03
549.416	6523.35
549.779	6558.82
550.143	6550.24
550.507	6576
550.871	6608.09
551.235	6580.75
551.599	6642.66
551.962	6604.7
552.326	6660.74
552.689	6666.62
553.053	6693.74
553.417	6640.4
553.78	6792.26
554.143	6691.48
554.507	6750.46
554.87	6720.18
555.234	6800.17
555.597	6785.49
555.96	6742.77
556.323	6795.43
556.686	6774.64
557.05	6841.08
557.413	6853.05
557.776	6903.67
558.139	6873.62
558.502	6883.34
558.865	6871.36
559.228	6936.67
559.59	6930.34
559.953	6957.46
560.316	7038.59
560.679	7039.49
561.041	7091.01
561.404	7068.42
561.767	7159.71
562.129	7114.06
562.492	7146.38
562.854	7196.1
563.217	7153.16
563.579	7180.73
563.941	7201.29
564.304	7256.21
564.666	7356.32
565.028	7289.2
565.39	7263.89
565.753	7338.92
566.115	7387.96
566.477	7409.65
566.839	7400.38
567.201	7486.26
567.563	7445.36
567.925	7455.52
568.287	7561.74
568.648	7521.06
569.01	7575.3
569.372	7627.5
569.734	7559.25
570.095	7646.48
570.457	7664.78
570.819	7745.69
571.18	7624.11
571.542	7766.7
571.903	7762.86
572.265	7811.45
572.626	7891.22
572.987	7873.14
573.349	7910.88
573.71	7997.88
574.071	7986.58
574.432	7992.46
574.794	8105.22
575.155	8095.06
575.516	8082.17
575.877	8124.21
576.238	8215.96
576.599	8244.2
576.96	8298.67
577.32	8344.99
577.681	8398.78
578.042	8457.53
578.403	8465.67
578.763	8481.49
579.124	8579.56
579.485	8637.87
579.845	8712.67
580.206	8796.05
580.566	8834.02
580.927	8937.75
581.287	9031.75
581.648	9001.47
582.008	9128.02
582.368	9166.67
582.728	9220.9
583.089	9392.87
583.449	9398.07
583.809	9579.54
584.169	9652.53
584.529	9701.34
584.889	9865.18
585.249	9939.53
585.609	10051.39
585.969	10149.24
586.329	10250.71
586.688	10363.7
587.048	10409.8
587.408	10551.71
587.768	10694.31
588.127	10846.85
588.487	10949.44
588.846	11117.12
589.206	11151.25
589.565	11278.7
589.925	11483.67
590.284	11583.78
590.643	11742.42
591.003	11939.25
591.362	12053.14
591.721	12172.69
592.08	12286.13
592.44	12437.77
592.799	12582.4
593.158	12702.62
593.517	12838.43
593.876	12989.39
594.235	13117.75
594.593	13226.9
594.952	13339.21
595.311	13533.78
595.67	13669.15
596.029	13905.75
596.387	14016.03
596.746	14129.25
597.104	14121.56
597.463	14315.91
597.822	14527.2
598.18	14544.83
598.538	14700.76
598.897	14839.51
599.255	14919.28
599.613	15167.19
599.972	15263.23
600.33	15406.28
600.688	15431.81
601.046	15644.69
601.404	15677.68
601.762	15862.99
602.12	16082.64
602.478	16168.97
602.836	16178.68
603.194	16215.97
603.552	16363.31
603.91	16370.54
604.268	16555.62
604.625	16671.33
604.983	16731.21
605.341	16775.96
605.698	16995.16
606.056	17045.33
606.413	17054.37
606.771	17226.79
607.128	17384.75
607.485	17336.17
607.843	17452.55
608.2	17592.21
608.557	17670.85
608.914	17698.19
609.272	17815.48
609.629	17946.77
609.986	18082.82
610.343	18077.84
610.7	18364.62
611.057	18304.28
611.414	18426.76
611.771	18404.84
612.127	18528.23
612.484	18561.22
612.841	18658.17
613.198	18614.1
613.554	18744.72
613.911	18896.35
614.267	18852.06
614.624	18977.03
614.98	19036.46
615.337	19137.03
615.693	19169.57
616.05	19177.48
616.406	19363.01
616.762	19389.22
617.118	19528.2
617.475	19411.37
617.831	19549.44
618.187	19505.38
618.543	19604.36
618.899	19718.93
619.255	19691.36
619.611	19661.53
619.967	19898.13
620.323	19944.69
620.678	19855.2
621.034	19832.83
621.39	19873.95
621.746	19955.76
622.101	20162.08
622.457	19956.66
622.812	20130.67
623.168	20194.17
623.523	20221.52
623.879	20239.14
624.234	20122.54
624.589	20231.46
624.945	20315.53
625.3	20295.64
625.655	20261.52
626.01	20351
626.365	20335.41
626.72	20413.6
627.075	20386.26
627.43	20394.39
627.785	20350.1
628.14	20430.1
628.495	20456.76
628.85	20455.86
629.205	20287.28
629.559	20570.21
629.914	20470.78
630.269	20544.22
630.623	20446.14
630.978	20517.1
631.332	20488.63
631.687	20623.31
632.041	20361.4
632.396	20476.88
632.75	20463.77
633.104	20461.51
633.459	20357.78
633.813	20388.07
634.167	20430.32
634.521	20422.41
634.875	20367.95
635.229	20437.33
635.583	20446.82
635.937	20471
636.291	20331.34
636.645	20348.07
636.999	20310.1
637.352	20330.44
637.706	20341.29
638.06	20334.73
638.413	20237.11
638.767	20367.28
639.121	20316.43
639.474	20259.03
639.828	20148.07
640.181	20291.12
640.534	20304.68
640.888	20280.05
641.241	20013.84
641.594	20239.82
641.947	20269.42
642.301	20216.09
642.654	20137.68
643.007	20242.08
643.36	20316.88
643.713	20168.64
644.066	20317.56
644.419	20148.52
644.771	20016.78
645.124	19820.62
645.477	19796.22
645.83	19690.23
646.182	19726.39
646.535	19598.93
646.888	19716.44
647.24	19570.01
647.593	19582.44
647.945	19625.37
648.298	19534.53
648.65	19502.44
649.002	19531.59
649.355	19556.9
649.707	19518.94
650.059	19600.29
650.411	19821.98
650.763	19922.09
651.115	20015.42
651.467	19939.26
651.819	19994.18
652.171	19857.46
652.523	19954.4
652.875	19914.86
653.227	19947.4
653.578	20026.49
653.93	19983.56
654.282	20035.08
654.633	19933.61
654.985	19942.2
655.337	20012.03
655.688	20004.35
656.039	20022.43
656.391	19844.13
656.742	19923.45
657.094	19977.68
657.445	20025.59
657.796	20053.84
658.147	19971.81
658.498	19934.97
658.849	20005.25
659.2	20032.37
659.551	19920.28
659.902	20050.45
660.253	20088.41
660.604	20037.34
660.955	20027.62
661.306	20009.77
661.656	20024.91
662.007	20065.14
662.358	20051.35
662.708	20123.21
663.059	20033.95
663.409	19941.07
663.76	20151.69
664.11	20062.65
664.461	20102.65
664.811	20020.84
665.161	20084.34
665.511	19956.44
665.862	20075.53
666.212	20198.69
666.562	20204.57
666.912	20128.86
667.262	20045.02
667.612	19966.61
667.962	20065.14
668.312	20025.82
668.662	20126.38
669.011	20111.24
669.361	20053.16
669.711	20004.57
670.06	19991.92
670.41	20007.96
670.76	19911.92
671.109	20051.13
671.459	20060.62
671.808	19963.22
672.157	19965.03
672.507	19937.46
672.856	19925.48
673.205	19882.32
673.554	20015.42
673.904	19901.98
674.253	19956.66
674.602	19988.75
674.951	19617.24
675.3	19540.18
675.649	19831.92
675.998	19842.09
676.346	19837.57
676.695	19886.16
677.044	19657.24
677.393	19763
677.741	19767.29
678.09	19732.94
678.438	19689.1
678.787	19674.64
679.135	19636.9
679.484	19536.11
679.832	19621.98
680.181	19515.77
680.529	19516.22
680.877	19561.65
681.225	19482.33
681.573	19669.21
681.922	19557.8
682.27	19451.37
682.618	19414.76
682.966	19317.36
683.314	19331.14
683.661	19247.76
684.009	19232.16
684.357	19280.52
684.705	19154.43
685.053	19257.93
685.4	19207.31
685.748	18990.14
686.095	19015.45
686.443	18913.53
686.79	19000.53
687.138	18968.89
687.485	18953.53
687.832	18873.3
688.18	18846.64
688.527	18782.68
688.874	18682.12
689.221	18709.01
689.568	18636.25
689.915	18519.64
690.262	18606.19
690.609	18535.23
690.956	18385.63
691.303	18402.13
691.65	18376.37
691.997	18270.38
692.344	18199.65
692.69	18191.29
693.037	18184.51
693.383	17991.29
693.73	18061.35
694.077	17945.87
694.423	17986.09
694.769	17946.77
695.116	17892.76
695.462	17858.41
695.808	17815.03
696.155	17735.25
696.501	17615.48
696.847	17508.14
697.193	17569.83
697.539	17556.5
697.885	17411.87
698.231	17307.92
698.577	17315.15
698.923	17333.68
699.269	17162.39
699.614	17086.68
699.96	17120.13
700.306	17024.54
700.651	16892.34
700.997	16836.29
701.342	16911.09
701.688	16762.17
702.033	16757.88
702.379	16672.46
702.724	16661.61
703.069	16683.3
703.415	16429.3
703.76	16433.82
704.105	16526.92
704.45	16401.96
704.795	16346.82
705.14	16168.06
705.485	16210.77
705.83	16145.01
706.175	16168.74
706.52	16092.81
706.865	16001.97
707.209	16054.62
707.554	15900.05
707.899	16025.02
708.243	15870.44
708.588	15861.4
708.932	15739.37
709.277	15732.14
709.621	15769.88
709.966	15687.4
710.31	15709.32
710.654	15600.62
710.998	15555.42
711.342	15593.84
711.687	15446.05
712.031	15398.37
712.375	15425.94
712.719	15425.71
713.063	15358.37
713.407	15329.67
713.75	15293.96
714.094	15257.58
714.438	15236.11
714.782	15140.29
715.125	15198.15
715.469	15151.82
715.812	14995.67
716.156	14936.01
716.499	15032.5
716.843	14973.74
717.186	14918.83
717.53	14976.46
717.873	14997.02
718.216	14951.82
718.559	14874.76
718.902	14796.8
719.246	14874.76
719.589	14788.66
719.932	14694.2
720.275	14743.69
720.617	14729.46
720.96	14707.99
721.303	14726.75
721.646	14729.68
721.989	14623.02
722.331	14636.58
722.674	14674.77
723.016	14611.95
723.359	14623.02
723.701	14618.05
724.044	14570.59
724.386	14468.67
724.729	14629.8
725.071	14432.74
725.413	14424.38
725.755	14509.12
726.097	14381.67
726.439	14285.85
726.782	14336.25
727.124	14410.82
727.465	14396.58
727.807	14382.12
728.149	14324.27
728.491	14393.65
728.833	14357.49
729.175	14353.87
729.516	14261.45
729.858	14255.35
730.199	14324.04
730.541	14222.8
730.882	14182.81
731.224	14296.02
731.565	14243.59
731.906	14271.62
732.248	14290.82
732.589	14195.46
732.93	14146.65
733.271	14277.27
733.612	14181
733.953	14151.85
734.294	14196.59
734.635	14159.98
734.976	14255.57
735.317	14137.38
735.658	14207.44
735.999	14211.05
736.339	14105.29
736.68	14254.44
737.021	14151.85
737.361	14083.37
737.702	14183.71
738.042	14146.42
738.383	14204.27
738.723	14255.12
739.063	14166.08
739.404	14173.54
739.744	14140.55
740.084	14080.43
740.424	14202.01
740.764	14191.84
741.104	14123.6
741.444	14121.56
741.784	14025.3
742.124	14212.41
742.464	14218.28
742.804	14221.67
743.143	14257.83
743.483	14305.97
743.823	14181.45
744.162	14265.51
744.502	14277.72
744.841	14338.06
745.181	14364.72
745.52	14377.15
745.86	14443.82
746.199	14397.04
746.538	14450.59
746.877	14581.44
747.216	14583.92
747.556	14608.33
747.895	14706.63
748.234	14718.61
748.573	14649.46
748.911	14735.56
749.25	14867.76
749.589	14826.63
749.928	15012.61
750.267	14968.55
750.605	15020.52
750.944	15090.35
751.283	15131.93
751.621	15249.44
751.96	15317.92
752.298	15364.92
752.636	15338.25
752.975	15519.72
753.313	15522.43
753.651	15754.97
753.989	15735.53
754.327	15836.32
754.666	15855.76
755.004	15977.11
755.342	16088.74
755.679	16266.37
756.017	16245.12
756.355	16333.26
756.693	16467.49
757.031	16615.28
757.368	16661.38
757.706	16792
758.044	16816.86
758.381	17002.17
758.719	16979.79
759.056	17143.41
759.394	17167.36
759.731	17297.07
