Data from hue_150_FLMS001491_00030.txt Node
Date: Tue Feb 07 16:53:50 GMT 2017
User: dcchb
Spectrometer: FLMS00149
Trigger mode: 0
Integration Time (sec): 2.000000E-2
Scans to average: 10
Electric dark correction enabled: true
Nonlinearity correction enabled: false
Boxcar width: 0
XAxis mode: Wavelengths
Number of Pixels in Spectrum: 2048
>>>>>Begin Spectral Data<<<<<
341.393	-1.85
341.776	-1.85
342.16	-1.85
342.543	-71.45
342.927	-58.12
343.31	-75.75
343.693	-66.71
344.077	-42.3
344.46	-59.93
344.843	-52.47
345.226	-43.88
345.61	-40.27
345.993	-21.28
346.376	7.19
346.759	14.65
347.142	21.88
347.525	38.6
347.908	56.91
348.291	60.75
348.674	97.58
349.057	105.04
349.44	121.76
349.823	142.78
350.206	173.06
350.588	203.34
350.971	203.79
351.354	232.27
351.737	242.66
352.119	240.63
352.502	263
352.884	264.36
353.267	282.66
353.65	310.23
354.032	307.52
354.414	319.05
354.797	310.91
355.179	317.01
355.562	311.59
355.944	339.16
356.326	331.93
356.709	337.12
357.091	347.75
357.473	336.9
357.855	341.64
358.238	329.89
358.62	353.17
359.002	326.95
359.384	343
359.766	329.44
360.148	352.04
360.53	356.78
360.912	334.86
361.294	334.86
361.676	347.97
362.057	337.35
362.439	348.65
362.821	331.02
363.203	331.93
363.584	328.08
363.966	313.85
364.348	347.29
364.729	330.34
365.111	324.69
365.493	320.4
365.874	325.37
366.256	321.31
366.637	331.93
367.019	315.43
367.4	315.66
367.781	326.73
368.163	312.04
368.544	333.73
368.925	297.12
369.306	323.56
369.688	323.11
370.069	321.08
370.45	311.59
370.831	316.11
371.212	322.44
371.593	310.91
371.974	306.62
372.355	319.05
372.736	331.25
373.117	342.1
373.498	320.4
373.879	325.15
374.26	312.72
374.641	328.76
375.021	312.49
375.402	340.74
375.783	327.86
376.163	314.3
376.544	343.23
376.925	316.79
377.305	339.61
377.686	346.84
378.066	343.23
378.447	327.63
378.827	345.94
379.208	344.13
379.588	341.19
379.968	339.61
380.349	338.93
380.729	331.93
381.109	342.55
381.489	337.8
381.87	343
382.25	348.2
382.63	336.67
383.01	368.54
383.39	341.19
383.77	344.81
384.15	338.93
384.53	367.86
384.91	364.47
385.29	377.12
385.67	376.44
386.049	364.24
386.429	382.55
386.809	345.49
387.189	377.35
387.568	368.76
387.948	350.23
388.328	372.38
388.707	369.89
389.087	376.67
389.466	376.22
389.846	364.02
390.225	370.34
390.605	369.89
390.984	379.83
391.363	393.85
391.743	389.78
392.122	404.47
392.501	384.35
392.881	389.1
393.26	400.63
393.639	379.83
394.018	398.59
394.397	415.09
394.776	361.53
395.155	386.16
395.534	389.1
395.913	408.31
396.292	382.55
396.671	406.73
397.05	405.6
397.429	397.91
397.808	417.8
398.186	376.44
398.565	401.3
398.944	408.53
399.323	403.11
399.701	433.39
400.08	412.6
400.458	433.17
400.837	441.53
401.215	412.83
401.594	443.11
401.972	421.64
402.351	425.71
402.729	432.49
403.107	425.94
403.486	452.15
403.864	442.21
404.242	441.75
404.62	432.04
404.999	449.66
405.377	459.15
405.755	442.88
406.133	454.41
406.511	456.67
406.889	442.21
407.267	467.06
407.645	447.4
408.023	452.83
408.401	468.65
408.779	442.66
409.156	463.22
409.534	467.06
409.912	468.19
410.29	491.7
410.667	506.84
411.045	503.22
411.422	492.37
411.8	491.47
412.178	487.4
412.555	503.45
412.933	518.59
413.31	495.54
413.687	492.83
414.065	518.36
414.442	521.75
414.819	518.59
415.197	530.34
415.574	521.07
415.951	533.95
416.328	519.04
416.705	522.2
417.082	521.75
417.46	545.93
417.837	558.36
418.214	548.42
418.591	555.42
418.967	561.3
419.344	540.28
419.721	573.73
420.098	562.2
420.475	569.89
420.852	549.77
421.228	590.68
421.605	561.75
421.982	599.94
422.358	577.8
422.735	588.42
423.111	602.43
423.488	618.47
423.864	608.08
424.241	605.59
424.617	599.26
424.994	632.03
425.37	611.02
425.746	627.06
426.123	653.05
426.499	648.53
426.875	647.17
427.251	656.44
427.627	632.26
428.003	654.63
428.379	659.38
428.756	660.96
429.132	683.33
429.507	684.69
429.883	687.85
430.259	714.97
430.635	693.95
431.011	693.72
431.387	743.67
431.763	718.58
432.138	727.85
432.514	756.1
432.89	748.64
433.265	756.55
433.641	753.84
434.016	755.87
434.392	767.62
434.767	762.42
435.143	780.73
435.518	787.51
435.894	793.61
436.269	798.81
436.644	818.24
437.02	825.47
437.395	820.5
437.77	807.17
438.145	844.46
438.52	841.97
438.895	845.36
439.271	850.56
439.646	878.8
440.021	907.28
440.395	882.42
440.77	879.26
441.145	885.58
441.52	889.2
441.895	888.97
442.27	898.47
442.645	899.59
443.019	912.02
443.394	903.44
443.769	945.02
444.143	916.54
444.518	944.57
444.892	957.22
445.267	958.8
445.641	968.97
446.016	991.34
446.39	982.08
446.764	984.11
447.139	980.5
447.513	983.66
447.887	993.15
448.262	1030.44
448.636	999.03
449.01	1029.54
449.384	1032.25
449.758	1023.66
450.132	1060.04
450.506	1066.37
450.88	1048.97
451.254	1051.23
451.628	1069.31
452.002	1113.37
452.376	1088.29
452.75	1109.98
453.123	1106.82
453.497	1135.97
453.871	1141.17
454.244	1171.68
454.618	1173.03
454.992	1168.97
455.365	1173.26
455.739	1196.54
456.112	1211.68
456.486	1237.21
456.859	1240.6
457.232	1266.59
457.606	1260.94
457.979	1280.15
458.352	1302.3
458.725	1307.72
459.099	1325.12
459.472	1342.07
459.845	1369.64
460.218	1375.97
460.591	1378
460.964	1381.16
461.337	1400.37
461.71	1488.05
462.083	1431.78
462.456	1507.49
462.829	1476.08
463.201	1502.97
463.574	1526.92
463.947	1533.93
464.32	1559.92
464.692	1589.29
465.065	1585.68
465.438	1636.3
465.81	1665.22
466.183	1685.11
466.555	1736.86
466.928	1724.88
467.3	1732.57
467.672	1747.71
468.045	1816.41
468.417	1807.59
468.789	1845.56
469.161	1869.96
469.534	1894.6
469.906	1946.8
470.278	1947.48
470.65	2014.37
471.022	2057.98
471.394	2077.87
471.766	2106.12
472.138	2140.92
472.51	2224.98
472.882	2246.68
473.253	2245.55
473.625	2299.11
473.997	2413.45
474.369	2418.88
474.74	2475.15
475.112	2543.17
475.484	2569.38
475.855	2651.19
476.227	2684.41
476.598	2765.08
476.97	2788.81
477.341	2914.91
477.713	2964.63
478.084	2988.81
478.455	3087.11
478.827	3123.49
479.198	3264.5
479.569	3292.3
479.94	3427.66
480.311	3460.43
480.682	3602.35
481.053	3669.92
481.424	3792.17
481.795	3866.52
482.166	3966.86
482.537	4050.25
482.908	4199.85
483.279	4288.66
483.65	4370.46
484.021	4479.16
484.391	4576.33
484.762	4698.14
485.133	4785.59
485.503	4856.78
485.874	5070.33
486.244	5115.98
486.615	5271.23
486.985	5425.58
487.356	5536.99
487.726	5641.39
488.097	5805
488.467	5875.28
488.837	6030.99
489.207	6229.85
489.578	6319.34
489.948	6483.18
490.318	6595.04
490.688	6681.82
491.058	6869.16
491.428	7013.56
491.798	7079.32
492.168	7260.78
492.538	7331.52
492.908	7516.14
493.278	7723.6
493.648	7793.43
494.017	7976.92
494.387	8076.13
494.757	8157.48
495.126	8342.79
495.496	8420.75
495.866	8482.9
496.235	8627.75
496.605	8801.31
496.974	8842.21
497.344	8983.22
497.713	9110
498.082	9197.23
498.452	9406.26
498.821	9532.36
499.19	9518.8
499.559	9687.84
499.928	9729.19
500.298	9892.8
500.667	10014.84
501.036	10047.38
501.405	10161.05
501.774	10184.55
502.143	10281.04
502.512	10349.97
502.88	10472.68
503.249	10502.96
503.618	10636.74
503.987	10745.44
504.356	10810.29
504.724	10943.85
505.093	11050.51
505.462	11007.8
505.83	11074.47
506.199	11171.87
506.567	11305.42
506.936	11340
507.304	11488.24
507.672	11531.41
508.041	11624.28
508.409	11707.9
508.777	11805.97
509.145	11834.22
509.514	11797.84
509.882	11895.92
510.25	11925.07
510.618	11957.61
510.986	12076.7
511.354	12213.42
511.722	12321.22
512.09	12342.91
512.458	12410.48
512.826	12427.88
513.193	12480.99
513.561	12423.13
513.929	12506.75
514.297	12706.74
514.664	12774.54
515.032	12798.49
515.4	12777.47
515.767	12832.61
516.135	12880.52
516.502	12817.25
516.869	13006.4
517.237	13008.2
517.604	12954.19
517.972	13058.15
518.339	13153.06
518.706	13140.18
519.073	13192.38
519.44	13215.43
519.808	13297.46
520.175	13285.03
520.542	13359.15
520.909	13448.19
521.276	13414.52
521.643	13433.73
522.009	13491.35
522.376	13571.8
522.743	13574.06
523.11	13702.42
523.477	13772.48
523.843	13788.75
524.21	13879.14
524.577	13967.5
524.943	13893.6
525.31	13863.32
525.676	14066.03
526.043	14012.47
526.409	14057.22
526.776	14115.07
527.142	14116.65
527.508	14128.85
527.874	14191.22
528.241	14168.17
528.607	14094.95
528.973	14154.39
529.339	14258.79
529.705	14320.94
530.071	14352.35
530.437	14225.12
530.803	14334.72
531.169	14287.94
531.535	14233.26
531.901	14264.44
532.267	14260.83
532.632	14297.21
532.998	14312.35
533.364	14353.93
533.73	14291.56
534.095	14349.41
534.461	14293.37
534.826	14323.87
535.192	14399.35
535.557	14285.01
535.923	14233.03
536.288	14244.1
536.653	14298.34
537.019	14256.98
537.384	14207.72
537.749	14243.65
538.114	14174.5
538.479	14165.69
538.845	14185.57
539.21	14214.95
539.575	14111.23
539.94	14140.83
540.305	14139.7
540.67	14015.18
541.034	13988.29
541.399	14032.13
541.764	14117.33
542.129	13963.88
542.494	13934.96
542.858	13971.34
543.223	13901.29
543.587	13922.08
543.952	13868.52
544.316	13817.67
544.681	13808.18
545.045	13816.54
545.41	13757.11
545.774	13743.33
546.138	13701.52
546.503	13600.05
546.867	13671.69
547.231	13737.68
547.595	13629.2
547.959	13603.22
548.324	13570
548.688	13649.09
549.052	13546.95
549.416	13595.08
549.779	13465.82
550.143	13496.1
550.507	13447.74
550.871	13497
551.235	13407.29
551.599	13400.51
551.962	13397.35
552.326	13337.46
552.689	13341.08
553.053	13266.05
553.417	13215.43
553.78	13375.65
554.143	13274.41
554.507	13270.34
554.87	13268.54
555.234	13280.06
555.597	13155.09
555.96	13262.66
556.323	13211.81
556.686	13171.59
557.05	13188.54
557.413	13134.3
557.776	13205.71
558.139	13252.26
558.502	13219.05
558.865	13243.45
559.228	13263.11
559.59	13303.79
559.953	13241.87
560.316	13332.71
560.679	13246.39
561.041	13318.25
561.404	13384.92
561.767	13262.66
562.129	13358.02
562.492	13395.54
562.854	13285.48
563.217	13278.48
563.579	13248.42
563.941	13398.93
564.304	13385.82
564.666	13408.19
565.028	13371.36
565.39	13389.66
565.753	13404.12
566.115	13463.56
566.477	13504.91
566.839	13466.95
567.201	13533.16
567.563	13508.53
567.925	13579.94
568.287	13547.17
568.648	13486.61
569.01	13633.5
569.372	13552.82
569.734	13583.33
570.095	13696.77
570.457	13664.01
570.819	13618.81
571.18	13760.5
571.542	13775.64
571.903	13654.74
572.265	13691.12
572.626	13715.53
572.987	13765.92
573.349	13793.27
573.71	13828.75
574.071	13807.96
574.432	13803.89
574.794	13923.66
575.155	13914.17
575.516	13767.73
575.877	13872.59
576.238	13907.39
576.599	13912.59
576.96	13946.94
577.32	13870.1
577.681	13926.82
578.042	13932.25
578.403	13920.04
578.763	13952.81
579.124	13991
579.485	13945.35
579.845	14065.8
580.206	13999.82
580.566	14010.44
580.927	13946.26
581.287	14050.21
581.648	13918.46
582.008	14040.72
582.368	14016.54
582.728	14043.88
583.089	13995.07
583.449	13937.67
583.809	13917.78
584.169	14070.1
584.529	13890.44
584.889	14043.2
585.249	13909.42
585.609	13894.51
585.969	13923.43
586.329	13806.83
586.688	13910.78
587.048	13864
587.408	13841.4
587.768	13832.81
588.127	13828.52
588.487	13744.23
588.846	13859.25
589.206	13797.33
589.565	13813.15
589.925	13873.49
590.284	13786.49
590.643	13829.88
591.003	13844.11
591.362	13838.46
591.721	13849.54
592.08	13833.27
592.44	13833.04
592.799	13787.84
593.158	13795.98
593.517	13733.83
593.876	13871.68
594.235	13765.02
594.593	13822.42
594.952	13839.82
595.311	13771.57
595.67	13842.08
596.029	13828.52
596.387	13817
596.746	13838.92
597.104	13754.62
597.463	13693.83
597.822	13784.68
598.18	13654.29
598.538	13779.03
598.897	13733.38
599.255	13668.3
599.613	13842.53
599.972	13769.54
600.33	13847.28
600.688	13737.68
601.046	13779.26
601.404	13807.73
601.762	13751.69
602.12	13842.53
602.478	13787.17
602.836	13787.39
603.194	13719.14
603.552	13755.75
603.91	13736.55
604.268	13786.04
604.625	13701.74
604.983	13808.63
605.341	13770.67
605.698	13726.6
606.056	13873.49
606.413	13825.81
606.771	13872.36
607.128	13878.91
607.485	13802.31
607.843	13815.19
608.2	13812.02
608.557	13917.33
608.914	13830.78
609.272	13915.3
609.629	13926.37
609.986	13977.9
610.343	13868.75
610.7	13961.17
611.057	13954.39
611.414	13894.06
611.771	13945.58
612.127	14027.61
612.484	13963.21
612.841	14026.03
613.198	13905.58
613.554	14005.92
613.911	14051.34
614.267	14011.34
614.624	14078.91
614.98	14098.12
615.337	14031.68
615.693	14074.39
616.05	14034.84
616.406	14114.16
616.762	14051.79
617.118	14067.61
617.475	14150.09
617.831	14118.68
618.187	14183.09
618.543	14140.6
618.899	14158.23
619.255	14202.97
619.611	14169.75
619.967	14200.71
620.323	14215.18
620.678	14210.66
621.034	14192.13
621.39	14108.74
621.746	14097.21
622.101	14300.15
622.457	14221.73
622.812	14249.3
623.168	14212.92
623.523	14221.05
623.879	14288.4
624.234	14123.2
624.589	14255.4
624.945	14215.4
625.3	14226.7
625.655	14213.82
626.01	14225.35
626.365	14252.24
626.72	14166.14
627.075	14261.73
627.43	14165.23
627.785	14198.91
628.14	14246.36
628.495	14269.64
628.85	14175.4
629.205	14077.55
629.559	14080.04
629.914	14099.47
630.269	14126.14
630.623	14046.37
630.978	14065.58
631.332	14130.89
631.687	14123.2
632.041	14028.29
632.396	14074.62
632.75	13963.66
633.104	13964.79
633.459	14012.7
633.813	13924.56
634.167	13970.44
634.521	13921.63
634.875	14017.44
635.229	13957.33
635.583	13875.07
635.937	13793.04
636.291	13781.74
636.645	13845.02
636.999	13816.77
637.352	13856.54
637.706	13798.92
638.06	13816.32
638.413	13827.16
638.767	13766.83
639.121	13754.4
639.474	13696.77
639.828	13723.66
640.181	13750.33
640.534	13806.15
640.888	13697
641.241	13679.6
641.594	13623.78
641.947	13586.72
642.301	13654.06
642.654	13690.22
643.007	13729.77
643.36	13659.71
643.713	13602.99
644.066	13587.17
644.419	13501.3
644.771	13427.18
645.124	13313.73
645.477	13360.06
645.83	13263.34
646.182	13193.28
646.535	13082.55
646.888	13219.05
647.24	13127.52
647.593	13140.63
647.945	13110.57
648.298	13052.27
648.65	13070.8
649.002	13052.5
649.355	13153.28
649.707	13090.69
650.059	13142.44
650.411	13303.56
650.763	13309.66
651.115	13529.32
651.467	13432.82
651.819	13420.4
652.171	13450.68
652.523	13427.4
652.875	13367.29
653.227	13350.79
653.578	13451.13
653.93	13427.18
654.282	13263.79
654.633	13331.58
654.985	13311.02
655.337	13342.66
655.688	13406.16
656.039	13434.86
656.391	13287.97
656.742	13353.5
657.094	13332.26
657.445	13443.67
657.796	13401.64
658.147	13302.43
658.498	13304.24
658.849	13398.93
659.2	13293.17
659.551	13292.26
659.902	13368.65
660.253	13393.5
660.604	13294.3
660.955	13300.85
661.306	13338.59
661.656	13387.85
662.007	13363
662.358	13340.4
662.708	13439.6
663.059	13321.87
663.409	13279.16
663.76	13351.47
664.11	13481.19
664.461	13341.75
664.811	13436.44
665.161	13444.35
665.511	13340.4
665.862	13388.53
666.212	13438.47
666.562	13393.5
666.912	13429.89
667.262	13359.83
667.612	13395.76
667.962	13380.4
668.312	13350.34
668.662	13425.14
669.011	13381.98
669.361	13388.98
669.711	13334.97
670.06	13300.4
670.41	13346.73
670.76	13261.53
671.109	13332.26
671.459	13304.92
671.808	13266.28
672.157	13315.54
672.507	13197.8
672.856	13220.17
673.205	13344.24
673.554	13303.56
673.904	13257.91
674.253	13291.59
674.602	13253.62
674.951	13082.1
675.3	13019.73
675.649	13168.2
675.998	13189.67
676.346	13108.31
676.695	13240.06
677.044	13105.83
677.393	13085.04
677.741	13112.16
678.09	13095.43
678.438	12999.62
678.787	13002.78
679.135	13052.95
679.484	12991.48
679.832	13006.62
680.181	12963.68
680.529	12976.79
680.877	12906.06
681.225	12929.34
681.573	13001.42
681.922	12803.91
682.27	12883.01
682.618	12861.09
682.966	12903.35
683.314	12811.82
683.661	12805.95
684.009	12669
684.357	12622.45
684.705	12730.7
685.053	12778.15
685.4	12732.73
685.748	12555.11
686.095	12626.97
686.443	12542
686.79	12480.99
687.138	12583.13
687.485	12571.6
687.832	12544.03
688.18	12492.06
688.527	12429.24
688.874	12417.26
689.221	12455.45
689.568	12372.97
689.915	12310.37
690.262	12364.6
690.609	12270.82
690.956	12234.44
691.303	12118.06
691.65	12089.36
691.997	12171.84
692.344	12023.82
692.69	12059.08
693.037	11973.88
693.383	11899.53
693.73	11941.56
694.077	11865.86
694.423	11932.3
694.769	11798.97
695.116	11725.53
695.462	11764.85
695.808	11589.48
696.155	11707.22
696.501	11591.29
696.847	11594.23
697.193	11555.13
697.539	11548.81
697.885	11430.17
698.231	11379.55
698.577	11351.98
698.923	11280.79
699.269	11250.06
699.614	11224.3
699.96	11137.07
700.306	11159.89
700.651	11218.65
700.997	11102.94
701.342	11040.57
701.688	10998.54
702.033	10980.23
702.379	10916.05
702.724	10866.79
703.069	10944.98
703.415	10822.5
703.76	10775.04
704.105	10749.96
704.45	10795.38
704.795	10686.46
705.14	10673.12
705.485	10649.17
705.83	10644.42
706.175	10638.1
706.52	10601.94
706.865	10472.22
707.209	10571.66
707.554	10429.51
707.899	10488.95
708.243	10465.9
708.588	10417.99
708.932	10286.69
709.277	10335.51
709.621	10281.5
709.966	10234.49
710.31	10238.56
710.654	10166.92
710.998	10177.77
711.342	10219.35
711.687	10160.82
712.031	10164.66
712.375	10046.25
712.719	10059.81
713.063	10059.13
713.407	10100.48
713.75	10029.75
714.094	10050.09
714.438	9974.84
714.782	9964.44
715.125	9897.32
715.469	9957.66
715.812	9861.39
716.156	9851.22
716.499	9890.55
716.843	9796.54
717.186	9787.72
717.53	9885.57
717.873	9841.28
718.216	9835.86
718.559	9768.97
718.902	9712.47
719.246	9772.13
719.589	9660.27
719.932	9672.47
720.275	9667.27
720.617	9701.62
720.96	9622.3
721.303	9638.8
721.646	9641.74
721.989	9613.26
722.331	9632.02
722.674	9600.16
723.016	9614.62
723.359	9570.33
723.701	9529.2
724.044	9523.55
724.386	9464.34
724.729	9498.69
725.071	9454.62
725.413	9484.45
725.755	9486.49
726.097	9489.43
726.439	9390.9
726.782	9454.62
727.124	9474.74
727.465	9448.52
727.807	9416.66
728.149	9434.51
728.491	9424.34
728.833	9407.17
729.175	9328.75
729.516	9365.14
729.858	9390.9
730.199	9363.78
730.541	9364.23
730.882	9340.95
731.224	9380.95
731.565	9302.09
731.906	9343.21
732.248	9366.27
732.589	9311.13
732.93	9270
733.271	9329.43
733.612	9336.66
733.953	9342.08
734.294	9354.97
734.635	9317.9
734.976	9382.54
735.317	9266.15
735.658	9275.65
735.999	9285.82
736.339	9268.87
736.68	9262.09
737.021	9305.48
737.361	9285.59
737.702	9343.67
738.042	9340.73
738.383	9246.04
738.723	9370.11
739.063	9275.87
739.404	9416.66
739.744	9312.03
740.084	9380.05
740.424	9304.57
740.764	9304.8
741.104	9373.5
741.444	9311.58
741.784	9315.19
742.124	9400.61
742.464	9359.49
742.804	9354.97
743.143	9454.4
743.483	9508.86
743.823	9425.7
744.162	9488.97
744.502	9527.62
744.841	9493.49
745.181	9578.69
745.52	9554.96
745.86	9610.78
746.199	9689.42
746.538	9586.37
746.877	9695.3
747.216	9771.23
747.556	9846.7
747.895	9870.88
748.234	9871.79
748.573	9945.68
748.911	9983.65
749.25	9993.82
749.589	10094.61
749.928	10186.36
750.267	10192.23
750.605	10178.22
750.944	10202.4
751.283	10256.64
751.621	10429.74
751.96	10458.21
752.298	10579.11
752.636	10692.33
752.975	10759.22
753.313	10747.47
753.651	10956.51
753.989	10995.15
754.327	10993.57
754.666	11126.9
755.004	11295.48
755.342	11489.6
755.679	11522.14
756.017	11575.7
756.355	11802.36
756.693	11918.74
757.031	12055.01
757.368	12075.35
757.706	12264.04
758.044	12422.68
758.381	12546.75
758.719	12685.05
