Data from hue_230_FLMS001491_00094.txt Node
Date: Tue Feb 07 16:38:00 GMT 2017
User: dcchb
Spectrometer: FLMS00149
Trigger mode: 0
Integration Time (sec): 2.000000E-2
Scans to average: 10
Electric dark correction enabled: true
Nonlinearity correction enabled: false
Boxcar width: 0
XAxis mode: Wavelengths
Number of Pixels in Spectrum: 2048
>>>>>Begin Spectral Data<<<<<
341.393	-18.16
341.776	-18.16
342.16	-18.16
342.543	-63.59
342.927	-59.97
343.31	-80.99
343.693	-78.05
344.077	-68.11
344.46	-80.31
344.843	-71.04
345.226	-33.98
345.61	-19.75
345.993	-25.39
346.376	-7.99
346.759	9.86
347.142	17.32
347.525	50.54
347.908	76.52
348.291	78.56
348.674	106.13
349.057	126.69
349.44	133.02
349.823	138.89
350.206	160.81
350.588	196.07
350.971	189.06
351.354	215.28
351.737	232.45
352.119	232.68
352.502	249.85
352.884	261.83
353.267	271.77
353.65	272.68
354.032	304.54
354.414	319
354.797	302.05
355.179	330.98
355.562	317.87
355.944	314.71
356.326	335.5
356.709	312.45
357.091	328.95
357.473	337.53
357.855	326.91
358.238	344.99
358.62	342.28
359.002	326.01
359.384	330.75
359.766	336.86
360.148	339.12
360.53	313.81
360.912	326.91
361.294	324.88
361.676	332.79
362.057	316.97
362.439	304.77
362.821	331.88
363.203	305.9
363.584	333.24
363.966	308.38
364.348	314.03
364.729	291.88
365.111	288.27
365.493	302.96
365.874	292.56
366.256	293.24
366.637	303.41
367.019	315.16
367.4	309.51
367.781	308.83
368.163	304.09
368.544	314.03
368.925	314.71
369.306	320.81
369.688	304.77
370.069	313.13
370.45	311.32
370.831	293.92
371.212	302.28
371.593	296.63
371.974	300.02
372.355	300.47
372.736	323.52
373.117	314.26
373.498	304.77
373.879	301.6
374.26	303.86
374.641	306.35
375.021	314.03
375.402	315.84
375.783	314.94
376.163	302.73
376.544	278.1
376.925	306.8
377.305	323.52
377.686	319
378.066	312.9
378.447	316.52
378.827	334.82
379.208	312.22
379.588	323.07
379.968	306.12
380.349	315.16
380.729	334.37
381.109	330.53
381.489	319.68
381.87	321.49
382.25	298.89
382.63	330.75
383.01	336.86
383.39	313.81
383.77	330.53
384.15	323.07
384.53	333.92
384.91	331.88
385.29	334.37
385.67	347.48
386.049	323.3
386.429	332.79
386.809	340.47
387.189	340.7
387.568	332.34
387.948	336.4
388.328	359.91
388.707	358.1
389.087	357.87
389.466	361.94
389.846	348.38
390.225	357.19
390.605	351.09
390.984	357.19
391.363	330.75
391.743	368.72
392.122	362.62
392.501	340.02
392.881	367.14
393.26	352
393.639	370.08
394.018	362.84
394.397	366.01
394.776	365.33
395.155	382.05
395.534	389.74
395.913	366.91
396.292	371.43
396.671	364.88
397.05	378.66
397.429	358.1
397.808	385.22
398.186	378.89
398.565	391.09
398.944	384.54
399.323	392
399.701	379.34
400.08	386.35
400.458	385.89
400.837	390.19
401.215	409.62
401.594	415.5
401.972	400.13
402.351	404.2
402.729	399
403.107	419.57
403.486	416.4
403.864	402.84
404.242	421.37
404.62	432.22
404.999	393.13
405.377	414.37
405.755	431.32
406.133	445.1
406.511	432.22
406.889	433.35
407.267	448.94
407.645	430.64
408.023	461.82
408.401	447.81
408.779	448.49
409.156	470.41
409.534	475.16
409.912	488.26
410.29	493.01
410.667	501.6
411.045	474.25
411.422	489.85
411.8	505.21
412.178	512.67
412.555	486.68
412.933	516.96
413.31	547.02
413.687	536.17
414.065	524.65
414.442	530.97
414.819	550.64
415.197	543.4
415.574	535.27
415.951	563.29
416.328	576.62
416.705	560.13
417.082	578.21
417.46	571.2
417.837	596.74
418.214	587.92
418.591	601.48
418.967	621.59
419.344	639.45
419.721	604.65
420.098	610.97
420.475	634.93
420.852	642.61
421.228	644.87
421.605	653.91
421.982	703.85
422.358	658.43
422.735	683.97
423.111	695.49
423.488	699.33
423.864	720.12
424.241	726.22
424.617	723.29
424.994	718.54
425.37	766
425.746	771.42
426.123	757.86
426.499	769.84
426.875	778.2
427.251	809.84
427.627	811.65
428.003	814.36
428.379	801.48
428.756	836.5
429.132	860.46
429.507	858.65
429.883	840.57
430.259	890.51
430.635	887.12
431.011	909.5
431.387	895.94
431.763	929.83
432.138	915.15
432.514	918.31
432.89	939.55
433.265	972.32
433.641	994.24
434.016	1006.22
434.392	1023.17
434.767	1009.83
435.143	1025.88
435.518	1035.37
435.894	1060.9
436.269	1113.56
436.644	1095.25
437.02	1129.83
437.395	1104.52
437.77	1115.59
438.145	1137.06
438.52	1167.57
438.895	1177.74
439.271	1201.01
439.646	1221.58
440.021	1243.5
440.395	1249.37
440.77	1245.76
441.145	1264.74
441.52	1262.93
441.895	1275.81
442.27	1324.4
442.645	1317.62
443.019	1338.41
443.394	1337.51
443.769	1357.17
444.143	1332.31
444.518	1377.51
444.892	1351.52
445.267	1385.42
445.641	1432.19
446.016	1402.36
446.39	1430.84
446.764	1463.61
447.139	1425.19
447.513	1440.56
447.887	1485.75
448.262	1465.87
448.636	1455.24
449.01	1485.3
449.384	1514.45
449.758	1530.72
450.132	1508.35
450.506	1545.19
450.88	1560.1
451.254	1528.69
451.628	1587.22
452.002	1603.26
452.376	1609.14
452.75	1599.65
453.123	1601.46
453.497	1640.32
453.871	1650.04
454.244	1681.45
454.618	1675.58
454.992	1690.49
455.365	1694.56
455.739	1737.04
456.112	1763.94
456.486	1788.79
456.859	1784.95
457.232	1822.69
457.606	1804.84
457.979	1840.77
458.352	1876.02
458.725	1877.38
459.099	1903.59
459.472	1956.93
459.845	1923.03
460.218	1996.02
460.591	1996.7
460.964	2020.88
461.337	2029.69
461.71	2061.78
462.083	2111.27
462.456	2097.04
462.829	2106.98
463.201	2123.48
463.574	2155.34
463.947	2144.04
464.32	2177.71
464.692	2217.48
465.065	2235.79
465.438	2246.64
465.81	2269.01
466.183	2291.15
466.555	2355.56
466.928	2326.86
467.3	2368.21
467.672	2419.29
468.045	2424.71
468.417	2434.88
468.789	2453.64
469.161	2494.54
469.534	2553.75
469.906	2556.23
470.278	2593.29
470.65	2619.06
471.022	2675.1
471.394	2727.08
471.766	2694.08
472.138	2760.97
472.51	2819.28
472.882	2835.32
473.253	2860.41
473.625	2852.5
473.997	2969.78
474.369	2909.44
474.74	2987.86
475.112	3026.73
475.484	3118.7
475.855	3103.56
476.227	3136.33
476.598	3198.7
476.97	3217.91
477.341	3307.17
477.713	3354.86
478.084	3369.32
478.455	3417.45
478.827	3473.04
479.198	3555.53
479.569	3521.18
479.94	3621.97
480.311	3662.64
480.682	3745.81
481.053	3781.74
481.424	3856.09
481.795	3844.11
482.166	3899.25
482.537	3935.86
482.908	4027.15
483.279	4021.96
483.65	4126.36
484.021	4204.1
484.391	4193.03
484.762	4248.84
485.133	4304.43
485.503	4362.29
485.874	4423.08
486.244	4430.08
486.615	4544.43
486.985	4533.36
487.356	4641.6
487.726	4644.09
488.097	4709.62
488.467	4730.64
488.837	4800.69
489.207	4885.89
489.578	4904.65
489.948	4969.5
490.318	5071.87
490.688	5035.49
491.058	5154.13
491.428	5200.91
491.798	5201.36
492.168	5257.86
492.538	5296.73
492.908	5345.31
493.278	5420.34
493.648	5411.52
494.017	5493.33
494.387	5527
494.757	5543.72
495.126	5605.64
495.496	5555.93
495.866	5618.52
496.235	5640.9
496.605	5697.39
496.974	5726.09
497.344	5764.74
497.713	5817.62
498.082	5830.5
498.452	5826.43
498.821	5919.99
499.19	5869.82
499.559	5958.85
499.928	5964.96
500.298	5967.44
500.667	6044.5
501.036	5993.2
501.405	6051.96
501.774	6040.89
502.143	6075.91
502.512	6072.52
502.88	6202.46
503.249	6155.91
503.618	6195.91
503.987	6228.68
504.356	6248.79
504.724	6182.35
505.093	6281.33
505.462	6251.5
505.83	6320.65
506.199	6391.16
506.567	6398.17
506.936	6338.51
507.304	6437.71
507.672	6404.72
508.041	6443.36
508.409	6534.88
508.777	6544.6
509.145	6518.84
509.514	6540.31
509.882	6538.5
510.25	6543.02
510.618	6563.58
510.986	6586.18
511.354	6608.1
511.722	6635.22
512.09	6669.57
512.458	6646.29
512.826	6694.43
513.193	6725.84
513.561	6745.95
513.929	6717.48
514.297	6740.98
514.664	6806.74
515.032	6784.14
515.4	6815.56
515.767	6816.23
516.135	6829.11
516.502	6736.91
516.869	6890.81
517.237	6856.23
517.604	6863.01
517.972	6878.6
518.339	6865.05
518.706	6905.72
519.073	6859.17
519.44	6954.76
519.808	6932.84
520.175	6931.03
520.542	6988.43
520.909	7013.52
521.276	6921.09
521.643	6984.36
522.009	6987.75
522.376	7042.22
522.743	7038.15
523.11	7022.78
523.477	7088.99
523.843	7077.7
524.21	7128.54
524.577	7154.98
524.943	7136
525.31	7112.5
525.676	7202.89
526.043	7219.16
526.409	7219.84
526.776	7234.3
527.142	7216
527.508	7240.63
527.874	7268.42
528.241	7199.73
528.607	7239.27
528.973	7293.51
529.339	7253.51
529.705	7252.61
530.071	7310.01
530.437	7283.79
530.803	7278.82
531.169	7276.79
531.535	7208.99
531.901	7252.83
532.267	7235.43
532.632	7263
532.998	7338.03
533.364	7337.8
533.73	7319.04
534.095	7332.15
534.461	7240.63
534.826	7260.06
535.192	7287.86
535.557	7290.57
535.923	7260.06
536.288	7234.08
536.653	7258.03
537.019	7251.93
537.384	7236.79
537.749	7217.13
538.114	7189.1
538.479	7227.3
538.845	7201.08
539.21	7169.22
539.575	7178.71
539.94	7179.61
540.305	7200.86
540.67	7140.74
541.034	7084.25
541.399	7119.5
541.764	7146.39
542.129	7113.4
542.494	7089.9
542.858	7107.3
543.223	7083.12
543.587	7054.42
543.952	7011.71
544.316	7052.39
544.681	6992.73
545.045	7008.09
545.41	7008.54
545.774	7023.69
546.138	7023.01
546.503	7029.79
546.867	6913.41
547.231	6978.26
547.595	6997.92
547.959	7011.48
548.324	7013.97
548.688	6943.01
549.052	6938.94
549.416	6914.99
549.779	6864.59
550.143	6868.21
550.507	6888.55
550.871	6856.91
551.235	6884.25
551.599	6858.27
551.962	6853.75
552.326	6817.36
552.689	6815.33
553.053	6728.78
553.417	6853.97
553.78	6843.8
554.143	6783.01
554.507	6819.62
554.87	6784.82
555.234	6877.47
555.597	6805.84
555.96	6811.04
556.323	6754.09
556.686	6753.41
557.05	6794.54
557.413	6757.7
557.776	6748.44
558.139	6765.61
558.502	6780.98
558.865	6773.97
559.228	6820.75
559.59	6804.71
559.953	6817.82
560.316	6878.38
560.679	6794.76
561.041	6784.14
561.404	6834.54
561.767	6889.23
562.129	6787.99
562.492	6863.92
562.854	6826.63
563.217	6830.02
563.579	6777.82
563.941	6931.71
564.304	6914.08
564.666	6922.67
565.028	6917.02
565.39	6893.29
565.753	6921.32
566.115	6938.94
566.477	6989.79
566.839	6952.73
567.201	6955.66
567.563	7030.01
567.925	7022.1
568.287	6996.57
568.648	6997.7
569.01	7030.01
569.372	7158.6
569.734	7047.41
570.095	7132.61
570.457	7095.32
570.819	7138.48
571.18	7065.94
571.542	7146.62
571.903	7143
572.265	7207.86
572.626	7211.7
572.987	7227.52
573.349	7215.09
573.71	7227.75
574.071	7259.61
574.432	7243.79
574.794	7294.86
575.155	7335.77
575.516	7287.41
575.877	7320.17
576.238	7310.68
576.599	7377.57
576.96	7344.58
577.32	7363.11
577.681	7423
578.042	7375.54
578.403	7404.47
578.763	7404.24
579.124	7360.4
579.485	7444.01
579.845	7451.47
580.206	7488.98
580.566	7500.73
580.927	7508.42
581.287	7497.57
581.648	7522.2
582.008	7572.6
582.368	7528.53
582.728	7604.91
583.089	7588.19
583.449	7565.14
583.809	7624.57
584.169	7604.01
584.529	7582.77
584.889	7659.37
585.249	7665.7
585.609	7634.29
585.969	7677.68
586.329	7712.03
586.688	7761.75
587.048	7697.57
587.408	7771.69
587.768	7672.26
588.127	7708.87
588.487	7721.52
588.846	7726.72
589.206	7804.46
589.565	7795.64
589.925	7815.75
590.284	7900.5
590.643	7893.49
591.003	7846.71
591.362	7852.36
591.721	7874.28
592.08	7822.53
592.44	7929.65
592.799	7857.34
593.158	7925.36
593.517	7877.22
593.876	7905.47
594.235	7890.56
594.593	7877.67
594.952	7975.3
595.311	7924.68
595.67	7978.01
596.029	7953.15
596.387	8009.2
596.746	7946.15
597.104	7907.73
597.463	7907.05
597.822	7979.82
598.18	7917.22
598.538	7951.57
598.897	7935.3
599.255	7957.9
599.613	8050.55
599.972	7998.57
600.33	8059.36
600.688	8004.45
601.046	8094.39
601.404	8055.75
601.762	8020.72
602.12	8086.48
602.478	8119.48
602.836	8090.78
603.194	8018.01
603.552	8042.64
603.91	8010.55
604.268	8072.02
604.625	8064.11
604.983	8108.4
605.341	8074.73
605.698	8127.84
606.056	8063.43
606.413	8051
606.771	8131.9
607.128	8130.32
607.485	8100.95
607.843	8089.19
608.2	8192.92
608.557	8197.67
608.914	8155.63
609.272	8205.8
609.629	8208.96
609.986	8219.59
610.343	8151.57
610.7	8229.76
611.057	8190.21
611.414	8241.05
611.771	8227.72
612.127	8286.48
612.484	8244.9
612.841	8282.86
613.198	8205.8
613.554	8224.78
613.911	8323.09
614.267	8310.88
614.624	8279.47
614.98	8334.61
615.337	8381.84
615.693	8343.42
616.05	8315.85
616.406	8396.53
616.762	8342.75
617.118	8360.6
617.475	8306.14
617.831	8327.15
618.187	8355.4
618.543	8337.32
618.899	8394.27
619.255	8441.28
619.611	8432.46
619.967	8450.31
620.323	8489.86
620.678	8401.5
621.034	8333.93
621.39	8370.99
621.746	8394.27
622.101	8424.78
622.457	8376.19
622.812	8376.87
623.168	8396.08
623.523	8384.1
623.879	8498.45
624.234	8412.58
624.589	8398.11
624.945	8470.65
625.3	8443.99
625.655	8373.25
626.01	8398.11
626.365	8417.32
626.72	8393.59
627.075	8394.27
627.43	8381.84
627.785	8439.92
628.14	8376.87
628.495	8407.15
628.85	8373.25
629.205	8347.27
629.559	8366.7
629.914	8336.42
630.269	8351.56
630.623	8363.31
630.978	8275.63
631.332	8314.5
631.687	8403.76
632.041	8294.16
632.396	8298.45
632.75	8335.29
633.104	8320.83
633.459	8275.86
633.813	8282.41
634.167	8267.27
634.521	8262.75
634.875	8273.37
635.229	8194.28
635.583	8210.09
635.937	8232.69
636.291	8224.33
636.645	8226.37
636.999	8195.63
637.352	8196.99
637.706	8206.93
638.06	8193.37
638.413	8152.24
638.767	8158.57
639.121	8130.32
639.474	8131
639.828	8080.61
640.181	8147.72
640.534	8099.36
640.888	8113.6
641.241	8082.87
641.594	8060.72
641.947	8112.47
642.301	8091
642.654	8092.81
643.007	8051
643.36	8094.84
643.713	8026.37
644.066	8049.65
644.419	8069.31
644.771	7963.55
645.124	7940.72
645.477	7897.56
645.83	7816.66
646.182	7828.86
646.535	7786.38
646.888	7800.61
647.24	7730.33
647.593	7733.27
647.945	7777.11
648.298	7748.41
648.65	7708.19
649.002	7701.18
649.355	7761.75
649.707	7741.86
650.059	7783.21
650.411	7913.83
650.763	7897.56
651.115	7944.34
651.467	7939.14
651.819	7913.38
652.171	7933.94
652.523	7870.89
652.875	7878.58
653.227	7849.65
653.578	7959.03
653.93	7932.59
654.282	7899.82
654.633	7846.71
654.985	7928.29
655.337	7867.5
655.688	7918.8
656.039	7953.15
656.391	7919.93
656.742	7901.63
657.094	7889.2
657.445	7899.59
657.796	7900.05
658.147	7889.65
658.498	7905.02
658.849	7875.19
659.2	7898.46
659.551	7858.69
659.902	7905.7
660.253	7884.45
660.604	7886.71
660.955	7896.43
661.306	7921.51
661.656	7891.46
662.007	7942.76
662.358	7932.59
662.708	7895.07
663.059	7922.19
663.409	7871.12
663.76	7888.52
664.11	7893.49
664.461	7949.54
664.811	7943.89
665.161	7960.84
665.511	7979.14
665.862	7907.05
666.212	7949.54
666.562	7923.32
666.912	7933.49
667.262	7886.94
667.612	7933.04
667.962	7917.45
668.312	7916.09
668.662	7942.98
669.011	7934.17
669.361	7886.94
669.711	7862.99
670.06	7885.58
670.41	7892.59
670.76	7882.87
671.109	7909.76
671.459	7930.78
671.808	7872.02
672.157	7912.7
672.507	7840.84
672.856	7860.05
673.205	7877.45
673.554	7871.12
673.904	7856.88
674.253	7912.7
674.602	7819.6
674.951	7749.99
675.3	7709.77
675.649	7858.01
675.998	7746.38
676.346	7835.64
676.695	7838.81
677.044	7726.49
677.393	7764.68
677.741	7770.33
678.09	7764.91
678.438	7720.39
678.787	7786.6
679.135	7791.12
679.484	7713.61
679.832	7748.19
680.181	7694.63
680.529	7730.56
680.877	7708.64
681.225	7663.89
681.573	7727.62
681.922	7613.27
682.27	7605.14
682.618	7599.49
682.966	7606.49
683.314	7634.06
683.661	7559.49
684.009	7510
684.357	7516.78
684.705	7492.15
685.053	7465.03
685.4	7553.84
685.748	7462.77
686.095	7535.99
686.443	7426.61
686.79	7454.18
687.138	7456.44
687.485	7422.54
687.832	7425.93
688.18	7372.6
688.527	7395.2
688.874	7351.13
689.221	7331.47
689.568	7272.04
689.915	7231.82
690.262	7309.78
690.609	7256.67
690.956	7209.67
691.303	7216.22
691.65	7124.93
691.997	7138.48
692.344	7196.11
692.69	7091.48
693.037	7124.7
693.383	7032.5
693.73	7078.15
694.077	7046.74
694.423	6942.11
694.769	6953.4
695.116	7013.52
695.462	6950.47
695.808	6959.51
696.155	6896.23
696.501	6849.23
696.847	6890.13
697.193	6780.53
697.539	6827.31
697.885	6772.17
698.231	6741.88
698.577	6745.95
698.923	6784.37
699.269	6689.68
699.614	6676.12
699.96	6697.82
700.306	6671.38
700.651	6621.89
700.997	6624.37
701.342	6560.87
701.688	6550.03
702.033	6531.27
702.379	6546.18
702.724	6558.61
703.069	6481.78
703.415	6458.28
703.76	6473.19
704.105	6485.62
704.45	6362.91
704.795	6359.52
705.14	6327.66
705.485	6320.2
705.83	6363.36
706.175	6249.69
706.52	6273.2
706.865	6248.11
707.209	6264.38
707.554	6259.41
707.899	6233.65
708.243	6174.22
708.588	6175.8
708.932	6190.71
709.277	6125.86
709.621	6160.21
709.966	6110.26
710.31	6129.02
710.654	6106.2
710.998	6114.33
711.342	6033.2
711.687	6046.54
712.031	6059.87
712.375	6025.75
712.719	5991.85
713.063	6016.25
713.407	6014.45
713.75	6015.8
714.094	5955.92
714.438	5961.79
714.782	5974.22
715.125	5921.34
715.469	5913.88
715.812	5863.04
716.156	5851.06
716.499	5907.1
716.843	5856.48
717.186	5854.9
717.53	5884.51
717.873	5909.82
718.216	5871.63
718.559	5870.95
718.902	5829.37
719.246	5857.39
719.589	5785.75
719.932	5792.98
720.275	5792.76
720.617	5792.08
720.96	5767
721.303	5751.18
721.646	5738.75
721.989	5713.44
722.331	5778.75
722.674	5754.57
723.016	5731.74
723.359	5748.92
723.701	5724.28
724.044	5724.51
724.386	5756.83
724.729	5684.96
725.071	5710.5
725.413	5694.68
725.755	5729.48
726.097	5700.56
726.439	5623.27
726.782	5654.68
727.124	5662.37
727.465	5651.07
727.807	5656.26
728.149	5612.88
728.491	5647
728.833	5629.6
729.175	5636.38
729.516	5624.85
729.858	5615.13
730.199	5653.1
730.541	5617.17
730.882	5635.02
731.224	5636.38
731.565	5633.67
731.906	5630.28
732.248	5636.38
732.589	5569.03
732.93	5561.58
733.271	5604.97
733.612	5632.31
733.953	5567.68
734.294	5613.1
734.635	5571.07
734.976	5611.75
735.317	5626.21
735.658	5612.65
735.999	5606.1
736.339	5563.61
736.68	5655.36
737.021	5626.43
737.361	5657.17
737.702	5621.01
738.042	5682.93
738.383	5644.06
738.723	5674.79
739.063	5631.18
739.404	5663.72
739.744	5706.88
740.084	5674.79
740.424	5685.19
740.764	5662.82
741.104	5726.77
741.444	5697.62
741.784	5723.61
742.124	5725.64
742.464	5703.04
742.804	5749.82
743.143	5756.15
743.483	5808.8
743.823	5768.13
744.162	5794.79
744.502	5818.52
744.841	5826.65
745.181	5869.59
745.52	5832.53
745.86	5885.41
746.199	5952.3
746.538	5904.62
746.877	5941.23
747.216	6001.11
747.556	6068.68
747.895	6074.11
748.234	6093.54
748.573	6121.79
748.911	6151.39
749.25	6164.05
749.589	6239.07
749.928	6282.24
750.267	6315.23
750.605	6376.47
750.944	6427.77
751.283	6416.7
751.621	6446.07
751.96	6536.01
752.298	6647.65
752.636	6687.87
752.975	6702.11
753.313	6766.29
753.651	6899.62
753.989	6959.51
754.327	7008.32
754.666	7123.8
755.004	7159.05
755.342	7266.16
755.679	7347.74
756.017	7419.16
756.355	7608.75
756.693	7634.52
757.031	7755.87
757.368	7782.54
757.706	7939.37
758.044	8044.9
758.381	8161.96
758.719	8157.21
759.056	8350.88
759.394	8419.35
759.731	8510.88
760.068	8669.52
760.405	8700.03
760.743	8849.17
761.08	9016.4
761.417	9033.58
761.754	9178.66
762.091	9278.32
762.428	9433.57
762.765	9486.9
763.102	9710.17
763.438	9772.99
763.775	9740.22
764.112	9975.02
764.449	10107.22
764.785	10151.74
765.122	10288.68
765.458	10333.88
765.795	10427.89
766.131	10597.6
766.467	10682.57
766.804	10779.07
767.14	10893.41
767.476	10896.8
767.812	11039.62
768.148	11183.12
768.485	11180.86
768.821	11276
769.157	11422.44
769.492	11454.76
769.828	11542.21
770.164	11569.33
