Data from hue_50_FLMS001491_44.txt Node
Date: Mon Feb 06 15:10:11 GMT 2017
User: dcchb
Spectrometer: FLMS00149
Trigger mode: 0
Integration Time (sec): 2.000000E-2
Scans to average: 10
Electric dark correction enabled: true
Nonlinearity correction enabled: false
Boxcar width: 0
XAxis mode: Wavelengths
Number of Pixels in Spectrum: 2048
>>>>>Begin Spectral Data<<<<<
341.393	-11.68
341.776	-11.68
342.16	-11.68
342.543	-64.11
342.927	-52.13
343.31	-54.17
343.693	-70.89
344.077	-56.65
344.46	-38.57
344.843	-51.45
345.226	-35.63
345.61	-46.03
345.993	-23.21
346.376	15.21
346.759	6.4
347.142	22.44
347.525	25.61
347.908	36.45
348.291	65.83
348.674	84.59
349.057	120.07
349.44	134.76
349.823	167.07
350.206	163
350.588	194.87
350.971	210.23
351.354	240.06
351.737	250.46
352.119	245.04
352.502	268.54
352.884	277.8
353.267	277.58
353.65	303.57
354.032	301.31
354.414	313.51
354.797	330.23
355.179	317.8
355.562	337.69
355.944	356.22
356.326	365.48
356.709	350.34
357.091	335.66
357.473	348.08
357.855	348.31
358.238	350.12
358.62	334.98
359.002	341.76
359.384	334.3
359.766	345.15
360.148	349.44
360.53	330.46
360.912	362.55
361.294	350.12
361.676	337.24
362.057	327.97
362.439	334.07
362.821	337.01
363.203	320.51
363.584	341.08
363.966	332.04
364.348	344.69
364.729	309.44
365.111	345.82
365.493	319.38
365.874	331.59
366.256	315.77
366.637	300.63
367.019	298.37
367.4	314.41
367.781	337.24
368.163	317.58
368.544	328.2
368.925	316.67
369.306	318.03
369.688	307.18
370.069	325.03
370.45	328.42
370.831	328.42
371.212	323
371.593	302.21
371.974	323.45
372.355	322.32
372.736	323.9
373.117	320.06
373.498	326.62
373.879	312.83
374.26	311.93
374.641	321.64
375.021	323
375.402	331.59
375.783	338.14
376.163	306.5
376.544	319.38
376.925	314.86
377.305	332.04
377.686	319.16
378.066	349.67
378.447	345.15
378.827	340.4
379.208	331.81
379.588	314.41
379.968	315.09
380.349	353.06
380.729	337.01
381.109	349.44
381.489	353.28
381.87	313.06
382.25	354.19
382.63	351.25
383.01	335.43
383.39	343.79
383.77	335.2
384.15	342.89
384.53	340.17
384.91	342.66
385.29	334.75
385.67	345.6
386.049	351.47
386.429	359.38
386.809	339.04
387.189	356.22
387.568	363.22
387.948	348.54
388.328	355.32
388.707	342.66
389.087	376.11
389.466	371.59
389.846	366.84
390.225	376.56
390.605	382.66
390.984	362.32
391.363	369.55
391.743	353.06
392.122	393.51
392.501	366.84
392.881	363.9
393.26	365.94
393.639	381.98
394.018	377.46
394.397	383.11
394.776	384.47
395.155	379.04
395.534	390.34
395.913	368.65
396.292	374.75
396.671	395.09
397.05	399.83
397.429	373.39
397.808	375.2
398.186	392.15
398.565	388.31
398.944	375.43
399.323	402.77
399.701	392.15
400.08	389.89
400.458	369.78
400.837	394.64
401.215	400.51
401.594	393.28
401.972	410.23
402.351	400.51
402.729	392.38
403.107	394.41
403.486	393.51
403.864	393.73
404.242	404.13
404.62	410.23
404.999	408.42
405.377	396.44
405.755	417.69
406.133	432.15
406.511	421.3
406.889	412.26
407.267	427.4
407.645	420.17
408.023	412.49
408.401	429.44
408.779	429.89
409.156	438.7
409.534	436.44
409.912	435.31
410.29	419.72
410.667	451.58
411.045	435.77
411.422	417.69
411.8	438.25
412.178	443.45
412.555	465.37
412.933	440.29
413.31	439.61
413.687	447.52
414.065	458.14
414.442	440.06
414.819	451.58
415.197	453.39
415.574	489.32
415.951	482.54
416.328	471.7
416.705	455.88
417.082	480.28
417.46	491.36
417.837	488.87
418.214	471.02
418.591	463.79
418.967	489.78
419.344	494.07
419.721	469.89
420.098	493.84
420.475	509.89
420.852	490.23
421.228	491.58
421.605	495.65
421.982	494.29
422.358	512.83
422.735	504.46
423.111	496.33
423.488	501.53
423.864	530.68
424.241	493.39
424.617	497.46
424.994	516.67
425.37	544.69
425.746	514.63
426.123	530.23
426.499	525.48
426.875	519.83
427.251	555.54
427.627	555.54
428.003	550.34
428.379	553.73
428.756	571.36
429.132	565.93
429.507	585.82
429.883	559.83
430.259	551.92
430.635	580.85
431.011	588.76
431.387	568.42
431.763	568.64
432.138	580.85
432.514	596.44
432.89	590.79
433.265	593.95
433.641	584.24
434.016	600.28
434.392	593.5
434.767	610
435.143	615.87
435.518	606.16
435.894	633.95
436.269	655.65
436.644	633.73
437.02	629.21
437.395	633.05
437.77	657.23
438.145	655.19
438.52	669.43
438.895	662.65
439.271	688.41
439.646	690.9
440.021	675.76
440.395	688.19
440.77	687.96
441.145	695.65
441.52	697
441.895	708.75
442.27	681.63
442.645	690.67
443.019	705.59
443.394	674.63
443.769	701.52
444.143	704.23
444.518	702.88
444.892	713.27
445.267	719.83
445.641	716.44
446.016	720.05
446.39	746.04
446.764	727.51
447.139	721.86
447.513	724.8
447.887	767.73
448.262	748.07
448.636	737.45
449.01	735.64
449.384	746.27
449.758	746.49
450.132	790.11
450.506	777
450.88	788.3
451.254	753.95
451.628	802.08
452.002	808.64
452.376	812.25
452.75	822.42
453.123	814.06
453.497	813.38
453.871	826.72
454.244	840.73
454.618	831.69
454.992	855.42
455.365	889.09
455.739	893.15
456.112	891.35
456.486	871.01
456.859	889.54
457.232	907.62
457.606	898.13
457.979	898.13
458.352	933.61
458.725	931.12
459.099	957.11
459.472	961.4
459.845	979.25
460.218	965.92
460.591	978.58
460.964	973.15
461.337	1007.05
461.71	1027.16
462.083	1041.63
462.456	1056.77
462.829	1031.68
463.201	1067.39
463.574	1051.79
463.947	1053.6
464.32	1089.53
464.692	1101.51
465.065	1104.22
465.438	1127.72
465.81	1144.45
466.183	1137.22
466.555	1158.68
466.928	1161.17
467.3	1189.87
467.672	1215.18
468.045	1254.5
468.417	1249.98
468.789	1252.92
469.161	1272.58
469.534	1316.65
469.906	1311.9
470.278	1344.44
470.65	1370.88
471.022	1411.11
471.394	1430.99
471.766	1471.67
472.138	1498.11
472.51	1509.64
472.882	1565.68
473.253	1561.61
473.625	1590.76
473.997	1608.62
474.369	1650.2
474.74	1675.73
475.112	1744.66
475.484	1753.02
475.855	1817.88
476.227	1866.91
476.598	1901.49
476.97	1946.01
477.341	1982.84
477.713	2083.41
478.084	2063.52
478.455	2133.8
478.827	2193.01
479.198	2287.24
479.569	2318.43
479.94	2409.95
480.311	2463.06
480.682	2512.55
481.053	2628.7
481.424	2694.92
481.795	2778.53
482.166	2812.65
482.537	2895.81
482.908	2983.49
483.279	3072.98
483.65	3108.01
484.021	3248.57
484.391	3321.34
484.762	3394.56
485.133	3511.62
485.503	3579.86
485.874	3731.72
486.244	3783.93
486.615	3974.2
486.985	4005.16
487.356	4118.83
487.726	4220.75
488.097	4368.77
488.467	4401.76
488.837	4630.23
489.207	4700.51
489.578	4817.57
489.948	4957.45
490.318	5063.44
490.688	5205.13
491.058	5273.38
491.428	5444.9
491.798	5554.5
492.168	5712.24
492.538	5788.62
492.908	5928.05
493.278	6065.9
493.648	6151.32
494.017	6296.85
494.387	6445.32
494.757	6573.68
495.126	6700.01
495.496	6790.4
495.866	6855.71
496.235	7025.2
496.605	7161.01
496.974	7310.61
497.344	7401.91
497.713	7572.75
498.082	7665.41
498.452	7809.58
498.821	7931.39
499.19	8009.8
499.559	8149.01
499.928	8247.54
500.298	8355.56
500.667	8470.58
501.036	8572.73
501.405	8761.65
501.774	8795.55
502.143	8948.08
502.512	9033.73
502.88	9164.35
503.249	9248.19
503.618	9369.54
503.987	9381.07
504.356	9567.05
504.724	9687.5
505.093	9718.91
505.462	9826.03
505.83	9881.84
506.199	10021.5
506.567	10237.99
506.936	10281.61
507.304	10469.4
507.672	10590.53
508.041	10585.78
508.409	10708.04
508.777	10820.35
509.145	10955.49
509.514	11058.08
509.882	11150.96
510.25	11237.06
510.618	11354.35
510.986	11402.26
511.354	11597.05
511.722	11749.82
512.09	11858.06
512.458	11865.75
512.826	11938.06
513.193	11947.55
513.561	12126.76
513.929	12232.97
514.297	12376.47
514.664	12483.58
515.032	12565.84
515.4	12689
515.767	12738.72
516.135	12777.59
516.502	12761.77
516.869	13076.56
517.237	13105.71
517.604	13131.25
517.972	13331.92
518.339	13350.68
518.706	13425.93
519.073	13512.94
519.44	13632.93
519.808	13766.49
520.175	13729.65
520.542	13944.34
520.909	14041.06
521.276	14108.63
521.643	14294.16
522.009	14319.02
522.376	14497.32
522.743	14668.39
523.11	14665.22
523.477	14878.55
523.843	15031.31
524.21	15139.33
524.577	15212.78
524.943	15297.07
525.31	15309.5
525.676	15502.71
526.043	15583.39
526.409	15675.59
526.776	15843.27
527.142	15876.94
527.508	16009.37
527.874	16090.27
528.241	16251.17
528.607	16265.41
528.973	16352.41
529.339	16403.48
529.705	16598.05
530.071	16716.47
530.437	16694.32
530.803	16992.17
531.169	17066.74
531.535	17010.92
531.901	17098.83
532.267	17193.74
532.632	17331.37
532.998	17352.38
533.364	17450.69
533.73	17412.72
534.095	17730.45
534.461	17859.04
534.826	17762.09
535.192	17926.6
535.557	17971.35
535.923	18045.47
536.288	18155.07
536.653	18198.69
537.019	18132.48
537.384	18328.63
537.749	18426.7
538.114	18455.86
538.479	18464.9
538.845	18622.86
539.21	18540.6
539.575	18665.57
539.94	18752.12
540.305	18854.26
540.67	18867.37
541.034	19016.52
541.399	18980.59
541.764	19067.59
542.129	19141.04
542.494	19207.48
542.858	19332.44
543.223	19356.4
543.587	19466
543.952	19408.37
544.316	19550.52
544.681	19516.85
545.045	19659.44
545.41	19789.83
545.774	19705.99
546.138	19919.77
546.503	19850.17
546.867	19820.11
547.231	20185.08
547.595	20119.77
547.959	20183.49
548.324	20205.64
548.688	20343.26
549.052	20357.95
549.416	20346.88
549.779	20447.89
550.143	20610.38
550.507	20715.46
550.871	20709.58
551.235	20787.09
551.599	21005.62
551.962	20940.99
552.326	20968.33
552.689	21136.92
553.053	21070.03
553.417	21095.79
553.78	21436.12
554.143	21391.6
554.507	21529.22
554.87	21624.13
555.234	21720.63
555.597	21549.56
555.96	21709.78
556.323	21907.52
556.686	21956.33
557.05	21982.77
557.413	22039.94
557.776	22110.45
558.139	22297.11
558.502	22358.58
558.865	22508.41
559.228	22594.28
559.59	22697.78
559.953	22681.96
560.316	22823.88
560.679	22880.15
561.041	23013.48
561.404	23128.05
561.767	23216.64
562.129	23228.61
562.492	23387.93
562.854	23480.58
563.217	23465.67
563.579	23595.38
563.941	23700.01
564.304	23783.63
564.666	23810.52
565.028	24013.45
565.39	24106.1
565.753	24203.28
566.115	24355.36
566.477	24304.97
566.839	24415.93
567.201	24578.18
567.563	24551.52
567.925	24849.13
568.287	24770.04
568.648	24861.11
569.01	24954.22
569.372	25175.91
569.734	25032.86
570.095	25238.28
570.457	25379.74
570.819	25443.02
571.18	25438.27
571.542	25683.92
571.903	25823.8
572.265	25831.93
572.626	25993.06
572.987	26042.1
573.349	26032.15
573.71	26280.06
574.071	26260.85
574.432	26364.58
574.794	26521.18
575.155	26541.75
575.516	26592.59
575.877	26604.34
576.238	26791
576.599	26884.34
576.96	26976.76
577.32	27063.31
577.681	27211.11
578.042	27343.76
578.403	27350.76
578.763	27379.92
579.124	27495.62
579.485	27597.54
579.845	27809.73
580.206	27929.28
580.566	27880.92
580.927	27906.68
581.287	28148.93
581.648	28095.15
582.008	28280
582.368	28386.89
582.728	28438.42
583.089	28513.45
583.449	28461.02
583.809	28723.38
584.169	28817.62
584.529	28746.66
584.889	29067.78
585.249	29033.21
585.609	28951.17
585.969	29202.47
586.329	29188.46
586.688	29403.82
587.048	29489.46
587.408	29477.26
587.768	29602
588.127	29657.37
588.487	29733.53
588.846	30053.74
589.206	29847.87
589.565	29976.68
589.925	30215.77
590.284	30351.59
590.643	30348.43
591.003	30477.24
591.362	30566.05
591.721	30634.97
592.08	30707.06
592.44	30833.61
592.799	30926.72
593.158	31043.77
593.517	31095.07
593.876	31221.4
594.235	31241.51
594.593	31440.83
594.952	31534.61
595.311	31526.93
595.67	31613.93
596.029	31854.83
596.387	31898.44
596.746	31934.37
597.104	31892.79
597.463	31981.15
597.822	32180.69
598.18	32142.28
598.538	32177.53
598.897	32357.86
599.255	32217.75
599.613	32858.87
599.972	32711.75
600.33	32688.93
600.688	32703.17
601.046	32966.44
601.404	33098.64
601.762	33078.52
602.12	33276.71
602.478	33283.72
602.836	33313.09
603.194	33229.71
603.552	33323.49
603.91	33441.68
604.268	33617.27
604.625	33499.75
604.983	33844.6
605.341	33648.9
605.698	33925.96
606.056	33927.31
606.413	33947.88
606.771	34074.2
607.128	34215.22
607.485	34084.37
607.843	34040.31
608.2	34305.38
608.557	34542.67
608.914	34352.84
609.272	34479.84
609.629	34649.33
609.986	34632.61
610.343	34739.72
610.7	35061.3
611.057	34970.45
611.414	34999.38
611.771	35191.24
612.127	35248.18
612.484	35203.66
612.841	35502.64
613.198	35370.44
613.554	35394.85
613.911	35700.83
614.267	35637.33
614.624	35606.82
614.98	35754.61
615.337	35974.27
615.693	35891.56
616.05	35864.21
616.406	35984.66
616.762	35875.06
617.118	36123.41
617.475	36099.01
617.831	36158.67
618.187	36334.93
618.543	36256.52
618.899	36467.13
619.255	36541.26
619.611	36473.91
619.967	36535.38
620.323	36725.88
620.678	36573.57
621.034	36474.82
621.39	36489.05
621.746	36542.61
622.101	36968.36
622.457	36773.79
622.812	36920.68
623.168	36993.22
623.523	36916.16
623.879	37141.47
624.234	36819.89
624.589	37143.27
624.945	36948.48
625.3	37124.97
625.655	37177.62
626.01	37242.93
626.365	37255.81
626.72	37139.21
627.075	37263.5
627.43	37231.63
627.785	37154.35
628.14	37229.6
628.495	37379.65
628.85	37358.18
629.205	37099.66
629.559	37308.69
629.914	37189.15
630.269	37256.04
630.623	37180.79
630.978	37237.51
631.332	37204.06
631.687	37380.56
632.041	37164.07
632.396	37322.25
632.75	37223.95
633.104	37242.03
633.459	37036.38
633.813	37123.39
634.167	37008.59
634.521	37098.3
634.875	37170.84
635.229	37127.91
635.583	36900.57
635.937	36997.52
636.291	36934.01
636.645	36938.76
636.999	37017.18
637.352	37103.73
637.706	36826.67
638.06	36975.82
638.413	36902.15
638.767	36822.15
639.121	37003.39
639.474	36743.51
639.828	36752.78
640.181	36774.02
640.534	36800.23
640.888	36623.97
641.241	36562.05
641.594	36710.29
641.947	36703.06
642.301	36516.62
642.654	36574.48
643.007	36594.81
643.36	36533.57
643.713	36678.65
644.066	36710.52
644.419	36421.94
644.771	36283.64
645.124	35924.32
645.477	35901.95
645.83	35661.73
646.182	35482.08
646.535	35449.08
646.888	35468.97
647.24	35289.54
647.593	35535.63
647.945	35379.25
648.298	35348.07
648.65	35265.13
649.002	35211.35
649.355	35252.48
649.707	35374.96
650.059	35299.71
650.411	35724.1
650.763	35753.03
651.115	36139.91
651.467	36089.74
651.819	35873.93
652.171	35823.31
652.523	35922.74
652.875	35957.32
653.227	35813.59
653.578	35954.38
653.93	35940.59
654.282	35752.8
654.633	35651.34
654.985	35786.25
655.337	35918.45
655.688	35807.26
656.039	35885.91
656.391	35597.55
656.742	35700.15
657.094	35652.69
657.445	35816.53
657.796	35700.15
658.147	35722.3
658.498	35563.66
658.849	35574.28
659.2	35452.7
659.551	35563.2
659.902	35711.9
660.253	35489.08
660.604	35569.08
660.955	35413.15
661.306	35591.45
661.656	35395.3
662.007	35517.1
662.358	35393.72
662.708	35358.01
663.059	35467.84
663.409	35153.5
663.76	35542.41
664.11	35520.94
664.461	35573.37
664.811	35464
665.161	35437.56
665.511	35410.66
665.862	35459.48
666.212	35474.62
666.562	35395.98
666.912	35405.92
667.262	35459.03
667.612	35444.79
667.962	35461.96
668.312	35395.3
668.662	35462.19
669.011	35442.53
669.361	35234.62
669.711	35258.35
670.06	35245.92
670.41	35149.2
670.76	35135.42
671.109	35289.76
671.459	35302.65
671.808	35205.25
672.157	35326.6
672.507	35059.26
672.856	35058.81
673.205	35149.88
673.554	35275.08
673.904	35065.36
674.253	35308.29
674.602	35033.05
674.951	34566.62
675.3	34457.92
675.649	34967.74
675.998	34893.62
676.346	35010
676.695	35133.61
677.044	34788.99
677.393	34963.67
677.741	34879.15
678.09	34807.74
678.438	34872.37
678.787	34818.59
679.135	34806.16
679.484	34608.65
679.832	34726.16
680.181	34545.83
680.529	34610.69
680.877	34501.76
681.225	34450.92
681.573	34733.85
681.922	34398.04
682.27	34299.96
682.618	34406.17
682.966	34261.09
683.314	34299.06
683.661	34197.36
684.009	34092.51
684.357	34010.48
684.705	33939.74
685.053	34045.5
685.4	33916.01
685.748	33751.27
686.095	33952.17
686.443	33701.78
686.79	33645.97
687.138	33628.34
687.485	33767.54
687.832	33587.44
688.18	33579.53
688.527	33439.42
688.874	33465.41
689.221	33368.01
689.568	33253.21
689.915	33227.22
690.262	33152.19
690.609	33120.56
690.956	33091.63
691.303	32907.68
691.65	32753.11
691.997	32886.66
692.344	32674.01
692.69	32608.48
693.037	32644.18
693.383	32402.83
693.73	32569.38
694.077	32246
694.423	32323.29
694.769	32142.28
695.116	31982.28
695.462	32069.06
695.808	31884.43
696.155	32030.41
696.501	31797.2
696.847	31619.58
697.193	31624.55
697.539	31699.58
697.885	31410.54
698.231	31317.44
698.577	31311.34
698.923	31325.8
699.269	31123.77
699.614	30945.02
699.96	30920.39
700.306	31038.8
700.651	30836.1
700.997	30807.4
701.342	30623.67
701.688	30785.25
702.033	30529.89
702.379	30501.87
702.724	30392.72
703.069	30517.01
703.415	30132.39
703.76	30098.04
704.105	30237.69
704.45	29967.19
704.795	29907.08
705.14	29754.32
705.485	29794.77
705.83	29751.83
706.175	29866.86
706.52	29560.65
706.865	29661.44
707.209	29457.15
707.554	29368.34
707.899	29559.52
708.243	29361.56
708.588	29336.25
708.932	29087.44
709.277	29118.18
709.621	29113.43
709.966	28816.71
710.31	29042.7
710.654	28724.97
710.998	28775.59
711.342	28870.72
711.687	28563.39
712.031	28558.64
712.375	28498.08
712.719	28592.99
713.063	28565.87
713.407	28617.85
713.75	28346.44
714.094	28280.91
714.438	28241.14
714.782	28135.6
715.125	28129.73
715.469	28135.6
715.812	27901.94
716.156	27853.8
716.499	27968.37
716.843	27901.03
717.186	27694.71
717.53	27798.21
717.873	27777.42
718.216	27667.37
718.559	27616.07
718.902	27363.19
719.246	27514.6
719.589	27401.38
719.932	27363.19
720.275	27407.94
720.617	27259.01
720.96	27287.49
721.303	27252.46
721.646	27299.92
721.989	27087.49
722.331	27209.07
722.674	26944.67
723.016	26910.78
723.359	26976.54
723.701	27033.71
724.044	26797.56
724.386	26627.62
724.729	26934.05
725.071	26743.55
725.413	26750.33
725.755	26778.35
726.097	26563.44
726.439	26375.65
726.782	26607.28
727.124	26618.58
727.465	26400.28
727.807	26415.2
728.149	26398.47
728.491	26341.3
728.833	26413.39
729.175	26249.55
729.516	26196.67
729.858	26152.15
730.199	26151.25
730.541	26073.96
730.882	26004.13
731.224	26101.98
731.565	25910.58
731.906	25971.37
732.248	25929.56
732.589	25812.05
732.93	25658.83
733.271	25797.58
733.612	25782.67
733.953	25818.6
734.294	25641.2
734.635	25703.8
734.976	25724.82
735.317	25477.37
735.658	25613.86
735.999	25486.18
736.339	25480.53
736.68	25471.27
737.021	25360.31
737.361	25238.28
737.702	25427.42
738.042	25322.57
738.383	25222.68
738.723	25257.26
739.063	25143.14
739.404	25225.4
739.744	25145.85
740.084	25001.9
740.424	25106.08
740.764	25002.35
741.104	25081.45
741.444	24749.93
741.784	24935.46
742.124	24858.4
742.464	24807.78
742.804	24817.27
743.143	24703.6
743.483	24838.29
743.823	24638.97
744.162	24589.93
744.502	24625.64
744.841	24509.71
745.181	24586.99
745.52	24481.91
745.86	24460.22
746.199	24635.58
746.538	24369.15
746.877	24441.46
747.216	24338.19
747.556	24259.09
747.895	24457.28
748.234	24144.29
748.573	24259.77
748.911	24204.63
749.25	24091.64
749.589	24007.8
749.928	24036.95
750.267	24111.75
750.605	23958.99
750.944	23876.28
751.283	23754.7
751.621	23840.12
751.96	23771.42
752.298	23813.68
752.636	23728.94
752.975	23730.97
753.313	23553.12
753.651	23756.96
753.989	23510.19
754.327	23497.08
754.666	23433.58
755.004	23500.7
755.342	23386.57
755.679	23350.42
756.017	23276.07
756.355	23367.59
756.693	23160.82
757.031	23149.07
