Data from hue_250_FLMS001491_00094.txt Node
Date: Tue Feb 07 16:01:45 GMT 2017
User: dcchb
Spectrometer: FLMS00149
Trigger mode: 0
Integration Time (sec): 2.000000E-2
Scans to average: 10
Electric dark correction enabled: true
Nonlinearity correction enabled: false
Boxcar width: 0
XAxis mode: Wavelengths
Number of Pixels in Spectrum: 2048
>>>>>Begin Spectral Data<<<<<
341.393	-17.01
341.776	-17.01
342.16	-17.01
342.543	-60.39
342.927	-67.63
343.31	-82.09
343.693	-53.39
344.077	-78.92
344.46	-48.87
344.843	-50.22
345.226	-30.56
345.61	-42.77
345.993	-33.5
346.376	-8.87
346.759	5.82
347.142	11.02
347.525	45.59
347.908	60.05
348.291	79.72
348.674	117.23
349.057	109.77
349.44	128.53
349.823	129.43
350.206	171.69
350.588	178.02
350.971	181.63
351.354	211.69
351.737	217.79
352.119	244.68
352.502	262.99
352.884	258.24
353.267	282.87
353.65	269.77
354.032	282.65
354.414	305.92
354.797	314.51
355.179	293.95
355.562	295.75
355.944	317.9
356.326	316.77
356.709	319.94
357.091	336.88
357.473	342.08
357.855	331.69
358.238	347.05
358.62	331.23
359.002	349.54
359.384	313.83
359.766	326.04
360.148	328.97
360.53	321.07
360.912	321.52
361.294	321.07
361.676	317.9
362.057	321.74
362.439	320.84
362.821	292.82
363.203	319.48
363.584	314.51
363.966	296.66
364.348	289.43
364.729	317
365.111	319.71
365.493	319.94
365.874	316.32
366.256	316.77
366.637	336.43
367.019	292.82
367.4	300.27
367.781	327.84
368.163	316.09
368.544	300.27
368.925	302.76
369.306	306.38
369.688	293.95
370.069	324.91
370.45	285.81
370.831	298.47
371.212	304.79
371.593	311.35
371.974	285.13
372.355	302.08
372.736	300.27
373.117	295.3
373.498	301.86
373.879	309.77
374.26	305.25
374.641	291.24
375.021	299.37
375.402	297.79
375.783	306.15
376.163	305.92
376.544	317.9
376.925	332.59
377.305	306.15
377.686	325.58
378.066	310.9
378.447	336.21
378.827	310.22
379.208	317.68
379.588	312.03
379.968	331.91
380.349	334.17
380.729	324.45
381.109	332.36
381.489	330.56
381.87	337.34
382.25	354.74
382.63	325.36
383.01	328.3
383.39	336.21
383.77	315.64
384.15	322.65
384.53	322.42
384.91	349.54
385.29	338.24
385.67	315.64
386.049	342.08
386.429	351.12
386.809	352.25
387.189	349.31
387.568	351.12
387.948	345.02
388.328	344.34
388.707	334.62
389.087	338.24
389.466	336.21
389.846	357.9
390.225	357.67
390.605	349.99
390.984	342.76
391.363	362.42
391.743	361.97
392.122	357.22
392.501	354.96
392.881	373.94
393.26	360.61
393.639	346.38
394.018	363.32
394.397	367.17
394.776	378.01
395.155	360.61
395.534	372.82
395.913	368.3
396.292	393.15
396.671	395.41
397.05	382.98
397.429	392.7
397.808	402.19
398.186	370.78
398.565	386.37
398.944	379.37
399.323	382.53
399.701	370.78
400.08	390.22
400.458	399.03
400.837	404.68
401.215	401.06
401.594	406.94
401.972	435.19
402.351	395.64
402.729	403.32
403.107	417.56
403.486	421.18
403.864	418.69
404.242	422.76
404.62	431.12
404.999	402.64
405.377	439.93
405.755	423.44
406.133	450.55
406.511	438.8
406.889	456.88
407.267	445.81
407.645	449.2
408.023	469.76
408.401	474.06
408.779	461.63
409.156	451.01
409.534	470.44
409.912	467.95
410.29	486.48
410.667	488.07
411.045	480.38
411.422	482.19
411.8	501.85
412.178	502.98
412.555	509.08
412.933	524.22
413.31	548.86
413.687	535.52
414.065	571.23
414.442	539.14
414.819	569.65
415.197	544.56
415.574	575.97
415.951	564
416.328	561.51
416.705	585.46
417.082	586.37
417.46	566.93
417.837	590.66
418.214	594.73
418.591	629.31
418.967	617.78
419.344	644.22
419.721	627.95
420.098	620.72
420.475	640.38
420.852	651.45
421.228	650.55
421.605	669.53
421.982	666.37
422.358	683.77
422.735	671.34
423.111	716.53
423.488	701.85
423.864	702.98
424.241	737.78
424.617	752.69
424.994	729.42
425.37	766.25
425.746	748.4
426.123	788.4
426.499	775.74
426.875	774.16
427.251	806.7
427.627	828.17
428.003	851.45
428.379	839.02
428.756	855.74
429.132	846.47
429.507	846.02
429.883	861.62
430.259	867.72
430.635	913.59
431.011	906.13
431.387	935.96
431.763	912.91
432.138	922.41
432.514	935.96
432.89	958.79
433.265	981.39
433.641	987.94
434.016	1003.08
434.392	1035.62
434.767	1032.68
435.143	1034.94
435.518	1064.55
435.894	1081.95
436.269	1085.11
436.644	1088.05
437.02	1127.6
437.395	1118.56
437.77	1150.42
438.145	1174.6
438.52	1164.66
438.895	1188.39
439.271	1186.13
439.646	1211.21
440.021	1225.9
440.395	1242.85
440.77	1247.82
441.145	1290.98
441.52	1296.86
441.895	1281.27
442.27	1296.63
442.645	1310.19
443.019	1325.11
443.394	1359.68
443.769	1360.36
444.143	1318.33
444.518	1373.01
444.892	1347.25
445.267	1391.55
445.641	1397.87
446.016	1402.39
446.39	1403.75
446.764	1429.51
447.139	1453.46
447.513	1427.93
447.887	1470.64
448.262	1453.46
448.636	1458.66
449.01	1523.07
449.384	1510.86
449.758	1507.02
450.132	1524.88
450.506	1554.93
450.88	1549.06
451.254	1567.81
451.628	1563.97
452.002	1563.74
452.376	1588.6
452.75	1593.35
453.123	1659.56
453.497	1636.96
453.871	1642.39
454.244	1680.8
454.618	1709.28
454.992	1725.1
455.365	1724.19
455.739	1769.61
456.112	1761.25
456.486	1774.36
456.859	1797.86
457.232	1838.54
457.606	1800.12
457.979	1838.54
458.352	1857.52
458.725	1926.9
459.099	1890.97
459.472	1942.04
459.845	1904.53
460.218	1958.08
460.591	2002.6
460.964	2009.38
461.337	2034.24
461.71	2043.28
462.083	2090.51
462.456	2070.4
462.829	2106.1
463.201	2138.64
463.574	2158.08
463.947	2166.44
464.32	2201.47
464.692	2223.61
465.065	2246.89
465.438	2275.14
465.81	2273.33
466.183	2323.95
466.555	2366.43
466.928	2382.03
467.3	2370.05
467.672	2400.78
468.045	2454.34
468.417	2490.95
468.789	2462.7
469.161	2492.99
469.534	2523.04
469.906	2564.4
470.278	2645.52
470.65	2627.22
471.022	2690.04
471.394	2739.98
471.766	2726.2
472.138	2758.52
472.51	2856.82
472.882	2865.4
473.253	2872.64
473.625	2880.32
473.997	2964.39
474.369	2942.47
474.74	3030.82
475.112	3049.58
475.484	3113.08
475.855	3162.8
476.227	3168.67
476.598	3262
476.97	3286.64
477.341	3299.97
477.713	3324.15
478.084	3373.87
478.455	3489.34
478.827	3504.26
479.198	3574.09
479.569	3553.3
479.94	3650.02
480.311	3669.23
480.682	3806.62
481.053	3819.96
481.424	3850.01
481.795	3918.48
482.166	3933.4
482.537	3974.3
482.908	4072.6
483.279	4062.44
483.65	4164.13
484.021	4251.58
484.391	4282.99
484.762	4271.24
485.133	4346.95
485.503	4408.64
485.874	4467.85
486.244	4518.69
486.615	4598.24
486.985	4601.18
487.356	4685.92
487.726	4693.38
488.097	4786.03
488.467	4786.94
488.837	4911.23
489.207	4907.39
489.578	4976.54
489.948	5016.08
490.318	5098.11
490.688	5090.88
491.058	5208.85
491.428	5239.81
491.798	5257.66
492.168	5353.93
492.538	5381.95
492.908	5412.23
493.278	5450.65
493.648	5471.44
494.017	5514.37
494.387	5545.11
494.757	5599.12
495.126	5650.87
495.496	5608.84
495.866	5665.11
496.235	5775.61
496.605	5792.11
496.974	5799.57
497.344	5837.76
497.713	5838.21
498.082	5934.7
498.452	5939.22
498.821	5974.48
499.19	5987.81
499.559	6050.18
499.928	6030.97
500.298	6044.53
500.667	6092.66
501.036	6134.92
501.405	6136.73
501.774	6126.34
502.143	6211.76
502.512	6227.12
502.88	6244.07
503.249	6290.4
503.618	6285.88
503.987	6353.67
504.356	6356.39
504.724	6396.84
505.093	6419.44
505.462	6391.87
505.83	6454.01
506.199	6509.6
506.567	6489.94
506.936	6494.91
507.304	6611.97
507.672	6638.64
508.041	6574.23
508.409	6614.68
508.777	6639.77
509.145	6676.38
509.514	6689.94
509.882	6730.84
510.25	6668.24
510.618	6694.46
510.986	6715.02
511.354	6802.02
511.722	6868.01
512.09	6877.73
512.458	6866.2
512.826	6852.87
513.193	6908.46
513.561	6875.92
513.929	6925.64
514.297	6956.37
514.664	7030.72
515.032	6986.2
515.4	6990.72
515.767	6990.49
516.135	7003.38
516.502	7027.56
516.869	7117.72
517.237	7111.17
517.604	7052.64
517.972	7129.47
518.339	7134.67
518.706	7123.37
519.073	7111.62
519.44	7233.65
519.808	7185.29
520.175	7191.62
520.542	7237.72
520.909	7308.9
521.276	7214.22
521.643	7310.26
522.009	7281.11
522.376	7296.47
522.743	7308
523.11	7413.53
523.477	7449.69
523.843	7418.51
524.21	7408.11
524.577	7480.65
524.943	7486.07
525.31	7472.52
525.676	7541.67
526.043	7507.99
526.409	7526.98
526.776	7603.13
527.142	7580.99
527.508	7532.85
527.874	7593.87
528.241	7625.05
528.607	7592.96
528.973	7687.65
529.339	7666.63
529.705	7656.01
530.071	7682.23
530.437	7758.38
530.803	7716.8
531.169	7718.61
531.535	7643.13
531.901	7656.47
532.267	7688.78
532.632	7682.68
532.998	7753.19
533.364	7740.53
533.73	7719.06
534.095	7769.91
534.461	7722.45
534.826	7756.12
535.192	7754.54
535.557	7831.15
535.923	7751.38
536.288	7745.05
536.653	7780.53
537.019	7712.51
537.384	7676.13
537.749	7743.24
538.114	7780.98
538.479	7715.9
538.845	7745.5
539.21	7660.08
539.575	7672.06
539.94	7693.98
540.305	7706.41
540.67	7672.74
541.034	7678.39
541.399	7681.32
541.764	7708.89
542.129	7658.95
542.494	7649.01
542.858	7663.02
543.223	7670.7
543.587	7661.44
543.952	7610.36
544.316	7612.4
544.681	7632.74
545.045	7678.84
545.41	7644.71
545.774	7584.15
546.138	7674.09
546.503	7594.77
546.867	7592.96
547.231	7614.88
547.595	7622.79
547.959	7617.37
548.324	7574.66
548.688	7603.13
549.052	7554.77
549.416	7614.43
549.779	7535.11
550.143	7537.37
550.507	7553.42
550.871	7551.16
551.235	7455.11
551.599	7549.8
551.962	7502.35
552.326	7553.19
552.689	7505.06
553.053	7499.18
553.417	7476.13
553.78	7571.5
554.143	7534.43
554.507	7515.45
554.87	7468.9
555.234	7605.62
555.597	7493.98
555.96	7541.44
556.323	7574.89
556.686	7483.81
557.05	7599.52
557.413	7532.4
557.776	7527.2
558.139	7551.61
558.502	7534.21
558.865	7608.11
559.228	7509.8
559.59	7645.39
559.953	7526.98
560.316	7612.85
560.679	7586.18
561.041	7677.48
561.404	7626.64
561.767	7659.4
562.129	7678.84
562.492	7664.37
562.854	7658.5
563.217	7708.44
563.579	7728.33
563.941	7705.28
564.304	7695.11
564.666	7689.46
565.028	7744.6
565.39	7801.77
565.753	7802.68
566.115	7837.48
566.477	7835.22
566.839	7818.49
567.201	7875.67
567.563	7888.1
567.925	7926.29
568.287	7895.33
568.648	7892.17
569.01	7969
569.372	8009.9
569.734	7963.58
570.095	8078.83
570.457	8079.96
570.819	8051.26
571.18	8075.89
571.542	8088.09
571.903	8039.28
572.265	8098.94
572.626	8122.67
572.987	8102.33
573.349	8132.16
573.71	8215.55
574.071	8225.94
574.432	8180.97
574.794	8242.89
575.155	8234.53
575.516	8190.01
575.877	8287.41
576.238	8287.41
576.599	8248.31
576.96	8328.99
577.32	8273.4
577.681	8288.54
578.042	8350.91
578.403	8393.85
578.763	8321.08
579.124	8390.91
579.485	8475.2
579.845	8450.12
580.206	8413.28
580.566	8475.43
580.927	8427.52
581.287	8500.74
581.648	8446.95
582.008	8546.84
582.368	8513.62
582.728	8552.71
583.089	8477.01
583.449	8604.46
583.809	8573.96
584.169	8597.68
584.529	8568.31
584.889	8646.04
585.249	8583.67
585.609	8622.54
585.969	8719.94
586.329	8658.47
586.688	8679.94
587.048	8718.58
587.408	8689.88
587.768	8719.49
588.127	8740.73
588.487	8654.41
588.846	8773.95
589.206	8719.94
589.565	8760.39
589.925	8812.37
590.284	8825.7
590.643	8809.66
591.003	8797.23
591.362	8850.33
591.721	8775.31
592.08	8822.31
592.44	8843.1
592.799	8841.52
593.158	8874.74
593.517	8891.01
593.876	8881.74
594.235	8872.25
594.593	8828.19
594.952	8915.87
595.311	8818.02
595.67	8853.72
596.029	8944.79
596.387	8898.92
596.746	8954.51
597.104	8915.87
597.463	8939.14
597.822	8908.18
598.18	8886.49
598.538	8909.99
598.897	8935.53
599.255	8898.01
599.613	8989.54
599.972	8941.4
600.33	8942.08
600.688	8973.94
601.046	8970.1
601.404	9068.63
601.762	9054.17
602.12	9021.4
602.478	9044.68
602.836	9052.13
603.194	9020.72
603.552	9067.95
603.91	9043.32
604.268	9118.8
604.625	8997.22
604.983	9000.84
605.341	9013.04
605.698	8982.08
606.056	9094.39
606.413	9004.68
606.771	9082.42
607.128	9142.08
607.485	9066.37
607.843	9065.92
608.2	9168.74
608.557	9134.84
608.914	9103.66
609.272	9136.43
609.629	9199.48
609.986	9178.69
610.343	9214.62
610.7	9177.33
611.057	9211.68
611.414	9157.44
611.771	9149.76
612.127	9272.47
612.484	9167.84
612.841	9213.71
613.198	9241.73
613.554	9240.15
613.911	9246.25
614.267	9250.55
614.624	9237.21
614.98	9224.79
615.337	9322.86
615.693	9252.36
616.05	9255.29
616.406	9327.83
616.762	9327.83
617.118	9266.37
617.475	9291.9
617.831	9365.12
618.187	9349.3
618.543	9333.03
618.899	9415.74
619.255	9394.72
619.611	9421.62
619.967	9373.48
620.323	9403.54
620.678	9347.27
621.034	9350.66
621.39	9334.84
621.746	9276.54
622.101	9425.46
622.457	9443.99
622.812	9418.23
623.168	9440.15
623.523	9411
623.879	9359.47
624.234	9338
624.589	9457.77
624.945	9422.75
625.3	9340.04
625.655	9408.28
626.01	9369.87
626.365	9417.55
626.72	9288.74
627.075	9363.54
627.43	9390.43
627.785	9336.42
628.14	9329.64
628.495	9382.07
628.85	9359.02
629.205	9334.84
629.559	9387.04
629.914	9311.56
630.269	9310.66
630.623	9316.08
630.978	9269.98
631.332	9271.11
631.687	9343.43
632.041	9328.06
632.396	9296.2
632.75	9245.35
633.104	9301.62
633.459	9246.48
633.813	9250.32
634.167	9161.96
634.521	9235.63
634.875	9200.15
635.229	9180.72
635.583	9124.9
635.937	9160.38
636.291	9135.75
636.645	9155.41
636.999	9131.68
637.352	9101.63
637.706	9066.82
638.06	9153.38
638.413	9113.83
638.767	9112.47
639.121	9076.54
639.474	9022.31
639.828	9008.75
640.181	9069.31
640.534	9046.49
640.888	9002.42
641.241	8906.83
641.594	8978.69
641.947	9006.71
642.301	8962.42
642.654	9030.67
643.007	8926.04
643.36	8972.36
643.713	8940.73
644.066	8894.85
644.419	8860.05
644.771	8837
645.124	8813.05
645.477	8760.39
645.83	8654.18
646.182	8657.34
646.535	8651.92
646.888	8644.69
647.24	8660.28
647.593	8662.54
647.945	8629.32
648.298	8637.23
648.65	8647.4
649.002	8589.77
649.355	8590.9
649.707	8611.47
650.059	8614.41
650.411	8781.63
650.763	8788.19
651.115	8874.29
651.467	8807.85
651.819	8825.47
652.171	8832.93
652.523	8762.88
652.875	8766.72
653.227	8800.84
653.578	8822.99
653.93	8787.28
654.282	8741.41
654.633	8759.49
654.985	8735.31
655.337	8728.08
655.688	8755.42
656.039	8819.15
656.391	8762.88
656.742	8763.78
657.094	8724.91
657.445	8746.61
657.796	8787.28
658.147	8742.76
658.498	8800.16
658.849	8807.4
659.2	8740.96
659.551	8718.13
659.902	8798.13
660.253	8707.29
660.604	8728.3
660.955	8722.88
661.306	8809.66
661.656	8725.82
662.007	8721.3
662.358	8793.16
662.708	8772.14
663.059	8719.49
663.409	8713.84
663.76	8799.03
664.11	8758.13
664.461	8806.72
664.811	8733.05
665.161	8711.58
665.511	8823.21
665.862	8813.95
666.212	8792.25
666.562	8838.81
666.912	8819.6
667.262	8761.97
667.612	8740.28
667.962	8752.93
668.312	8808.07
668.662	8786.83
669.011	8763.78
669.361	8727.17
669.711	8811.24
670.06	8764.23
670.41	8672.48
670.76	8693.95
671.109	8789.99
671.459	8691.01
671.808	8663.9
672.157	8719.49
672.507	8658.7
672.856	8634.29
673.205	8689.21
673.554	8686.72
673.904	8669.32
674.253	8700.51
674.602	8672.03
674.951	8554.29
675.3	8550.68
675.649	8597.46
675.998	8623.9
676.346	8598.14
676.695	8675.42
677.044	8580.96
677.393	8606.72
677.741	8601.3
678.09	8568.76
678.438	8556.33
678.787	8555.65
679.135	8634.74
679.484	8504.35
679.832	8560.17
680.181	8531.92
680.529	8572.15
680.877	8487.4
681.225	8479.27
681.573	8507.06
681.922	8482.43
682.27	8430.68
682.618	8445.6
682.966	8363.79
683.314	8421.87
683.661	8446.73
684.009	8367.63
684.357	8333.06
684.705	8237.92
685.053	8280.86
685.4	8275.43
685.748	8306.17
686.095	8258.48
686.443	8261.42
686.79	8204.93
687.138	8260.97
687.485	8180.07
687.832	8162.21
688.18	8161.99
688.527	8132.61
688.874	8144.59
689.221	8164.7
689.568	8069.79
689.915	8060.07
690.262	8035.89
690.609	8007.19
690.956	8014.87
691.303	7919.51
691.65	7927.64
691.997	7903.24
692.344	7909.34
692.69	7887.65
693.037	7889.23
693.383	7758.38
693.73	7810.13
694.077	7782.34
694.423	7760.64
694.769	7741.43
695.116	7683.81
695.462	7675
695.808	7652.62
696.155	7717.71
696.501	7630.48
696.847	7564.94
697.193	7473.19
697.539	7609.23
697.885	7437.04
698.231	7463.93
698.577	7473.65
698.923	7411.95
699.269	7328.11
699.614	7352.07
699.96	7318.4
700.306	7295.8
700.651	7331.73
700.997	7271.62
701.342	7295.8
701.688	7211.28
702.033	7225.06
702.379	7188.46
702.724	7123.37
703.069	7138.06
703.415	7097.84
703.76	7128.34
704.105	7084.73
704.45	7112.98
704.795	6986.88
705.14	7023.94
705.485	6993.66
705.83	6989.36
706.175	6924.96
706.52	6967.67
706.865	6940.55
707.209	6908.69
707.554	6876.15
707.899	6908.01
708.243	6825.98
708.588	6847.45
708.932	6793.89
709.277	6758.41
709.621	6774.45
709.966	6739.43
710.31	6749.37
710.654	6682.03
710.998	6696.49
711.342	6708.47
711.687	6689.49
712.031	6602.48
712.375	6651.52
712.719	6623.72
713.063	6579.66
713.407	6579.43
713.75	6527.23
714.094	6563.16
714.438	6527.23
714.782	6546.21
715.125	6496.27
715.469	6564.74
715.812	6507.34
716.156	6455.14
716.499	6493.11
716.843	6513.44
717.186	6445.65
717.53	6440.23
717.873	6448.59
718.216	6440.68
718.559	6407.46
718.902	6396.84
719.246	6337.18
719.589	6378.53
719.932	6334.69
720.275	6311.87
720.617	6346.22
720.96	6314.13
721.303	6343.05
721.646	6305.99
721.989	6252.66
722.331	6343.28
722.674	6265.99
723.016	6327.91
723.359	6281.81
723.701	6303.05
724.044	6182.61
724.386	6250.4
724.729	6276.39
725.071	6211.31
725.413	6240.01
725.755	6224.41
726.097	6173.57
726.439	6198.88
726.782	6216.28
727.124	6187.35
727.465	6229.16
727.807	6194.13
728.149	6169.95
728.491	6165.43
728.833	6177.41
729.175	6183.28
729.516	6178.31
729.858	6174.47
730.199	6167.69
730.541	6192.55
730.882	6133.57
731.224	6163.85
731.565	6159.1
731.906	6111.2
732.248	6187.8
732.589	6141.93
732.93	6101.03
733.271	6139.44
733.612	6146.9
733.953	6149.84
734.294	6093.34
734.635	6114.36
734.976	6138.09
735.317	6073
735.658	6085.89
735.999	6129.5
736.339	6132.21
736.68	6132.44
737.021	6034.81
737.361	6066
737.702	6148.71
738.042	6129.73
738.383	6084.98
738.723	6133.79
739.063	6114.58
739.404	6130.18
739.744	6166.11
740.084	6111.42
740.424	6147.35
740.764	6112.33
741.104	6206.79
741.444	6162.49
741.784	6177.41
742.124	6182.38
742.464	6209.95
742.804	6197.29
743.143	6195.49
743.483	6157.07
743.823	6173.79
744.162	6203.17
744.502	6284.75
744.841	6224.64
745.181	6280.46
745.52	6345.54
745.86	6287.24
746.199	6364.07
746.538	6382.83
746.877	6402.49
747.216	6426.22
747.556	6486.1
747.895	6524.52
748.234	6543.5
748.573	6516.83
748.911	6603.84
749.25	6594.57
749.589	6638.86
749.928	6660.56
750.267	6738.75
750.605	6733.33
750.944	6826.88
751.283	6874.79
751.621	6951.63
751.96	6919.31
752.298	6999.76
752.636	7112.52
752.975	7122.24
753.313	7169.25
753.651	7275.68
753.989	7309.81
754.327	7334.89
754.666	7417.83
755.004	7558.84
755.342	7606.52
755.679	7716.58
756.017	7724.49
756.355	7853.52
756.693	7937.81
757.031	8017.81
757.368	8144.59
757.706	8211.25
758.044	8286.73
758.381	8367.18
758.719	8445.82
759.056	8558.81
759.394	8713.16
759.731	8759.26
760.068	8756.78
760.405	8938.92
760.743	8975.07
761.08	9176.2
761.417	9205.13
761.754	9376.19
762.091	9461.16
762.428	9515.17
762.765	9548.17
763.102	9737.09
763.438	9794.71
763.775	9903.64
764.112	9969.17
764.449	10084.2
764.785	10233.8
765.122	10231.09
765.458	10321.93
765.795	10421.14
766.131	10464.75
766.467	10617.97
766.804	10730.73
767.14	10772.32
767.476	10850.73
767.812	10878.98
768.148	11023.16
768.485	11069.48
768.821	11154.45
769.157	11186.77
