Data from hue_80_FLMS001491_57.txt Node
Date: Mon Feb 06 15:23:14 GMT 2017
User: dcchb
Spectrometer: FLMS00149
Trigger mode: 0
Integration Time (sec): 2.000000E-2
Scans to average: 10
Electric dark correction enabled: true
Nonlinearity correction enabled: false
Boxcar width: 0
XAxis mode: Wavelengths
Number of Pixels in Spectrum: 2048
>>>>>Begin Spectral Data<<<<<
341.393	-0.81
341.776	-0.81
342.16	-0.81
342.543	-28.37
342.927	-59.33
343.31	-58.43
343.693	-57.3
344.077	-53.46
344.46	-60.46
344.843	-56.4
345.226	-41.93
345.61	-45.32
345.993	-16.4
346.376	-7.13
346.759	12.08
347.142	28.12
347.525	24.73
347.908	57.5
348.291	75.13
348.674	99.31
349.057	99.98
349.44	126.2
349.823	158.96
350.206	152.19
350.588	188.79
350.971	207.33
351.354	218.4
351.737	255.01
352.119	269.24
352.502	280.09
352.884	270.83
353.267	298.17
353.65	288
354.032	278.96
354.414	307.44
354.797	322.12
355.179	329.81
355.562	310.6
355.944	324.61
356.326	339.07
356.709	335.23
357.091	346.98
357.473	355.57
357.855	363.25
358.238	346.08
358.62	340.43
359.002	339.98
359.384	343.82
359.766	346.3
360.148	347.66
360.53	319.86
360.912	341.78
361.294	337.04
361.676	327.1
362.057	349.47
362.439	350.15
362.821	338.62
363.203	316.47
363.584	313.76
363.966	331.62
364.348	334.1
364.729	324.61
365.111	331.84
365.493	320.54
365.874	309.7
366.256	325.74
366.637	334.78
367.019	308.34
367.4	336.81
367.781	321.67
368.163	329.81
368.544	318.06
368.925	325.29
369.306	337.49
369.688	307.89
370.069	322.58
370.45	316.25
370.831	321.22
371.212	306.98
371.593	315.34
371.974	315.57
372.355	313.76
372.736	319.86
373.117	317.6
373.498	330.03
373.879	340.65
374.26	310.83
374.641	327.32
375.021	318.73
375.402	316.25
375.783	312.41
376.163	322.58
376.544	319.64
376.925	323.71
377.305	336.14
377.686	345.17
378.066	328.68
378.447	343.82
378.827	318.96
379.208	338.17
379.588	357.15
379.968	356.02
380.349	325.97
380.729	330.26
381.109	317.15
381.489	346.76
381.87	349.24
382.25	342.91
382.63	332.97
383.01	346.08
383.39	341.33
383.77	346.08
384.15	337.04
384.53	348.56
384.91	361.22
385.29	346.53
385.67	336.14
386.049	340.43
386.429	353.31
386.809	363.25
387.189	371.84
387.568	351.05
387.948	348.56
388.328	364.61
388.707	349.69
389.087	369.35
389.466	359.19
389.846	363.71
390.225	389.02
390.605	371.84
390.984	368.9
391.363	364.16
391.743	349.92
392.122	367.32
392.501	355.57
392.881	360.99
393.26	393.31
393.639	369.58
394.018	374.33
394.397	384.04
394.776	374.55
395.155	403.03
395.534	382.91
395.913	405.29
396.292	378.39
396.671	381.33
397.05	413.42
397.429	383.14
397.808	381.33
398.186	392.18
398.565	390.6
398.944	380.43
399.323	416.81
399.701	396.25
400.08	398.28
400.458	422.69
400.837	396.7
401.215	415.46
401.594	391.95
401.972	425.17
402.351	410.48
402.729	406.42
403.107	426.98
403.486	404.61
403.864	416.81
404.242	423.82
404.62	418.17
404.999	413.65
405.377	414.33
405.755	437.6
406.133	434.21
406.511	415.68
406.889	419.07
407.267	425.17
407.645	433.99
408.023	421.78
408.401	431.73
408.779	422.46
409.156	424.72
409.534	437.83
409.912	448.22
410.29	464.95
410.667	450.93
411.045	457.26
411.422	452.29
411.8	462.69
412.178	453.19
412.555	462.23
412.933	475.34
413.31	452.74
413.687	464.95
414.065	483.48
414.442	483.25
414.819	478.96
415.197	502.01
415.574	490.71
415.951	494.55
416.328	492.52
416.705	476.47
417.082	482.35
417.46	490.48
417.837	489.58
418.214	489.8
418.591	494.78
418.967	520.09
419.344	520.54
419.721	539.97
420.098	504.27
420.475	507.88
420.852	522.8
421.228	525.06
421.605	524.15
421.982	539.07
422.358	537.71
422.735	538.84
423.111	543.14
423.488	544.49
423.864	545.17
424.241	555.56
424.617	582.46
424.994	546.98
425.37	559.41
425.746	546.98
426.123	560.76
426.499	580.42
426.875	586.75
427.251	566.41
427.627	596.92
428.003	585.17
428.379	603.7
428.756	606.86
429.132	620.42
429.507	601.89
429.883	624.49
430.259	609.12
430.635	633.08
431.011	623.81
431.387	619.07
431.763	620.42
432.138	645.73
432.514	650.03
432.89	670.59
433.265	640.76
433.641	653.19
434.016	670.36
434.392	675.34
434.767	675.79
435.143	684.6
435.518	690.25
435.894	703.36
436.269	696.58
436.644	695.22
437.02	709.01
437.395	717.14
437.77	723.02
438.145	718.5
438.52	728.89
438.895	748.78
439.271	725.5
439.646	772.28
440.021	742.45
440.395	752.17
440.77	756.24
441.145	751.49
441.52	748.33
441.895	764.15
442.27	763.02
442.645	766.63
443.019	794.43
443.394	780.19
443.769	793.52
444.143	770.47
444.518	805.05
444.892	804.82
445.267	816.8
445.641	822.22
446.016	822.68
446.39	829.68
446.764	830.13
447.139	814.31
447.513	824.48
447.887	857.25
448.262	825.61
448.636	832.39
449.01	852.96
449.384	902
449.758	891.83
450.132	866.97
450.506	881.88
450.88	884.14
451.254	887.99
451.628	890.24
452.002	931.15
452.376	904.26
452.75	917.36
453.123	939.06
453.497	928.89
453.871	958.04
454.244	968.21
454.618	969.56
454.992	967.76
455.365	990.36
455.739	1008.89
456.112	1013.63
456.486	1021.31
456.859	1048.21
457.232	1042.78
457.606	1029.9
457.979	1077.13
458.352	1057.47
458.725	1075.78
459.099	1106.74
459.472	1096.57
459.845	1131.37
460.218	1136.57
460.591	1154.64
460.964	1158.71
461.337	1172.5
461.71	1183.8
462.083	1211.59
462.456	1210.46
462.829	1239.16
463.201	1224.47
463.574	1239.16
463.947	1285.71
464.32	1281.87
464.692	1318.03
465.065	1316.45
465.438	1337.92
465.81	1375.2
466.183	1337.24
466.555	1402.55
466.928	1420.17
467.3	1416.11
467.672	1426.95
468.045	1469.21
468.417	1494.97
468.789	1526.84
469.161	1526.39
469.534	1534.52
469.906	1591.02
470.278	1601.64
470.65	1655.87
471.022	1674.63
471.394	1730.67
471.766	1739.26
472.138	1760.73
472.51	1813.16
472.882	1854.97
473.253	1871.01
473.625	1921.18
473.997	1926.38
474.369	2020.16
474.74	2032.36
475.112	2085.47
475.484	2116.65
475.855	2160.27
476.227	2205.69
476.598	2283.43
476.97	2341.96
477.341	2409.53
477.713	2447.49
478.084	2478.45
478.455	2617.43
478.827	2618.34
479.198	2727.03
479.569	2768.84
479.94	2869.63
480.311	2917.54
480.682	3036.4
481.053	3117.98
481.424	3213.8
481.795	3287.47
482.166	3355.26
482.537	3417.64
482.908	3548.25
483.279	3665.31
483.65	3730.17
484.021	3833.44
484.391	3954.57
484.762	4018.3
485.133	4097.84
485.503	4260.1
485.874	4383.94
486.244	4506.42
486.615	4575.12
486.985	4735.57
487.356	4876.58
487.726	4985.5
488.097	5114.31
488.467	5213.07
488.837	5365.16
489.207	5410.58
489.578	5600.4
489.948	5741.42
490.318	5915.2
490.688	6003.33
491.058	6173.27
491.428	6303.89
491.798	6425.24
492.168	6598.12
492.538	6735.97
492.908	6886.25
493.278	7006.69
493.648	7125.56
494.017	7296.4
494.387	7413.01
494.757	7512.9
495.126	7727.58
495.496	7820.68
495.866	7869.5
496.235	8149.26
496.605	8220.45
496.974	8350.84
497.344	8476.71
497.713	8653.2
498.082	8736.59
498.452	8921.9
498.821	9038.96
499.19	9141.55
499.559	9219.52
499.928	9422.68
500.298	9439.62
500.667	9659.73
501.036	9736.11
501.405	9858.6
501.774	9957.58
502.143	10128.65
502.512	10157.8
502.88	10340.39
503.249	10387.85
503.618	10578.13
503.987	10619.25
504.356	10740.38
504.724	10773.6
505.093	10933.82
505.462	10976.08
505.83	11149.64
506.199	11223.31
506.567	11400.7
506.936	11455.62
507.304	11617.65
507.672	11720.02
508.041	11679.11
508.409	11819.45
508.777	11951.2
509.145	12014.25
509.514	12083.62
509.882	12198.42
510.25	12276.39
510.618	12417.17
510.986	12473.22
511.354	12583.72
511.722	12737.17
512.09	12825.3
512.458	12865.98
512.826	12937.16
513.193	13111.84
513.561	13135.12
513.929	13247.43
514.297	13308.68
514.664	13360.2
515.032	13490.14
515.4	13613.3
515.767	13637.71
516.135	13743.01
516.502	13600.65
516.869	13871.82
517.237	13896.68
517.604	13845.61
517.972	14036.11
518.339	14079.05
518.706	14137.35
519.073	14229.56
519.44	14273.4
519.808	14375.99
520.175	14337.57
520.542	14510.45
520.909	14561.07
521.276	14609.66
521.643	14695.76
522.009	14837.67
522.376	14808.75
522.743	14935.53
523.11	15050.32
523.477	15154.73
523.843	15213.94
524.21	15381.39
524.577	15405.57
524.943	15454.38
525.31	15599.91
525.676	15622.06
526.043	15644.89
526.409	15695.96
526.776	15798.55
527.142	15797.88
527.508	15909.51
527.874	15999.9
528.241	16097.08
528.607	16067.02
528.973	16147.92
529.339	16082.16
529.705	16189.28
530.071	16364.19
530.437	16395.15
530.803	16382.49
531.169	16473.79
531.535	16495.94
531.901	16430.18
532.267	16585.88
532.632	16578.42
532.998	16610.51
533.364	16588.59
533.73	16671.98
534.095	16721.47
534.461	16673.11
534.826	16753.1
535.192	16779.32
535.557	16791.07
535.923	16737.74
536.288	16843.72
536.653	16839.43
537.019	16773.9
537.384	16768.7
537.749	16904.97
538.114	16773.9
538.479	16856.15
538.845	16871.07
539.21	16806.44
539.575	16884.85
539.94	16891.41
540.305	16873.1
540.67	16887.34
541.034	16913.78
541.399	16891.18
541.764	16897.51
542.129	16961.01
542.494	16911.97
542.858	17001.69
543.223	16876.72
543.587	16996.49
543.952	16888.02
544.316	16996.71
544.681	16827.9
545.045	16925.98
545.41	16892.08
545.774	17003.72
546.138	16984.74
546.503	16923.04
546.867	16913.78
547.231	16982.48
547.595	16861.58
547.959	16870.84
548.324	16925.3
548.688	16852.54
549.052	16864.29
549.416	16932.31
549.779	16856.15
550.143	16848.47
550.507	16949.48
550.871	16869.26
551.235	16812.31
551.599	16882.14
551.962	16969.14
552.326	16939.77
552.689	16959.43
553.053	16877.62
553.417	16834.91
553.78	17086.88
554.143	16931.86
554.507	17003.95
554.87	16943.16
555.234	16989.71
555.597	16949.94
555.96	16928.69
556.323	16961.91
556.686	16897.06
557.05	17004.4
557.413	17062.7
557.776	16974.79
558.139	17080.1
558.502	17060.67
558.865	17045.3
559.228	17157.39
559.59	17163.72
559.953	17137.95
560.316	17336.82
560.679	17296.59
561.041	17335.24
561.404	17339.53
561.767	17429.92
562.129	17289.81
562.492	17427.66
562.854	17441.22
563.217	17454.78
563.579	17467.21
563.941	17565.96
564.304	17495.68
564.666	17601.22
565.028	17625.85
565.39	17683.48
565.753	17631.5
566.115	17767.32
566.477	17812.06
566.839	17752.17
567.201	17827.65
567.563	17800.08
567.925	18013.41
568.287	17881.89
568.648	17902.68
569.01	17963.92
569.372	18041.88
569.734	18019.29
570.095	18071.49
570.457	18111.04
570.819	18097.48
571.18	18104.26
571.542	18122.11
571.903	18258.38
572.265	18297.02
572.626	18287.98
572.987	18341.31
573.349	18316.91
573.71	18356
574.071	18342.89
574.432	18407.75
574.794	18479.39
575.155	18463.79
575.516	18408.2
575.877	18459.05
576.238	18474.42
576.599	18496.11
576.96	18523.91
577.32	18452.27
577.681	18571.14
578.042	18529.56
578.403	18607.29
578.763	18611.36
579.124	18617.46
579.485	18670.79
579.845	18816.1
580.206	18559.16
580.566	18665.14
580.927	18616.56
581.287	18643.9
581.648	18644.58
582.008	18705.14
582.368	18656.11
582.728	18729.78
583.089	18619.27
583.449	18647.07
583.809	18686.39
584.169	18685.26
584.529	18756.22
584.889	18803.22
585.249	18661.53
585.609	18666.5
585.969	18726.84
586.329	18586.5
586.688	18635.77
587.048	18681.64
587.408	18599.38
587.768	18603.23
588.127	18553.51
588.487	18516.22
588.846	18655.43
589.206	18547.86
589.565	18523.45
589.925	18605.49
590.284	18551.25
590.643	18521.65
591.003	18599.61
591.362	18598.71
591.721	18567.97
592.08	18535.88
592.44	18669.89
592.799	18634.19
593.158	18532.04
593.517	18449.33
593.876	18528.2
594.235	18517.8
594.593	18555.32
594.952	18487.07
595.311	18500.86
595.67	18490.69
596.029	18574.98
596.387	18563.45
596.746	18468.31
597.104	18481.87
597.463	18556.67
597.822	18623.79
598.18	18483.23
598.538	18540.85
598.897	18538.59
599.255	18466.28
599.613	18675.77
599.972	18556.22
600.33	18535.66
600.688	18503.12
601.046	18551.48
601.404	18584.24
601.762	18560.06
602.12	18661.3
602.478	18614.75
602.836	18578.37
603.194	18457.47
603.552	18567.52
603.91	18551.02
604.268	18641.87
604.625	18524.36
604.983	18629.89
605.341	18540.4
605.698	18576.11
606.056	18670.57
606.413	18658.37
606.771	18616.11
607.128	18746.27
607.485	18541.53
607.843	18658.82
608.2	18726.84
608.557	18726.61
608.914	18627.41
609.272	18700.62
609.629	18755.09
609.986	18832.37
610.343	18738.14
610.7	18866.95
611.057	18876.66
611.414	18809.55
611.771	18834.86
612.127	18930
612.484	18812.26
612.841	18935.65
613.198	18966.38
613.554	18916.66
613.911	18968.41
614.267	18966.15
614.624	18900.39
614.98	19077.56
615.337	19186.94
615.693	19065.36
616.05	19135.64
616.406	19134.06
616.762	19039.15
617.118	19059.26
617.475	19029.43
617.831	19169.31
618.187	19081.41
618.543	19172.48
618.899	19252.7
619.255	19177.67
619.611	19162.76
619.967	19262.64
620.323	19308.74
620.678	19216.54
621.034	19220.84
621.39	19197.56
621.746	19191.91
622.101	19372.7
622.457	19275.3
622.812	19306.71
623.168	19335.18
623.523	19261.29
623.879	19301.29
624.234	19251.34
624.589	19268.07
624.945	19266.71
625.3	19349.19
625.655	19282.53
626.01	19346.26
626.365	19420.61
626.72	19404.33
627.075	19308.74
627.43	19363.21
627.785	19266.71
628.14	19311
628.495	19295.18
628.85	19249.31
629.205	19222.87
629.559	19254.73
629.914	19218.8
630.269	19153.72
630.623	19258.12
630.978	19170.89
631.332	19173.15
631.687	19320.95
632.041	19177.9
632.396	19161.85
632.75	19091.57
633.104	19157.11
633.459	19068.75
633.813	19018.58
634.167	19101.74
634.521	19021.97
634.875	19041.63
635.229	19044.34
635.583	18911.69
635.937	18949.88
636.291	18913.5
636.645	18948.3
636.999	18951.69
637.352	19063.1
637.706	18800.06
638.06	18994.63
638.413	18773.84
638.767	18746.5
639.121	18871.24
639.474	18757.8
639.828	18702.43
640.181	18679.61
640.534	18775.2
640.888	18633.06
641.241	18704.92
641.594	18628.31
641.947	18737.23
642.301	18687.07
642.654	18662.43
643.007	18744.24
643.36	18662.43
643.713	18608.2
644.066	18649.55
644.419	18525.04
644.771	18408.43
645.124	18409.78
645.477	18290.47
645.83	18203.24
646.182	18117.36
646.535	18047.99
646.888	18032.39
647.24	18017.25
647.593	18068.32
647.945	17942.9
648.298	17995.11
648.65	17920.98
649.002	17887.31
649.355	17926.63
649.707	17831.49
650.059	18021.77
650.411	18235.1
650.763	18212.05
651.115	18335.89
651.467	18408.43
651.819	18360.75
652.171	18385.83
652.523	18321.65
652.875	18377.92
653.227	18286.4
653.578	18411.59
653.93	18405.72
654.282	18346.74
654.633	18211.37
654.985	18334.53
655.337	18333.85
655.688	18293.63
656.039	18427.86
656.391	18301.76
656.742	18366.4
657.094	18239.17
657.445	18344.25
657.796	18312.84
658.147	18245.95
658.498	18319.84
658.849	18410.69
659.2	18302.44
659.551	18346.51
659.902	18324.14
660.253	18304.02
660.604	18345.15
660.955	18239.39
661.306	18344.25
661.656	18349.45
662.007	18394.19
662.358	18352.84
662.708	18241.88
663.059	18385.6
663.409	18246.17
663.76	18395.55
664.11	18304.48
664.461	18360.97
664.811	18339.05
665.161	18330.69
665.511	18324.59
665.862	18341.09
666.212	18464.02
666.562	18363.91
666.912	18365.49
667.262	18276.91
667.612	18308.32
667.962	18347.19
668.312	18389.45
668.662	18449.33
669.011	18329.33
669.361	18227.87
669.711	18405.49
670.06	18208.21
670.41	18296.79
670.76	18395.77
671.109	18379.95
671.459	18260.18
671.808	18278.49
672.157	18273.29
672.507	18143.58
672.856	18219.51
673.205	18240.52
673.554	18228.77
673.904	18098.83
674.253	18331.14
674.602	18211.37
674.951	17888.22
675.3	17790.14
675.649	18116.68
675.998	18102
676.346	18126.85
676.695	18141.09
677.044	17972.51
677.393	18081.21
677.741	18087.53
678.09	18010.47
678.438	18000.53
678.787	18075.78
679.135	17977.25
679.484	17847.31
679.832	17950.59
680.181	17841.21
680.529	17911.49
680.877	17895.67
681.225	17842.34
681.573	17858.39
681.922	17779.97
682.27	17736.13
682.618	17661.78
682.966	17664.49
683.314	17665.62
683.661	17703.36
684.009	17638.28
684.357	17563.25
684.705	17410.26
685.053	17461.11
685.4	17433.76
685.748	17340.89
686.095	17295.92
686.443	17285.29
686.79	17139.08
687.138	17240.55
687.485	17168.24
687.832	17130.72
688.18	17143.38
688.527	16990.84
688.874	17068.12
689.221	16984.06
689.568	16910.16
689.915	16892.99
690.262	16831.97
690.609	16836.72
690.956	16752.88
691.303	16761.01
691.65	16602.83
691.997	16636.05
692.344	16508.14
692.69	16519.21
693.037	16472.43
693.383	16345.88
693.73	16431.76
694.077	16376.62
694.423	16308.37
694.769	16173.23
695.116	16228.6
695.462	16121.71
695.808	16118.77
696.155	16167.36
696.501	15942.73
696.847	15966.68
697.193	15836.52
697.539	15851.89
697.885	15705.45
698.231	15658.9
698.577	15670.87
698.923	15627.48
699.269	15536.87
699.614	15425.23
699.96	15450.09
700.306	15481.95
700.651	15306.14
700.997	15255.52
701.342	15231.34
701.688	15201.28
702.033	15141.17
702.379	15112.24
702.724	15014.85
703.069	15072.02
703.415	14834.06
703.76	14924.9
704.105	14828.41
704.45	14905.47
704.795	14757
705.14	14755.64
705.485	14588.87
705.83	14608.3
706.175	14647.4
706.52	14560.17
706.865	14479.94
707.209	14495.99
707.554	14460.74
707.899	14425.48
708.243	14307.07
708.588	14313.39
708.932	14231.59
709.277	14186.62
709.621	14200.18
709.966	14064.81
710.31	14122.67
710.654	13988.66
710.998	14051.25
711.342	13933.07
711.687	13917.7
712.031	13905.5
712.375	13877.25
712.719	13828.66
713.063	13817.59
713.407	13854.88
713.75	13700.53
714.094	13747.99
714.438	13670.47
714.782	13672.73
715.125	13631.15
715.469	13654.43
715.812	13607.65
716.156	13494.21
716.499	13570.14
716.843	13585.73
717.186	13394.55
717.53	13493.76
717.873	13526.07
718.216	13394.32
718.559	13447.2
718.902	13347.54
719.246	13318.39
719.589	13235.91
719.932	13281.56
720.275	13218.06
720.617	13293.31
720.96	13253.54
721.303	13230.49
721.646	13260.09
721.989	13149.81
722.331	13169.47
722.674	13180.32
723.016	13147.78
723.359	13126.76
723.701	13153.88
724.044	13134.67
724.386	13042.92
724.729	13001.34
725.071	13031.39
725.413	12991.62
725.755	13053.77
726.097	12963.6
726.439	12987.55
726.782	12966.31
727.124	13045.18
727.465	12912.98
727.807	12948.68
728.149	12893.09
728.491	12959.53
728.833	12964.28
729.175	12917.27
729.516	12800.21
729.858	12903.49
730.199	12870.27
730.541	12846.77
730.882	12828.69
731.224	12860.33
731.565	12811.74
731.906	12769.48
732.248	12805.19
732.589	12749.14
732.93	12709.82
733.271	12703.27
733.612	12776.03
733.953	12741.68
734.294	12753.66
734.635	12755.92
734.976	12691.06
735.317	12661.23
735.658	12723.83
735.999	12768.8
736.339	12703.49
736.68	12736.49
737.021	12766.77
737.361	12675.47
737.702	12802.7
738.042	12747.56
738.383	12727.9
738.723	12887.67
739.063	12704.85
739.404	12805.41
739.744	12738.52
740.084	12820.1
740.424	12864.62
740.764	12792.08
741.104	12823.72
741.444	12695.36
741.784	12833.21
742.124	12938.52
742.464	12814.45
742.804	12787.11
743.143	12866.43
743.483	12877.73
743.823	12833.21
744.162	12838.86
744.502	12959.31
744.841	12940.55
745.181	13022.58
745.52	12973.77
745.86	13073.43
746.199	13104.61
746.538	13096.25
746.877	13199.3
747.216	13197.72
747.556	13259.19
747.895	13351.39
748.234	13342.57
748.573	13432.29
748.911	13395
749.25	13454.89
749.589	13540.31
749.928	13659.4
750.267	13696.69
750.605	13671.15
750.944	13721.55
751.283	13848.1
751.621	14000.86
751.96	13905.72
752.298	13987.98
752.636	14123.12
752.975	14210.12
753.313	14245.83
753.651	14406.5
753.989	14390.91
754.327	14580.51
754.666	14489.44
755.004	14733.27
755.342	14805.59
755.679	14862.08
756.017	14931.91
756.355	15053.71
