Data from hue_330_FLMS001491_64.txt Node
Date: Mon Feb 06 15:45:43 GMT 2017
User: dcchb
Spectrometer: FLMS00149
Trigger mode: 0
Integration Time (sec): 2.000000E-2
Scans to average: 10
Electric dark correction enabled: true
Nonlinearity correction enabled: false
Boxcar width: 0
XAxis mode: Wavelengths
Number of Pixels in Spectrum: 2048
>>>>>Begin Spectral Data<<<<<
341.393	-25.65
341.776	-25.65
342.16	-25.65
342.543	-68.36
342.927	-63.39
343.31	-67
343.693	-74.91
344.077	-72.43
344.46	-74.69
344.843	-55.93
345.226	-45.76
345.61	-24.52
345.993	-24.29
346.376	-6.44
346.759	3.28
347.142	24.97
347.525	66.78
347.908	71.3
348.291	97.06
348.674	90.05
349.057	92.54
349.44	123.73
349.823	141.58
350.206	139.54
350.588	190.39
350.971	225.64
351.354	229.71
351.737	213.67
352.119	238.75
352.502	251.63
352.884	267
353.267	269.71
353.65	282.37
354.032	303.16
354.414	303.16
354.797	306.77
355.179	339.99
355.562	316.71
355.944	322.14
356.326	329.14
356.709	321.46
357.091	316.94
357.473	332.53
357.855	335.25
358.238	337.96
358.62	323.49
359.002	318.75
359.384	372.76
359.766	329.6
360.148	323.72
360.53	332.08
360.912	333.21
361.294	342.02
361.676	331.86
362.057	332.08
362.439	331.18
362.821	318.97
363.203	309.03
363.584	321.46
363.966	320.78
364.348	309.48
364.729	327.11
365.111	306.09
365.493	320.56
365.874	306.55
366.256	312.42
366.637	323.72
367.019	309.94
367.4	292.08
367.781	296.38
368.163	323.27
368.544	296.38
368.925	332.08
369.306	309.48
369.688	310.61
370.069	278.98
370.45	283.5
370.831	327.11
371.212	293.44
371.593	311.74
371.974	292.08
372.355	310.39
372.736	302.25
373.117	305.19
373.498	292.08
373.879	312.42
374.26	304.29
374.641	312.2
375.021	305.87
375.402	312.42
375.783	305.87
376.163	314.23
376.544	314.23
376.925	318.3
377.305	318.52
377.686	321.01
378.066	332.31
378.447	322.36
378.827	330.95
379.208	289.37
379.588	318.97
379.968	329.14
380.349	330.95
380.729	336.83
381.109	323.95
381.489	334.79
381.87	321.01
382.25	334.57
382.63	341.12
383.01	337.73
383.39	344.06
383.77	318.07
384.15	324.4
384.53	349.48
384.91	331.18
385.29	332.76
385.67	319.65
386.049	360.56
386.429	343.38
386.809	358.52
387.189	333.89
387.568	329.82
387.948	338.18
388.328	338.86
388.707	329.82
389.087	337.73
389.466	353.1
389.846	337.28
390.225	358.3
390.605	373.44
390.984	362.36
391.363	343.83
391.743	365.08
392.122	350.16
392.501	357.17
392.881	373.66
393.26	356.49
393.639	357.17
394.018	347.45
394.397	364.17
394.776	365.3
395.155	371.85
395.534	383.15
395.913	351.52
396.292	375.02
396.671	379.99
397.05	361.91
397.429	350.61
397.808	384.74
398.186	379.76
398.565	382.02
398.944	368.69
399.323	379.76
399.701	407.11
400.08	359.88
400.458	374.57
400.837	398.29
401.215	371.4
401.594	382.7
401.972	408.92
402.351	406.2
402.729	415.7
403.107	399.88
403.486	415.24
403.864	386.77
404.242	394.68
404.62	403.94
404.999	429.25
405.377	403.94
405.755	416.15
406.133	410.05
406.511	418.63
406.889	428.12
407.267	419.09
407.645	439.65
408.023	443.94
408.401	440.33
408.779	456.15
409.156	444.4
409.534	467.45
409.912	451.85
410.29	466.54
410.667	454.11
411.045	455.47
411.422	472.64
411.8	499.31
412.178	481.68
412.555	508.12
412.933	489.37
413.31	481.68
413.687	524.39
414.065	513.77
414.442	519.42
414.819	513.09
415.197	508.12
415.574	506.54
415.951	532.98
416.328	512.42
416.705	545.86
417.082	525.75
417.46	526.88
417.837	552.19
418.214	550.16
418.591	565.75
418.967	561.91
419.344	562.13
419.721	584.05
420.098	584.28
420.475	577.05
420.852	575.92
421.228	611.85
421.605	633.09
421.982	619.53
422.358	614.11
422.735	597.16
423.111	629.02
423.488	623.37
423.864	631.51
424.241	637.16
424.617	662.24
424.994	663.82
425.37	651.17
425.746	684.16
426.123	670.15
426.499	679.19
426.875	666.99
427.251	689.36
427.627	706.08
428.003	701.56
428.379	705.18
428.756	719.42
429.132	718.06
429.507	736.14
429.883	732.98
430.259	740.88
430.635	748.34
431.011	753.99
431.387	768.23
431.763	779.3
432.138	787.21
432.514	778.17
432.89	786.76
433.265	802.8
433.641	812.07
434.016	823.59
434.392	845.06
434.767	841.45
435.143	845.97
435.518	841.22
435.894	855.68
436.269	892.29
436.644	854.1
437.02	883.25
437.395	870.6
437.77	887.32
438.145	907.89
438.52	905.4
438.895	946.3
439.271	894.1
439.646	932.52
440.021	928
440.395	972.74
440.77	940.88
441.145	952.4
441.52	964.61
441.895	986.08
442.27	976.81
442.645	947.88
443.019	972.52
443.394	996.24
443.769	993.08
444.143	988.56
444.518	1012.06
444.892	993.08
445.267	986.08
445.641	1019.07
446.016	1004.38
446.39	1011.61
446.764	1030.82
447.139	1015.23
447.513	1033.76
447.887	1025.85
448.262	1015.68
448.636	1052.51
449.01	1060.42
449.384	1073.76
449.758	1053.42
450.132	1069.24
450.506	1058.84
450.88	1082.34
451.254	1066.98
451.628	1093.64
452.002	1097.71
452.376	1088.45
452.75	1092.29
453.123	1053.42
453.497	1118.28
453.871	1127.31
454.244	1150.14
454.618	1110.59
454.992	1125.28
455.365	1159.18
455.739	1177.71
456.112	1196.24
456.486	1160.08
456.859	1173.87
457.232	1205.05
457.606	1187.88
457.979	1193.08
458.352	1218.16
458.725	1250.02
459.099	1255.45
459.472	1236.92
459.845	1260.42
460.218	1309.23
460.591	1279.63
460.964	1261.77
461.337	1291.6
461.71	1298.38
462.083	1346.07
462.456	1306.97
462.829	1323.24
463.201	1337.48
463.574	1344.48
463.947	1379.51
464.32	1380.64
464.692	1405.5
465.065	1425.16
465.438	1422.45
465.81	1420.64
466.183	1426.06
466.555	1474.65
466.928	1483.92
467.3	1435.78
467.672	1486.63
468.045	1504.03
468.417	1508.55
468.789	1511.49
469.161	1526.17
469.534	1566.4
469.906	1575.66
470.278	1598.72
470.65	1590.81
471.022	1612.95
471.394	1663.57
471.766	1663.12
472.138	1642.56
472.51	1678.71
472.882	1707.41
473.253	1720.07
473.625	1724.36
473.997	1779.05
474.369	1758.48
474.74	1785.38
475.112	1832.61
475.484	1824.7
475.855	1836
476.227	1846.39
476.598	1893.17
476.97	1916.67
477.341	1969.55
477.713	1982.21
478.084	2001.19
478.455	2014.52
478.827	2038.7
479.198	2079.15
479.569	2086.39
479.94	2112.37
480.311	2125.25
480.682	2198.93
481.053	2195.08
481.424	2218.81
481.795	2267.85
482.166	2253.61
482.537	2293.16
482.908	2316.66
483.279	2356.21
483.65	2395.98
484.021	2415.64
484.391	2442.99
484.762	2464.68
485.133	2477.79
485.503	2476.43
485.874	2579.25
486.244	2556.2
486.615	2593.04
486.985	2653.83
487.356	2638.24
487.726	2694.96
488.097	2724.79
488.467	2727.95
488.837	2770.44
489.207	2778.12
489.578	2820.15
489.948	2856.54
490.318	2875.97
490.688	2933.82
491.058	2911.45
491.428	2993.71
491.798	3001.16
492.168	3042.52
492.538	3070.54
492.908	3068.28
493.278	3119.58
493.648	3102.18
494.017	3144.44
494.387	3169.3
494.757	3210.2
495.126	3224.21
495.496	3227.6
495.866	3236.64
496.235	3281.16
496.605	3275.96
496.974	3306.47
497.344	3325
497.713	3344.88
498.082	3360.02
498.452	3387.59
498.821	3377.2
499.19	3391.66
499.559	3405.67
499.928	3462.85
500.298	3464.65
500.667	3489.06
501.036	3500.13
501.405	3528.16
501.774	3484.09
502.143	3557.99
502.512	3541.49
502.88	3531.55
503.249	3556.18
503.618	3590.3
503.987	3590.98
504.356	3624.2
504.724	3623.75
505.093	3637.98
505.462	3631.43
505.83	3640.24
506.199	3693.12
506.567	3701.71
506.936	3717.53
507.304	3720.92
507.672	3737.19
508.041	3726.12
508.409	3799.34
508.777	3777.64
509.145	3829.16
509.514	3811.54
509.882	3864.64
510.25	3829.84
510.618	3900.12
510.986	3853.8
511.354	3909.84
511.722	3894.47
512.09	3940.35
512.458	3873.91
512.826	3929.28
513.193	3921.59
513.561	3962.27
513.929	3936.73
514.297	3986.67
514.664	4037.97
515.032	3988.48
515.4	4042.49
515.767	3987.35
516.135	4025.09
516.502	4002.72
516.869	4041.14
517.237	4064.41
517.604	4088.82
517.972	4127.91
518.339	4129.72
518.706	4087.92
519.073	4115.03
519.44	4166.56
519.808	4164.98
520.175	4117.97
520.542	4151.42
520.909	4144.41
521.276	4202.94
521.643	4245.88
522.009	4212.43
522.376	4244.3
522.743	4266.67
523.11	4305.54
523.477	4316.38
523.843	4273.67
524.21	4273.22
524.577	4365.42
524.943	4349.15
525.31	4385.76
525.676	4418.53
526.043	4434.57
526.409	4440.22
526.776	4475.25
527.142	4498.07
527.508	4533.78
527.874	4540.56
528.241	4546.43
528.607	4568.13
528.973	4607
529.339	4656.49
529.705	4630.73
530.071	4630.95
530.437	4709.59
530.803	4665.53
531.169	4755.02
531.535	4685.19
531.901	4768.8
532.267	4754.79
532.632	4791.4
532.998	4780.78
533.364	4797.95
533.73	4856.03
534.095	4923.15
534.461	4873.66
534.826	4946.88
535.192	4893.09
535.557	4935.35
535.923	4989.36
536.288	5012.64
536.653	5006.31
537.019	5003.6
537.384	5045.86
537.749	5032.75
538.114	5042.92
538.479	5101
538.845	5127.44
539.21	5181.9
539.575	5169.47
539.94	5179.64
540.305	5249.69
540.67	5233.2
541.034	5194.1
541.399	5237.94
541.764	5317.26
542.129	5302.8
542.494	5265.51
542.858	5301.44
543.223	5340.99
543.587	5416.92
543.952	5387.32
544.316	5430.93
544.681	5435.22
545.045	5454.88
545.41	5459.4
545.774	5460.31
546.138	5562.23
546.503	5544.6
546.867	5539.4
547.231	5605.84
547.595	5601.77
547.959	5576.01
548.324	5653.07
548.688	5611.04
549.052	5642.22
549.416	5666.63
549.779	5702.34
550.143	5725.61
550.507	5754.31
550.871	5811.71
551.235	5754.99
551.599	5808.1
551.962	5839.28
552.326	5849.22
552.689	5877.92
553.053	5814.2
553.417	5851.94
553.78	5910.92
554.143	5923.12
554.507	5977.36
554.87	5969.9
555.234	6028.43
555.597	5977.81
555.96	5998.83
556.323	6049.22
556.686	6065.04
557.05	6070.91
557.413	6091.03
557.776	6157.47
558.139	6130.12
558.502	6194.07
558.865	6143.91
559.228	6213.06
559.59	6221.19
559.953	6138.03
560.316	6284.24
560.679	6284.24
561.041	6310.91
561.404	6306.16
561.767	6336.44
562.129	6301.19
562.492	6404.46
562.854	6409.44
563.217	6379.38
563.579	6422.32
563.941	6444.01
564.304	6492.82
564.666	6552.94
565.028	6465.48
565.39	6542.31
565.753	6520.17
566.115	6578.7
566.477	6604.01
566.839	6638.36
567.201	6662.54
567.563	6613.5
567.925	6695.3
568.287	6712.25
568.648	6686.04
569.01	6711.35
569.372	6818.46
569.734	6846.03
570.095	6851.91
570.457	6929.65
570.819	6854.62
571.18	6878.8
571.542	6973.49
571.903	6954.51
572.265	6997.22
572.626	7089.42
572.987	7080.6
573.349	7140.72
573.71	7176.42
574.071	7144.78
574.432	7214.84
574.794	7272.24
575.155	7335.97
575.516	7344.78
575.877	7441.05
576.238	7521.95
576.599	7547.03
576.96	7681.27
577.32	7732.11
577.681	7758.78
578.042	7860.02
578.403	7892.11
578.763	7993.35
579.124	8119.22
579.485	8137.53
579.845	8314.24
580.206	8422.26
580.566	8455.94
580.927	8538.87
581.287	8731.18
581.648	8762.37
582.008	8957.84
582.368	9067.67
582.728	9263.37
583.089	9332.07
583.449	9428.57
583.809	9644.61
584.169	9823.13
584.529	9974.54
584.889	10213.63
585.249	10348.99
585.609	10499.27
585.969	10787.17
586.329	10863.78
586.688	11161.63
587.048	11241.85
587.408	11487.04
587.768	11757.77
588.127	11949.18
588.487	12143.07
588.846	12529.73
589.206	12638.88
589.565	12924.29
589.925	13137.62
590.284	13438.86
590.643	13636.36
591.003	13853.53
591.362	14230.7
591.721	14485.61
592.08	14662.33
592.44	14929.66
592.799	15285.81
593.158	15427.05
593.517	15754.95
593.876	16135.06
594.235	16355.16
594.593	16654.59
594.952	16954.92
595.311	17193.11
595.67	17520.78
596.029	17935.69
596.387	18231.5
596.746	18534.54
597.104	18655.67
597.463	19033.74
597.822	19394.63
598.18	19547.4
598.538	19849.99
598.897	20219.47
599.255	20318.9
599.613	20877.53
599.972	21092.89
600.33	21355.48
600.688	21561.13
601.046	21894
601.404	22212.18
601.762	22446.75
602.12	22907.08
602.478	23070.24
602.836	23334.41
603.194	23527.86
603.552	23756.32
603.91	23992.48
604.268	24289.64
604.625	24532.58
604.983	24783.87
605.341	24962.39
605.698	25303.18
606.056	25660.23
606.413	25874.91
606.771	26102.7
607.128	26381.57
607.485	26415.69
607.843	26727.55
608.2	27037.59
608.557	27283.46
608.914	27489.56
609.272	27720.51
609.629	28019.26
609.986	28407.5
610.343	28241.18
610.7	28665.35
611.057	28850.88
611.414	29028.28
611.771	29241.6
612.127	29456.06
612.484	29630.07
612.841	29797.07
613.198	29957.74
613.554	30117.97
613.911	30502.59
614.267	30681.11
614.624	30621
614.98	30898.06
615.337	31217.82
615.693	31319.52
616.05	31409
616.406	31759.05
616.762	31780.75
617.118	31907.75
617.475	31961.08
617.831	32176.67
618.187	32364.23
618.543	32475.64
618.899	32832.47
619.255	32918.12
619.611	33011.45
619.967	33134.83
620.323	33270.2
620.678	33227.04
621.034	33272.23
621.39	33476.75
621.746	33500.93
622.101	34017.3
622.457	33749.51
622.812	33895.94
623.168	34004.64
623.523	34152.89
623.879	34352.2
624.234	34268.14
624.589	34432.2
624.945	34552.88
625.3	34772.31
625.655	34765.53
626.01	34690.5
626.365	34771.63
626.72	34989.25
627.075	34967.33
627.43	35051.85
627.785	34884.85
628.14	35195.35
628.495	35244.16
628.85	35368
629.205	35128.91
629.559	35308.79
629.914	35360.54
630.269	35431.5
630.623	35475.11
630.978	35450.25
631.332	35590.59
631.687	35699.06
632.041	35487.32
632.396	35692.51
632.75	35519.41
633.104	35618.16
633.459	35590.59
633.813	35677.82
634.167	35605.96
634.521	35756.69
634.875	35803.01
635.229	35703.36
635.583	35437.15
635.937	35648.44
636.291	35518.73
636.645	35747.2
636.999	35555.11
637.352	35680.3
637.706	35601.89
638.06	35779.51
638.413	35667.2
638.767	35624.94
639.121	35719.17
639.474	35444.15
639.828	35622.45
640.181	35792.62
640.534	35732.96
640.888	35525.05
641.241	35396.7
641.594	35555.34
641.947	35629.23
642.301	35464.49
642.654	35768.89
643.007	35726.18
643.36	35617.48
643.713	35502.23
644.066	35670.14
644.419	35344.49
644.771	35206.42
645.124	34984.5
645.477	35028.8
645.83	34683.49
646.182	34525.98
646.535	34549.94
646.888	34617.51
647.24	34401.92
647.593	34694.79
647.945	34570.96
648.298	34464.07
648.65	34426.78
649.002	34303.17
649.355	34445.08
649.707	34470.17
650.059	34552.2
650.411	34892.75
650.763	35011.17
651.115	35338.84
651.467	35322.8
651.819	35196.7
652.171	35145.18
652.523	35074.9
652.875	35182.24
653.227	34996.25
653.578	35190.37
653.93	35271.5
654.282	35019.76
654.633	35009.14
654.985	35094.78
655.337	35054.11
655.688	34955.8
656.039	35186.53
656.391	34811.18
656.742	34905.86
657.094	34966.65
657.445	35143.37
657.796	34933.66
658.147	35005.75
658.498	34889.37
658.849	35064.95
659.2	35072.19
659.551	34885.07
659.902	34915.81
660.253	34936.14
660.604	34953.54
660.955	34760.33
661.306	34749.03
661.656	34803.27
662.007	34817.95
662.358	34851.85
662.708	34898.4
663.059	34776.37
663.409	34632.65
663.76	34703.16
664.11	34875.13
664.461	34855.24
664.811	34829.03
665.161	34851.4
665.511	34661.8
665.862	34835.36
666.212	35045.29
666.562	34857.5
666.912	34971.17
667.262	34672.65
667.612	34953.54
667.962	34858.18
668.312	34800.55
668.662	34873.55
669.011	34803.94
669.361	34827.67
669.711	34699.77
670.06	34716.94
670.41	34741.8
670.76	34701.35
671.109	34765.53
671.459	34587.45
671.808	34629.26
672.157	34864.73
672.507	34431.3
672.856	34535.25
673.205	34580.22
673.554	34721.23
673.904	34383.62
674.253	34764.17
674.602	34639.2
674.951	34220.68
675.3	33928.26
675.649	34537.28
675.998	34322.6
676.346	34425.2
676.695	34577.51
677.044	34318.53
677.393	34546.1
677.741	34416.84
678.09	34380.45
678.438	34172.32
678.787	34269.95
679.135	34450.73
679.484	34100.91
679.832	34228.82
680.181	34054.36
680.529	34227.24
680.877	34106.33
681.225	34032.21
681.573	34179.55
681.922	33886
682.27	33792.22
682.618	33959.45
682.966	33867.25
683.314	33888.94
683.661	33711.32
684.009	33703.63
684.357	33497.31
684.705	33421.38
685.053	33540.47
685.4	33443.75
685.748	33272.23
686.095	33327.82
686.443	33172.8
686.79	33145.91
687.138	33304.77
687.485	33277.2
687.832	33097.32
688.18	33013.93
688.527	32936.42
688.874	32889.87
689.221	32843.54
689.568	32867.05
689.915	32760.61
690.262	32776.88
690.609	32701.63
690.956	32607.84
691.303	32641.74
691.65	32385.93
691.997	32488.3
692.344	32325.59
692.69	32180.74
693.037	32213.96
693.383	31995.88
693.73	32104.13
694.077	31973.51
694.423	31924.25
694.769	31805.6
695.116	31807.86
695.462	31717.7
695.808	31629.56
696.155	31817.36
696.501	31370.36
696.847	31425.95
697.193	31238.61
697.539	31267.31
697.885	31115.23
698.231	30963.59
698.577	30998.85
698.923	31018.28
699.269	30775.8
699.614	30676.37
699.96	30561.57
700.306	30549.14
700.651	30574.45
700.997	30347.34
701.342	30340.11
701.688	30399.09
702.033	30249.71
702.379	30180.56
702.724	30065.31
703.069	30210.17
703.415	29822.61
703.76	29842.27
704.105	29886.33
704.45	29799.1
704.795	29624.64
705.14	29576.96
705.485	29463.75
705.83	29452.9
706.175	29390.3
706.52	29428.04
706.865	29197.54
707.209	29104.88
707.554	29135.17
707.899	29185.33
708.243	28963.42
708.588	28891.33
708.932	28835.96
709.277	28748.96
709.621	28779.24
709.966	28594.84
710.31	28665.57
710.654	28335.19
710.998	28518.01
711.342	28379.48
711.687	28374.96
712.031	28202.08
712.375	28202.31
712.719	28114.63
713.063	28118.02
713.407	28267.62
713.75	27983.78
714.094	28079.6
714.438	27850.91
714.782	27872.83
715.125	27837.35
715.469	27894.75
715.812	27666.05
716.156	27618.37
716.499	27561.65
716.843	27555.09
717.186	27386.74
717.53	27598.94
717.873	27424.48
718.216	27367.53
718.559	27287.76
718.902	27166.18
719.246	27268.32
719.589	27144.94
719.932	27052.74
720.275	27067.65
720.617	26975.9
720.96	27055.22
721.303	26877.6
721.646	26973.64
721.989	26736.81
722.331	26823.81
722.674	26705.63
723.016	26705.63
723.359	26684.61
723.701	26660.2
724.044	26576.82
724.386	26371.4
724.729	26556.25
725.071	26368.23
725.413	26461.11
725.755	26349.25
726.097	26220.89
726.439	26137.28
726.782	26255.69
727.124	26335.92
727.465	26155.13
727.807	26060.22
728.149	26087.79
728.491	26063.61
728.833	25989.94
729.175	25911.97
729.516	25932.54
729.858	25895.7
730.199	25816.61
730.541	25878.53
730.882	25770.06
731.224	25866.1
731.565	25673.79
731.906	25702.26
732.248	25659.78
732.589	25403.74
732.93	25448.94
733.271	25504.75
733.612	25569.84
733.953	25428.6
734.294	25383.63
734.635	25287.58
734.976	25433.57
735.317	25166.91
735.658	25155.84
735.999	25242.84
736.339	25113.58
736.68	25281.03
737.021	25131.43
737.361	24941.38
737.702	25162.62
738.042	24987.03
738.383	25002.17
738.723	25016.4
739.063	24907.71
739.404	24945.22
739.744	24889.85
740.084	24702.29
740.424	24721.27
740.764	24679.01
741.104	24852.34
741.444	24669.52
741.784	24601.73
742.124	24647.15
742.464	24509.07
742.804	24401.73
743.143	24501.62
743.483	24435.85
743.823	24345.01
744.162	24331
744.502	24385.91
744.841	24247.39
745.181	24252.36
745.52	24175.75
745.86	24188.86
746.199	24208.74
746.538	24107.05
746.877	24133.94
747.216	24254.62
747.556	24099.37
747.895	24032.02
748.234	24084.9
748.573	23912.48
748.911	23877.45
749.25	23946.83
749.589	23695.08
749.928	23801.3
750.267	23906.83
750.605	23640.4
750.944	23699.15
751.283	23618.02
751.621	23724.23
751.96	23454.86
752.298	23526.95
752.636	23417.12
752.975	23361.08
753.313	23247.86
753.651	23342.32
753.989	23191.59
754.327	23240.18
754.666	23116.34
755.004	23094.42
755.342	23149.79
755.679	22921.54
756.017	22972.62
756.355	23044.7
756.693	22873.64
757.031	22965.16
757.368	22806.74
757.706	22812.17
758.044	22687.2
758.381	22627.54
758.719	22586.86
759.056	22496.7
759.394	22409.02
759.731	22353.88
760.068	22267.1
760.405	22247.66
760.743	22216.48
