Data from hue_320_FLMS001491_37.txt Node
Date: Mon Feb 06 15:47:07 GMT 2017
User: dcchb
Spectrometer: FLMS00149
Trigger mode: 0
Integration Time (sec): 2.000000E-2
Scans to average: 10
Electric dark correction enabled: true
Nonlinearity correction enabled: false
Boxcar width: 0
XAxis mode: Wavelengths
Number of Pixels in Spectrum: 2048
>>>>>Begin Spectral Data<<<<<
341.393	-18.59
341.776	-18.59
342.16	-18.59
342.543	-64.01
342.927	-63.33
343.31	-76.66
343.693	-71.92
344.077	-63.56
344.46	-67.85
344.843	-63.56
345.226	-46.38
345.61	-26.04
345.993	-17.23
346.376	-4.8
346.759	26.16
347.142	22.77
347.525	51.92
347.908	67.29
348.291	63.22
348.674	81.3
349.057	125.36
349.44	128.08
349.823	149.09
350.206	157.45
350.588	174.63
350.971	218.02
351.354	229.09
351.737	226.6
352.119	257.34
352.502	255.08
352.884	268.19
353.267	274.06
353.65	296.88
354.032	307.05
354.414	300.73
354.797	306.38
355.179	325.13
355.562	322.42
355.944	334.62
356.326	325.36
356.709	348.18
357.091	326.71
357.473	339.14
357.855	333.72
358.238	321.29
358.62	344.79
359.002	361.06
359.384	343.21
359.766	366.26
360.148	339.82
360.53	356.54
360.912	350.89
361.294	319.94
361.676	325.36
362.057	309.31
362.439	331.23
362.821	336.21
363.203	330.33
363.584	301.4
363.966	308.18
364.348	333.27
364.729	330.1
365.111	333.95
365.493	329.2
365.874	318.35
366.256	309.99
366.637	311.8
367.019	311.57
367.4	326.04
367.781	313.83
368.163	313.83
368.544	310.44
368.925	310.22
369.306	334.85
369.688	322.19
370.069	309.99
370.45	315.42
370.831	325.36
371.212	314.06
371.593	332.82
371.974	305.92
372.355	296.88
372.736	308.86
373.117	312.48
373.498	302.76
373.879	332.14
374.26	330.78
374.641	347.5
375.021	300.73
375.402	320.39
375.783	317.45
376.163	328.3
376.544	318.58
376.925	331.01
377.305	316.32
377.686	331.46
378.066	305.47
378.447	307.05
378.827	339.37
379.208	337.56
379.588	352.48
379.968	354.96
380.349	328.97
380.729	351.57
381.109	352.48
381.489	340.5
381.87	336.66
382.25	329.2
382.63	350.44
383.01	329.88
383.39	345.92
383.77	321.29
384.15	343.66
384.53	358.35
384.91	342.08
385.29	349.76
385.67	345.47
386.049	355.87
386.429	353.61
386.809	366.26
387.189	331.01
387.568	358.8
387.948	366.71
388.328	355.87
388.707	357
389.087	373.72
389.466	392.93
389.846	376.66
390.225	351.57
390.605	357.22
390.984	344.79
391.363	372.36
391.743	365.13
392.122	351.8
392.501	366.71
392.881	377.11
393.26	378.24
393.639	371.23
394.018	387.96
394.397	387.05
394.776	390.67
395.155	404.9
395.534	387.73
395.913	392.02
396.292	365.58
396.671	379.14
397.05	370.1
397.429	388.41
397.808	395.41
398.186	371.23
398.565	389.99
398.944	385.47
399.323	393.83
399.701	428.41
400.08	389.31
400.458	401.51
400.837	404.23
401.215	411.91
401.594	402.42
401.972	420.27
402.351	410.78
402.729	382.08
403.107	399.03
403.486	396.09
403.864	416.88
404.242	409.42
404.62	413.49
404.999	420.72
405.377	418.24
405.755	428.18
406.133	414.4
406.511	438.58
406.889	436.32
407.267	437.9
407.645	457.78
408.023	465.02
408.401	441.74
408.779	470.89
409.156	446.71
409.534	484
409.912	458.69
410.29	471.57
410.667	483.32
411.045	491.68
411.422	506.6
411.8	495.07
412.178	501.63
412.555	516.09
412.933	513.15
413.31	528.07
413.687	519.93
414.065	539.36
414.442	547.73
414.819	545.47
415.197	535.97
415.574	531.91
415.951	543.43
416.328	547.5
416.705	556.99
417.082	575.3
417.46	594.96
417.837	604.45
418.214	592.02
418.591	599.25
418.967	591.79
419.344	611
419.721	610.77
420.098	633.15
420.475	630.44
420.852	641.73
421.228	653.03
421.605	638.8
421.982	643.77
422.358	649.42
422.735	655.52
423.111	688.96
423.488	685.35
423.864	684.67
424.241	677.21
424.617	713.82
424.994	721.51
425.37	733.71
425.746	702.75
426.123	723.54
426.499	736.65
426.875	726.48
427.251	728.06
427.627	756.99
428.003	751.34
428.379	782.07
428.756	776.42
429.132	781.62
429.507	792.24
429.883	808.28
430.259	821.39
430.635	807.61
431.011	856.42
431.387	840.15
431.763	842.63
432.138	817.32
432.514	861.39
432.89	858.68
433.265	856.64
433.641	858.68
434.016	898.68
434.392	918.11
434.767	906.81
435.143	916.3
435.518	924.21
435.894	954.49
436.269	947.26
436.644	952.01
437.02	957.21
437.395	986.13
437.77	987.26
438.145	1009.41
438.52	978.9
438.895	1016.87
439.271	971.44
439.646	999.47
440.021	1036.07
440.395	1045.11
440.77	1040.37
441.145	1034.72
441.52	1077.88
441.895	1034.94
442.27	1078.11
442.645	1076.07
443.019	1067.71
443.394	1074.27
443.769	1081.27
444.143	1058.22
444.518	1105.68
444.892	1086.69
445.267	1089.63
445.641	1061.16
446.016	1088.73
446.39	1106.58
446.764	1110.87
447.139	1104.32
447.513	1111.78
447.887	1116.07
448.262	1131.89
448.636	1109.97
449.01	1143.64
449.384	1155.62
449.758	1167.14
450.132	1166.01
450.506	1194.04
450.88	1173.7
451.254	1184.32
451.628	1173.92
452.002	1180.7
452.376	1185.9
452.75	1183.87
453.123	1203.08
453.497	1217.31
453.871	1208.73
454.244	1223.64
454.618	1239.01
454.992	1233.36
455.365	1253.02
455.739	1290.53
456.112	1286.01
456.486	1280.36
456.859	1272.23
457.232	1300.7
457.606	1302.28
457.979	1331.66
458.352	1350.19
458.725	1324.2
459.099	1341.6
459.472	1375.5
459.845	1401.26
460.218	1373.24
460.591	1401.71
460.964	1409.17
461.337	1430.64
461.71	1441.49
462.083	1455.72
462.456	1449.62
462.829	1445.33
463.201	1471.32
463.574	1455.27
463.947	1474.26
464.32	1486.23
464.692	1516.06
465.065	1536.4
465.438	1597.42
465.81	1579.34
466.183	1555.38
466.555	1565.78
466.928	1576.17
467.3	1600.35
467.672	1612.1
468.045	1667.47
468.417	1667.7
468.789	1638.32
469.161	1658.88
469.534	1694.36
469.906	1668.6
470.278	1725.1
470.65	1716.06
471.022	1777.3
471.394	1768.26
471.766	1802.61
472.138	1791.08
472.51	1835.83
472.882	1867.69
473.253	1848.26
473.625	1856.17
473.997	1928.03
474.369	1940.23
474.74	1924.86
475.112	1955.6
475.484	1973.45
475.855	1998.76
476.227	2011.64
476.598	2078.53
476.97	2086.67
477.341	2101.58
477.713	2138.64
478.084	2105.65
478.455	2192.65
478.827	2187.91
479.198	2241.92
479.569	2248.7
479.94	2303.84
480.311	2329.15
480.682	2386.55
481.053	2375.93
481.424	2433.55
481.795	2399.88
482.166	2451.63
482.537	2454.79
482.908	2534.11
483.279	2522.82
483.65	2575.02
484.021	2586.77
484.391	2615.02
484.762	2636.94
485.133	2620.67
485.503	2704.05
485.874	2719.42
486.244	2717.16
486.615	2785.18
486.985	2822.02
487.356	2864.27
487.726	2876.25
488.097	2898.62
488.467	2927.32
488.837	2964.39
489.207	2981.79
489.578	3043.93
489.948	3032.41
490.318	3078.05
490.688	3096.36
491.058	3153.31
491.428	3183.81
491.798	3181.33
492.168	3224.04
492.538	3276.24
492.908	3260.87
493.278	3289.8
493.648	3292.96
494.017	3340.65
494.387	3347.43
494.757	3392.62
495.126	3429.46
495.496	3415.67
495.866	3420.64
496.235	3425.62
496.605	3458.16
496.974	3478.27
497.344	3510.36
497.713	3567.31
498.082	3550.36
498.452	3576.8
498.821	3591.26
499.19	3637.59
499.559	3620.64
499.928	3666.29
500.298	3638.04
500.667	3671.94
501.036	3680.75
501.405	3693.63
501.774	3678.49
502.143	3727.08
502.512	3746.96
502.88	3779.96
503.249	3785.83
503.618	3804.14
503.987	3838.49
504.356	3827.87
504.724	3837.13
505.093	3855.89
505.462	3826.51
505.83	3894.3
506.199	3924.59
506.567	3951.03
506.936	3949.22
507.304	3996.22
507.672	3933.85
508.041	4003.91
508.409	3997.13
508.777	4079.16
509.145	4068.54
509.514	3994.41
509.882	4051.14
510.25	4061.98
510.618	4073.51
510.986	4061.98
511.354	4088.88
511.722	4145.15
512.09	4170.46
512.458	4155.77
512.826	4125.03
513.193	4174.07
513.561	4206.39
513.929	4239.15
514.297	4261.07
514.664	4234.18
515.032	4262.66
515.4	4236.44
515.767	4257.91
516.135	4294.07
516.502	4262.43
516.869	4323.67
517.237	4302.2
517.604	4291.81
517.972	4321.64
518.339	4364.35
518.706	4367.29
519.073	4373.61
519.44	4385.14
519.808	4385.59
520.175	4418.36
520.542	4445.93
520.909	4482.76
521.276	4482.54
521.643	4452.71
522.009	4484.57
522.376	4539.71
522.743	4537.45
523.11	4561.18
523.477	4571.35
523.843	4607.51
524.21	4621.06
524.577	4620.16
524.943	4633.72
525.31	4674.62
525.676	4729.76
526.043	4730.44
526.409	4760.27
526.776	4779.93
527.142	4802.53
527.508	4821.06
527.874	4899.02
528.241	4849.53
528.607	4839.36
528.973	4950.77
529.339	4909.19
529.705	4962.52
530.071	4994.16
530.437	5045.01
530.803	5030.09
531.169	5101.96
531.535	5066.02
531.901	5114.84
532.267	5077.1
532.632	5120.26
532.998	5153.25
533.364	5193.25
533.73	5211.78
534.095	5229.64
534.461	5259.24
534.826	5262.63
535.192	5252.46
535.557	5350.54
535.923	5361.84
536.288	5353.02
536.653	5414.26
537.019	5366.81
537.384	5390.99
537.749	5400.25
538.114	5438.44
538.479	5449.97
538.845	5492
539.21	5478.9
539.575	5473.92
539.94	5543.98
540.305	5573.58
540.67	5517.09
541.034	5626.01
541.399	5641.38
541.764	5677.76
542.129	5753.01
542.494	5616.97
542.858	5666.01
543.223	5694.94
543.587	5744.88
543.952	5735.61
544.316	5783.07
544.681	5811.77
545.045	5847.47
545.41	5908.04
545.774	5931.54
546.138	5901.48
546.503	5931.31
546.867	5951.88
547.231	5996.4
547.595	6026
547.959	6016.06
548.324	6005.44
548.688	6078.65
549.052	6050.18
549.416	6092.44
549.779	6174.92
550.143	6088.37
550.507	6144.87
550.871	6244.75
551.235	6141.02
551.599	6226.67
551.962	6223.06
552.326	6258.31
552.689	6315.26
553.053	6221.93
553.417	6230.51
553.78	6372.66
554.143	6352.09
554.507	6293.79
554.87	6423.73
555.234	6461.24
555.597	6438.87
555.96	6440.9
556.323	6501.47
556.686	6442.49
557.05	6491.75
557.413	6504.86
557.776	6543.05
558.139	6569.94
558.502	6610.39
558.865	6558.19
559.228	6660.79
559.59	6655.14
559.953	6687.23
560.316	6756.6
560.679	6691.74
561.041	6755.7
561.404	6752.08
561.767	6811.06
562.129	6794.79
562.492	6843.61
562.854	6792.08
563.217	6796.37
563.579	6878.41
563.941	6870.72
564.304	6924.06
564.666	7022.58
565.028	6945.07
565.39	6978.52
565.753	7020.1
566.115	7035.24
566.477	7097.38
566.839	7081.57
567.201	7140.09
567.563	7143.26
567.925	7168.79
568.287	7239.53
568.648	7213.31
569.01	7284.95
569.372	7282.92
569.734	7259.87
570.095	7402.46
570.457	7394.33
570.819	7413.08
571.18	7400.65
571.542	7493.98
571.903	7485.85
572.265	7519.52
572.626	7585.73
572.987	7576.92
573.349	7642
573.71	7712.96
574.071	7792.06
574.432	7796.8
574.794	7891.71
575.155	7925.61
575.516	7917.7
575.877	8052.16
576.238	8066.17
576.599	8163.34
576.96	8233.85
577.32	8244.7
577.681	8367.63
578.042	8403.79
578.403	8440.63
578.763	8612.6
579.124	8669.55
579.485	8757
579.845	8866.6
580.206	8920.84
580.566	9043.77
580.927	9186.82
581.287	9340.71
581.648	9349.08
582.008	9637.66
582.368	9689.41
582.728	9814.15
583.089	9915.39
583.449	10126
583.809	10290.29
584.169	10419.1
584.529	10590.63
584.889	10863.39
585.249	10975.02
585.609	11136.83
585.969	11341.57
586.329	11452.07
586.688	11757.83
587.048	11967.54
587.408	12191.71
587.768	12383.35
588.127	12602.1
588.487	12817.01
588.846	13157.79
589.206	13328.86
589.565	13525.24
589.925	13870.99
590.284	14004.32
590.643	14351.2
591.003	14675.49
591.362	14968.59
591.721	15170.39
592.08	15413.1
592.44	15806.53
592.799	16021.67
593.158	16309.57
593.517	16561.99
593.876	16803.12
594.235	17052.83
594.593	17415.53
594.952	17815.97
595.311	17995.63
595.67	18365.56
596.029	18694.59
596.387	19076.28
596.746	19259.78
597.104	19563.72
597.463	19791.06
597.822	20152.63
598.18	20347.66
598.538	20653.19
598.897	21071.48
599.255	21221.31
599.613	21711.24
599.972	21867.39
600.33	22056.76
600.688	22403.65
601.046	22670.31
601.404	23053.12
601.762	23346.67
602.12	23668.25
602.478	23838.19
602.836	24249.7
603.194	24219.42
603.552	24609.01
603.91	24861.21
604.268	25272.5
604.625	25303.91
604.983	25786.84
605.341	25814.63
605.698	26298.69
606.056	26514.73
606.413	26659.81
606.771	27000.82
607.128	27226.8
607.485	27353.35
607.843	27572.1
608.2	28036.49
608.557	28289.37
608.914	28380.89
609.272	28645.74
609.629	28972.52
609.986	29003.93
610.343	29284.15
610.7	29721.2
611.057	29645.94
611.414	29901.3
611.771	30127.96
612.127	30455.64
612.484	30525.02
612.841	30888.62
613.198	30879.81
613.554	31049.07
613.911	31422.62
614.267	31562.96
614.624	31673.91
614.98	31828.03
615.337	32128.14
615.693	32213.33
616.05	32316.16
616.406	32644.51
616.762	32608.13
617.118	32826.65
617.475	32920.43
617.831	33225.51
618.187	33217.38
618.543	33418.5
618.899	33687.42
619.255	33675.67
619.611	33850.35
619.967	34215.77
620.323	34294.63
620.678	34252.6
621.034	34365.37
621.39	34415.54
621.746	34522.2
622.101	35008.06
622.457	34783.44
622.812	34995.18
623.168	35069.53
623.523	35212.35
623.879	35330.99
624.234	35182.52
624.589	35451.89
624.945	35511.1
625.3	35606.92
625.655	35607.59
626.01	35716.74
626.365	35795.61
626.72	35853.92
627.075	35916.29
627.43	35921.48
627.785	35897.76
628.14	36122.61
628.495	36157.18
628.85	36236.73
629.205	36111.76
629.559	36353.11
629.914	36257.97
630.269	36365.09
630.623	36318.76
630.978	36309.05
631.332	36513.33
631.687	36695.48
632.041	36527.8
632.396	36658.87
632.75	36682.59
633.104	36709.03
633.459	36708.36
633.813	36621.35
634.167	36535.71
634.521	36618.19
634.875	36805.53
635.229	36758.53
635.583	36554.91
635.937	36677.62
636.291	36627.91
636.645	36686.44
636.999	36701.8
637.352	36756.72
637.706	36553.56
638.06	36775.7
638.413	36617.74
638.767	36640.79
639.121	36846.43
639.474	36580.9
639.828	36636.72
640.181	36550.85
640.534	36679.88
640.888	36536.38
641.241	36473.79
641.594	36587.68
641.947	36795.59
642.301	36573.22
642.654	36600.79
643.007	36649.38
643.36	36528.7
643.713	36571.64
644.066	36634.91
644.419	36436.05
644.771	36282.15
645.124	36091.65
645.477	35976.85
645.83	35755.61
646.182	35654.37
646.535	35580.48
646.888	35608.27
647.24	35341.16
647.593	35655.96
647.945	35531.66
648.298	35415.06
648.65	35329.64
649.002	35417.54
649.355	35555.17
649.707	35507.03
650.059	35471.55
650.411	36027.02
650.763	35973.46
651.115	36363.51
651.467	36208.93
651.819	36247.58
652.171	36200.12
652.523	36195.83
652.875	36140.91
653.227	35978.66
653.578	36175.72
653.93	36111.31
654.282	36101.59
654.633	35987.7
654.985	36093.46
655.337	35951.99
655.688	36023.18
656.039	36176.85
656.391	35849.85
656.742	35876.74
657.094	35948.83
657.445	36013.69
657.796	35967.13
658.147	35819.11
658.498	35897.76
658.849	35847.36
659.2	35871.77
659.551	35833.8
659.902	36156.96
660.253	35942.5
660.604	36040.13
660.955	35772.56
661.306	35961.26
661.656	35725.78
662.007	35867.47
662.358	35845.33
662.708	35816.63
663.059	35826.35
663.409	35651.66
663.76	35865.44
664.11	35893.24
664.461	35843.52
664.811	35891.66
665.161	35844.2
665.511	35755.39
665.862	35762.62
666.212	36010.52
666.562	35801.04
666.912	35866.8
667.262	35770.53
667.612	35718.78
667.962	35855.5
668.312	35678.78
668.662	35993.8
669.011	35720.81
669.361	35768.72
669.711	35693.02
670.06	35717.2
670.41	35615.73
670.76	35591.32
671.109	35631.32
671.459	35646.01
671.808	35516.75
672.157	35790.41
672.507	35366.7
672.856	35454.15
673.205	35463.42
673.554	35481.27
673.904	35560.14
674.253	35632.9
674.602	35476.75
674.951	35054.84
675.3	34936.43
675.649	35459.35
675.998	35386.13
676.346	35414.83
676.695	35614.37
677.044	35246.02
677.393	35341.16
677.741	35500.93
678.09	35298.68
678.438	35272.24
678.787	35321.95
679.135	35387.04
679.484	35038.12
679.832	35138.91
680.181	35035.41
680.529	35091.22
680.877	35028.85
681.225	34955.63
681.573	35181.62
681.922	34976.2
682.27	34885.81
682.618	34840.61
682.966	34676.09
683.314	34806.49
683.661	34662.53
684.009	34443.11
684.357	34602.88
684.705	34390.9
685.053	34480.39
685.4	34332.15
685.748	34356.33
686.095	34279.04
686.443	34258.93
686.79	34118.59
687.138	34192.49
687.485	34253.96
687.832	34129.22
688.18	34011.48
688.527	33880.86
688.874	33797.25
689.221	33775.78
689.568	33757.47
689.915	33724.48
690.262	33696.46
690.609	33632.05
690.956	33371.95
691.303	33497.37
691.65	33178.96
691.997	33268.9
692.344	33062.58
692.69	33253.08
693.037	33055.35
693.383	32886.08
693.73	33097.6
694.077	32609.26
694.423	32875.46
694.769	32716.15
695.116	32673.43
695.462	32656.03
695.808	32504.17
696.155	32494.23
696.501	32278.19
696.847	32195.93
697.193	32052.89
697.539	32150.06
697.885	31872.78
698.231	31939.67
698.577	31844.53
698.923	31856.51
699.269	31616.97
699.614	31559.79
699.96	31492
700.306	31371.77
700.651	31314.6
700.997	31362.06
701.342	31197.77
701.688	31224.89
702.033	31072.35
702.379	30979.92
702.724	31005.23
703.069	31033.03
703.415	30631.45
703.76	30853.6
704.105	30645.92
704.45	30616.54
704.795	30393.04
705.14	30350.56
705.485	30443.89
705.83	30251.13
706.175	30209.77
706.52	30215.65
706.865	30084.58
707.209	30100.85
707.554	30112.37
707.899	30014.3
708.243	29884.13
708.588	29792.38
708.932	29504.25
709.277	29632.38
709.621	29530.47
709.966	29310.36
710.31	29414.31
710.654	29137.26
710.998	29229.46
711.342	29246.41
711.687	29041.21
712.031	29074.89
712.375	28937.94
712.719	29057.48
713.063	28955.11
713.407	28975.45
713.75	28900.65
714.094	28837.6
714.438	28652.98
714.782	28726.87
715.125	28658.85
715.469	28578.85
715.812	28540.89
716.156	28302.93
716.499	28384.96
716.843	28377.5
717.186	28252.08
717.53	28227.9
717.873	28251.63
718.216	28238.75
718.559	28054.35
718.902	27961.92
719.246	27982.26
719.589	27935.03
719.932	27786.11
720.275	27827.91
720.617	27732.1
720.96	27586.11
721.303	27709.05
721.646	27688.71
721.989	27614.36
722.331	27604.42
722.674	27518.54
723.016	27568.48
723.359	27479.22
723.701	27489.16
724.044	27258.44
724.386	27104.09
724.729	27338.21
725.071	27132.11
725.413	27210.75
725.755	27172.34
726.097	27040.59
726.439	26993.58
726.782	26945.45
727.124	27100.25
727.465	26857.99
727.807	26924.21
728.149	26754.95
728.491	26615.06
728.833	26819.58
729.175	26702.97
729.516	26567.15
729.858	26613.26
730.199	26660.71
730.541	26589.75
730.882	26545.23
731.224	26614.38
731.565	26319.25
731.906	26449.87
732.248	26411
732.589	26401.28
732.93	26137.56
733.271	26212.59
733.612	26209.65
733.953	26243.1
734.294	26105.47
734.635	26144.34
734.976	26077.45
735.317	26039.03
735.658	25991.12
735.999	25894.18
736.339	26007.62
736.68	26006.94
737.021	25864.12
737.361	25745.48
737.702	25962.88
738.042	25755.65
738.383	25736.89
738.723	25749.1
739.063	25594.98
739.404	25672.04
739.744	25655.77
740.084	25520.4
740.424	25439.73
740.764	25465.49
741.104	25523.34
741.444	25249.22
741.784	25311.82
742.124	25322.44
742.464	25363.57
742.804	25238.6
743.143	25145.05
743.483	25170.58
743.823	25109.57
744.162	25060.53
744.502	25031.83
744.841	25001.77
745.181	25120.41
745.52	25061.88
745.86	24920.87
746.199	24822.34
746.538	24893.53
746.877	24781.44
747.216	24867.31
747.556	24777.6
747.895	24770.37
748.234	24643.82
748.573	24669.8
748.911	24605.17
749.25	24588.68
749.589	24551.84
749.928	24468.9
750.267	24529.92
750.605	24420.77
750.944	24399.75
751.283	24329.47
751.621	24355.91
751.96	24190.95
752.298	24231.4
752.636	24216.48
752.975	24083.15
753.313	23947.79
753.651	24253.54
753.989	23953.44
754.327	24045.64
754.666	23880.67
755.004	23813.33
755.342	23814.23
755.679	23732.88
756.017	23692.2
756.355	23702.6
756.693	23546.44
757.031	23707.34
757.368	23483.39
757.706	23420.34
758.044	23398.2
758.381	23363.4
758.719	23230.75
759.056	23241.59
759.394	23122.5
759.731	23002.28
760.068	23008.83
