Data from hue_180_FLMS001491_00096.txt Node
Date: Tue Feb 07 16:47:44 GMT 2017
User: dcchb
Spectrometer: FLMS00149
Trigger mode: 0
Integration Time (sec): 2.000000E-2
Scans to average: 10
Electric dark correction enabled: true
Nonlinearity correction enabled: false
Boxcar width: 0
XAxis mode: Wavelengths
Number of Pixels in Spectrum: 2048
>>>>>Begin Spectral Data<<<<<
341.393	-19.02
341.776	-19.02
342.16	-19.02
342.543	-50.44
342.927	-74.16
343.31	-75.29
343.693	-73.49
344.077	-62.19
344.46	-58.12
344.843	-49.76
345.226	-38.23
345.61	-18.57
345.993	-32.36
346.376	-10.21
346.759	10.8
347.142	15.78
347.525	47.87
347.908	64.59
348.291	91.93
348.674	85.61
349.057	101.65
349.44	121.76
349.823	155.21
350.206	150.69
350.588	197.24
350.971	210.12
351.354	227.52
351.737	221.19
352.119	242.89
352.502	266.17
352.884	267.3
353.267	263.91
353.65	303.9
354.032	291.48
354.414	324.02
354.797	329.67
355.179	323.79
355.562	341.64
355.944	328.54
356.326	335.09
356.709	331.7
357.091	351.13
357.473	332.83
357.855	333.28
358.238	339.16
358.62	344.81
359.002	349.1
359.384	346.16
359.766	340.51
360.148	339.16
360.53	350.23
360.912	357.01
361.294	348.65
361.676	322.66
362.057	334.41
362.439	346.16
362.821	320.63
363.203	321.08
363.584	338.03
363.966	327.41
364.348	312.27
364.729	318.37
365.111	323.34
365.493	329.67
365.874	298.48
366.256	321.31
366.637	332.6
367.019	333.06
367.4	309.78
367.781	330.34
368.163	305.94
368.544	332.38
368.925	322.89
369.306	310.46
369.688	307.07
370.069	331.47
370.45	318.82
370.831	326.73
371.212	335.32
371.593	312.72
371.974	310.23
372.355	297.12
372.736	317.24
373.117	293.28
373.498	308.42
373.879	293.74
374.26	307.97
374.641	323.11
375.021	329.44
375.402	326.28
375.783	316.33
376.163	322.44
376.544	328.76
376.925	314.3
377.305	335.77
377.686	315.2
378.066	318.82
378.447	325.15
378.827	338.03
379.208	347.07
379.588	334.86
379.968	310.91
380.349	330.8
380.729	341.19
381.109	327.86
381.489	330.34
381.87	331.02
382.25	327.86
382.63	337.58
383.01	350.68
383.39	326.95
383.77	321.76
384.15	335.99
384.53	330.8
384.91	349.33
385.29	328.54
385.67	343.45
386.049	337.8
386.429	355.43
386.809	375.99
387.189	336.67
387.568	332.15
387.948	351.59
388.328	345.49
388.707	345.03
389.087	357.24
389.466	382.32
389.846	361.76
390.225	341.64
390.605	370.34
390.984	388.42
391.363	359.27
391.743	381.19
392.122	360.85
392.501	377.8
392.881	366.05
393.26	355.88
393.639	366.95
394.018	380.74
394.397	371.02
394.776	394.52
395.155	377.57
395.534	386.84
395.913	394.07
396.292	387.97
396.671	390.46
397.05	395.88
397.429	421.19
397.808	386.39
398.186	369.89
398.565	391.81
398.944	401.3
399.323	398.82
399.701	386.61
400.08	400.63
400.458	418.7
400.837	400.63
401.215	418.93
401.594	424.58
401.972	403.34
402.351	422.55
402.729	420.29
403.107	420.96
403.486	413.28
403.864	417.35
404.242	419.16
404.62	431.81
404.999	433.17
405.377	438.14
405.755	440.17
406.133	449.89
406.511	457.35
406.889	432.71
407.267	459.38
407.645	470.68
408.023	462.77
408.401	457.35
408.779	461.64
409.156	472.04
409.534	487.63
409.912	495.54
410.29	504.13
410.667	516.33
411.045	494.86
411.422	537.57
411.8	519.72
412.178	519.72
412.555	542.54
412.933	537.12
413.31	565.14
413.687	562.43
414.065	559.04
414.442	558.81
414.819	577.12
415.197	587.06
415.574	599.49
415.951	609.21
416.328	600.17
416.705	629.09
417.082	614.86
417.46	617.34
417.837	605.37
418.214	654.18
418.591	646.49
418.967	637.68
419.344	670.22
419.721	663.67
420.098	670.67
420.475	685.36
420.852	694.4
421.228	706.83
421.605	711.35
421.982	729.2
422.358	730.33
422.735	725.59
423.111	752.48
423.488	749.09
423.864	768.07
424.241	787.06
424.617	790.67
424.994	786.38
425.37	796.77
425.746	814.17
426.123	843.33
426.499	867.96
426.875	828.41
427.251	842.42
427.627	876.32
428.003	857.56
428.379	882.87
428.756	886.26
429.132	887.39
429.507	914.06
429.883	935.98
430.259	931.23
430.635	908.63
431.011	946.83
431.387	967.16
431.763	989.31
432.138	978.69
432.514	1023.21
432.89	985.47
433.265	1031.34
433.641	1047.16
434.016	1056.88
434.392	1107.05
434.767	1097.33
435.143	1124.45
435.518	1123.32
435.894	1126.26
436.269	1140.27
436.644	1194.05
437.02	1184.79
437.395	1212.36
437.77	1205.12
438.145	1228.63
438.52	1243.09
438.895	1288.74
439.271	1294.61
439.646	1339.13
440.021	1327.38
440.395	1325.57
440.77	1344.78
441.145	1336.87
441.52	1380.26
441.895	1378.23
442.27	1405.8
442.645	1414.61
443.019	1430.2
443.394	1434.95
443.769	1448.28
444.143	1443.31
444.518	1475.85
444.892	1458.9
445.267	1500.48
445.641	1527.6
446.016	1538.45
446.39	1529.63
446.764	1570.76
447.139	1551.78
447.513	1595.62
447.887	1573.7
448.262	1587.71
448.636	1616.64
449.01	1624.32
449.384	1648.5
449.758	1644.43
450.132	1704.09
450.506	1716.52
450.88	1700.93
451.254	1700.93
451.628	1741.83
452.002	1746.35
452.376	1747.03
452.75	1787.48
453.123	1765.79
453.497	1779.35
453.871	1828.61
454.244	1852.34
454.618	1904.99
454.992	1906.35
455.365	1884.2
455.739	1933.69
456.112	1996.74
456.486	1979.11
456.859	2021.15
457.232	2058.43
457.606	2069.06
457.979	2063.18
458.352	2096.63
458.725	2137.75
459.099	2165.1
459.472	2186.34
459.845	2233.35
460.218	2239.9
460.591	2292.1
460.964	2279.45
461.337	2324.64
461.71	2335.26
462.083	2401.48
462.456	2442.83
462.829	2410.52
463.201	2479.21
463.574	2454.58
463.947	2528.7
464.32	2606.67
464.692	2611.19
465.065	2596.05
465.438	2631.75
465.81	2695.25
466.183	2716.04
466.555	2783.61
466.928	2817.28
467.3	2831.52
467.672	2862.26
468.045	2940.9
468.417	2939.09
468.789	2961.01
469.161	3025.64
469.534	3091.4
469.906	3166.88
470.278	3167.56
470.65	3224.73
471.022	3263.6
471.394	3318.51
471.766	3388.12
472.138	3415.01
472.51	3511.5
472.882	3577.26
473.253	3609.58
473.625	3674.89
473.997	3783.13
474.369	3782.91
474.74	3817.48
475.112	3893.41
475.484	3952.85
475.855	4066.97
476.227	4118.27
476.598	4239.17
476.97	4231.26
477.341	4361.88
477.713	4414.53
478.084	4486.62
478.455	4649.55
478.827	4625.6
479.198	4772.94
479.569	4787.85
479.94	4931.35
480.311	5023.33
480.682	5144
481.053	5304.22
481.424	5334.96
481.795	5412.24
482.166	5499.47
482.537	5635.06
482.908	5704.21
483.279	5791.67
483.65	5934.49
484.021	6083.19
484.391	6158.89
484.762	6214.94
485.133	6294.03
485.503	6395.04
485.874	6430.75
486.244	6551.88
486.615	6712.1
486.985	6831.64
487.356	7019.89
487.726	7047.23
488.097	7197.51
488.467	7217.17
488.837	7356.37
489.207	7469.37
489.578	7576.26
489.948	7724.95
490.318	7817.38
490.688	7849.47
491.058	7934.44
491.428	8100.99
491.798	8178.73
492.168	8362.68
492.538	8348.21
492.908	8493.29
493.278	8505.95
493.648	8632.95
494.017	8667.3
494.387	8861.19
494.757	8800.18
495.126	8940.97
495.496	9014.41
495.866	9031.58
496.235	9216.89
496.605	9256.66
496.974	9322.88
497.344	9423.89
497.713	9438.35
498.082	9473.61
498.452	9624.34
498.821	9644
499.19	9634.05
499.559	9782.75
499.928	9775.52
500.298	9771
500.667	9900.94
501.036	9939.81
501.405	10075.4
501.774	9977.77
502.143	10092.57
502.512	10116.98
502.88	10234.49
503.249	10193.59
503.618	10250.76
503.987	10272
504.356	10343.19
504.724	10337.54
505.093	10421.38
505.462	10385
505.83	10467.25
506.199	10537.53
506.567	10622.5
506.936	10526.91
507.304	10730.75
507.672	10773.91
508.041	10736.17
508.409	10790.41
508.777	10859.79
509.145	10894.59
509.514	10857.53
509.882	10901.14
510.25	10922.83
510.618	11015.94
510.986	10987.92
511.354	11043.74
511.722	11100.91
512.09	11132.55
512.458	11074.69
512.826	11200.79
513.193	11175.26
513.561	11176.16
513.929	11243.73
514.297	11297.97
514.664	11359.66
515.032	11307.46
515.4	11447.79
515.767	11366.21
516.135	11401.92
516.502	11322.37
516.869	11480.11
517.237	11510.16
517.604	11422.93
517.972	11496.6
518.339	11521.01
518.706	11441.92
519.073	11464.29
519.44	11513.33
519.808	11611.63
520.175	11576.83
520.542	11618.18
520.909	11667.67
521.276	11618.18
521.643	11707.22
522.009	11701.12
522.376	11700.44
522.743	11736.37
523.11	11797.84
523.477	11828.35
523.843	11796.26
524.21	11796.03
524.577	11830.61
524.943	11869.25
525.31	11886.65
525.676	11876.26
526.043	11901.57
526.409	11868.35
526.776	11982.69
527.142	11922.81
527.508	11965.07
527.874	11919.19
528.241	11972.75
528.607	11940.66
528.973	11951.51
529.339	11914.67
529.705	11972.75
530.071	11947.89
530.437	12006.2
530.803	11944.05
531.169	12031.96
531.535	11871.96
531.901	11931.85
532.267	11863.37
532.632	11808.23
532.998	11847.33
533.364	11867.67
533.73	11855.69
534.095	11796.71
534.461	11802.59
534.826	11840.55
535.192	11768.91
535.557	11722.36
535.923	11727.56
536.288	11636.26
536.653	11640.1
537.019	11560.33
537.384	11596.94
537.749	11509.03
538.114	11501.8
538.479	11444.63
538.845	11483.05
539.21	11326.44
539.575	11362.14
539.94	11239.21
540.305	11329.6
540.67	11250.51
541.034	11241.92
541.399	11201.92
541.764	11142.94
542.129	11085.09
542.494	11102.72
542.858	10985.43
543.223	10993.11
543.587	11039.67
543.952	10934.13
544.316	10888.71
544.681	10902.5
545.045	10911.54
545.41	10838.77
545.774	10728.49
546.138	10755.38
546.503	10684.65
546.867	10693.91
547.231	10655.27
547.595	10611.2
547.959	10599
548.324	10539.57
548.688	10485.78
549.052	10450.08
549.416	10373.47
549.779	10348.84
550.143	10337.09
550.507	10313.81
550.871	10242.85
551.235	10227.49
551.599	10240.59
551.962	10193.14
552.326	10188.39
552.689	10184.55
553.053	10053.25
553.417	9959.02
553.78	10112.46
554.143	9962.63
554.507	9980.49
554.87	9972.58
555.234	9989.75
555.597	9882.18
555.96	9896.87
556.323	9852.13
556.686	9851
557.05	9871.79
557.413	9860.49
557.776	9737.33
558.139	9811.9
558.502	9796.54
558.865	9775.07
559.228	9756.54
559.59	9662.3
559.953	9724.22
560.316	9804.45
560.679	9703.43
561.041	9648.07
561.404	9792.24
561.767	9708.63
562.129	9734.84
562.492	9683.77
562.854	9681.06
563.217	9676.77
563.579	9660.72
563.941	9696.43
564.304	9633.6
564.666	9677.22
565.028	9593.38
565.39	9664.79
565.753	9712.7
566.115	9714.05
566.477	9678.8
566.839	9655.3
567.201	9803.99
567.563	9689.87
567.925	9716.76
568.287	9644.68
568.648	9690.32
569.01	9742.53
569.372	9718.35
569.734	9668.86
570.095	9728.29
570.457	9708.4
570.819	9646.94
571.18	9756.54
571.542	9666.82
571.903	9702.53
572.265	9744.79
572.626	9714.05
572.987	9693.49
573.349	9711.57
573.71	9733.04
574.071	9667.73
574.432	9725.13
574.794	9775.29
575.155	9779.81
575.516	9742.07
575.877	9756.31
576.238	9734.39
576.599	9794.28
576.96	9749.53
577.32	9714.28
577.681	9741.62
578.042	9782.75
578.403	9796.99
578.763	9768.29
579.124	9741.17
579.485	9749.08
579.845	9782.98
580.206	9734.62
580.566	9709.08
580.927	9729.65
581.287	9752.02
581.648	9609.87
582.008	9767.16
582.368	9739.59
582.728	9697.33
583.089	9761.73
583.449	9718.57
583.809	9721.06
584.169	9691.45
584.529	9674.73
584.889	9674.96
585.249	9592.02
585.609	9609.65
585.969	9644
586.329	9599.03
586.688	9625.69
587.048	9593.15
587.408	9530.78
587.768	9574.85
588.127	9542.31
588.487	9554.51
588.846	9615.3
589.206	9461.4
589.565	9580.27
589.925	9552.93
590.284	9455.08
590.643	9520.61
591.003	9514.06
591.362	9469.54
591.721	9441.97
592.08	9432.93
592.44	9506.37
592.799	9468.86
593.158	9452.59
593.517	9439.94
593.876	9419.37
594.235	9424.34
594.593	9434.74
594.952	9422.99
595.311	9397
595.67	9382.31
596.029	9449.2
596.387	9372.82
596.746	9423.89
597.104	9307.06
597.463	9442.65
597.822	9434.96
598.18	9373.95
598.538	9375.3
598.897	9463.89
599.255	9294.85
599.613	9438.13
599.972	9416.21
600.33	9324.91
600.688	9386.38
601.046	9358.81
601.404	9369.88
601.762	9328.53
602.12	9397.22
602.478	9383.67
602.836	9420.5
603.194	9331.24
603.552	9393.83
603.91	9321.07
604.268	9337.57
604.625	9318.36
604.983	9286.95
605.341	9274.74
605.698	9306.83
606.056	9303.44
606.413	9335.53
606.771	9303.89
607.128	9348.64
607.485	9293.05
607.843	9300.5
608.2	9385.93
608.557	9391.35
608.914	9298.47
609.272	9437.9
609.629	9406.04
609.986	9429.09
610.343	9386.38
610.7	9440.61
611.057	9322.88
611.414	9369.65
611.771	9459.82
612.127	9460.27
612.484	9434.51
612.841	9416.66
613.198	9348.19
613.554	9392.71
613.911	9451.01
614.267	9445.58
614.624	9455.53
614.98	9443.55
615.337	9506.37
615.693	9413.5
616.05	9389.54
616.406	9465.47
616.762	9393.61
617.118	9461.18
617.475	9434.74
617.831	9498.24
618.187	9453.04
618.543	9507.05
618.899	9514.51
619.255	9580.04
619.611	9511.12
619.967	9535.75
620.323	9544.57
620.678	9481.29
621.034	9533.94
621.39	9460.95
621.746	9471.57
622.101	9542.76
622.457	9530.78
622.812	9563.55
623.168	9534.17
623.523	9542.08
623.879	9594.28
624.234	9508.86
624.589	9520.84
624.945	9543.66
625.3	9503.21
625.655	9495.3
626.01	9425.47
626.365	9542.98
626.72	9516.77
627.075	9505.92
627.43	9559.71
627.785	9468.86
628.14	9471.35
628.495	9545.7
628.85	9513.61
629.205	9459.37
629.559	9486.26
629.914	9463.21
630.269	9463.21
630.623	9427.05
630.978	9415.98
631.332	9428.64
631.687	9450.78
632.041	9398.81
632.396	9456.21
632.75	9404.68
633.104	9408.07
633.459	9385.93
633.813	9389.54
634.167	9381.63
634.521	9333.5
634.875	9326.94
635.229	9340.95
635.583	9282.2
635.937	9319.49
636.291	9225.25
636.645	9267.28
636.999	9305.93
637.352	9220.96
637.706	9161.75
638.06	9198.36
638.413	9223.9
638.767	9196.1
639.121	9182.99
639.474	9077.69
639.828	9163.78
640.181	9220.73
640.534	9150.68
640.888	9097.57
641.241	9117.46
641.594	9134.63
641.947	9145.03
642.301	9102.32
642.654	9191.58
643.007	9153.39
643.36	9192.94
643.713	9057.35
644.066	9103.67
644.419	9062.54
644.771	8954.98
645.124	8968.76
645.477	8966.5
645.83	8890.8
646.182	8853.96
646.535	8840.63
646.888	8779.61
647.24	8735.1
647.593	8783.46
647.945	8801.99
648.298	8764.47
648.65	8724.25
649.002	8709.33
649.355	8799.73
649.707	8780.07
650.059	8823.23
650.411	8915.66
650.763	8919.95
651.115	9040.62
651.467	8921.08
651.819	8935.54
652.171	8958.82
652.523	8996.33
652.875	8906.39
653.227	8900.06
653.578	8966.73
653.93	8971.7
654.282	8905.94
654.633	8966.73
654.985	8913.85
655.337	8921.76
655.688	8924.92
656.039	9035.43
656.391	8903.9
656.742	9019.16
657.094	8960.4
657.445	8963.34
657.796	8983.9
658.147	8922.66
658.498	8914.07
658.849	8935.99
659.2	9005.14
659.551	8954.75
659.902	8982.55
660.253	9051.02
660.604	9021.19
660.955	8954.07
661.306	9031.13
661.656	9018.48
662.007	9048.99
662.358	8997.46
662.708	9105.93
663.059	9048.08
663.409	8915.88
663.76	9079.72
664.11	8984.13
664.461	9122.88
664.811	9093.73
665.161	9061.87
665.511	9003.34
665.862	9027.97
666.212	9024.13
666.562	9101.41
666.912	9090.79
667.262	9016.9
667.612	9045.37
667.962	9067.29
668.312	9032.71
668.662	9079.72
669.011	9027.29
669.361	9025.03
669.711	8990.68
670.06	8968.76
670.41	9029.78
670.76	9026.84
671.109	9011.7
671.459	8997.46
671.808	9004.01
672.157	9027.74
672.507	8888.54
672.856	8956.33
673.205	8943
673.554	8942.55
673.904	9045.14
674.253	8973.51
674.602	8900.74
674.951	8861.87
675.3	8789.11
675.649	8919.27
675.998	8898.48
676.346	8911.14
676.695	8879.72
677.044	8903
677.393	8870.91
677.741	8852.15
678.09	8819.61
678.438	8807.64
678.787	8799.95
679.135	8856.67
679.484	8806.05
679.832	8824.58
680.181	8750.69
680.529	8837.24
680.877	8759.05
681.225	8726.51
681.573	8688.09
681.922	8758.15
682.27	8664.59
682.618	8668.66
682.966	8608.77
683.314	8655.78
683.661	8669.79
684.009	8597.92
684.357	8591.37
684.705	8585.27
685.053	8570.35
685.4	8626.85
685.748	8591.37
686.095	8435.67
686.443	8423.69
686.79	8438.38
687.138	8447.65
687.485	8514.54
687.832	8422.79
688.18	8441.09
688.527	8395.9
688.874	8300.3
689.221	8284.71
689.568	8364.26
689.915	8294.65
690.262	8279.29
690.609	8233.41
690.956	8231.15
691.303	8219.85
691.65	8161.32
691.997	8131.27
692.344	8056.02
692.69	8118.39
693.037	8030.03
693.383	7988.9
693.73	8005.85
694.077	7973.99
694.423	7943.25
694.769	7893.99
695.116	7858.06
695.462	7859.19
695.808	7894.44
696.155	7831.16
696.501	7780.77
696.847	7857.6
697.193	7729.7
697.539	7701
697.885	7637.04
698.231	7605.63
698.577	7630.04
698.923	7628.23
699.269	7590.72
699.614	7477.05
699.96	7469.14
700.306	7427.78
700.651	7407.45
700.997	7432.08
701.342	7406.54
701.688	7359.09
702.033	7354.11
702.379	7303.72
702.724	7251.29
703.069	7280.44
703.415	7209.94
703.76	7188.47
704.105	7184.4
704.45	7196.15
704.795	7172.2
705.14	7062.37
705.485	7064.86
705.83	7026.21
706.175	7067.57
706.52	7006.78
706.865	7028.25
707.209	6973.79
707.554	6941.02
707.899	6957.97
708.243	6927.91
708.588	6919.78
708.932	6838.42
709.277	6868.25
709.621	6862.6
709.966	6783.51
710.31	6794.36
710.654	6710.52
710.998	6748.25
711.342	6786.9
711.687	6745.99
712.031	6746.9
712.375	6668.48
712.719	6663.96
713.063	6693.11
713.407	6667.58
713.75	6642.49
714.094	6697.63
714.438	6625.77
714.782	6588.71
715.125	6584.64
715.469	6544.42
715.812	6572.44
716.156	6619.22
716.499	6538.54
716.843	6541.48
717.186	6481.14
717.53	6541.25
717.873	6544.42
718.216	6447.25
718.559	6479.56
718.902	6438.21
719.246	6447.7
719.589	6397.76
719.932	6424.87
720.275	6428.26
720.617	6493.12
720.96	6382.84
721.303	6417.42
721.646	6409.96
721.989	6383.97
722.331	6387.81
722.674	6460.13
723.016	6387.81
723.359	6348.04
723.701	6325.67
724.044	6359.34
724.386	6339.68
724.729	6385.78
725.071	6278.89
725.413	6327.47
725.755	6328.6
726.097	6306.23
726.439	6274.82
726.782	6276.18
727.124	6315.05
727.465	6303.97
727.807	6299.23
728.149	6315.95
728.491	6215.61
728.833	6286.12
729.175	6218.78
729.516	6270.98
729.858	6256.52
730.199	6300.13
730.541	6259.23
730.882	6258.1
731.224	6285.89
731.565	6198.44
731.906	6262.84
732.248	6265.33
732.589	6238.21
732.93	6277.53
733.271	6229.4
733.612	6278.21
733.953	6263.75
734.294	6233.69
734.635	6258.32
734.976	6272.79
735.317	6251.77
735.658	6234.6
735.999	6369.96
736.339	6273.01
736.68	6322.73
737.021	6277.31
737.361	6253.35
737.702	6322.28
738.042	6290.64
738.383	6296.74
738.723	6299.9
739.063	6350.07
739.404	6316.63
739.744	6341.49
740.084	6329.96
740.424	6329.28
740.764	6330.19
741.104	6412.9
741.444	6401.6
741.784	6375.84
742.124	6400.92
742.464	6459.67
742.804	6451.54
743.143	6459.45
743.483	6533.8
743.823	6478.21
744.162	6494.93
744.502	6532.89
744.841	6533.12
745.181	6629.61
745.52	6637.98
745.86	6669.39
746.199	6661.03
746.538	6760.46
746.877	6769.27
747.216	6819.89
747.556	6834.58
747.895	6880.45
748.234	6915.71
748.573	6934.01
748.911	6981.69
749.25	7073.44
749.589	7044.29
749.928	7169.49
750.267	7304.62
750.605	7299.2
750.944	7361.35
751.283	7474.79
751.621	7557.73
751.96	7603.6
752.298	7721.79
752.636	7763.14
752.975	7814.44
753.313	7894.89
753.651	8081.1
753.989	8113.87
754.327	8216.46
754.666	8305.28
755.004	8401.32
755.342	8573.52
755.679	8682.89
756.017	8724.93
756.355	8898.03
756.693	9009.66
757.031	9142.99
757.368	9266.61
757.706	9370.56
758.044	9514.06
758.381	9684.22
758.719	9831.56
759.056	10001.28
759.394	10140.48
759.731	10148.84
760.068	10418.21
760.405	10587.25
760.743	10693.69
761.08	10901.37
761.417	11000.35
761.754	11099.78
762.091	11291.64
762.428	11387
762.765	11528.02
763.102	11833.32
763.438	11904.05
763.775	11990.38
764.112	12259.75
764.449	12467.2
764.785	12500.42
765.122	12687.99
765.458	12788.55
765.795	12940.86
766.131	13116.22
