Data from hue_230_FLMS001491_00001.txt Node
Date: Tue Feb 07 16:36:42 GMT 2017
User: dcchb
Spectrometer: FLMS00149
Trigger mode: 0
Integration Time (sec): 2.000000E-2
Scans to average: 10
Electric dark correction enabled: true
Nonlinearity correction enabled: false
Boxcar width: 0
XAxis mode: Wavelengths
Number of Pixels in Spectrum: 2048
>>>>>Begin Spectral Data<<<<<
341.393	-0.03
341.776	-0.03
342.16	-0.03
342.543	-54.72
342.927	-68.28
343.31	-80.7
343.693	-60.59
344.077	-63.76
344.46	-49.52
344.843	-42.74
345.226	-58.33
345.61	-16.98
345.993	-23.76
346.376	-8.62
346.759	26.19
347.142	33.19
347.525	37.94
347.908	74.09
348.291	63.7
348.674	69.57
349.057	100.31
349.44	120.19
349.823	126.07
350.206	162.45
350.588	183.7
350.971	202
351.354	204.71
351.737	207.42
352.119	233.64
352.502	233.64
352.884	240.42
353.267	286.74
353.65	260.76
354.032	290.13
354.414	309.12
354.797	291.49
355.179	321.09
355.562	317.7
355.944	329.45
356.326	337.59
356.709	314.31
357.091	328.1
357.473	319.96
357.855	331.26
358.238	345.27
358.62	312.05
359.002	317.93
359.384	352.96
359.766	344.6
360.148	312.51
360.53	307.31
360.912	328.1
361.294	333.07
361.676	327.42
362.057	317.25
362.439	314.09
362.821	324.71
363.203	324.48
363.584	325.16
363.966	305.5
364.348	315.9
364.729	316.12
365.111	314.31
365.493	308.21
365.874	293.3
366.256	315.22
366.637	294.65
367.019	305.73
367.4	295.33
367.781	296.46
368.163	312.28
368.544	312.73
368.925	323.13
369.306	326.06
369.688	307.08
370.069	322.9
370.45	306.86
370.831	321.77
371.212	310.02
371.593	319.51
371.974	304.37
372.355	305.73
372.736	291.04
373.117	284.71
373.498	308.44
373.879	315.9
374.26	322.45
374.641	307.31
375.021	322.68
375.402	311.6
375.783	320.42
376.163	333.07
376.544	326.06
376.925	314.77
377.305	333.97
377.686	325.61
378.066	339.17
378.447	331.49
378.827	325.16
379.208	325.16
379.588	326.97
379.968	301.88
380.349	322.45
380.729	336.01
381.109	328.55
381.489	327.87
381.87	355.22
382.25	334.88
382.63	343.24
383.01	314.31
383.39	319.96
383.77	347.53
384.15	325.84
384.53	351.15
384.91	363.35
385.29	362.67
385.67	358.38
386.049	356.57
386.429	364.71
386.809	353.18
387.189	328.55
387.568	339.85
387.948	360.19
388.328	357.25
388.707	355.67
389.087	364.71
389.466	359.28
389.846	357.02
390.225	339.62
390.605	352.05
390.984	343.47
391.363	363.13
391.743	372.84
392.122	371.71
392.501	366.29
392.881	379.62
393.26	382.33
393.639	373.07
394.018	366.97
394.397	371.04
394.776	385.72
395.155	402.9
395.534	397.7
395.913	364.26
396.292	384.82
396.671	364.93
397.05	383.69
397.429	373.3
397.808	386.18
398.186	410.36
398.565	374.88
398.944	413.97
399.323	385.95
399.701	412.16
400.08	403.12
400.458	411.03
400.837	407.19
401.215	413.52
401.594	408.32
401.972	431.15
402.351	439.73
402.729	414.42
403.107	425.72
403.486	398.38
403.864	432.05
404.242	429.11
404.62	446.97
404.999	430.02
405.377	437.47
405.755	458.49
406.133	443.8
406.511	452.39
406.889	476.12
407.267	474.31
407.645	477.25
408.023	462.11
408.401	477.25
408.779	478.83
409.156	512.05
409.534	494.87
409.912	505.72
410.29	505.27
410.667	525.16
411.045	526.29
411.422	526.51
411.8	539.84
412.178	537.36
412.555	536.68
412.933	545.72
413.31	563.35
413.687	558.83
414.065	579.62
414.442	563.35
414.819	598.83
415.197	606.96
415.574	599.05
415.951	603.35
416.328	621.88
416.705	630.24
417.082	637.47
417.46	643.8
417.837	654.42
418.214	649.67
418.591	659.84
418.967	662.1
419.344	667.3
419.721	653.51
420.098	670.46
420.475	711.14
420.852	698.94
421.228	709.56
421.605	705.26
421.982	724.92
422.358	732.16
422.735	765.6
423.111	756.79
423.488	771.7
423.864	785.49
424.241	796.79
424.617	808.99
424.994	789.56
425.37	822.32
425.746	821.87
426.123	861.19
426.499	848.76
426.875	874.75
427.251	876.33
427.627	902.09
428.003	888.54
428.379	910.91
428.756	939.61
429.132	952.04
429.507	946.61
429.883	956.33
430.259	975.09
430.635	972.15
431.011	976.9
431.387	994.52
431.763	1028.42
432.138	1005.6
432.514	1037.46
432.89	1044.69
433.265	1091.02
433.641	1090.34
434.016	1110.68
434.392	1121.98
434.767	1148.64
435.143	1134.86
435.518	1149.55
435.894	1161.07
436.269	1217.79
436.644	1222.31
437.02	1231.13
437.395	1247.17
437.77	1280.84
438.145	1300.28
438.52	1317.45
438.895	1317.68
439.271	1336.21
439.646	1370.33
440.021	1377.34
440.395	1398.13
440.77	1388.86
441.145	1406.94
441.52	1446.26
441.895	1434.06
442.27	1466.6
442.645	1470.89
443.019	1476.09
443.394	1497.56
443.769	1506.37
444.143	1518.8
444.518	1555.41
444.892	1556.54
445.267	1539.37
445.641	1573.72
446.016	1563.55
446.39	1593.15
446.764	1616.43
447.139	1596.09
447.513	1623.66
447.887	1625.24
448.262	1642.41
448.636	1640.61
449.01	1690.32
449.384	1679.25
449.758	1712.24
450.132	1700.27
450.506	1748.63
450.88	1739.36
451.254	1735.52
451.628	1754.28
452.002	1784.56
452.376	1832.01
452.75	1841.73
453.123	1843.99
453.497	1854.61
453.871	1866.82
454.244	1894.39
454.618	1909.98
454.992	1945.91
455.365	1969.19
455.739	1993.37
456.112	1973.03
456.486	2024.1
456.859	2013.7
457.232	2057.77
457.606	2064.78
457.979	2084.21
458.352	2136.86
458.725	2167.82
459.099	2192
459.472	2158.56
459.845	2199.46
460.218	2223.19
460.591	2277.65
460.964	2245.56
461.337	2287.6
461.71	2308.61
462.083	2363.07
462.456	2370.3
462.829	2376.63
463.201	2405.78
463.574	2458.44
463.947	2437.2
464.32	2507.93
464.692	2537.98
465.065	2498.44
465.438	2568.72
465.81	2620.47
466.183	2636.74
466.555	2700.01
466.928	2701.82
467.3	2726.91
467.672	2705.44
468.045	2775.94
468.417	2802.16
468.789	2809.62
469.161	2873.12
469.534	2865.21
469.906	2977.29
470.278	2950.85
470.65	2994.7
471.022	2998.09
471.394	3061.81
471.766	3108.59
472.138	3160.57
472.51	3192.2
472.882	3263.16
473.253	3284.18
473.625	3308.59
473.997	3385.87
474.369	3373.44
474.74	3423.38
475.112	3439.43
475.484	3528.24
475.855	3560.56
476.227	3601.23
476.598	3717.16
476.97	3722.13
477.341	3781.12
477.713	3849.59
478.084	3836.26
478.455	3914.9
478.827	3982.47
479.198	4069.02
479.569	4057.49
479.94	4153.99
480.311	4161.9
480.682	4278.05
481.053	4346.98
481.424	4432.62
481.795	4493.64
482.166	4537.03
482.537	4543.36
482.908	4662
483.279	4685.27
483.65	4782.44
484.021	4826.74
484.391	4879.84
484.762	4925.04
485.133	5004.81
485.503	5028.54
485.874	5141.53
486.244	5106.5
486.615	5237.8
486.985	5258.14
487.356	5424.91
487.726	5410.22
488.097	5485.25
488.467	5450.9
488.837	5603.44
489.207	5618.81
489.578	5735.87
489.948	5740.84
490.318	5809.76
490.688	5828.52
491.058	5948.52
491.428	5985.35
491.798	6055.86
492.168	6095.86
492.538	6141.05
492.908	6212.46
493.278	6232.58
493.648	6266.02
494.017	6374.49
494.387	6415.62
494.757	6431.44
495.126	6489.74
495.496	6467.37
495.866	6579.01
496.235	6574.49
496.605	6620.14
496.974	6665.33
497.344	6716.41
497.713	6735.84
498.082	6767.7
498.452	6841.15
498.821	6821.94
499.19	6841.15
499.559	6905.78
499.928	6923.18
500.298	6993.69
500.667	7040.01
501.036	7082.95
501.405	7109.62
501.774	7087.02
502.143	7142.61
502.512	7163.17
502.88	7183.51
503.249	7223.28
503.618	7230.74
503.987	7213.57
504.356	7258.31
504.724	7329.04
505.093	7283.85
505.462	7331.3
505.83	7376.05
506.199	7387.57
506.567	7496.72
506.936	7458.53
507.304	7597.74
507.672	7584.41
508.041	7558.19
508.409	7533.11
508.777	7633.22
509.145	7655.59
509.514	7581.02
509.882	7731.29
510.25	7690.62
510.618	7760.45
510.986	7684.06
511.354	7811.52
511.722	7853.55
512.09	7889.26
512.458	7806.55
512.826	7962.02
513.193	7958.86
513.561	7940.33
513.929	8005.64
514.297	7992.76
514.664	8033.21
515.032	8033.43
515.4	8110.49
515.767	8124.96
516.135	8065.07
516.502	8013.77
516.869	8170.6
517.237	8071.85
517.604	8069.82
517.972	8164.28
518.339	8144.16
518.706	8181.9
519.073	8223.26
519.44	8202.92
519.808	8201.34
520.175	8240.66
520.542	8342.35
520.909	8257.83
521.276	8232.98
521.643	8337.38
522.009	8358.4
522.376	8335.57
522.743	8377.38
523.11	8472.29
523.477	8458.73
523.843	8515
524.21	8557.94
524.577	8577.37
524.943	8611.72
525.31	8631.61
525.676	8614.43
526.043	8613.08
526.409	8663.25
526.776	8699.86
527.142	8680.2
527.508	8707.99
527.874	8742.34
528.241	8805.39
528.607	8639.97
528.973	8811.04
529.339	8780.31
529.705	8859.85
530.071	8841.1
530.437	8767.65
530.803	8909.79
531.169	8847.65
531.535	8816.24
531.901	8786.41
532.267	8888.1
532.632	8871.38
532.998	8853.52
533.364	8869.8
533.73	8859.4
534.095	8885.61
534.461	8872.05
534.826	8905.95
535.192	8901.21
535.557	8910.02
535.923	8907.31
536.288	8886.07
536.653	8870.47
537.019	8887.87
537.384	8900.3
537.749	8889
538.114	8927.42
538.479	8829.57
538.845	8844.26
539.21	8809.91
539.575	8820.3
539.94	8806.97
540.305	8854.2
540.67	8880.19
541.034	8847.42
541.399	8847.87
541.764	8754.77
542.129	8856.24
542.494	8772.62
542.858	8785.28
543.223	8823.02
543.587	8813.3
543.952	8776.69
544.316	8762.91
544.681	8734.43
545.045	8767.2
545.41	8776.46
545.774	8773.98
546.138	8673.87
546.503	8693.75
546.867	8663.7
547.231	8755
547.595	8690.59
547.959	8742.11
548.324	8696.69
548.688	8660.31
549.052	8632.29
549.416	8626.64
549.779	8668.9
550.143	8626.86
550.507	8648.56
550.871	8651.72
551.235	8696.47
551.599	8697.6
551.962	8624.83
552.326	8623.02
552.689	8604.72
553.053	8572.4
553.417	8630.71
553.78	8664.83
554.143	8645.85
554.507	8582.34
554.87	8628.45
555.234	8709.12
555.597	8637.48
555.96	8693.75
556.323	8627.54
556.686	8613.08
557.05	8634.32
557.413	8612.17
557.776	8616.24
558.139	8655.11
558.502	8632.29
558.865	8675
559.228	8744.6
559.59	8712.74
559.953	8710.48
560.316	8741.21
560.679	8710.93
561.041	8748.67
561.404	8792.51
561.767	8821.43
562.129	8791.38
562.492	8841.32
562.854	8837.03
563.217	8778.95
563.579	8893.75
563.941	8865.05
564.304	8883.13
564.666	8896.46
565.028	8931.04
565.39	8925.84
565.753	8959.28
566.115	9017.59
566.477	9041.32
566.839	9027.53
567.201	9116.57
567.563	9020.3
567.925	9158.83
568.287	9082.9
568.648	9117.47
569.01	9175.1
569.372	9198.6
569.734	9090.58
570.095	9213.06
570.457	9273.4
570.819	9247.86
571.18	9217.13
571.542	9281.08
571.903	9281.54
572.265	9322.44
572.626	9340.29
572.987	9357.92
573.349	9378.93
573.71	9424.36
574.071	9334.64
574.432	9437.24
574.794	9516.56
575.155	9486.28
575.516	9412.38
575.877	9523.56
576.238	9499.16
576.599	9537.8
576.96	9570.34
577.32	9609.21
577.681	9590.45
578.042	9634.52
578.403	9627.97
578.763	9631.36
579.124	9624.58
579.485	9648.53
579.845	9785.25
580.206	9787.74
580.566	9752.48
580.927	9785.48
581.287	9782.31
581.648	9783.22
582.008	9829.54
582.368	9760.62
582.728	9855.53
583.089	9885.59
583.449	9850.11
583.809	9833.61
584.169	9866.6
584.529	9794.74
584.889	9929.43
585.249	9905.47
585.609	9867.51
585.969	9924.23
586.329	9866.15
586.688	9966.94
587.048	9962.65
587.408	9916.77
587.768	9970.56
588.127	9936.89
588.487	10014.62
588.846	10029.76
589.206	10010.1
589.565	10037.67
589.925	9995.42
590.284	10131.68
590.643	10054.85
591.003	10128.52
591.362	10126.71
591.721	10089.88
592.08	10119.93
592.44	10121.06
592.799	10093.27
593.158	10095.07
593.517	10140.72
593.876	10215.97
594.235	10076.09
594.593	10153.38
594.952	10157.9
595.311	10138.91
595.67	10134.39
596.029	10218.46
596.387	10217.78
596.746	10252.36
597.104	10194.96
597.463	10215.75
597.822	10194.51
598.18	10216.65
598.538	10193.6
598.897	10254.84
599.255	10218.46
599.613	10317.67
599.972	10194.96
600.33	10246.26
600.688	10271.57
601.046	10299.36
601.404	10322.64
601.762	10364.67
602.12	10339.13
602.478	10388.4
602.836	10302.75
603.194	10279.48
603.552	10366.25
603.91	10321.06
604.268	10333.49
604.625	10303.43
604.983	10342.3
605.341	10336.2
605.698	10358.12
606.056	10344.56
606.413	10351.34
606.771	10404.9
607.128	10420.94
607.485	10350.66
607.843	10347.04
608.2	10414.39
608.557	10443.99
608.914	10410.55
609.272	10412.35
609.629	10429.53
609.986	10506.36
610.343	10432.47
610.7	10475.63
611.057	10495.51
611.414	10464.33
611.771	10449.19
612.127	10587.49
612.484	10515.85
612.841	10596.3
613.198	10501.84
613.554	10574.16
613.911	10523.99
614.267	10578.9
614.624	10564.89
614.98	10604.89
615.337	10716.3
615.693	10579.58
616.05	10621.39
616.406	10723.98
616.762	10648.96
617.118	10653.02
617.475	10631.56
617.831	10622.07
618.187	10633.59
618.543	10702.97
618.899	10762.63
619.255	10699.58
619.611	10700.48
619.967	10622.29
620.323	10762.17
620.678	10727.6
621.034	10621.39
621.39	10663.19
621.746	10672.23
622.101	10862.29
622.457	10668.84
622.812	10724.66
623.168	10737.32
623.523	10765.11
623.879	10761.04
624.234	10745
624.589	10735.28
624.945	10685.79
625.3	10735.73
625.655	10659.35
626.01	10732.8
626.365	10759.91
626.72	10666.36
627.075	10680.37
627.43	10663.42
627.785	10674.27
628.14	10717.66
628.495	10708.84
628.85	10665.45
629.205	10540.71
629.559	10772.34
629.914	10605.79
630.269	10603.76
630.623	10607.15
630.978	10628.62
631.332	10646.92
631.687	10665.68
632.041	10618.45
632.396	10623.87
632.75	10552.24
633.104	10655.28
633.459	10534.38
633.813	10508.62
634.167	10569.86
634.521	10426.59
634.875	10479.24
635.229	10521.05
635.583	10401.28
635.937	10482.18
636.291	10448.74
636.645	10450.54
636.999	10374.61
637.352	10433.37
637.706	10378.91
638.06	10438.34
638.413	10382.3
638.767	10356.08
639.121	10355.63
639.474	10338.91
639.828	10360.6
640.181	10301.17
640.534	10311.57
640.888	10293.71
641.241	10285.8
641.594	10229.08
641.947	10224.79
642.301	10253.49
642.654	10279.48
643.007	10223.43
643.36	10265.92
643.713	10190.21
644.066	10209.87
644.419	10235.18
644.771	10160.16
645.124	10076.99
645.477	9969.65
645.83	9957.22
646.182	9947.73
646.535	9891.46
646.888	9892.59
647.24	9812.14
647.593	9888.07
647.945	9823.67
648.298	9714.74
648.65	9755.65
649.002	9837.45
649.355	9804.23
649.707	9825.02
650.059	9890.56
650.411	9973.27
650.763	10066.6
651.115	10078.12
651.467	10047.84
651.819	10040.39
652.171	10082.87
652.523	10040.61
652.875	10001.06
653.227	10031.12
653.578	10015.98
653.93	10004.68
654.282	9963.55
654.633	10039.03
654.985	9994.74
655.337	9985.92
655.688	10040.61
656.039	10052.81
656.391	9987.05
656.742	10000.39
657.094	10065.7
657.445	10111.57
657.796	10019.37
658.147	10081.06
658.498	9990.9
658.849	10101.4
659.2	10009.2
659.551	10006.49
659.902	10063.66
660.253	10041.29
660.604	10051.23
660.955	9985.47
661.306	10010.33
661.656	10004.68
662.007	10011.23
662.358	9972.59
662.708	10093.27
663.059	10031.12
663.409	9945.7
663.76	10044.68
664.11	10000.84
664.461	10046.26
664.811	10015.3
665.161	10072.25
665.511	9995.64
665.862	9986.15
666.212	10007.84
666.562	10024.79
666.912	9975.3
667.262	9976.43
667.612	9961.97
667.962	10045.81
668.312	10058.01
668.662	10060.27
669.011	9999.48
669.361	10003.32
669.711	10002.42
670.06	9947.96
670.41	9996.55
670.76	9949.09
671.109	10028.86
671.459	9892.82
671.808	9914.29
672.157	9951.57
672.507	9867.28
672.856	9870.9
673.205	9934.63
673.554	9949.31
673.904	9933.04
674.253	9974.62
674.602	9878.58
674.951	9743.22
675.3	9720.39
675.649	9935.08
675.998	9858.92
676.346	9871.58
676.695	9924.46
677.044	9788.64
677.393	9828.41
677.741	9785.48
678.09	9841.07
678.438	9832.03
678.787	9820.28
679.135	9775.76
679.484	9698.25
679.832	9706.38
680.181	9693.05
680.529	9717.68
680.877	9685.82
681.225	9663.22
681.573	9690.79
681.922	9653.73
682.27	9612.6
682.618	9607.4
682.966	9598.14
683.314	9563.56
683.661	9570.79
684.009	9484.69
684.357	9450.8
684.705	9580.51
685.053	9458.93
685.4	9520.85
685.748	9379.16
686.095	9465.94
686.443	9317.24
686.79	9401.98
687.138	9366.05
687.485	9352.49
687.832	9310.01
688.18	9354.3
688.527	9218.03
688.874	9244.93
689.221	9284.93
689.568	9227.75
689.915	9178.49
690.262	9199.05
690.609	9094.42
690.956	9111.37
691.303	9152.73
691.65	9011.71
691.997	9077.93
692.344	9009.23
692.69	8967.42
693.037	8971.04
693.383	8919.29
693.73	8877.7
694.077	8826.63
694.423	8868.21
694.769	8845.84
695.116	8832.28
695.462	8800.87
695.808	8705.28
696.155	8783.7
696.501	8624.83
696.847	8634.55
697.193	8609.24
697.539	8579.18
697.885	8505.96
698.231	8532.63
698.577	8519.75
698.923	8531.05
699.269	8461.22
699.614	8445.85
699.96	8373.76
700.306	8401.11
700.651	8353.88
700.997	8309.36
701.342	8333.54
701.688	8285.18
702.033	8268.23
702.379	8244.5
702.724	8172.64
703.069	8218.51
703.415	8103.71
703.76	8111.17
704.105	8068.69
704.45	8101.68
704.795	7979.87
705.14	7944.17
705.485	8007.67
705.83	7985.52
706.175	7948.92
706.52	7964.28
706.865	7919.76
707.209	7877.96
707.554	7862.36
707.899	7886.77
708.243	7847.68
708.588	7815.13
708.932	7774.91
709.277	7751.63
709.621	7738.53
709.966	7677.96
710.31	7729.94
710.654	7656.27
710.998	7693.1
711.342	7655.82
711.687	7647.45
712.031	7617.62
712.375	7592.31
712.719	7526.33
713.063	7585.31
713.407	7590.05
713.75	7561.13
714.094	7515.25
714.438	7477.06
714.782	7498.08
715.125	7420.57
715.469	7456.95
715.812	7404.52
716.156	7350.51
716.499	7377.63
716.843	7403.39
717.186	7364.07
717.53	7423.73
717.873	7388.7
718.216	7292.89
718.559	7266.45
718.902	7264.41
719.246	7313
719.589	7236.84
719.932	7309.38
720.275	7263.96
720.617	7194.13
720.96	7255.83
721.303	7222.38
721.646	7197.97
721.989	7197.07
722.331	7179.67
722.674	7184.19
723.016	7195.94
723.359	7215.15
723.701	7121.14
724.044	7152.55
724.386	7101.03
724.729	7188.94
725.071	7084.98
725.413	7135.83
725.755	7091.08
726.097	7126.11
726.439	7071.42
726.782	7093.34
727.124	7084.76
727.465	7090.18
727.807	7073.91
728.149	7083.4
728.491	7026.91
728.833	7023.06
729.175	7027.81
729.516	7013.12
729.858	7014.25
730.199	7104.19
730.541	6984.87
730.882	7042.27
731.224	7040.92
731.565	6996.4
731.906	6979
732.248	7000.92
732.589	6947.81
732.93	7029.84
733.271	6936.06
733.612	6976.51
733.953	7060.8
734.294	6999.56
734.635	6995.27
734.976	7044.98
735.317	6999.11
735.658	6932.22
735.999	6998.66
736.339	6918.89
736.68	7026.23
737.021	6987.13
737.361	6931.99
737.702	7004.99
738.042	6991.65
738.383	6981.48
738.723	6987.81
739.063	6970.86
739.404	7067.81
739.744	7086.11
740.084	6990.3
740.424	7046.34
740.764	7029.62
741.104	7019.22
741.444	7090.18
741.784	6999.34
742.124	7101.93
742.464	7034.36
742.804	7080.01
743.143	7099.22
743.483	7096.96
743.823	7075.27
744.162	7191.65
744.502	7161.14
744.841	7164.08
745.181	7230.97
745.52	7295.6
745.86	7282.72
746.199	7247.69
746.538	7234.13
746.877	7240.46
747.216	7394.35
747.556	7344.41
747.895	7428.25
748.234	7397.29
748.573	7467.35
748.911	7506.22
749.25	7523.84
749.589	7570.85
749.928	7639.32
750.267	7715.25
750.605	7750.28
750.944	7806.09
751.283	7811.52
751.621	7896.94
751.96	7889.03
752.298	8029.82
752.636	8163.82
752.975	8159.08
753.313	8172.64
753.651	8308
753.989	8393.88
754.327	8428.9
754.666	8496.7
755.004	8660.53
755.342	8671.16
755.679	8802.68
756.017	8815.11
756.355	9011.03
756.693	9106.62
757.031	9166.28
757.368	9217.13
757.706	9423.68
758.044	9451.93
758.381	9512.94
758.719	9637.68
759.056	9832.26
759.394	9940.73
759.731	9976.21
760.068	10182.98
760.405	10213.26
760.743	10308.4
761.08	10517.66
761.417	10619.13
761.754	10702.06
762.091	10819.8
762.428	10931.21
762.765	10999
763.102	11140.47
763.438	11302.27
763.775	11355.15
764.112	11552.89
764.449	11603.28
764.785	11704.07
765.122	11840.34
765.458	11943.16
