Data from hue_230_FLMS001491_00026.txt Node
Date: Tue Feb 07 16:37:00 GMT 2017
User: dcchb
Spectrometer: FLMS00149
Trigger mode: 0
Integration Time (sec): 2.000000E-2
Scans to average: 10
Electric dark correction enabled: true
Nonlinearity correction enabled: false
Boxcar width: 0
XAxis mode: Wavelengths
Number of Pixels in Spectrum: 2048
>>>>>Begin Spectral Data<<<<<
341.393	8.47
341.776	8.47
342.16	8.47
342.543	-61.35
342.927	-69.49
343.31	-63.39
343.693	-93.67
344.077	-64.97
344.46	-73.11
344.843	-39.21
345.226	-21.58
345.61	-32.65
345.993	-24.07
346.376	0.11
346.759	-1.47
347.142	39.89
347.525	36.95
347.908	62.94
348.291	75.59
348.674	88.92
349.057	109.71
349.44	130.96
349.823	144.97
350.206	174.12
350.588	200.11
350.971	211.86
351.354	229.03
351.737	232.65
352.119	231.29
352.502	258.64
352.884	255.7
353.267	276.49
353.65	293.89
354.032	288.69
354.414	288.69
354.797	290.73
355.179	303.83
355.562	315.81
355.944	312.65
356.326	336.15
356.709	335.47
357.091	314.68
357.473	333.44
357.855	347
358.238	343.61
358.62	334.79
359.002	348.58
359.384	330.05
359.766	327.11
360.148	343.61
360.53	330.5
360.912	339.77
361.294	338.64
361.676	316.94
362.057	327.79
362.439	336.38
362.821	319.65
363.203	325.08
363.584	323.95
363.966	331.86
364.348	323.95
364.729	316.71
365.111	328.01
365.493	325.3
365.874	315.58
366.256	304.06
366.637	326.88
367.019	301.12
367.4	306.32
367.781	316.94
368.163	340.89
368.544	307.45
368.925	321.46
369.306	334.12
369.688	292.08
370.069	297.51
370.45	318.97
370.831	322.36
371.212	293.89
371.593	294.34
371.974	284.17
372.355	328.69
372.736	316.26
373.117	310.61
373.498	285.08
373.879	321.46
374.26	311.74
374.641	327.79
375.021	321.23
375.402	301.57
375.783	335.02
376.163	324.17
376.544	324.62
376.925	312.65
377.305	318.75
377.686	335.92
378.066	295.25
378.447	319.65
378.827	318.52
379.208	310.61
379.588	342.25
379.968	329.37
380.349	328.01
380.729	333.66
381.109	331.63
381.489	339.31
381.87	341.12
382.25	344.74
382.63	324.85
383.01	328.47
383.39	338.86
383.77	344.28
384.15	326.88
384.53	341.12
384.91	329.14
385.29	360.56
385.67	351.29
386.049	362.14
386.429	343.83
386.809	365.3
387.189	329.82
387.568	359.43
387.948	325.98
388.328	350.84
388.707	344.28
389.087	353.1
389.466	373.44
389.846	346.32
390.225	369.59
390.605	348.13
390.984	368.01
391.363	356.26
391.743	363.04
392.122	365.3
392.501	365.53
392.881	369.37
393.26	381.8
393.639	370.05
394.018	348.8
394.397	370.27
394.776	364.4
395.155	381.12
395.534	366.88
395.913	390.39
396.292	388.35
396.671	385.87
397.05	388.13
397.429	413.66
397.808	390.61
398.186	395.81
398.565	400.78
398.944	376.15
399.323	387.9
399.701	408.01
400.08	394.68
400.458	406.43
400.837	418.86
401.215	399.65
401.594	401.68
401.972	406.43
402.351	424.73
402.729	405.75
403.107	425.64
403.486	408.01
403.864	419.76
404.242	418.86
404.62	440.78
404.999	448.01
405.377	434.45
405.755	437.62
406.133	440.55
406.511	449.82
406.889	459.54
407.267	474.68
407.645	461.34
408.023	450.27
408.401	470.61
408.779	451.63
409.156	476.94
409.534	477.84
409.912	497.5
410.29	491.17
410.667	507.9
411.045	498.18
411.422	489.82
411.8	520.33
412.178	534.34
412.555	542.92
412.933	524.17
413.31	526.43
413.687	531.4
414.065	550.61
414.442	572.98
414.819	579.08
415.197	576.14
415.574	598.29
415.951	614.11
416.328	597.84
416.705	594.9
417.082	595.58
417.46	596.71
417.837	606.65
418.214	616.37
418.591	628.12
418.967	623.6
419.344	643.94
419.721	649.59
420.098	666.08
420.475	658.17
420.852	687.78
421.228	686.87
421.605	681
421.982	710.38
422.358	714.44
422.735	709.25
423.111	711.73
423.488	756.03
423.864	748.57
424.241	780.88
424.617	783.82
424.994	778.17
425.37	782.92
425.746	779.53
426.123	825.85
426.499	825.85
426.875	819.3
427.251	829.24
427.627	848
428.003	886.19
428.379	861.11
428.756	860.88
429.132	867.21
429.507	904.95
429.883	892.07
430.259	903.59
430.635	913.08
431.011	949.01
431.387	908.56
431.763	941.56
432.138	979.97
432.514	991.27
432.89	983.36
433.265	1018.62
433.641	1034.89
434.016	1030.82
434.392	1075.56
434.767	1100.65
435.143	1086.64
435.518	1078.73
435.894	1102
436.269	1133.19
436.644	1148.33
437.02	1173.19
437.395	1155.79
437.77	1211.38
438.145	1201.44
438.52	1250.02
438.895	1255.67
439.271	1258.38
439.646	1295.9
440.021	1286.41
440.395	1325.05
440.77	1304.49
441.145	1317.37
441.52	1348.1
441.895	1362.11
442.27	1332.96
442.645	1402.56
443.019	1401.88
443.394	1407.76
443.769	1422
444.143	1405.27
444.518	1449.11
444.892	1437.82
445.267	1457.48
445.641	1470.81
446.016	1445.27
446.39	1488.66
446.764	1517.14
447.139	1495.67
447.513	1534.08
447.887	1532.5
448.262	1514.2
448.636	1554.2
449.01	1600.97
449.384	1609.79
449.758	1574.76
450.132	1609.79
450.506	1615.66
450.88	1621.09
451.254	1637.13
451.628	1651.37
452.002	1690.01
452.376	1690.24
452.75	1708.32
453.123	1700.86
453.497	1735.43
453.871	1750.12
454.244	1785.6
454.618	1788.54
454.992	1786.51
455.365	1795.55
455.739	1826.28
456.112	1843.23
456.486	1871.7
456.859	1900.4
457.232	1915.32
457.606	1938.37
457.979	1942.43
458.352	1979.04
458.725	1964.36
459.099	2004.81
459.472	2038.7
459.845	2060.62
460.218	2066.27
460.591	2125.03
460.964	2105.82
461.337	2114.86
461.71	2154.18
462.083	2186.95
462.456	2206.83
462.829	2191.92
463.201	2227.17
463.574	2241.86
463.947	2268.3
464.32	2299.49
464.692	2321.18
465.065	2342.65
465.438	2363.67
465.81	2409.32
466.183	2431.69
466.555	2469.2
466.928	2470.33
467.3	2471.46
467.672	2528.41
468.045	2585.36
468.417	2568.18
468.789	2591.23
469.161	2640.5
469.534	2714.84
469.906	2711.68
470.278	2683.66
470.65	2775.86
471.022	2801.62
471.394	2830.77
471.766	2887.04
472.138	2882.75
472.51	2958.68
472.882	3012.69
473.253	2995.06
473.625	2995.74
473.997	3101.05
474.369	3127.26
474.74	3139.69
475.112	3220.82
475.484	3200.93
475.855	3267.37
476.227	3318.22
476.598	3378.56
476.97	3398.44
477.341	3529.96
477.713	3530.19
478.084	3541.94
478.455	3639.11
478.827	3654.71
479.198	3750.07
479.569	3765.21
479.94	3845.89
480.311	3850.18
480.682	3890.63
481.053	3999.56
481.424	4002.95
481.795	4110.74
482.166	4122.26
482.537	4152.55
482.908	4200.45
483.279	4306.89
483.65	4338.08
484.021	4418.75
484.391	4421.47
484.762	4482.71
485.133	4505.76
485.503	4610.39
485.874	4651.06
486.244	4700.78
486.615	4784.39
486.985	4835.92
487.356	4867.56
487.726	4885.86
488.097	4973.99
488.467	5013.09
488.837	5075.91
489.207	5119.53
489.578	5190.03
489.948	5188.68
490.318	5343.02
490.688	5316.13
491.058	5362.46
491.428	5406.3
491.798	5503.92
492.168	5595.45
492.538	5554.09
492.908	5647.87
493.278	5701.88
493.648	5699.4
494.017	5837.93
494.387	5842.9
494.757	5859.39
495.126	5881.54
495.496	5902.33
495.866	5914.31
496.235	5973.97
496.605	6030.69
496.974	6035.89
497.344	6074.98
497.713	6116.79
498.082	6094.19
498.452	6159.73
498.821	6193.85
499.19	6210.35
499.559	6302.32
499.928	6295.77
500.298	6295.77
500.667	6394.97
501.036	6385.26
501.405	6392.49
501.774	6418.25
502.143	6447.63
502.512	6419.38
502.88	6530.11
503.249	6503.22
503.618	6510
503.987	6569.66
504.356	6585.02
504.724	6595.19
505.093	6585.25
505.462	6611.24
505.83	6618.47
506.199	6708.19
506.567	6763.55
506.936	6773.04
507.304	6788.64
507.672	6881.97
508.041	6844.45
508.409	6806.71
508.777	6902.08
509.145	6932.81
509.514	6941.4
509.882	6970.1
510.25	6978.01
510.618	7012.58
510.986	6913.15
511.354	6991.57
511.722	7073.6
512.09	7050.55
512.458	7045.8
512.826	7088.06
513.193	7106.59
513.561	7066.14
513.929	7142.3
514.297	7218
514.664	7178.68
515.032	7235.63
515.4	7217.1
515.767	7247.83
516.135	7293.48
516.502	7236.53
516.869	7307.72
517.237	7283.31
517.604	7275.4
517.972	7301.84
518.339	7339.13
518.706	7322.18
519.073	7314.27
519.44	7349.98
519.808	7416.87
520.175	7341.39
520.542	7439.92
520.909	7413.25
521.276	7416.87
521.643	7460.26
522.009	7515.85
522.376	7451.44
522.743	7514.04
523.11	7589.29
523.477	7549.29
523.843	7616.18
524.21	7618.9
524.577	7693.02
524.943	7674.26
525.31	7651.21
525.676	7678.56
526.043	7688.95
526.409	7725.33
526.776	7776.86
527.142	7793.13
527.508	7791.09
527.874	7730.31
528.241	7838.1
528.607	7768.04
528.973	7829.51
529.339	7791.55
529.705	7821.83
530.071	7877.87
530.437	7876.74
530.803	7919
531.169	7914.71
531.535	7825.67
531.901	7869.28
532.267	7887.59
532.632	7900.92
532.998	7874.93
533.364	7905.67
533.73	7868.38
534.095	7819.79
534.461	7914.48
534.826	7906.57
535.192	7910.19
535.557	7855.05
535.923	7809.63
536.288	7836.07
536.653	7915.39
537.019	7850.53
537.384	7841.26
537.749	7850.75
538.114	7804.65
538.479	7781.38
538.845	7775.73
539.21	7756.97
539.575	7831.77
539.94	7780.7
540.305	7853.01
540.67	7804.88
541.034	7796.29
541.399	7805.11
541.764	7812.79
542.129	7815.5
542.494	7771.89
542.858	7729.85
543.223	7702.51
543.587	7804.88
543.952	7730.31
544.316	7753.58
544.681	7709.06
545.045	7760.59
545.41	7744.32
545.774	7749.97
546.138	7659.8
546.503	7664.77
546.867	7631.55
547.231	7667.03
547.595	7631.78
547.959	7660.93
548.324	7593.36
548.688	7612.79
549.052	7688.27
549.416	7579.12
549.779	7626.81
550.143	7576.64
550.507	7580.25
550.871	7609.18
551.235	7500.48
551.599	7584.09
551.962	7598.11
552.326	7575.51
552.689	7600.82
553.053	7471.55
553.417	7493.93
553.78	7571.21
554.143	7523.98
554.507	7627.94
554.87	7512.68
555.234	7619.8
555.597	7593.59
555.96	7582.74
556.323	7569.63
556.686	7540.71
557.05	7550.42
557.413	7592
557.776	7570.99
558.139	7627.48
558.502	7598.33
558.865	7600.37
559.228	7590.2
559.59	7566.24
559.953	7645.79
560.316	7677.65
560.679	7642.4
561.041	7660.48
561.404	7643.53
561.767	7731.21
562.129	7698.89
562.492	7729.4
562.854	7731.21
563.217	7660.02
563.579	7718.33
563.941	7789.74
564.304	7795.61
564.666	7864.76
565.028	7826.12
565.39	7778.67
565.753	7760.81
566.115	7860.47
566.477	7879.68
566.839	7910.87
567.201	7885.78
567.563	7878.78
567.925	7939.57
568.287	7935.95
568.648	7925.1
569.01	7987.47
569.372	8063.4
569.734	7934.59
570.095	8058.21
570.457	8028.38
570.819	8040.58
571.18	8049.17
571.542	8107.7
571.903	8161.48
572.265	8112.89
572.626	8147.7
572.987	8148.83
573.349	8203.51
573.71	8177.98
574.071	8210.07
574.432	8231.08
574.794	8271.08
575.155	8254.81
575.516	8237.64
575.877	8236.51
576.238	8359.22
576.599	8312.44
576.96	8333.45
577.32	8358.76
577.681	8371.87
578.042	8453
578.403	8417.29
578.763	8419.1
579.124	8413.45
579.485	8453
579.845	8499.55
580.206	8505.65
580.566	8489.61
580.927	8508.82
581.287	8535.71
581.648	8567.12
582.008	8552.43
582.368	8552.66
582.728	8640.79
583.089	8586.1
583.449	8624.29
583.809	8663.16
584.169	8662.03
584.529	8671.75
584.889	8699.77
585.249	8645.31
585.609	8668.13
585.969	8672.65
586.329	8718.75
586.688	8730.96
587.048	8749.94
587.408	8680.11
587.768	8785.87
588.127	8734.35
588.487	8739.77
588.846	8798.75
589.206	8779.77
589.565	8771.18
589.925	8815.93
590.284	8841.69
590.643	8824.74
591.003	8844.4
591.362	8887.79
591.721	8913.1
592.08	8902.48
592.44	8849.6
592.799	8864.06
593.158	8939.99
593.517	8892.99
593.876	8950.84
594.235	8920.78
594.593	8930.5
594.952	9015.47
595.311	8934.34
595.67	8975.02
596.029	9034.68
596.387	9013.66
596.746	9000.78
597.104	8970.95
597.463	9005.75
597.822	9004.17
598.18	9034.9
598.538	8966.43
598.897	8981.12
599.255	8970.27
599.613	9094.79
599.972	9058.63
600.33	9041.46
600.688	8999.42
601.046	9146.54
601.404	9102.25
601.762	9144.73
602.12	9093.43
602.478	9139.31
602.836	9119.42
603.194	9040.78
603.552	9110.16
603.91	9094.79
604.268	9156.71
604.625	9099.99
604.983	9193.09
605.341	9106.09
605.698	9139.08
606.056	9193.77
606.413	9171.4
606.771	9126.2
607.128	9235.58
607.485	9221.57
607.843	9238.97
608.2	9186.54
608.557	9216.59
608.914	9305.86
609.272	9297.27
609.629	9217.27
609.986	9310.83
610.343	9327.33
610.7	9342.69
611.057	9269.25
611.414	9245.29
611.771	9291.85
612.127	9253.88
612.484	9330.72
612.841	9346.99
613.198	9321
613.554	9332.52
613.911	9392.18
614.267	9346.99
614.624	9327.55
614.98	9364.61
615.337	9416.36
615.693	9397.61
616.05	9419.75
616.406	9343.6
616.762	9367.55
617.118	9412.75
617.475	9403.93
617.831	9418.17
618.187	9420.66
618.543	9440.99
618.899	9511.73
619.255	9483.93
619.611	9481.22
619.967	9513.54
620.323	9507.66
620.678	9407.32
621.034	9443.71
621.39	9421.79
621.746	9459.3
622.101	9525.51
622.457	9398.28
622.812	9454.33
623.168	9484.84
623.523	9509.92
623.879	9521.67
624.234	9430.37
624.589	9517.38
624.945	9560.31
625.3	9515.57
625.655	9519.86
626.01	9522.8
626.365	9551.05
626.72	9533.87
627.075	9499.52
627.43	9458.4
627.785	9486.87
628.14	9448.68
628.495	9452.75
628.85	9498.39
629.205	9443.03
629.559	9488.68
629.914	9373.43
630.269	9495.46
630.623	9431.73
630.978	9420.43
631.332	9419.98
631.687	9384.27
632.041	9389.92
632.396	9443.25
632.75	9399.87
633.104	9391.28
633.459	9358.74
633.813	9317.38
634.167	9354.22
634.521	9302.02
634.875	9299.98
635.229	9321
635.583	9309.7
635.937	9281
636.291	9265.63
636.645	9284.61
636.999	9255.69
637.352	9224.05
637.706	9202.81
638.06	9156.03
638.413	9179.98
638.767	9173.21
639.121	9204.39
639.474	9093.21
639.828	9088.46
640.181	9182.02
640.534	9092.53
640.888	9085.07
641.241	9093.21
641.594	9137.73
641.947	9082.81
642.301	9097.5
642.654	9125.97
643.007	9120.55
643.36	9121.23
643.713	9063.38
644.066	9074
644.419	9005.75
644.771	8982.48
645.124	8888.92
645.477	8860.9
645.83	8885.98
646.182	8822.25
646.535	8772.99
646.888	8771.41
647.24	8735.25
647.593	8836.72
647.945	8779.32
648.298	8742.26
648.65	8697.96
649.002	8646.89
649.355	8726.21
649.707	8709.49
650.059	8794.68
650.411	8956.71
650.763	8835.81
651.115	8951.52
651.467	8970.95
651.819	8908.81
652.171	8936.6
652.523	8902.48
652.875	8909.94
653.227	8904.96
653.578	8900.9
653.93	8954.23
654.282	8871.97
654.633	8792.88
654.985	8878.3
655.337	8864.51
655.688	8932.08
656.039	8875.59
656.391	8888.92
656.742	8869.48
657.094	8858.41
657.445	8883.27
657.796	8937.28
658.147	8944.06
658.498	8900.9
658.849	8935.02
659.2	8855.25
659.551	8836.26
659.902	8902.93
660.253	8916.26
660.604	8926.21
660.955	8845.08
661.306	8898.18
661.656	8857.73
662.007	8876.72
662.358	8874
662.708	8920.56
663.059	8875.59
663.409	8885.76
663.76	8932.31
664.11	8825.64
664.461	8925.75
664.811	8935.02
665.161	8859.32
665.511	8888.01
665.862	8958.75
666.212	8958.97
666.562	8868.13
666.912	8951.06
667.262	8896.6
667.612	8921.01
667.962	8872.2
668.312	8861.8
668.662	8915.58
669.011	8880.78
669.361	8848.47
669.711	8908.35
670.06	8834.91
670.41	8830.62
670.76	8794.68
671.109	8850.95
671.459	8829.26
671.808	8842.14
672.157	8854.34
672.507	8781.35
672.856	8829.03
673.205	8791.07
673.554	8775.25
673.904	8818.64
674.253	8846.89
674.602	8819.32
674.951	8643.5
675.3	8660.68
675.649	8758.53
675.998	8757.4
676.346	8755.59
676.695	8741.13
677.044	8735.48
677.393	8703.61
677.741	8767.11
678.09	8706.55
678.438	8667.68
678.787	8695.7
679.135	8692.31
679.484	8667.46
679.832	8605.31
680.181	8642.6
680.529	8639.89
680.877	8628.13
681.225	8647.8
681.573	8674.24
681.922	8594.92
682.27	8555.14
682.618	8532.09
682.966	8536.39
683.314	8564.18
683.661	8531.87
684.009	8476.73
684.357	8483.73
684.705	8450.74
685.053	8399.44
685.4	8439.89
685.748	8398.99
686.095	8375.71
686.443	8372.77
686.79	8296.17
687.138	8407.35
687.485	8279.67
687.832	8222.72
688.18	8287.8
688.527	8248.26
688.874	8266.79
689.221	8241.25
689.568	8217.07
689.915	8168.94
690.262	8176.4
690.609	8104.08
690.956	8047.36
691.303	8071.54
691.65	8076.28
691.997	8053.69
692.344	8008.72
692.69	7995.38
693.037	8004.42
693.383	7941.37
693.73	7924.65
694.077	7896.63
694.423	7922.84
694.769	7820.02
695.116	7886.91
695.462	7882.17
695.808	7748.38
696.155	7763.3
696.501	7700.93
696.847	7716.97
697.193	7683.98
697.539	7694.15
697.885	7612.79
698.231	7623.42
698.577	7576.41
698.923	7551.55
699.269	7479.01
699.614	7448.5
699.96	7446.24
700.306	7457.54
700.651	7410.99
700.997	7392.01
701.342	7379.58
701.688	7355.63
702.033	7287.15
702.379	7301.39
702.724	7266.59
703.069	7277.66
703.415	7179.81
703.76	7233.6
704.105	7215.29
704.45	7195.18
704.795	7133.71
705.14	7131.22
705.485	7116.54
705.83	7108.63
706.175	7085.8
706.52	7059.14
706.865	7030.66
707.209	6995.18
707.554	7013.26
707.899	7002.64
708.243	6931
708.588	6967.61
708.932	6884.68
709.277	6876.09
709.621	6899.37
709.966	6815.75
710.31	6880.38
710.654	6762.87
710.998	6787.28
711.342	6773.72
711.687	6756.55
712.031	6765.13
712.375	6704.57
712.719	6744.34
713.063	6676.55
713.407	6759.03
713.75	6713.38
714.094	6622.31
714.438	6637.45
714.782	6616.21
715.125	6632.03
715.469	6643.1
715.812	6606.04
716.156	6571.69
716.499	6598.36
716.843	6577.34
717.186	6546.38
717.53	6606.72
717.873	6565.59
718.216	6539.15
718.559	6476.78
718.902	6501.18
719.246	6455.99
719.589	6479.04
719.932	6394.97
720.275	6503.44
720.617	6489.89
720.96	6439.94
721.303	6455.76
721.646	6474.97
721.989	6422.09
722.331	6403.56
722.674	6394.75
723.016	6428.19
723.359	6417.8
723.701	6449.89
724.044	6370.11
724.386	6276.33
724.729	6351.58
725.071	6387.06
725.413	6382.77
725.755	6382.32
726.097	6371.24
726.439	6360.85
726.782	6297.35
727.124	6353.84
727.465	6357.91
727.807	6338.93
728.149	6298.7
728.491	6336.44
728.833	6359.49
729.175	6286.95
729.516	6285.37
729.858	6297.12
730.199	6326.05
730.541	6259.61
730.882	6268.2
731.224	6279.27
731.565	6280.4
731.906	6309.55
732.248	6291.25
732.589	6205.37
732.93	6269.1
733.271	6357.91
733.612	6252.6
733.953	6277.69
734.294	6233.62
734.635	6256.45
734.976	6305.26
735.317	6223.23
735.658	6272.94
735.999	6250.57
736.339	6284.47
736.68	6256.22
737.021	6278.37
737.361	6190.23
737.702	6330.12
738.042	6270.68
738.383	6258.48
738.723	6304.35
739.063	6265.71
739.404	6348.19
739.744	6273.17
740.084	6333.05
740.424	6316.11
740.764	6291.25
741.104	6355.88
741.444	6283.34
741.784	6350.23
742.124	6342.77
742.464	6304.58
742.804	6387.29
743.143	6350.45
743.483	6356.56
743.823	6385.26
744.162	6418.93
744.502	6461.19
744.841	6405.14
745.181	6454.41
745.52	6455.54
745.86	6502.54
746.199	6558.58
746.538	6556.78
746.877	6612.59
747.216	6634.97
747.556	6599.71
747.895	6657.11
748.234	6722.2
748.573	6732.37
748.911	6768.07
749.25	6806.04
749.589	6831.57
749.928	6888.97
750.267	6890.33
750.605	6924.22
750.944	6991.57
751.283	7056.88
751.621	7143.65
751.96	7119.7
752.298	7213.93
752.636	7300.94
752.975	7342.52
753.313	7411.67
753.651	7469.52
753.989	7524.89
754.327	7630.42
754.666	7691.21
755.004	7822.28
755.342	7909.28
755.679	8002.16
756.017	8013.24
756.355	8098.21
756.693	8175.04
757.031	8341.81
757.368	8431.76
757.706	8482.38
758.044	8596.95
758.381	8744.74
758.719	8773.89
759.056	8932.99
759.394	9012.53
759.731	9035.13
760.068	9247.78
760.405	9309.7
760.743	9341.56
761.08	9544.27
761.417	9679.18
761.754	9850.7
762.091	9890.7
762.428	10037.82
762.765	10121.88
763.102	10268.77
763.438	10377.02
763.775	10450.46
764.112	10540.63
764.449	10786.27
764.785	10892.03
765.122	10862.65
765.458	10979.94
765.795	11105.13
766.131	11238.69
766.467	11346.48
766.804	11345.13
767.14	11492.24
767.476	11676.87
767.812	11686.81
768.148	11800.93
768.485	11846.58
768.821	11885.22
769.157	12044.77
769.492	12130.19
