Data from hue_230_FLMS001491_00013.txt Node
Date: Tue Feb 07 16:36:51 GMT 2017
User: dcchb
Spectrometer: FLMS00149
Trigger mode: 0
Integration Time (sec): 2.000000E-2
Scans to average: 10
Electric dark correction enabled: true
Nonlinearity correction enabled: false
Boxcar width: 0
XAxis mode: Wavelengths
Number of Pixels in Spectrum: 2048
>>>>>Begin Spectral Data<<<<<
341.393	-6.74
341.776	-6.74
342.16	-6.74
342.543	-53.97
342.927	-51.26
343.31	-94.87
343.693	-58.04
344.077	-64.36
344.46	-66.17
344.843	-62.33
345.226	-54.65
345.61	-29.56
345.993	-22.1
346.376	-11.03
346.759	22.19
347.142	14.28
347.525	48.85
347.908	70.1
348.291	95.18
348.674	93.37
349.057	119.14
349.44	133.15
349.823	159.36
350.206	181.73
350.588	197.1
350.971	196.87
351.354	216.31
351.737	227.38
352.119	249.98
352.502	258.57
352.884	269.19
353.267	274.16
353.65	285.91
354.032	297.44
354.414	333.14
354.797	308.96
355.179	316.19
355.562	332.91
355.944	330.2
356.326	321.39
356.709	340.37
357.091	325.68
357.473	316.64
357.855	332.69
358.238	357.55
358.62	345.12
359.002	341.95
359.384	322.29
359.766	336.53
360.148	347.15
360.53	338.79
360.912	348.73
361.294	335.17
361.676	320.26
362.057	335.17
362.439	334.27
362.821	328.4
363.203	335.4
363.584	313.93
363.966	310.77
364.348	309.19
364.729	336.53
365.111	315.29
365.493	310.54
365.874	327.49
366.256	304.67
366.637	311.67
367.019	329.98
367.4	312.58
367.781	314.16
368.163	307.38
368.544	295.85
368.925	318.45
369.306	318.68
369.688	297.21
370.069	297.89
370.45	306.93
370.831	315.06
371.212	318.23
371.593	298.57
371.974	315.51
372.355	313.71
372.736	311.45
373.117	311.45
373.498	319.58
373.879	315.97
374.26	311.45
374.641	308.51
375.021	310.77
375.402	318
375.783	322.52
376.163	313.93
376.544	322.75
376.925	303.76
377.305	334.27
377.686	315.97
378.066	309.19
378.447	336.08
378.827	342.63
379.208	326.14
379.588	335.85
379.968	333.37
380.349	328.62
380.729	345.8
381.109	319.81
381.489	329.98
381.87	335.4
382.25	325.46
382.63	329.07
383.01	325.68
383.39	324.78
383.77	350.99
384.15	345.34
384.53	334.5
384.91	346.02
385.29	334.72
385.67	349.41
386.049	360.71
386.429	368.85
386.809	349.86
387.189	360.71
387.568	346.47
387.948	353.71
388.328	365.46
388.707	367.72
389.087	366.13
389.466	347.15
389.846	368.39
390.225	372.91
390.605	370.88
390.984	337.21
391.363	359.58
391.743	388.51
392.122	384.89
392.501	362.74
392.881	365.46
393.26	368.39
393.639	397.55
394.018	389.18
394.397	386.25
394.776	374.95
395.155	370.65
395.534	380.6
395.913	394.83
396.292	380.82
396.671	376.3
397.05	402.29
397.429	395.74
397.808	398.9
398.186	383.08
398.565	404.55
398.944	417.88
399.323	419.47
399.701	396.19
400.08	407.26
400.458	406.13
400.837	414.04
401.215	405
401.594	419.24
401.972	431.22
402.351	425.57
402.729	419.69
403.107	428.51
403.486	431.22
403.864	424.21
404.242	432.57
404.62	452.69
404.999	441.39
405.377	454.95
405.755	442.52
406.133	447.49
406.511	467.15
406.889	459.47
407.267	461.95
407.645	463.53
408.023	479.35
408.401	491.1
408.779	475.74
409.156	486.58
409.534	495.4
409.912	508.96
410.29	512.12
410.667	528.16
411.045	528.39
411.422	536.98
411.8	543.98
412.178	527.03
412.555	530.65
412.933	534.04
413.31	548.73
413.687	549.86
414.065	557.99
414.442	578.78
414.819	565.45
415.197	573.36
415.574	602.51
415.951	629.63
416.328	618.33
416.705	639.35
417.082	618.33
417.46	622.85
417.837	649.74
418.214	636.18
418.591	642.96
418.967	667.37
419.344	678.89
419.721	687.93
420.098	671.66
420.475	687.03
420.852	677.09
421.228	703.75
421.605	697.43
421.982	730.64
422.358	722.28
422.735	728.38
423.111	745.11
423.488	761.15
423.864	756.41
424.241	768.38
424.617	794.37
424.994	777.65
425.37	814.48
425.746	808.16
426.123	831.66
426.499	837.31
426.875	839.12
427.251	859.23
427.627	881.15
428.003	869.85
428.379	890.19
428.756	904.43
429.132	919.34
429.507	918.89
429.883	931.09
430.259	922.28
430.635	962.28
431.011	973.35
431.387	999.34
431.763	1007.93
432.138	1005.67
432.514	1029.85
432.89	1001.82
433.265	1063.07
433.641	1081.14
434.016	1083.18
434.392	1103.97
434.767	1124.31
435.143	1114.36
435.518	1157.98
435.894	1159.79
436.269	1197.3
436.644	1211.08
437.02	1204.76
437.395	1201.59
437.77	1243.63
438.145	1230.74
438.52	1271.65
438.895	1285.43
439.271	1305.54
439.646	1336.73
440.021	1341.02
440.395	1349.39
440.77	1335.83
441.145	1372.44
441.52	1408.82
441.895	1418.08
442.27	1429.16
442.645	1436.16
443.019	1457.86
443.394	1422.38
443.769	1458.31
444.143	1480.91
444.518	1462.38
444.892	1508.48
445.267	1513.9
445.641	1521.58
446.016	1533.56
446.39	1564.97
446.764	1559.78
447.139	1572.66
447.513	1575.82
447.887	1595.03
448.262	1570.62
448.636	1628.47
449.01	1629.83
449.384	1655.82
449.758	1634.58
450.132	1661.92
450.506	1659.89
450.88	1696.95
451.254	1700.34
451.628	1686.33
452.002	1749.15
452.376	1750.05
452.75	1762.03
453.123	1769.94
453.497	1798.41
453.871	1812.42
454.244	1832.08
454.618	1861.24
454.992	1876.38
455.365	1862.37
455.739	1924.06
456.112	1928.13
456.486	1952.76
456.859	1933.32
457.232	1984.17
457.606	1987.11
457.979	1997.05
458.352	2033.89
458.725	2072.3
459.099	2072.76
459.472	2136.03
459.845	2172.87
460.218	2165.64
460.591	2172.64
460.964	2173.32
461.337	2245.41
461.71	2278.85
462.083	2296.71
462.456	2230.27
462.829	2306.87
463.201	2361.34
463.574	2335.35
463.947	2369.7
464.32	2404.72
464.692	2449.7
465.065	2484.72
465.438	2483.14
465.81	2503.93
466.183	2542.8
466.555	2550.03
466.928	2590.93
467.3	2605.85
467.672	2594.78
468.045	2676.81
468.417	2675
468.789	2724.04
469.161	2771.95
469.534	2785.73
469.906	2825.73
470.278	2857.82
470.65	2827.31
471.022	2979.4
471.394	2992.51
471.766	2961.55
472.138	3025.05
472.51	3104.14
472.882	3116.8
473.253	3176.23
473.625	3185.27
473.997	3249.67
474.369	3255.78
474.74	3288.09
475.112	3378.71
475.484	3443.34
475.855	3468.43
476.227	3438.6
476.598	3528.54
476.97	3584.13
477.341	3671.58
477.713	3679.04
478.084	3725.14
478.455	3774.86
478.827	3854.4
479.198	3949.77
479.569	3934.85
479.94	4004.91
480.311	4038.35
480.682	4106.6
481.053	4214.39
481.424	4277.67
481.795	4283.55
482.166	4349.76
482.537	4419.36
482.908	4495.97
483.279	4504.1
483.65	4581.62
484.021	4662.52
484.391	4695.74
484.762	4754.95
485.133	4784.55
485.503	4840.37
485.874	4916.52
486.244	4963.98
486.615	5077.2
486.985	5104.54
487.356	5132.11
487.726	5163.75
488.097	5281.26
488.467	5300.69
488.837	5402.39
489.207	5465.44
489.578	5478.99
489.948	5591.53
490.318	5631.76
490.688	5629.05
491.058	5709.72
491.428	5791.75
491.798	5787.01
492.168	5934.12
492.538	5866.55
492.908	5986.1
493.278	6106.55
493.648	6074.01
494.017	6145.19
494.387	6128.69
494.757	6191.07
495.126	6234
495.496	6249.82
495.866	6302.48
496.235	6343.83
496.605	6343.83
496.974	6488.01
497.344	6539.31
497.713	6511.74
498.082	6509.93
498.452	6570.72
498.821	6576.14
499.19	6621.56
499.559	6642.58
499.928	6686.19
500.298	6657.27
500.667	6803.25
501.036	6773.88
501.405	6808.22
501.774	6867.21
502.143	6904.27
502.512	6926.41
502.88	6953.53
503.249	6966.41
503.618	6953.98
503.987	7028.33
504.356	6990.59
504.724	7063.36
505.093	7048.22
505.462	7060.42
505.83	7092.96
506.199	7163.47
506.567	7208.67
506.936	7222.68
507.304	7269
507.672	7259.51
508.041	7301.32
508.409	7335.89
508.777	7371.83
509.145	7375.22
509.514	7444.37
509.882	7479.85
510.25	7443.69
510.618	7469.45
510.986	7504.93
511.354	7520.97
511.722	7530.69
512.09	7645.72
512.458	7620.41
512.826	7578.15
513.193	7645.04
513.561	7623.12
513.929	7661.08
514.297	7773.85
514.664	7735.88
515.032	7770.69
515.4	7801.65
515.767	7795.77
516.135	7795.54
516.502	7749.9
516.869	7857.24
517.237	7860.85
517.604	7791.48
517.972	7866.95
518.339	7914.64
518.706	7901.53
519.073	7895.65
519.44	7854.3
519.808	7943.56
520.175	7893.39
520.542	8006.61
520.909	7969.55
521.276	7974.3
521.643	8067.17
522.009	8053.39
522.376	8082.09
522.743	8108.08
523.11	8146.04
523.477	8179.49
523.843	8199.83
524.21	8245.25
524.577	8300.16
524.943	8276.89
525.31	8311.91
525.676	8343.78
526.043	8326.83
526.409	8359.6
526.776	8436.66
527.142	8381.97
527.508	8390.1
527.874	8403.44
528.241	8451.8
528.607	8462.19
528.973	8468.29
529.339	8420.16
529.705	8512.36
530.071	8508.52
530.437	8502.64
530.803	8539.25
531.169	8586.48
531.535	8485.47
531.901	8489.31
532.267	8538.8
532.632	8498.8
532.998	8499.48
533.364	8596.65
533.73	8567.73
534.095	8577.67
534.461	8543.32
534.826	8507.62
535.192	8505.58
535.557	8583.09
535.923	8561.4
536.288	8560.95
536.653	8576.77
537.019	8574.96
537.384	8549.42
537.749	8545.81
538.114	8495.64
538.479	8499.03
538.845	8463.32
539.21	8439.37
539.575	8461.29
539.94	8475.07
540.305	8536.54
540.67	8422.19
541.034	8409.99
541.399	8478.46
541.764	8481.85
542.129	8489.31
542.494	8482.53
542.858	8398.01
543.223	8447.5
543.587	8443.21
543.952	8361.86
544.316	8441.63
544.681	8341.07
545.045	8384
545.41	8379.26
545.774	8355.75
546.138	8274.85
546.503	8372.48
546.867	8395.53
547.231	8365.25
547.595	8294.29
547.959	8296.32
548.324	8262.88
548.688	8255.42
549.052	8286.38
549.416	8209.32
549.779	8225.81
550.143	8244.12
550.507	8257.45
550.871	8268.53
551.235	8249.99
551.599	8256.1
551.962	8181.97
552.326	8233.95
552.689	8270.56
553.053	8212.26
553.417	8205.48
553.78	8235.98
554.143	8196.21
554.507	8183.33
554.87	8200.96
555.234	8265.59
555.597	8194.18
555.96	8197.11
556.323	8175.42
556.686	8218.58
557.05	8208.19
557.413	8151.01
557.776	8214.74
558.139	8235.08
558.502	8216.55
558.865	8182.65
559.228	8177
559.59	8275.98
559.953	8243.67
560.316	8280.73
560.679	8270.56
561.041	8306.26
561.404	8287.73
561.767	8327.28
562.129	8240.96
562.492	8301.74
562.854	8323.67
563.217	8311.46
563.579	8377.68
563.941	8382.42
564.304	8387.84
564.666	8379.94
565.028	8399.14
565.39	8345.59
565.753	8471.01
566.115	8491.34
566.477	8481.18
566.839	8485.24
567.201	8553.72
567.563	8512.59
567.925	8619.93
568.287	8580.38
568.648	8592.36
569.01	8626.48
569.372	8673.03
569.734	8646.37
570.095	8683.88
570.457	8638.46
570.819	8603.66
571.18	8637.1
571.542	8767.27
571.903	8746.93
572.265	8779.92
572.626	8758.23
572.987	8776.31
573.349	8833.48
573.71	8771.56
574.071	8830.09
574.432	8801.17
574.794	8874.16
575.155	8911.9
575.516	8868.74
575.877	8941.28
576.238	8951.67
576.599	9016.08
576.96	8958.22
577.32	8965.68
577.681	9019.24
578.042	9027.15
578.403	9026.92
578.763	9028.28
579.124	9068.5
579.485	9088.16
579.845	9099.01
580.206	9096.75
580.566	9142.85
580.927	9178.11
581.287	9184.66
581.648	9162.97
582.008	9238.22
582.368	9176.98
582.728	9237.31
583.089	9291.55
583.449	9221.72
583.809	9242.06
584.169	9357.99
584.529	9197.54
584.889	9303.53
585.249	9264.88
585.609	9312.79
585.969	9341.04
586.329	9346.01
586.688	9383.3
587.048	9450.87
587.408	9318.44
587.768	9349.18
588.127	9364.09
588.487	9391.89
588.846	9456.97
589.206	9362.28
589.565	9341.04
589.925	9447.03
590.284	9422.62
590.643	9399.34
591.003	9513.92
591.362	9500.36
591.721	9465.33
592.08	9458.78
592.44	9488.38
592.799	9526.12
593.158	9484.09
593.517	9500.36
593.876	9555.5
594.235	9484.31
594.593	9550.53
594.952	9547.81
595.311	9495.84
595.67	9623.52
596.029	9607.02
596.387	9685.44
596.746	9593.24
597.104	9622.84
597.463	9616.74
597.822	9740.8
598.18	9639.34
598.538	9564.54
598.897	9659
599.255	9554.59
599.613	9644.08
599.972	9691.54
600.33	9655.61
600.688	9584.65
601.046	9703.29
601.404	9700.35
601.762	9684.76
602.12	9717.98
602.478	9675.72
602.836	9771.54
603.194	9651.09
603.552	9735.61
603.91	9661.26
604.268	9764.08
604.625	9734.93
604.983	9698.32
605.341	9780.58
605.698	9796.17
606.056	9709.39
606.413	9767.7
606.771	9776.96
607.128	9780.8
607.485	9805.89
607.843	9765.21
608.2	9846.79
608.557	9842.27
608.914	9846.11
609.272	9894.02
609.629	9858.99
609.986	9877.97
610.343	9882.04
610.7	9918.43
611.057	9902.61
611.414	9862.61
611.771	9912.1
612.127	9926.11
612.484	9921.82
612.841	9997.52
613.198	9965.2
613.554	10000.46
613.911	10042.49
614.267	10006.78
614.624	9983.28
614.98	10033.22
615.337	10037.52
615.693	10029.16
616.05	9937.41
616.406	10010.4
616.762	9977.18
617.118	10036.16
617.475	10073.45
617.831	10065.54
618.187	10059.66
618.543	10097.63
618.899	10155.03
619.255	10160.68
619.611	10073.9
619.967	10122.26
620.323	10158.87
620.678	10113.67
621.034	10128.82
621.39	10108.7
621.746	10114.8
622.101	10280
622.457	10105.54
622.812	10180.79
623.168	10094.69
623.523	10155.03
623.879	10149.38
624.234	10014.69
624.589	10129.49
624.945	10090.4
625.3	10191.19
625.655	10094.01
626.01	10162.49
626.365	10188.48
626.72	10110.96
627.075	10053.79
627.43	10140.57
627.785	10064.64
628.14	10082.94
628.495	10090.17
628.85	10101.7
629.205	10057.18
629.559	10056.05
629.914	10076.84
630.269	10006.56
630.623	10075.71
630.978	10019.21
631.332	10026.67
631.687	9997.75
632.041	9986.22
632.396	10000.91
632.75	9966.11
633.104	9939.44
633.459	9931.76
633.813	9965.2
634.167	9955.03
634.521	9935.37
634.875	9918.65
635.229	9936.05
635.583	9909.61
635.937	9853.12
636.291	9842.72
636.645	9917.07
636.999	9891.76
637.352	9882.49
637.706	9872.33
638.06	9847.47
638.413	9849.95
638.767	9783.06
639.121	9806.11
639.474	9719.79
639.828	9739.9
640.181	9748.49
640.534	9795.04
640.888	9726.57
641.241	9716.4
641.594	9637.3
641.947	9694.48
642.301	9727.7
642.654	9693.35
643.007	9776.06
643.36	9630.98
643.713	9671.2
644.066	9679.56
644.419	9663.29
644.771	9551.66
645.124	9504.43
645.477	9494.48
645.83	9446.57
646.182	9406.8
646.535	9366.35
646.888	9393.92
647.24	9255.39
647.593	9392.11
647.945	9308.95
648.298	9250.19
648.65	9212.68
649.002	9286.58
649.355	9326.35
649.707	9313.7
650.059	9409.06
650.411	9460.13
650.763	9512.79
651.115	9632.78
651.467	9480.02
651.819	9485.67
652.171	9578.32
652.523	9504.65
652.875	9472.11
653.227	9439.12
653.578	9476.18
653.93	9582.16
654.282	9487.93
654.633	9461.71
654.985	9506.23
655.337	9474.6
655.688	9520.24
656.039	9503.3
656.391	9463.3
656.742	9495.16
657.094	9532.67
657.445	9535.84
657.796	9507.14
658.147	9427.14
658.498	9500.13
658.849	9500.81
659.2	9523.41
659.551	9435.73
659.902	9511.43
660.253	9446.35
660.604	9505.33
660.955	9496.29
661.306	9491.32
661.656	9419.68
662.007	9476.86
662.358	9463.75
662.708	9513.92
663.059	9492.45
663.409	9459.45
663.76	9483.41
664.11	9464.2
664.461	9527.7
664.811	9520.7
665.161	9466.23
665.511	9493.35
665.862	9504.2
666.212	9506.23
666.562	9546.91
666.912	9489.06
667.262	9492
667.612	9466.69
667.962	9467.59
668.312	9475.5
668.662	9532.22
669.011	9429.62
669.361	9436.86
669.711	9429.4
670.06	9490.41
670.41	9482.05
670.76	9397.99
671.109	9485.67
671.459	9458.1
671.808	9400.7
672.157	9441.6
672.507	9394.37
672.856	9349.18
673.205	9395.95
673.554	9426.01
673.904	9422.85
674.253	9478.44
674.602	9345.56
674.951	9202.29
675.3	9173.81
675.649	9396.18
675.998	9346.46
676.346	9336.75
676.695	9285.22
677.044	9232.12
677.393	9313.02
677.741	9295.39
678.09	9328.16
678.438	9256.07
678.787	9307.59
679.135	9298.33
679.484	9189.41
679.832	9204.55
680.181	9186.69
680.529	9194.83
680.877	9164.1
681.225	9197.99
681.573	9247.71
681.922	9129.97
682.27	9084.1
682.618	9087.71
682.966	9082.29
683.314	9147.82
683.661	9056.53
684.009	9051.78
684.357	9014.72
684.705	9012.69
685.053	8994.38
685.4	9035.51
685.748	8920.71
686.095	8970.2
686.443	8842.75
686.79	8959.35
687.138	8931.11
687.485	8866.25
687.832	8856.31
688.18	8869.41
688.527	8842.07
688.874	8813.37
689.221	8767.72
689.568	8766.59
689.915	8666.48
690.262	8703.54
690.609	8703.77
690.956	8655.18
691.303	8669.19
691.65	8615.18
691.997	8618.8
692.344	8510.1
692.69	8526.82
693.037	8561.63
693.383	8466.49
693.73	8499.03
694.077	8438.01
694.423	8419.48
694.769	8394.62
695.116	8360.5
695.462	8351.91
695.808	8344.91
696.155	8358.47
696.501	8261.52
696.847	8261.97
697.193	8119.6
697.539	8214.52
697.885	8149.43
698.231	8129.55
698.577	8163.9
698.923	8088.87
699.269	8077.57
699.614	8010.91
699.96	7995.76
700.306	7991.92
700.651	7925.94
700.997	7913.73
701.342	7894.3
701.688	7840.51
702.033	7840.29
702.379	7824.92
702.724	7740.63
703.069	7774.53
703.415	7736.79
703.76	7643.01
704.105	7720.07
704.45	7659.73
704.795	7643.01
705.14	7571.82
705.485	7624.7
705.83	7553.29
706.175	7564.59
706.52	7513.52
706.865	7542.44
707.209	7426.51
707.554	7443.46
707.899	7460.86
708.243	7387.87
708.588	7393.97
708.932	7367.53
709.277	7325.5
709.621	7305.39
709.966	7250.25
710.31	7315.1
710.654	7229.46
710.998	7238.72
711.342	7247.31
711.687	7229.91
712.031	7211.83
712.375	7185.39
712.719	7201.66
713.063	7171.15
713.407	7175.67
713.75	7132.06
714.094	7134.32
714.438	7052.51
714.782	7111.49
715.125	7111.27
715.469	7103.36
715.812	7080.76
716.156	6959.63
716.499	7008.45
716.843	7010.03
717.186	7003.7
717.53	6998.5
717.873	6983.36
718.216	6944.49
718.559	6950.14
718.902	6892.97
719.246	6911.95
719.589	6918.96
719.932	6892.52
720.275	6886.87
720.617	6840.09
720.96	6843.03
721.303	6873.53
721.646	6883.7
721.989	6811.84
722.331	6850.26
722.674	6890.26
723.016	6786.98
723.359	6865.85
723.701	6858.39
724.044	6766.42
724.386	6808.68
724.729	6749.02
725.071	6756.93
725.413	6760.09
725.755	6752.86
726.097	6756.93
726.439	6673.77
726.782	6706.31
727.124	6764.16
727.465	6719.41
727.807	6701.11
728.149	6721
728.491	6689.81
728.833	6736.36
729.175	6731.84
729.516	6701.34
729.858	6699.75
730.199	6702.47
730.541	6689.58
730.882	6720.54
731.224	6695.23
731.565	6672.18
731.906	6717.83
732.248	6699.08
732.589	6719.41
732.93	6584.05
733.271	6692.52
733.612	6702.24
733.953	6685.52
734.294	6720.32
734.635	6660.66
734.976	6677.38
735.317	6676.7
735.658	6658.62
735.999	6650.04
736.339	6683.71
736.68	6722.58
737.021	6721.9
737.361	6705.85
737.702	6648.91
738.042	6692.75
738.383	6638.51
738.723	6692.3
739.063	6648.23
739.404	6686.87
739.744	6723.26
740.084	6653.65
740.424	6719.41
740.764	6784.72
741.104	6715.35
741.444	6695.23
741.784	6692.97
742.124	6767.32
742.464	6705.85
742.804	6762.58
743.143	6781.11
743.483	6772.07
743.823	6752.63
744.162	6766.64
744.502	6860.43
744.841	6838.28
745.181	6934.1
745.52	6880.09
745.86	6930.03
746.199	6941.33
746.538	6965.06
746.877	7056.13
747.216	7046.41
747.556	7051.16
747.895	7076.92
748.234	7113.98
748.573	7087.54
748.911	7171.15
749.25	7233.75
749.589	7259.06
749.928	7321.66
750.267	7396.01
750.605	7396.23
750.944	7482.11
751.283	7522.1
751.621	7584.93
751.96	7621.31
752.298	7625.83
752.636	7752.83
752.975	7807.97
753.313	7851.59
753.651	7914.86
753.989	8077.57
754.327	8059.49
754.666	8131.13
755.004	8248.19
755.342	8365.02
755.679	8429.88
756.017	8481.4
756.355	8598.91
756.693	8729.76
757.031	8820.83
757.368	8929.07
757.706	9009.52
758.044	9089.29
758.381	9245
758.719	9379.23
759.056	9440.02
759.394	9530.64
759.731	9600.92
760.068	9816.51
760.405	9869.16
760.743	10030.74
761.08	10062.83
761.417	10157.29
761.754	10342.82
762.091	10460.11
762.428	10529.71
762.765	10670.95
763.102	10794.33
763.438	10874.78
763.775	10982.13
764.112	11180.09
764.449	11337.6
764.785	11351.83
765.122	11406.3
765.458	11487.65
765.795	11641.77
766.131	11785.95
766.467	11891.71
766.804	11901.2
767.14	11947.98
767.476	12080.63
767.812	12239.27
768.148	12329.21
