Data from hue_150_FLMS001491_00099.txt Node
Date: Tue Feb 07 16:54:48 GMT 2017
User: dcchb
Spectrometer: FLMS00149
Trigger mode: 0
Integration Time (sec): 2.000000E-2
Scans to average: 10
Electric dark correction enabled: true
Nonlinearity correction enabled: false
Boxcar width: 0
XAxis mode: Wavelengths
Number of Pixels in Spectrum: 2048
>>>>>Begin Spectral Data<<<<<
341.393	-6.68
341.776	-6.68
342.16	-6.68
342.543	-55.27
342.927	-76.28
343.31	-86
343.693	-59.56
344.077	-82.84
344.46	-57.98
344.843	-55.49
345.226	-16.17
345.61	-33.8
345.993	-33.35
346.376	5.3
346.759	6.43
347.142	35.8
347.525	32.41
347.908	59.76
348.291	89.14
348.674	77.16
349.057	119.19
349.44	134.33
349.823	164.16
350.206	153.32
350.588	197.38
350.971	207.33
351.354	231.05
351.737	245.97
352.119	257.95
352.502	256.14
352.884	273.54
353.267	283.48
353.65	292.29
354.032	309.92
354.414	295.68
354.797	318.96
355.179	330.49
355.562	306.53
355.944	311.5
356.326	324.16
356.709	348.11
357.091	329.13
357.473	313.08
357.855	340.88
358.238	313.99
358.62	325.74
359.002	321.22
359.384	331.62
359.766	336.36
360.148	333.42
360.53	344.95
360.912	357.83
361.294	333.2
361.676	330.26
362.057	335.91
362.439	332.07
362.821	342.24
363.203	315.12
363.584	312.63
363.966	321.9
364.348	302.69
364.729	332.75
365.111	313.31
365.493	307.44
365.874	323.03
366.256	320.99
366.637	311.73
367.019	312.86
367.4	307.66
367.781	305.18
368.163	312.18
368.544	312.41
368.925	319.41
369.306	301.79
369.688	313.08
370.069	316.7
370.45	313.54
370.831	292.29
371.212	328.45
371.593	307.44
371.974	305.63
372.355	324.61
372.736	316.7
373.117	321.22
373.498	316.02
373.879	297.72
374.26	308.11
374.641	302.46
375.021	311.73
375.402	294.1
375.783	313.08
376.163	333.88
376.544	335.68
376.925	314.44
377.305	332.52
377.686	327.32
378.066	336.14
378.447	332.29
378.827	342.24
379.208	316.47
379.588	320.54
379.968	322.58
380.349	346.98
380.729	323.03
381.109	328.45
381.489	314.44
381.87	324.16
382.25	302.92
382.63	326.42
383.01	346.76
383.39	348.56
383.77	336.81
384.15	326.19
384.53	330.94
384.91	349.47
385.29	335.01
385.67	333.2
386.049	344.72
386.429	339.98
386.809	351.95
387.189	349.92
387.568	342.01
387.948	349.47
388.328	362.35
388.707	339.75
389.087	359.19
389.466	350.82
389.846	366.64
390.225	350.15
390.605	372.74
390.984	359.19
391.363	354.89
391.743	353.99
392.122	351.73
392.501	374.1
392.881	371.61
393.26	357.6
393.639	359.64
394.018	384.72
394.397	359.64
394.776	375.68
395.155	367.77
395.534	355.12
395.913	346.98
396.292	366.42
396.671	360.09
397.05	398.73
397.429	370.48
397.808	359.19
398.186	366.42
398.565	363.48
398.944	389.92
399.323	377.72
399.701	379.07
400.08	393.08
400.458	381.78
400.837	379.52
401.215	386.98
401.594	391.05
401.972	393.76
402.351	398.73
402.729	414.33
403.107	415.68
403.486	389.92
403.864	418.17
404.242	380.88
404.62	414.1
404.999	415
405.377	404.83
405.755	407.77
406.133	435.34
406.511	405.29
406.889	426.53
407.267	441.22
407.645	410.48
408.023	427.43
408.401	426.75
408.779	402.35
409.156	438.05
409.534	440.09
409.912	439.18
410.29	442.35
410.667	450.71
411.045	432.86
411.422	450.48
411.8	444.15
412.178	449.58
412.555	471.5
412.933	448.67
413.31	471.05
413.687	460.2
414.065	462.91
414.442	494.55
414.819	468.79
415.197	467.21
415.574	467.88
415.951	500.2
416.328	477.37
416.705	472.85
417.082	488.22
417.46	474.44
417.837	465.85
418.214	489.35
418.591	502.01
418.967	503.81
419.344	502.68
419.721	506.75
420.098	486.64
420.475	498.16
420.852	495.68
421.228	512.18
421.605	510.14
421.982	510.37
422.358	502.01
422.735	547.43
423.111	514.44
423.488	547.2
423.864	512.18
424.241	507.88
424.617	533.19
424.994	526.19
425.37	549.01
425.746	549.91
426.123	560.76
426.499	541.78
426.875	546.98
427.251	552.85
427.627	569.35
428.003	579.29
428.379	568.67
428.756	586.3
429.132	573.42
429.507	570.71
429.883	593.76
430.259	588.78
430.635	577.03
431.011	586.98
431.387	592.63
431.763	600.76
432.138	609.35
432.514	608.22
432.89	634.21
433.265	638.73
433.641	633.75
434.016	644.15
434.392	643.02
434.767	668.56
435.143	652.51
435.518	652.96
435.894	672.62
436.269	659.74
436.644	663.13
437.02	654.77
437.395	672.62
437.77	668.78
438.145	695
438.52	723.7
438.895	707.42
439.271	712.4
439.646	737.03
440.021	719.85
440.395	724.37
440.77	745.62
441.145	734.09
441.52	739.06
441.895	748.78
442.27	764.37
442.645	775.9
443.019	743.58
443.394	756.92
443.769	760.76
444.143	765.73
444.518	761.66
444.892	784.03
445.267	790.36
445.641	801.21
446.016	817.03
446.39	794.65
446.764	814.09
447.139	811.15
447.513	835.11
447.887	800.3
448.262	807.54
448.636	842.79
449.01	851.15
449.384	854.09
449.758	834.2
450.132	838.95
450.506	862
450.88	850.47
451.254	869.91
451.628	883.01
452.002	867.65
452.376	897.25
452.75	908.32
453.123	891.15
453.497	930.47
453.871	916.46
454.244	915.78
454.618	915.56
454.992	944.03
455.365	975.89
455.739	976.57
456.112	994.2
456.486	983.58
456.859	992.62
457.232	1000.07
457.606	1006.63
457.979	1040.98
458.352	1026.06
458.725	1059.73
459.099	1036
459.472	1068.32
459.845	1077.36
460.218	1106.06
460.591	1109.9
460.964	1093.86
461.337	1145.38
461.71	1174.98
462.083	1181.54
462.456	1171.82
462.829	1208.2
463.201	1218.6
463.574	1221.76
463.947	1249.78
464.32	1273.74
464.692	1271.03
465.065	1291.59
465.438	1285.94
465.81	1323.45
466.183	1334.75
466.555	1351.25
466.928	1362.55
467.3	1410.68
467.672	1395.99
468.045	1426.95
468.417	1465.82
468.789	1470.34
469.161	1506.27
469.534	1514.18
469.906	1558.48
470.278	1600.96
470.65	1590.79
471.022	1631.92
471.394	1674.63
471.766	1740.84
472.138	1734.29
472.51	1768.19
472.882	1793.5
473.253	1806.83
473.625	1871.69
473.997	1925.47
474.369	1955.08
474.74	1953.27
475.112	2037.33
475.484	2079.14
475.855	2151.45
476.227	2132.25
476.598	2226.93
476.97	2278.23
477.341	2345.12
477.713	2360.26
478.084	2408.62
478.455	2509.19
478.827	2555.29
479.198	2668.28
479.569	2681.61
479.94	2787.37
480.311	2784.43
480.682	2907.59
481.053	3019
481.424	3111.66
481.795	3170.19
482.166	3260.58
482.537	3323.85
482.908	3447.92
483.279	3534.24
483.65	3654.01
484.021	3723.16
484.391	3789.38
484.762	3844.52
485.133	3922.48
485.503	4073.21
485.874	4197.05
486.244	4299.87
486.615	4409.93
486.985	4533.09
487.356	4615.34
487.726	4736.47
488.097	4925.85
488.467	4988.89
488.837	5151.15
489.207	5266.18
489.578	5386.62
489.948	5460.75
490.318	5588.88
490.688	5728.54
491.058	5806.27
491.428	5991.13
491.798	6042.65
492.168	6247.17
492.538	6338.24
492.908	6528.51
493.278	6596.99
493.648	6642.64
494.017	6849.18
494.387	6869.07
494.757	7081.04
495.126	7182.51
495.496	7293.47
495.866	7374.59
496.235	7487.81
496.605	7620.46
496.974	7759.22
497.344	7821.81
497.713	7897.29
498.082	8064.52
498.452	8110.62
498.821	8231.07
499.19	8292.08
499.559	8459.09
499.928	8567.56
500.298	8654.56
500.667	8674.22
501.036	8825.63
501.405	8874.44
501.774	8918.96
502.143	9072.63
502.512	9148.33
502.88	9240.99
503.249	9323.02
503.618	9378.38
503.987	9442.34
504.356	9519.62
504.724	9579.28
505.093	9685.27
505.462	9761.65
505.83	9875.77
506.199	9909.22
506.567	10018.82
506.936	9965.26
507.304	10139.72
507.672	10154.86
508.041	10210.68
508.409	10264.24
508.777	10356.44
509.145	10477.56
509.514	10470.11
509.882	10464.23
510.25	10511.23
510.618	10559.82
510.986	10705.58
511.354	10771.34
511.722	10768.18
512.09	10847.95
512.458	10846.37
512.826	10892.69
513.193	10938.34
513.561	10982.63
513.929	11104.44
514.297	11172.91
514.664	11210.65
515.032	11155.51
515.4	11256.75
515.767	11245
516.135	11268.96
516.502	11235.28
516.869	11376.97
517.237	11403.41
517.604	11338.33
517.972	11452.23
518.339	11476.18
518.706	11425.56
519.073	11472.79
519.44	11543.98
519.808	11606.57
520.175	11527.93
520.542	11660.36
520.909	11715.27
521.276	11608.83
521.643	11709.85
522.009	11730.64
522.376	11822.16
522.743	11805.66
523.11	11832.1
523.477	11926.34
523.843	11893.57
524.21	11972.67
524.577	12081.82
524.943	12059.44
525.31	12024.42
525.676	12106.45
526.043	12055.15
526.409	12043.17
526.776	12183.73
527.142	12188.93
527.508	12240.23
527.874	12234.58
528.241	12251.53
528.607	12183.06
528.973	12233.68
529.339	12199.1
529.705	12270.74
530.071	12293.56
530.437	12292.66
530.803	12254.69
531.169	12322.71
531.535	12191.19
531.901	12180.34
532.267	12228.48
532.632	12208.59
532.998	12166.11
533.364	12264.86
533.73	12191.19
534.095	12232.77
534.461	12131.98
534.826	12187.8
535.192	12137.63
535.557	12243.39
535.923	12126.56
536.288	12146.45
536.653	12075.94
537.019	12008.82
537.384	12005.21
537.749	11988.48
538.114	11990.07
538.479	11915.27
538.845	11891.99
539.21	11807.02
539.575	11875.72
539.94	11800.69
540.305	11757.3
540.67	11751.88
541.034	11772.67
541.399	11692.22
541.764	11701.26
542.129	11723.41
542.494	11637.31
542.858	11628.95
543.223	11572.9
543.587	11485.22
543.952	11548.95
544.316	11462.62
544.681	11457.65
545.045	11374.04
545.41	11425.56
545.774	11389.4
546.138	11384.88
546.503	11308.28
546.867	11232.57
547.231	11343.53
547.595	11243.87
547.959	11176.3
548.324	11115.74
548.688	11153.25
549.052	11109.41
549.416	11026.25
549.779	11017.66
550.143	10980.15
550.507	10949.64
550.871	10957.1
551.235	10876.2
551.599	10953.26
551.962	10861.28
552.326	10896.08
552.689	10839.59
553.053	10840.49
553.417	10778.57
553.78	10826.48
554.143	10734.28
554.507	10734.51
554.87	10757.78
555.234	10776.99
555.597	10630.55
555.96	10659.03
556.323	10677.33
556.686	10643.66
557.05	10676.43
557.413	10650.67
557.776	10600.5
558.139	10715.3
558.502	10664.9
558.865	10599.14
559.228	10548.07
559.59	10618.12
559.953	10570.67
560.316	10679.59
560.679	10549.65
561.041	10605.47
561.404	10574.28
561.767	10549.88
562.129	10580.61
562.492	10674.85
562.854	10584.68
563.217	10541.06
563.579	10542.19
563.941	10621.51
564.304	10588.07
564.666	10654.73
565.028	10620.61
565.39	10584.68
565.753	10696.99
566.115	10660.16
566.477	10654.06
566.839	10664.68
567.201	10751.45
567.563	10718.69
567.925	10716.2
568.287	10722.98
568.648	10714.62
569.01	10708.97
569.372	10744.22
569.734	10666.26
570.095	10742.42
570.457	10766.6
570.819	10784
571.18	10744.9
571.542	10728.63
571.903	10762.98
572.265	10771.34
572.626	10795.3
572.987	10818.35
573.349	10827.16
573.71	10845.69
574.071	10829.87
574.432	10838.91
574.794	10871
575.155	10832.81
575.516	10775.41
575.877	10858.57
576.238	10860.83
576.599	10908.29
576.96	10914.16
577.32	10877.55
577.681	10881.62
578.042	10916.87
578.403	10889.98
578.763	10848.4
579.124	10897.21
579.485	10897.89
579.845	10995.74
580.206	10907.61
580.566	10876.88
580.927	10817.67
581.287	10899.93
581.648	10890.43
582.008	10905.35
582.368	10802.07
582.728	10846.82
583.089	10850.21
583.449	10815.41
583.809	10832.58
584.169	10853.6
584.529	10812.02
584.889	10878
585.249	10810.21
585.609	10712.13
585.969	10840.49
586.329	10757.56
586.688	10792.36
587.048	10787.84
587.408	10745.35
587.768	10726.14
588.127	10738.35
588.487	10767.95
588.846	10786.26
589.206	10620.84
589.565	10633.49
589.925	10655.64
590.284	10622.87
590.643	10776.09
591.003	10730.66
591.362	10715.98
591.721	10623.77
592.08	10643.21
592.44	10721.4
592.799	10710.55
593.158	10735.18
593.517	10640.72
593.876	10610.44
594.235	10611.12
594.593	10650.89
594.952	10711
595.311	10586.94
595.67	10636.88
596.029	10669.42
596.387	10671
596.746	10693.6
597.104	10614.06
597.463	10533.38
597.822	10581.52
598.18	10613.38
598.538	10592.59
598.897	10618.58
599.255	10514.17
599.613	10694.51
599.972	10561.4
600.33	10639.82
600.688	10582.42
601.046	10599.82
601.404	10681.17
601.762	10635.98
602.12	10654.96
602.478	10617.9
602.836	10618.35
603.194	10532.03
603.552	10570.22
603.91	10616.77
604.268	10600.05
604.625	10542.87
604.983	10620.61
605.341	10552.82
605.698	10622.19
606.056	10552.36
606.413	10619.03
606.771	10628.52
607.128	10571.8
607.485	10528.86
607.843	10585.81
608.2	10694.05
608.557	10672.81
608.914	10573.83
609.272	10706.03
609.629	10715.52
609.986	10671.91
610.343	10626.71
610.7	10755.52
611.057	10701.74
611.414	10728.63
611.771	10712.81
612.127	10690.21
612.484	10720.04
612.841	10813.6
613.198	10667.16
613.554	10663.55
613.911	10708.07
614.267	10757.56
614.624	10750.1
614.98	10719.82
615.337	10770.66
615.693	10794.17
616.05	10800.94
616.406	10815.86
616.762	10729.99
617.118	10824.45
617.475	10801.4
617.831	10844.56
618.187	10841.62
618.543	10799.14
618.899	10881.17
619.255	10866.93
619.611	10883.65
619.967	10843.43
620.323	10880.26
620.678	10872.13
621.034	10797.1
621.39	10861.28
621.746	10852.02
622.101	10943.54
622.457	10858.34
622.812	10947.16
623.168	10886.59
623.523	10916.2
623.879	10903.54
624.234	10874.39
624.589	10816.54
624.945	10861.28
625.3	10925.46
625.655	10921.62
626.01	10978.79
626.365	10918.23
626.72	10870.32
627.075	10893.82
627.43	10843.66
627.785	10853.37
628.14	10871
628.495	10827.61
628.85	10853.37
629.205	10869.87
629.559	10852.02
629.914	10794.39
630.269	10857.44
630.623	10767.05
630.978	10788.06
631.332	10777.22
631.687	10773.37
632.041	10707.16
632.396	10757.1
632.75	10697.9
633.104	10824.67
633.459	10644.56
633.813	10664.68
634.167	10685.02
634.521	10724.11
634.875	10722.98
635.229	10656.99
635.583	10607.96
635.937	10599.37
636.291	10622.87
636.645	10661.51
636.999	10634.62
637.352	10592.81
637.706	10570.44
638.06	10624.68
638.413	10534.51
638.767	10539.03
639.121	10589.88
639.474	10543.1
639.828	10493.83
640.181	10462.42
640.534	10509.2
640.888	10460.84
641.241	10423.33
641.594	10529.31
641.947	10436.43
642.301	10445.47
642.654	10504.68
643.007	10518.24
643.36	10454.06
643.713	10461.97
644.066	10428.53
644.419	10373.84
644.771	10304.01
645.124	10264.91
645.477	10272.6
645.83	10179.72
646.182	10134.07
646.535	10090
646.888	10123.67
647.24	10074.41
647.593	10169.77
647.945	10130.91
648.298	10070.79
648.65	10096.1
649.002	10072.83
649.355	10090.91
649.707	10070.79
650.059	10123.22
650.411	10234.18
650.763	10204.58
651.115	10311.24
651.467	10291.58
651.819	10361.18
652.171	10297
652.523	10264.46
652.875	10276.44
653.227	10254.29
653.578	10251.13
653.93	10292.03
654.282	10209.55
654.633	10237.57
654.985	10299.94
655.337	10271.24
655.688	10337.45
656.039	10317.12
656.391	10259.72
656.742	10280.73
657.094	10305.14
657.445	10422.88
657.796	10328.19
658.147	10265.14
658.498	10257.46
658.849	10348.75
659.2	10358.7
659.551	10310.11
659.902	10392.37
660.253	10286.83
660.604	10313.27
660.955	10254.07
661.306	10322.77
661.656	10284.35
662.007	10345.14
662.358	10327.51
662.708	10357.11
663.059	10330
663.409	10234.41
663.76	10373.16
664.11	10322.77
664.461	10315.99
664.811	10396.44
665.161	10346.95
665.511	10303.1
665.862	10361.18
666.212	10351.01
666.562	10333.61
666.912	10317.57
667.262	10306.95
667.612	10387.4
667.962	10263.33
668.312	10323.9
668.662	10383.55
669.011	10321.86
669.361	10440.05
669.711	10284.8
670.06	10389.2
670.41	10361.86
670.76	10292.48
671.109	10247.97
671.459	10340.39
671.808	10251.58
672.157	10325.03
672.507	10255.42
672.856	10260.39
673.205	10235.99
673.554	10271.47
673.904	10295.42
674.253	10340.84
674.602	10222.43
674.951	10126.61
675.3	10047.74
675.649	10224.46
675.998	10226.5
676.346	10208.42
676.695	10204.35
677.044	10252.94
677.393	10118.48
677.741	10206.84
678.09	10199.6
678.438	10148.53
678.787	10117.57
679.135	10136.1
679.484	10005.49
679.832	10069.66
680.181	10110.12
680.529	10071.02
680.877	10013.39
681.225	10023.11
681.573	10045.26
681.922	10023.34
682.27	9990.57
682.618	9941.31
682.966	9954.41
683.314	10013.17
683.661	9975.43
684.009	9874.87
684.357	9885.26
684.705	9839.61
685.053	9803.23
685.4	9816.56
685.748	9725.04
686.095	9803.91
686.443	9750.12
686.79	9740.18
687.138	9695.89
687.485	9715.1
687.832	9645.72
688.18	9599.85
688.527	9637.59
688.874	9600.52
689.221	9550.58
689.568	9546.06
689.915	9465.16
690.262	9518.04
690.609	9502
690.956	9421.77
691.303	9426.97
691.65	9337.25
691.997	9420.42
692.344	9313.07
692.69	9317.14
693.037	9289.35
693.383	9190.14
693.73	9229.91
694.077	9188.11
694.423	9115.11
694.769	9119.41
695.116	9105.62
695.462	9090.48
695.808	9078.05
696.155	9051.84
696.501	8978.85
696.847	8941.33
697.193	8869.24
697.539	8904.05
697.885	8875.35
698.231	8833.99
698.577	8780.88
698.923	8782.47
699.269	8786.08
699.614	8712.19
699.96	8709.93
700.306	8648.23
700.651	8560.78
700.997	8520.55
701.342	8547.67
701.688	8491.18
702.033	8478.97
702.379	8463.83
702.724	8470.61
703.069	8468.35
703.415	8349.03
703.76	8365.53
704.105	8325.3
704.45	8305.64
704.795	8221.35
705.14	8282.14
705.485	8252.54
705.83	8201.47
706.175	8196.27
706.52	8186.78
706.865	8108.81
707.209	8178.41
707.554	8150.17
707.899	8096.16
708.243	8066.33
708.588	8007.57
708.932	7979.78
709.277	7943.39
709.621	7983.62
709.966	7905.65
710.31	7950.4
710.654	7835.6
710.998	7876.05
711.342	7841.93
711.687	7803.96
712.031	7840.34
712.375	7744.08
712.719	7791.76
713.063	7723.06
713.407	7720.12
713.75	7721.93
714.094	7740.23
714.438	7696.62
714.782	7665.66
715.125	7618.43
715.469	7613.91
715.812	7620.69
716.156	7554.48
716.499	7635.83
716.843	7618.43
717.186	7490.07
717.53	7542.95
717.873	7596.51
718.216	7505.21
718.559	7505.21
718.902	7411.43
719.246	7478.77
719.589	7437.64
719.932	7431.99
720.275	7431.77
720.617	7386.35
720.96	7438.1
721.303	7440.13
721.646	7410.98
721.989	7411.43
722.331	7401.71
722.674	7409.4
723.016	7391.54
723.359	7350.64
723.701	7376.4
724.044	7352.9
724.386	7332.34
724.729	7349.74
725.071	7313.58
725.413	7327.59
725.755	7308.61
726.097	7334.82
726.439	7341.15
726.782	7276.97
727.124	7333.47
727.465	7298.21
727.807	7250.98
728.149	7276.97
728.491	7309.96
728.833	7304.99
729.175	7316.74
729.516	7263.18
729.858	7284.43
730.199	7275.16
730.541	7248.27
730.882	7319.23
731.224	7268.16
731.565	7276.97
731.906	7300.47
732.248	7320.13
732.589	7221.6
732.93	7229.06
733.271	7226.12
733.612	7239.23
733.953	7281.72
734.294	7272.68
734.635	7225.67
734.976	7322.39
735.317	7246.69
735.658	7274.03
735.999	7261.38
736.339	7250.3
736.68	7289.4
737.021	7290.98
737.361	7192
737.702	7305.67
738.042	7264.99
738.383	7242.85
738.723	7303.18
739.063	7292.79
739.404	7305.44
739.744	7284.43
740.084	7265.67
740.424	7274.03
740.764	7340.47
741.104	7382.96
741.444	7353.35
741.784	7376.63
742.124	7382.96
742.464	7446.23
742.804	7412.11
743.143	7440.36
743.483	7463.41
743.823	7441.26
744.162	7519
744.502	7495.27
744.841	7541.6
745.181	7610.29
745.52	7644.87
745.86	7695.04
746.199	7703.17
746.538	7758.31
746.877	7765.54
747.216	7760.12
747.556	7859.33
747.895	7932.77
748.234	7986.33
748.573	7941.81
748.911	8053.9
749.25	8064.97
749.589	8138.64
749.928	8210.28
750.267	8279.88
750.605	8316.72
750.944	8413.89
751.283	8413.66
751.621	8539.99
751.96	8584.51
752.298	8661.57
752.636	8781.79
752.975	8828.34
753.313	8857.04
753.651	9060.88
753.989	9105.4
754.327	9255.9
754.666	9373.41
755.004	9415.67
755.342	9569.11
755.679	9713.52
756.017	9738.37
756.355	9932.04
756.693	10040.06
757.031	10149.21
757.368	10260.17
757.706	10406.38
758.044	10541.29
758.381	10723.21
758.719	10802.07
759.056	10970.21
759.394	11112.35
759.731	11213.59
760.068	11369.74
760.405	11480.7
760.743	11605.44
761.08	11899.67
