Data from hue_20_FLMS001491_92.txt Node
Date: Mon Feb 06 15:34:59 GMT 2017
User: dcchb
Spectrometer: FLMS00149
Trigger mode: 0
Integration Time (sec): 2.000000E-2
Scans to average: 10
Electric dark correction enabled: true
Nonlinearity correction enabled: false
Boxcar width: 0
XAxis mode: Wavelengths
Number of Pixels in Spectrum: 2048
>>>>>Begin Spectral Data<<<<<
341.393	-13.59
341.776	-13.59
342.16	-13.59
342.543	-68.5
342.927	-73.7
343.31	-70.76
343.693	-75.73
344.077	-69.86
344.46	-65.56
344.843	-49.97
345.226	-40.48
345.61	-19.24
345.993	-6.36
346.376	-1.38
346.759	11.5
347.142	13.08
347.525	29.12
347.908	55.56
348.291	85.17
348.674	88.11
349.057	116.8
349.44	120.19
349.823	134.43
350.206	151.38
350.588	189.35
350.971	202.9
351.354	229.12
351.737	241.77
352.119	269.57
352.502	242.23
352.884	274.31
353.267	279.51
353.65	280.42
354.032	292.85
354.414	308.21
354.797	298.72
355.179	307.99
355.562	289.91
355.944	314.99
356.326	333.52
356.709	358.83
357.091	305.95
357.473	330.81
357.855	340.75
358.238	342.11
358.62	320.87
359.002	358.15
359.384	335.78
359.766	322.9
360.148	327.87
360.53	331.71
360.912	342.79
361.294	300.75
361.676	323.35
362.057	311.38
362.439	335.56
362.821	352.96
363.203	332.62
363.584	318.61
363.966	327.19
364.348	329.23
364.729	307.31
365.111	324.93
365.493	303.92
365.874	308.89
366.256	318.38
366.637	317.48
367.019	326.97
367.4	302.34
367.781	307.53
368.163	330.81
368.544	325.61
368.925	316.12
369.306	325.16
369.688	318.83
370.069	319.51
370.45	331.71
370.831	318.38
371.212	306.4
371.593	312.96
371.974	326.74
372.355	310.25
372.736	328.1
373.117	324.26
373.498	325.61
373.879	317.93
374.26	320.87
374.641	314.99
375.021	310.25
375.402	337.36
375.783	319.96
376.163	330.58
376.544	321.77
376.925	297.37
377.305	338.72
377.686	333.07
378.066	350.02
378.447	324.93
378.827	336.23
379.208	333.75
379.588	329.68
379.968	343.92
380.349	334.88
380.729	315.9
381.109	333.07
381.489	351.6
381.87	345.5
382.25	352.05
382.63	357.02
383.01	347.99
383.39	325.61
383.77	340.75
384.15	350.92
384.53	361.32
384.91	329
385.29	351.37
385.67	364.93
386.049	365.84
386.429	365.16
386.809	370.58
387.189	371.26
387.568	360.41
387.948	377.36
388.328	366.74
388.707	368.78
389.087	398.15
389.466	359.06
389.846	380.75
390.225	360.64
390.605	376.69
390.984	393.41
391.363	393.18
391.743	385.05
392.122	393.86
392.501	385.05
392.881	411.03
393.26	399.74
393.639	371.26
394.018	413.75
394.397	394.99
394.776	410.81
395.155	404.48
395.534	400.19
395.913	370.13
396.292	388.89
396.671	393.41
397.05	398.61
397.429	408.32
397.808	401.09
398.186	411.71
398.565	408.77
398.944	421.43
399.323	395.67
399.701	418.27
400.08	405.38
400.458	409.68
400.837	430.47
401.215	433.41
401.594	425.5
401.972	430.24
402.351	424.14
402.729	410.36
403.107	418.94
403.486	442.9
403.864	428.89
404.242	449.45
404.62	451.49
404.999	460.75
405.377	447.19
405.755	476.57
406.133	449.9
406.511	446.29
406.889	458.04
407.267	449
407.645	462.78
408.023	449.45
408.401	469.11
408.779	471.6
409.156	490.58
409.534	504.14
409.912	469.79
410.29	494.42
410.667	504.82
411.045	492.16
411.422	478.38
411.8	492.16
412.178	492.84
412.555	517.02
412.933	480.19
413.31	502.56
413.687	512.27
414.065	526.51
414.442	516.79
414.819	524.93
415.197	548.43
415.574	526.29
415.951	542.33
416.328	538.49
416.705	546.4
417.082	541.43
417.46	558.83
417.837	556.79
418.214	566.51
418.591	562.22
418.967	551.82
419.344	550.47
419.721	569
420.098	565.15
420.475	557.7
420.852	598.83
421.228	599.73
421.605	584.36
421.982	583.46
422.358	573.97
422.735	597.02
423.111	611.71
423.488	624.59
423.864	590.92
424.241	629.11
424.617	609
424.994	607.87
425.37	632.95
425.746	623.91
426.123	636.57
426.499	629.56
426.875	641.76
427.251	632.95
427.627	648.09
428.003	664.14
428.379	663.01
428.756	657.81
429.132	697.58
429.507	685.15
429.883	679.95
430.259	700.29
430.635	677.24
431.011	693.51
431.387	698.26
431.763	744.13
432.138	745.26
432.514	730.35
432.89	743
433.265	752.95
433.641	751.59
434.016	751.36
434.392	757.01
434.767	765.6
435.143	771.93
435.518	805.15
435.894	808.76
436.269	798.14
436.644	782.32
437.02	796.79
437.395	819.16
437.77	814.64
438.145	844.92
438.52	839.95
438.895	839.27
439.271	860.74
439.646	863.23
440.021	842.66
440.395	842.44
440.77	878.37
441.145	872.72
441.52	872.94
441.895	863.9
442.27	854.64
442.645	900.06
443.019	886.05
443.394	898.93
443.769	904.81
444.143	890.34
444.518	911.36
444.892	913.39
445.267	910.23
445.641	956.78
446.016	934.64
446.39	972.6
446.764	957.01
447.139	941.42
447.513	952.94
447.887	1000.17
448.262	978.03
448.636	995.2
449.01	989.78
449.384	1006.95
449.758	978.48
450.132	1001.3
450.506	1021.19
450.88	1018.48
451.254	1004.47
451.628	1022.09
452.002	1039.94
452.376	1044.01
452.75	1067.51
453.123	1060.06
453.497	1072.71
453.871	1081.98
454.244	1113.84
454.618	1140.51
454.992	1138.47
455.365	1108.42
455.739	1155.65
456.112	1154.74
456.486	1148.64
456.859	1181.41
457.232	1181.64
457.606	1213.27
457.979	1225.93
458.352	1218.47
458.725	1251.92
459.099	1236.1
459.472	1279.71
459.845	1285.59
460.218	1308.86
460.591	1286.27
460.964	1313.84
461.337	1334.63
461.71	1365.36
462.083	1342.08
462.456	1385.92
462.829	1380.95
463.201	1391.8
463.574	1421.63
463.947	1440.39
464.32	1446.49
464.692	1487.16
465.065	1486.26
465.438	1508.63
465.81	1519.71
466.183	1514.96
466.555	1551.57
466.928	1559.25
467.3	1561.06
467.672	1606.26
468.045	1623.88
468.417	1621.4
468.789	1658.23
469.161	1672.7
469.534	1716.76
469.906	1715.41
470.278	1747.27
470.65	1753.6
471.022	1798.34
471.394	1861.39
471.766	1846.48
472.138	1875.63
472.51	1880.83
472.882	1930.09
473.253	1961.5
473.625	1972.35
473.997	2029.52
474.369	2046.92
474.74	2072.46
475.112	2100.26
475.484	2134.83
475.855	2169.18
476.227	2176.86
476.598	2253.92
476.97	2240.14
477.341	2265.45
477.713	2344.09
478.084	2400.81
478.455	2480.58
478.827	2441.94
479.198	2551.77
479.569	2549.06
479.94	2593.35
480.311	2624.31
480.682	2671.31
481.053	2750.86
481.424	2812.33
481.795	2832.89
482.166	2853
482.537	2912.21
482.908	3009.61
483.279	3052.55
483.65	3071.53
484.021	3134.13
484.391	3165.09
484.762	3239.66
485.133	3227.23
485.503	3300.45
485.874	3382.03
486.244	3417.73
486.615	3479.43
486.985	3520.33
487.356	3621.35
487.726	3645.98
488.097	3692.3
488.467	3743.6
488.837	3822.24
489.207	3886.88
489.578	3937.72
489.948	3965.07
490.318	4016.82
490.688	4043.93
491.058	4112.63
491.428	4165.74
491.798	4248.9
492.168	4349.69
492.538	4321.44
492.908	4381.55
493.278	4424.49
493.648	4427.43
494.017	4528.44
494.387	4604.6
494.757	4628.32
495.126	4619.74
495.496	4701.77
495.866	4732.5
496.235	4756
496.605	4807.08
496.974	4844.36
497.344	4913.29
497.713	4962.1
498.082	4970.91
498.452	5030.8
498.821	5039.16
499.19	5032.16
499.559	5120.74
499.928	5136.56
500.298	5209.78
500.667	5267.18
501.036	5217.46
501.405	5304.24
501.774	5268.99
502.143	5324.35
502.512	5377.46
502.88	5412.26
503.249	5444.12
503.618	5497.91
503.987	5519.37
504.356	5584.46
504.724	5586.94
505.093	5606.6
505.462	5627.62
505.83	5657.45
506.199	5698.58
506.567	5824.68
506.936	5792.36
507.304	5813.6
507.672	5856.77
508.041	5882.75
508.409	5946.26
508.777	5948.06
509.145	6022.19
509.514	6002.3
509.882	6025.35
510.25	6056.76
510.618	6105.8
510.986	6128.85
511.354	6173.14
511.722	6213.59
512.09	6284.33
512.458	6252.01
512.826	6306.92
513.193	6371.56
513.561	6362.74
513.929	6445.68
514.297	6466.69
514.664	6477.32
515.032	6483.42
515.4	6560.25
515.767	6582.62
516.135	6621.49
516.502	6573.36
516.869	6692
517.237	6699
517.604	6703.3
517.972	6804.99
518.339	6867.14
518.706	6797.31
519.073	6827.14
519.44	6904.2
519.808	6956.17
520.175	6994.36
520.542	7042.5
520.909	7098.09
521.276	7088.37
521.643	7095.15
522.009	7211.31
522.376	7177.64
522.743	7283.4
523.11	7377.86
523.477	7353.22
523.843	7376.73
524.21	7419.89
524.577	7516.84
524.943	7564.29
525.31	7584.86
525.676	7637.74
526.043	7647
526.409	7704.85
526.776	7745.08
527.142	7815.59
527.508	7792.54
527.874	7961.34
528.241	7938.97
528.607	7973.32
528.973	8006.77
529.339	8084.05
529.705	8090.15
530.071	8211.73
530.437	8215.35
530.803	8270.94
531.169	8332.86
531.535	8359.98
531.901	8360.43
532.267	8394.55
532.632	8483.14
532.998	8553.65
533.364	8565.4
533.73	8596.36
534.095	8635
534.461	8614.43
534.826	8703.47
535.192	8751.61
535.557	8788.67
535.923	8797.93
536.288	8811.72
536.653	8874.99
537.019	8954.31
537.384	8931.04
537.749	9019.85
538.114	9006.74
538.479	9040.64
538.845	9046.74
539.21	9077.47
539.575	9133.06
539.94	9143.91
540.305	9159.5
540.67	9325.83
541.034	9270.69
541.399	9367.18
541.764	9383.23
542.129	9401.53
542.494	9459.16
542.858	9446.73
543.223	9463.45
543.587	9571.25
543.952	9542.55
544.316	9667.74
544.681	9613.05
545.045	9702.09
545.41	9707.97
545.774	9771.01
546.138	9807.85
546.503	9816.21
546.867	9781.41
547.231	9961.29
547.595	9889.88
547.959	9941.63
548.324	9956.77
548.688	10000.61
549.052	10078.35
549.416	10063.89
549.779	10068.63
550.143	10158.35
550.507	10223.43
550.871	10163.32
551.235	10294.16
551.599	10303.66
551.962	10332.58
552.326	10365.12
552.689	10464.33
553.053	10382.75
553.417	10455.52
553.78	10526.7
554.143	10503.42
554.507	10628.84
554.87	10602.86
555.234	10755.85
555.597	10642.18
555.96	10730.99
556.323	10706.36
556.686	10794.94
557.05	10903.64
557.413	10840.14
557.776	10858.9
558.139	10932.79
558.502	11019.57
558.865	11042.39
559.228	11096.63
559.59	11129.62
559.953	11225.89
560.316	11332.33
560.679	11245.78
561.041	11395.15
561.404	11392.44
561.767	11511.76
562.129	11391.54
562.492	11529.61
562.854	11525.09
563.217	11564.41
563.579	11549.95
563.941	11697.74
564.304	11723.05
564.666	11758.08
565.028	11833.56
565.39	11856.16
565.753	11925.08
566.115	11963.95
566.477	11992.2
566.839	12023.38
567.201	12168.24
567.563	12061.12
567.925	12145.87
568.287	12286.2
568.648	12210.95
569.01	12282.59
569.372	12408.91
569.734	12443.94
570.095	12473.09
570.457	12540.21
570.819	12589.02
571.18	12622.01
571.542	12689.58
571.903	12696.81
572.265	12775.91
572.626	12729.58
572.987	12862.91
573.349	12983.13
573.71	13017.48
574.071	12997.6
574.432	13108.1
574.794	13214.09
575.155	13220.64
575.516	13144.94
575.877	13271.26
576.238	13360.75
576.599	13532.27
576.96	13525.04
577.32	13556.23
577.681	13585.6
578.042	13835.99
578.403	13808.87
578.763	13926.16
579.124	13997.8
579.485	14198.02
579.845	14188.53
580.206	14285.25
580.566	14424
580.927	14436.2
581.287	14685.24
581.648	14675.07
582.008	14859.92
582.368	14893.14
582.728	15118.44
583.089	15227.59
583.449	15407.93
583.809	15523.63
584.169	15591.2
584.529	15783.29
584.889	16074.13
585.249	16122.03
585.609	16211.3
585.969	16470.73
586.329	16576.94
586.688	16864.16
587.048	17097.15
587.408	17218.28
587.768	17419.17
588.127	17560.41
588.487	17793.18
588.846	18146.61
589.206	18269.55
589.565	18449.66
589.925	18713.15
590.284	18983.65
590.643	19238.11
591.003	19459.35
591.362	19737.53
591.721	20008.03
592.08	20255.26
592.44	20537.74
592.799	20727.34
593.158	20908.8
593.517	21358.73
593.876	21602.57
594.235	21829
594.593	22130.01
594.952	22542.88
595.311	22631.02
595.67	23000.72
596.029	23358.23
596.387	23732.91
596.746	24002.5
597.104	24212.44
597.463	24535.37
597.822	24883.84
598.18	25049.93
598.538	25302.81
598.897	25708
599.255	25900.53
599.613	26477.92
599.972	26456.45
600.33	26944.8
600.688	27124.23
601.046	27482.86
601.404	27796.75
601.762	27982.51
602.12	28404.42
602.478	28759.44
602.836	28931.19
603.194	29050.06
603.552	29366.88
603.91	29572.75
604.268	30058.16
604.625	30151.95
604.983	30491.15
605.341	30649.56
605.698	31023.11
606.056	31391.46
606.413	31517.11
606.771	31936.76
607.128	32148.96
607.485	32122.29
607.843	32599.11
608.2	32896.28
608.557	33260.34
608.914	33323.16
609.272	33735.36
609.629	34004.73
609.986	34169.69
610.343	34212.18
610.7	34789.34
611.057	34889.9
611.414	35049.67
611.771	35325.6
612.127	35588.64
612.484	35735.76
612.841	36043.54
613.198	36055.07
613.554	36295.51
613.911	36477.43
614.267	36869.06
614.624	36927.81
614.98	37171.65
615.337	37500.23
615.693	37615.71
616.05	37490.51
616.406	37935.02
616.762	38034
617.118	38056.37
617.475	38356.25
617.831	38460.2
618.187	38714.66
618.543	38878.27
618.899	39291.14
619.255	39144.48
619.611	39400.07
619.967	39612.72
620.323	39750.11
620.678	39675.31
621.034	39759.15
621.39	39831.24
621.746	39966.6
622.101	40468.29
622.457	40217.45
622.812	40174.96
623.168	40589.64
623.523	40672.57
623.879	40902.4
624.234	40653.14
624.589	40868.05
624.945	41025.56
625.3	41152.56
625.655	41150.3
626.01	41278.89
626.365	41401.6
626.72	41410.86
627.075	41484.76
627.43	41471.88
627.785	41420.8
628.14	41685.88
628.495	41756.39
628.85	41839.55
629.205	41631.87
629.559	41940.11
629.914	41780.34
630.269	41920.68
630.623	41866.22
630.978	41687.01
631.332	42064.18
631.687	42111.86
632.041	41983.95
632.396	42080.22
632.75	42106.89
633.104	42199.31
633.459	42068.47
633.813	42011.52
634.167	42074.57
634.521	42137.17
634.875	42127.68
635.229	42061.69
635.583	41958.42
635.937	42042.93
636.291	41994.35
636.645	42099.2
636.999	42007.45
637.352	42191.86
637.706	42028.47
638.06	42045.65
638.413	42033.22
638.767	41982.6
639.121	42162.93
639.474	41873.22
639.828	41931.75
640.181	41950.51
640.534	42049.26
640.888	41952.31
641.241	41811.08
641.594	41867.12
641.947	42141.46
642.301	42015.82
642.654	42079.09
643.007	42080.22
643.36	41972.65
643.713	41998.87
644.066	42148.24
644.419	41725.43
644.771	41463.29
645.124	41288.6
645.477	41249.06
645.83	40993.24
646.182	40875.51
646.535	40785.79
646.888	40819.69
647.24	40579.47
647.593	40725.68
647.945	40763.87
648.298	40361.85
648.65	40494.27
649.002	40426.03
649.355	40637.77
649.707	40567.94
650.059	40754.83
650.411	41203.63
650.763	41261.26
651.115	41578.99
651.467	41502.16
651.819	41522.5
652.171	41383.06
652.523	41439.56
652.875	41379
653.227	41217.19
653.578	41514.13
653.93	41403.4
654.282	41270.53
654.633	41153.92
654.985	41203.63
655.337	41315.72
655.688	41278.43
656.039	41366.57
656.391	40993.02
656.742	41163.64
657.094	41051.55
657.445	41331.09
657.796	41251.32
658.147	41133.58
658.498	41089.74
658.849	41246.34
659.2	41082.73
659.551	41011.55
659.902	41223.75
660.253	40980.14
660.604	41076.41
660.955	41053.13
661.306	41193.24
661.656	41024.66
662.007	40996.63
662.358	40961.38
662.708	40901.72
663.059	40983.98
663.409	40798.45
663.76	40929.07
664.11	40957.31
664.461	41094.71
664.811	41115.95
665.161	40992.11
665.511	40924.32
665.862	40972.91
666.212	41005.67
666.562	41043.64
666.912	40919.12
667.262	40998.89
667.612	40956.86
667.962	40831.21
668.312	40861.72
668.662	41147.36
669.011	41086.35
669.361	40848.16
669.711	40862.4
670.06	40830.31
670.41	40771.1
670.76	40724.1
671.109	40920.93
671.459	40668.28
671.808	40698.79
672.157	40791.67
672.507	40602.75
672.856	40716.42
673.205	40648.62
673.554	40839.58
673.904	40668.96
674.253	40709.64
674.602	40799.58
674.951	40107.17
675.3	39854.52
675.649	40644.33
675.998	40543.09
676.346	40576.98
676.695	40522.3
677.044	40332.7
677.393	40424.67
677.741	40580.15
678.09	40362.3
678.438	40361.17
678.787	40388.97
679.135	40295.86
679.484	40128.41
679.832	40367.95
680.181	39944.46
680.529	40115.75
680.877	39958.24
681.225	40012.25
681.573	40193.94
681.922	39895.65
682.27	39828.08
682.618	39829.21
682.966	39703.56
683.314	39849.32
683.661	39641.87
684.009	39552.38
684.357	39489.33
684.705	39428.99
685.053	39455.43
685.4	39565.71
685.748	39249.11
686.095	39253.18
686.443	39181.54
686.79	39053.63
687.138	39221.31
687.485	39156
687.832	38869.91
688.18	38916.24
688.527	38822.45
688.874	38772.51
689.221	38703.36
689.568	38547.66
689.915	38407.1
690.262	38557.83
690.609	38330.94
690.956	38339.98
691.303	38231.73
691.65	37985.87
691.997	38002.59
692.344	37890.73
692.69	37862.93
693.037	37828.81
693.383	37558.08
693.73	37737.28
694.077	37447.8
694.423	37375.71
694.769	37408.71
695.116	37180.92
695.462	37170.97
695.808	37143.18
696.155	37186.56
696.501	36886.23
696.847	36867.48
697.193	36692.57
697.539	36719.01
697.885	36491.89
698.231	36478.56
698.577	36399.92
698.923	36400.82
699.269	36149.53
699.614	35998.12
699.96	35936.65
700.306	36029.08
700.651	35793.38
700.997	35727.17
701.342	35676.1
701.688	35560.84
702.033	35472.03
702.379	35359.27
702.724	35148.88
703.069	35288.31
703.415	35006.51
703.76	35045.83
704.105	35032.04
704.45	35007.19
704.795	34788.44
705.14	34755.44
705.485	34696.23
705.83	34439.74
706.175	34601.77
706.52	34488.1
706.865	34312.52
707.209	34299.86
707.554	34207.66
707.899	34208.79
708.243	33928.35
708.588	34048.79
708.932	33854.22
709.277	33774
709.621	33924.05
709.966	33524.29
710.31	33711.18
710.654	33506.44
710.998	33528.13
711.342	33484.06
711.687	33409.04
712.031	33214.47
712.375	33031.42
712.719	33136.05
713.063	32991.42
713.407	33158.42
713.75	32862.61
714.094	32959.56
714.438	32758.43
714.782	32823.74
715.125	32627.36
715.469	32720.02
715.812	32449.97
716.156	32392.79
716.499	32410.42
716.843	32428.5
717.186	32287.71
717.53	32371.32
717.873	32393.92
718.216	32388.5
718.559	31990.54
718.902	31846.82
719.246	32009.98
719.589	31900.83
719.932	31717.56
720.275	31749.42
720.617	31878
720.96	31712.81
721.303	31621.51
721.646	31632.59
721.989	31495.87
722.331	31569.54
722.674	31414.96
723.016	31489.09
723.359	31348.07
723.701	31344.46
724.044	31128.42
724.386	30992.15
724.729	31130
725.071	31083
725.413	31110.57
725.755	30979.72
726.097	30877.35
726.439	30685.27
726.782	30810.91
727.124	30825.83
727.465	30709.45
727.807	30717.81
728.149	30587.64
728.491	30546.51
728.833	30627.64
729.175	30552.16
729.516	30525.95
729.858	30378.16
730.199	30427.19
730.541	30390.81
730.882	30224.04
731.224	30451.37
731.565	30168.9
731.906	30125.73
732.248	30170.48
732.589	29982.46
732.93	29880.09
733.271	29865.85
733.612	30012.52
733.953	29949.69
734.294	29804.39
734.635	29835.8
734.976	29871.73
735.317	29724.61
735.658	29697.95
735.999	29715.8
736.339	29563.94
736.68	29643.94
737.021	29588.35
737.361	29440.33
737.702	29569.36
738.042	29531.17
738.383	29434
738.723	29465.41
739.063	29254.57
739.404	29355.13
739.744	29302.25
740.084	29215.47
740.424	29144.06
740.764	29113.56
741.104	29172.54
741.444	29053.45
741.784	29019.1
742.124	29074.69
742.464	28991.3
742.804	28947.91
743.143	28884.86
743.483	28800.8
743.823	28605.32
744.162	28647.35
744.502	28720.8
744.841	28676.73
745.181	28773.68
745.52	28670.86
745.86	28554.48
746.199	28406.68
746.538	28510.18
746.877	28461.6
747.216	28490.75
747.556	28441.71
747.895	28441.48
748.234	28256.86
748.573	28258.44
748.911	28172.34
749.25	28193.35
749.589	28148.84
749.928	28155.62
750.267	28176.41
750.605	28054.6
750.944	27998.78
751.283	27907.71
751.621	28032.23
751.96	27927.6
752.298	27844.89
752.636	27912.91
752.975	27678.34
753.313	27597.89
753.651	27876.07
753.989	27688.28
754.327	27530.1
754.666	27331
755.004	27587.49
755.342	27489.87
755.679	27353.83
756.017	27240.84
756.355	27331.23
756.693	27115.64
757.031	27259.37
757.368	27044.91
757.706	27022.09
758.044	26971.92
758.381	26950
758.719	26898.25
759.056	26804.24
759.394	26725.14
