Data from hue_50_FLMS001491_95.txt Node
Date: Mon Feb 06 15:11:21 GMT 2017
User: dcchb
Spectrometer: FLMS00149
Trigger mode: 0
Integration Time (sec): 2.000000E-2
Scans to average: 10
Electric dark correction enabled: true
Nonlinearity correction enabled: false
Boxcar width: 0
XAxis mode: Wavelengths
Number of Pixels in Spectrum: 2048
>>>>>Begin Spectral Data<<<<<
341.393	-1.41
341.776	-1.41
342.16	-1.41
342.543	-57.68
342.927	-60.85
343.31	-62.65
343.693	-66.5
344.077	-67.17
344.46	-83.67
344.843	-66.95
345.226	-52.94
345.61	-31.02
345.993	-4.12
346.376	-10.23
346.759	13.05
347.142	28.42
347.525	55.54
347.908	45.82
348.291	95.53
348.674	96.89
349.057	110
349.44	121.75
349.823	137.34
350.206	174.63
350.588	201.97
350.971	201.52
351.354	247.62
351.737	243.1
352.119	267.96
352.502	278.58
352.884	274.74
353.267	309.31
353.65	302.31
354.032	307.28
354.414	302.99
354.797	322.19
355.179	328.52
355.562	325.13
355.944	336.66
356.326	325.36
356.709	329.43
357.091	333.04
357.473	333.27
357.855	315.64
358.238	339.37
358.62	340.5
359.002	333.95
359.384	373.94
359.766	363.32
360.148	365.81
360.53	332.82
360.912	352.02
361.294	318.81
361.676	327.62
362.057	338.47
362.439	350.44
362.821	345.92
363.203	335.53
363.584	350.44
363.966	332.82
364.348	336.88
364.729	315.64
365.111	314.06
365.493	317.9
365.874	323.1
366.256	322.19
366.637	345.92
367.019	339.6
367.4	321.29
367.781	305.02
368.163	334.4
368.544	310.9
368.925	321.52
369.306	315.64
369.688	315.19
370.069	317.22
370.45	328.3
370.831	310.22
371.212	330.33
371.593	333.95
371.974	313.83
372.355	322.87
372.736	307.05
373.117	323.32
373.498	333.49
373.879	339.14
374.26	316.77
374.641	309.77
375.021	328.3
375.402	322.19
375.783	316.09
376.163	323.55
376.544	339.82
376.925	313.38
377.305	334.85
377.686	342.08
378.066	341.18
378.447	339.82
378.827	320.61
379.208	319.26
379.588	328.3
379.968	343.89
380.349	329.65
380.729	346.15
381.109	352.02
381.489	333.27
381.87	342.99
382.25	331.91
382.63	352.48
383.01	359.26
383.39	362.65
383.77	339.14
384.15	332.82
384.53	347.96
384.91	339.14
385.29	364
385.67	354.96
386.049	370.78
386.429	347.96
386.809	351.8
387.189	360.61
387.568	352.93
387.948	346.6
388.328	382.31
388.707	368.07
389.087	371.01
389.466	357.67
389.846	367.62
390.225	369.88
390.605	394.06
390.984	359.26
391.363	390.67
391.743	383.44
392.122	376.43
392.501	389.54
392.881	387.73
393.26	392.02
393.639	379.82
394.018	405.36
394.397	386.6
394.776	380.5
395.155	392.93
395.534	395.41
395.913	376.66
396.292	390.89
396.671	388.86
397.05	398.13
397.429	395.64
397.808	390.44
398.186	401.97
398.565	410.33
398.944	399.48
399.323	421.63
399.701	398.8
400.08	408.07
400.458	428.63
400.837	422.08
401.215	409.42
401.594	420.72
401.972	410.78
402.351	401.06
402.729	434.06
403.107	441.51
403.486	412.14
403.864	414.85
404.242	437.45
404.62	430.67
404.999	438.8
405.377	446.94
405.755	435.19
406.133	448.75
406.511	443.77
406.889	462.76
407.267	476.99
407.645	451.46
408.023	455.07
408.401	459.82
408.779	460.95
409.156	475.86
409.534	466.15
409.912	473.6
410.29	467.5
410.667	457.78
411.045	469.08
411.422	470.21
411.8	482.64
412.178	488.07
412.555	483.77
412.933	476.09
413.31	494.17
413.687	488.29
414.065	506.82
414.442	496.88
414.819	509.99
415.197	552.02
415.574	524.68
415.951	519.03
416.328	536.2
416.705	534.84
417.082	524
417.46	543.88
417.837	562.87
418.214	559.7
418.591	533.26
418.967	555.86
419.344	545.24
419.721	552.02
420.098	559.25
420.475	567.39
420.852	579.14
421.228	571.68
421.605	553.15
421.982	575.52
422.358	575.97
422.735	583.21
423.111	603.54
423.488	584.56
423.864	573.49
424.241	608.52
424.617	615.29
424.994	591.57
425.37	604.45
425.746	614.84
426.123	612.58
426.499	599.93
426.875	637.21
427.251	632.7
427.627	630.66
428.003	636.31
428.379	654.84
428.756	651.45
429.132	627.5
429.507	665.69
429.883	658.01
430.259	657.78
430.635	694.16
431.011	681.51
431.387	698.91
431.763	687.16
432.138	695.07
432.514	691.22
432.89	721.51
433.265	699.81
433.641	719.25
434.016	732.81
434.392	738.91
434.767	745.91
435.143	731.68
435.518	736.65
435.894	731.9
436.269	783.88
436.644	785.23
437.02	790.21
437.395	780.49
437.77	764.44
438.145	795.85
438.52	783.88
438.895	818.68
439.271	822.29
439.646	805.12
440.021	821.16
440.395	835.85
440.77	819.13
441.145	843.09
441.52	864.55
441.895	878.34
442.27	859.36
442.645	860.94
443.019	854.84
443.394	848.28
443.769	878.34
444.143	899.58
444.518	897.1
444.892	888.51
445.267	893.25
445.641	905.23
446.016	913.14
446.39	895.74
446.764	935.96
447.139	924.89
447.513	930.09
447.887	935.74
448.262	949.52
448.636	934.38
449.01	952.46
449.384	929.64
449.758	958.11
450.132	983.19
450.506	966.92
450.88	995.4
451.254	980.03
451.628	1025
452.002	1024.1
452.376	1003.98
452.75	1024.32
453.123	1020.03
453.497	1056.86
453.871	1074.04
454.244	1060.25
454.618	1070.65
454.992	1103.42
455.365	1096.64
455.739	1116.98
456.112	1119.91
456.486	1122.63
456.859	1135.73
457.232	1134.6
457.606	1126.92
457.979	1170.99
458.352	1189.74
458.725	1203.98
459.099	1205.79
459.472	1261.61
459.845	1228.84
460.218	1214.83
460.591	1295.5
460.964	1326.01
461.337	1307.25
461.71	1302.28
462.083	1323.07
462.456	1337.08
462.829	1344.54
463.201	1383.18
463.574	1367.59
463.947	1407.36
464.32	1450.75
464.692	1416.86
465.065	1428.61
465.438	1458.44
465.81	1476.97
466.183	1549.51
466.555	1556.29
466.928	1569.17
467.3	1589.73
467.672	1578.43
468.045	1642.16
468.417	1655.72
468.789	1666.57
469.161	1689.16
469.534	1710.18
469.906	1734.36
470.278	1748.6
470.65	1812.55
471.022	1844.41
471.394	1874.02
471.766	1902.72
472.138	1905.66
472.51	1933.45
472.882	2000.12
473.253	2030.4
473.625	2052.09
473.997	2105.42
474.369	2135.48
474.74	2212.77
475.112	2217.51
475.484	2283.95
475.855	2323.27
476.227	2380.9
476.598	2472.42
476.97	2499.09
477.341	2584.06
477.713	2632.64
478.084	2648.24
478.455	2745.18
478.827	2810.27
479.198	2881.22
479.569	2905.18
479.94	3009.58
480.311	3119.41
480.682	3155.57
481.053	3259.97
481.424	3340.19
481.795	3422.68
482.166	3538.61
482.537	3595.33
482.908	3730.92
483.279	3784.48
483.65	3911.71
484.021	4016.11
484.391	4179.27
484.762	4205.71
485.133	4256.78
485.503	4375.42
485.874	4497
486.244	4631.01
486.615	4756.43
486.985	4846.6
487.356	5017.21
487.726	5106.48
488.097	5274.61
488.467	5339.24
488.837	5526.35
489.207	5587.37
489.578	5775.16
489.948	5862.16
490.318	6040.91
490.688	6099.67
491.058	6293.34
491.428	6447.01
491.798	6567.23
492.168	6804.06
492.538	6836.37
492.908	6992.3
493.278	7125.18
493.648	7162.02
494.017	7333.54
494.387	7528.56
494.757	7636.58
495.126	7805.84
495.496	7899.85
495.866	7997.93
496.235	8215.55
496.605	8392.49
496.974	8411.7
497.344	8591.13
497.713	8841.29
498.082	8890.78
498.452	9057.33
498.821	9142.53
499.19	9262.75
499.559	9323.99
499.928	9563.99
500.298	9603.53
500.667	9777.31
501.036	9827.48
501.405	10029.51
501.774	10081.03
502.143	10180.24
502.512	10261.37
502.88	10506.11
503.249	10570.29
503.618	10673.11
503.987	10842.14
504.356	10991.29
504.724	11014.12
505.093	11125.98
505.462	11186.32
505.83	11325.07
506.199	11476.03
506.567	11710.82
506.936	11660.65
507.304	11949.69
507.672	12080.76
508.041	12112.62
508.409	12246.63
508.777	12428.32
509.145	12520.52
509.514	12581.31
509.882	12708.54
510.25	12783.34
510.618	12898.36
510.986	12974.07
511.354	13031.24
511.722	13270.33
512.09	13477.1
512.458	13442.3
512.826	13591
513.193	13589.42
513.561	13690.43
513.929	13920.71
514.297	14094.94
514.664	14125.22
515.032	14259.91
515.4	14340.13
515.767	14446.57
516.135	14643.85
516.502	14563.85
516.869	14892.43
517.237	14889.04
517.604	14875.03
517.972	15084.97
518.339	15202.71
518.706	15244.29
519.073	15272.31
519.44	15501.91
519.808	15664.39
520.175	15683.37
520.542	15905.51
520.909	15944.83
521.276	16047.88
521.643	16166.07
522.009	16334.43
522.376	16439.74
522.743	16545.27
523.11	16768.77
523.477	16857.35
523.843	17016.67
524.21	17220.28
524.577	17249.43
524.943	17373.95
525.31	17569.2
525.676	17710.66
526.043	17820.72
526.409	17760.61
526.776	18042.63
527.142	18161.73
527.508	18207.15
527.874	18301.38
528.241	18388.61
528.607	18528.04
528.973	18748.83
529.339	18644.43
529.705	18954.02
530.071	19065.88
530.437	19048.71
530.803	19242.6
531.169	19357.85
531.535	19309.04
531.901	19464.97
532.267	19510.62
532.632	19702.93
532.998	19743.61
533.364	19844.62
533.73	20020.66
534.095	20088
534.461	20234.44
534.826	20360.54
535.192	20445.51
535.557	20523.02
535.923	20555.79
536.288	20639.17
536.653	20743.13
537.019	20683.02
537.384	20813.63
537.749	20909.68
538.114	20960.75
538.479	21024.48
538.845	21201.19
539.21	21237.13
539.575	21245.71
539.94	21323.9
540.305	21473.05
540.67	21495.42
541.034	21627.4
541.399	21536.33
541.764	21717.11
542.129	21793.04
542.494	21871.46
542.858	22013.6
543.223	22033.04
543.587	22128.63
543.952	22115.29
544.316	22243.88
544.681	22233.71
545.045	22329.3
545.41	22447.94
545.774	22553.02
546.138	22632.57
546.503	22652.46
546.867	22698.33
547.231	23010.86
547.595	22892.45
547.959	23032.11
548.324	23032.33
548.688	23133.8
549.052	23257.19
549.416	23308.94
549.779	23352.1
550.143	23404.53
550.507	23515.71
550.871	23557.97
551.235	23600
551.599	23770.39
551.962	23888.81
552.326	24048.58
552.689	24094.68
553.053	23979.88
553.417	24102.81
553.78	24418.74
554.143	24221.91
554.507	24538.51
554.87	24459.87
555.234	24741.21
555.597	24520.2
555.96	24675
556.323	24769.46
556.686	24884.94
557.05	25011.49
557.413	25139.85
557.776	25158.83
558.139	25364.47
558.502	25303.68
558.865	25388.65
559.228	25754.75
559.59	25731.7
559.953	25771.24
560.316	25995.64
560.679	25998.36
561.041	26101.86
561.404	26323.09
561.767	26498
562.129	26364.45
562.492	26610.54
562.854	26593.82
563.217	26743.87
563.579	26771.22
563.941	26984.77
564.304	27098.89
564.666	27314.25
565.028	27319.9
565.39	27349.28
565.753	27647.35
566.115	27660.01
566.477	27753.34
566.839	27771.87
567.201	27961.69
567.563	28026.55
567.925	28130.73
568.287	28147.23
568.648	28219.09
569.01	28537.95
569.372	28549.25
569.734	28562.36
570.095	28784.5
570.457	28938.62
570.819	29020.42
571.18	28974.1
571.542	29209.12
571.903	29118.05
572.265	29295.44
572.626	29379.96
572.987	29501.09
573.349	29644.14
573.71	29694.3
574.071	29893.85
574.432	29937.01
574.794	30177.23
575.155	30160.96
575.516	30100.39
575.877	30275.98
576.238	30360.28
576.599	30610.44
576.96	30517.33
577.32	30738.57
577.681	30910.77
578.042	30913.48
578.403	31092.46
578.763	31152.57
579.124	31213.59
579.485	31396.63
579.845	31510.75
580.206	31597.98
580.566	31618.32
580.927	31742.39
581.287	31904.19
581.648	31813.8
582.008	31940.57
582.368	32056.73
582.728	32249.94
583.089	32237.06
583.449	32333.1
583.809	32456.49
584.169	32634.34
584.529	32619.2
584.889	32845.86
585.249	32981.45
585.609	32846.99
585.969	33221.22
586.329	33156.36
586.688	33397.26
587.048	33434.32
587.408	33489.01
587.768	33496.46
588.127	33660.98
588.487	33759.51
588.846	33947.53
589.206	33873.4
589.565	34111.14
589.925	34308.65
590.284	34321.75
590.643	34382.09
591.003	34474.29
591.362	34745.24
591.721	34707.05
592.08	34793.38
592.44	34905.92
592.799	35040.83
593.158	34932.58
593.517	35114.27
593.876	35322.86
594.235	35274.27
594.593	35362.18
594.952	35560.14
595.311	35610.98
595.67	35731.43
596.029	35934.82
596.387	36011.2
596.746	36151.99
597.104	36183.17
597.463	36050.75
597.822	36284.87
598.18	36369.83
598.538	36350.63
598.897	36577.51
599.255	36366.67
599.613	36974.56
599.972	36852.08
600.33	36972.53
600.688	36811.18
601.046	37119.19
601.404	37276.03
601.762	37243.94
602.12	37445.51
602.478	37547.88
602.836	37631.27
603.194	37519.18
603.552	37577.94
603.91	37618.16
604.268	37811.83
604.625	37659.97
604.983	38013.86
605.341	37895.9
605.698	38205.72
606.056	38178.15
606.413	38237.58
606.771	38310.8
607.128	38391.48
607.485	38298.15
607.843	38473.96
608.2	38739.26
608.557	38670.57
608.914	38714.18
609.272	38967.51
609.629	38933.61
609.986	39109.2
610.343	39001.4
610.7	39335.63
611.057	39441.39
611.414	39342.19
611.771	39417.44
612.127	39632.8
612.484	39679.8
612.841	39786.02
613.198	39699.01
613.554	39795.51
613.911	40006.58
614.267	39903.75
614.624	39980.36
614.98	40223.29
615.337	40199.34
615.693	40290.18
616.05	40264.65
616.406	40443.85
616.762	40251.09
617.118	40474.59
617.475	40400.92
617.831	40607.01
618.187	40775.14
618.543	40721.58
618.899	40987.11
619.255	40939.66
619.611	40771.07
619.967	41102.59
620.323	41094.68
620.678	41063.27
621.034	41036.6
621.39	41000.67
621.746	41041.8
622.101	41341.91
622.457	41025.08
622.812	41272.98
623.168	41369.93
623.523	41249.48
623.879	41437.5
624.234	41235.7
624.589	41320.44
624.945	41443.83
625.3	41625.29
625.655	41553.2
626.01	41485.18
626.365	41549.59
626.72	41515.46
627.075	41535.35
627.43	41644.95
627.785	41469.14
628.14	41707.1
628.495	41632.3
628.85	41642.01
629.205	41506.42
629.559	41837.94
629.914	41648.57
630.269	41557.49
630.623	41540.55
630.978	41454.45
631.332	41662.12
631.687	41821.89
632.041	41543.03
632.396	41736.02
632.75	41668.68
633.104	41619.87
633.459	41433.66
633.813	41391.4
634.167	41467.33
634.521	41463.71
634.875	41689.92
635.229	41455.8
635.583	41376.48
635.937	41444.5
636.291	41361.79
636.645	41294.68
636.999	41326.54
637.352	41415.58
637.706	41149.14
638.06	41235.7
638.413	41219.42
638.767	41151.86
639.121	41116.6
639.474	40861.24
639.828	41066.66
640.181	41037.51
640.534	40986.21
640.888	41072.99
641.241	40721.36
641.594	41021.69
641.947	41012.2
642.301	40874.35
642.654	40922.26
643.007	40926.33
643.36	40872.77
643.713	40792.77
644.066	40894.46
644.419	40574.47
644.771	40548.71
645.124	39969.74
645.477	40088.15
645.83	39848.16
646.182	39641.61
646.535	39571.56
646.888	39603.42
647.24	39436.19
647.593	39620.14
647.945	39500.6
648.298	39502.63
648.65	39319.36
649.002	39151
649.355	39456.99
649.707	39361.17
650.059	39626.02
650.411	39939.46
650.763	39964.77
651.115	40351.88
651.467	40158.44
651.819	40258.77
652.171	40278.88
652.523	40091.32
652.875	40011.77
653.227	39891.1
653.578	40120.7
653.93	40259.9
654.282	39938.1
654.633	39810.87
654.985	40003.41
655.337	39927.03
655.688	39932.45
656.039	39960.7
656.391	39613.37
656.742	39815.39
657.094	39795.73
657.445	39868.73
657.796	39757.32
658.147	39758.45
658.498	39730.88
658.849	39891.55
659.2	39685.23
659.551	39556.42
659.902	39729.97
660.253	39754.38
660.604	39732.23
660.955	39571.56
661.306	39690.88
661.656	39734.27
662.007	39523.2
662.358	39672.12
662.708	39642.29
663.059	39624.66
663.409	39406.14
663.76	39772.91
664.11	39670.09
664.461	39741.05
664.811	39518.23
665.161	39636.64
665.511	39620.14
665.862	39576.76
666.212	39678.67
666.562	39619.47
666.912	39611.33
667.262	39365.91
667.612	39512.58
667.962	39465.8
668.312	39482.97
668.662	39595.74
669.011	39612.91
669.361	39533.37
669.711	39424.22
670.06	39312.81
670.41	39240.04
670.76	39213.38
671.109	39409.08
671.459	39344.22
671.808	39377.89
672.157	39388.51
672.507	39069.2
672.856	39104.68
673.205	39146.94
673.554	39207.95
673.904	39136.77
674.253	39314.62
674.602	39123.43
674.951	38618.36
675.3	38534.07
675.649	39070.78
675.998	38992.59
676.346	39002.53
676.695	39203.88
677.044	38758.25
677.393	38947.62
677.741	38988.07
678.09	38878.24
678.438	38837.34
678.787	39008.86
679.135	38872.59
679.484	38536.56
679.832	38904.23
680.181	38513.73
680.529	38695.88
680.877	38613.62
681.225	38653.16
681.573	38720.06
681.922	38442.55
682.27	38405.04
682.618	38383.34
682.966	38293.85
683.314	38473.51
683.661	38371.14
684.009	38048.66
684.357	38109.22
684.705	37937.48
685.053	37954.65
685.4	37901.32
685.748	37763.02
686.095	37819.29
686.443	37567.09
686.79	37538.84
687.138	37625.17
687.485	37659.52
687.832	37428.34
688.18	37516.7
688.527	37271.05
688.874	37412.29
689.221	37222.92
689.568	37089.59
689.915	36960.1
690.262	36989.93
690.609	36841.69
690.956	36819.77
691.303	36827.68
691.65	36655.7
691.997	36658.64
692.344	36366.9
692.69	36340
693.037	36340.46
693.383	36275.37
693.73	36267.92
694.077	36116.06
694.423	36142.04
694.769	35997.19
695.116	35854.82
695.462	35834.48
695.808	35745.22
696.155	35830.41
696.501	35546.58
696.847	35492.12
697.193	35281.28
697.539	35445.79
697.885	35128.96
698.231	35061.17
698.577	35144.33
698.923	35119.7
699.269	34757.9
699.614	34641.74
699.96	34611.91
700.306	34621.86
700.651	34404.69
700.997	34451.92
701.342	34277.91
701.688	34261.19
702.033	34168.31
702.379	34206.73
702.724	34115.43
703.069	34080.4
703.415	33788.89
703.76	33849.22
704.105	33728.1
704.45	33743.92
704.795	33463.7
705.14	33451.49
705.485	33245.17
705.83	33220.99
706.175	33225.96
706.52	33070.26
706.865	33085.85
707.209	33127.43
707.554	32825.3
707.899	32910.49
708.243	32791.85
708.588	32609.93
708.932	32465.3
709.277	32461.01
709.621	32412.65
709.966	32306.89
710.31	32383.72
710.654	32043.39
710.998	32257.17
711.342	32068.93
711.687	32044.3
712.031	31903.74
712.375	31914.81
712.719	31880.91
713.063	31786.23
713.407	31790.52
713.75	31691.54
714.094	31611.99
714.438	31477.76
714.782	31553.24
715.125	31474.6
715.469	31486.35
715.812	31248.39
716.156	31099.24
716.499	31188.95
716.843	31315.5
717.186	31043.2
717.53	31161.16
717.873	31143.76
718.216	30989.64
718.559	30857.21
718.902	30657.22
719.246	30690.89
719.589	30770.43
719.932	30546.71
720.275	30588.07
720.617	30537.67
720.96	30337.9
721.303	30384.46
721.646	30454.28
721.989	30145.82
722.331	30374.06
722.674	30213.61
723.016	30126.38
723.359	30263.55
723.701	30131.13
724.044	29908.54
724.386	29801.65
724.729	29962.32
725.071	29790.35
725.413	29792.83
725.755	29821.53
726.097	29607.3
726.439	29591.93
726.782	29508.09
727.124	29671.71
727.465	29362.79
727.807	29366.4
728.149	29237.37
728.491	29355.33
728.833	29324.37
729.175	29165.73
729.516	29142.45
729.858	29057.94
730.199	29174.32
730.541	29054.77
730.882	29042.8
731.224	29074.89
731.565	28955.34
731.906	28973.87
732.248	28951.05
732.589	28903.59
732.93	28810.03
733.271	28727.78
733.612	28752.41
733.953	28738.17
734.294	28727.78
734.635	28600.32
734.976	28656.59
735.317	28485.07
735.658	28422.92
735.999	28409.59
736.339	28471.74
736.68	28438.52
737.021	28336.6
737.361	28260.44
737.702	28466.31
738.042	28220.44
738.383	28170.95
738.723	28215.92
739.063	28175.7
739.404	28118.98
739.744	28007.12
740.084	27897.06
740.424	27960.79
740.764	27969.6
741.104	27956.72
741.444	27789.72
741.784	27590.4
742.124	27827.91
742.464	27780.46
742.804	27693
743.143	27573.46
743.483	27636.73
743.823	27404.42
744.162	27450.07
744.502	27537.3
744.841	27326.23
745.181	27429.28
745.52	27333.69
745.86	27410.07
746.199	27240.13
746.538	27315.16
746.877	27241.04
747.216	27217.53
747.556	27210.98
747.895	27254.59
748.234	27123.52
748.573	27018.22
748.911	27028.39
749.25	26991.1
749.589	26848.73
749.928	26790.65
750.267	26861.84
750.605	26755.17
750.944	26593.82
751.283	26512.24
751.621	26604.67
751.96	26462.3
752.298	26439.7
752.636	26497.1
752.975	26256.43
753.313	26281.74
753.651	26375.75
753.989	26290.1
754.327	26106.6
754.666	26043.78
755.004	26082.42
755.342	26169.42
755.679	26017.11
756.017	25859.15
756.355	25898.02
756.693	25926.72
