Data from hue_350_FLMS001491_3.txt Node
Date: Mon Feb 06 15:37:28 GMT 2017
User: dcchb
Spectrometer: FLMS00149
Trigger mode: 0
Integration Time (sec): 2.000000E-2
Scans to average: 10
Electric dark correction enabled: true
Nonlinearity correction enabled: false
Boxcar width: 0
XAxis mode: Wavelengths
Number of Pixels in Spectrum: 2048
>>>>>Begin Spectral Data<<<<<
341.393	-34.84
341.776	-34.84
342.16	-34.84
342.543	-69.87
342.927	-48.63
343.31	-84.79
343.693	-87.5
344.077	-71.23
344.46	-48.4
344.843	-46.37
345.226	-49.08
345.61	-22.41
345.993	-14.96
346.376	-10.66
346.759	-9.31
347.142	43.8
347.525	38.6
347.908	73.85
348.291	73.63
348.674	90.8
349.057	124.02
349.44	138.49
349.823	149.78
350.206	175.77
350.588	185.72
350.971	206.96
351.354	229.1
351.737	241.53
352.119	228.43
352.502	263.23
352.884	255.32
353.267	287.63
353.65	312.49
354.032	286.96
354.414	306.39
354.797	317.92
355.179	308.42
355.562	332.38
355.944	336.45
356.326	318.82
356.709	336.9
357.091	334.41
357.473	348.2
357.855	345.71
358.238	323.56
358.62	336.67
359.002	324.47
359.384	347.97
359.766	319.27
360.148	322.21
360.53	318.14
360.912	329.89
361.294	336.67
361.676	350
362.057	327.86
362.439	342.32
362.821	330.8
363.203	325.6
363.584	323.56
363.966	333.51
364.348	315.2
364.729	298.03
365.111	317.46
365.493	314.53
365.874	337.8
366.256	306.84
366.637	317.92
367.019	309.55
367.4	308.88
367.781	298.93
368.163	299.16
368.544	304.36
368.925	312.49
369.306	299.16
369.688	332.83
370.069	325.82
370.45	319.05
370.831	316.33
371.212	329.89
371.593	313.4
371.974	307.75
372.355	283.57
372.736	306.62
373.117	305.94
373.498	323.11
373.879	312.27
374.26	313.4
374.641	307.75
375.021	309.55
375.402	292.83
375.783	317.24
376.163	339.16
376.544	321.53
376.925	334.19
377.305	326.95
377.686	317.46
378.066	316.11
378.447	315.43
378.827	320.18
379.208	332.6
379.588	342.77
379.968	305.49
380.349	332.38
380.729	334.86
381.109	321.98
381.489	333.73
381.87	339.84
382.25	316.33
382.63	357.01
383.01	341.42
383.39	353.62
383.77	333.96
384.15	332.83
384.53	332.15
384.91	356.56
385.29	355.65
385.67	348.65
386.049	357.69
386.429	345.94
386.809	344.81
387.189	342.77
387.568	356.11
387.948	361.08
388.328	361.08
388.707	341.64
389.087	348.42
389.466	358.82
389.846	363.56
390.225	352.72
390.605	358.82
390.984	357.01
391.363	378.7
391.743	360.17
392.122	342.32
392.501	351.81
392.881	366.5
393.26	373.96
393.639	363.79
394.018	353.39
394.397	378.7
394.776	381.87
395.155	391.81
395.534	364.92
395.913	374.64
396.292	368.99
396.671	361.53
397.05	352.26
397.429	362.21
397.808	373.96
398.186	366.5
398.565	385.94
398.944	381.19
399.323	397.69
399.701	366.05
400.08	381.19
400.458	394.98
400.837	418.03
401.215	377.57
401.594	394.3
401.972	380.06
402.351	393.39
402.729	414.86
403.107	405.14
403.486	399.72
403.864	394.52
404.242	421.87
404.62	432.04
404.999	414.86
405.377	395.43
405.755	415.09
406.133	405.37
406.511	399.04
406.889	427.52
407.267	392.04
407.645	408.76
408.023	427.29
408.401	424.58
408.779	426.39
409.156	455.76
409.534	427.29
409.912	451.92
410.29	453.05
410.667	453.51
411.045	444.69
411.422	469.1
411.8	461.64
412.178	467.97
412.555	467.06
412.933	454.63
413.31	491.02
413.687	501.64
414.065	485.82
414.442	502.77
414.819	473.84
415.197	492.15
415.574	500.28
415.951	484.46
416.328	500.74
416.705	498.25
417.082	489.66
417.46	506.84
417.837	521.75
418.214	517.46
418.591	534.41
418.967	534.41
419.344	514.97
419.721	545.03
420.098	545.71
420.475	527.4
420.852	525.59
421.228	550.45
421.605	535.76
421.982	545.03
422.358	552.03
422.735	563.78
423.111	546.84
423.488	572.37
423.864	564.01
424.241	596.55
424.617	563.33
424.994	592.03
425.37	597.91
425.746	581.64
426.123	607.17
426.499	590.22
426.875	605.37
427.251	576.44
427.627	628.19
428.003	607.85
428.379	611.24
428.756	624.57
429.132	628.42
429.507	638.13
429.883	630.45
430.259	642.43
430.635	641.75
431.011	634.29
431.387	679.04
431.763	673.16
432.138	679.26
432.514	692.14
432.89	704.35
433.265	687.62
433.641	690.33
434.016	679.26
434.392	707.28
434.767	710.22
435.143	705.02
435.518	727.4
435.894	745.47
436.269	758.36
436.644	749.99
437.02	751.35
437.395	733.5
437.77	778.24
438.145	772.59
438.52	757.23
438.895	780.28
439.271	756.55
439.646	781.18
440.021	784.12
440.395	824.79
440.77	773.5
441.145	801.52
441.52	823.89
441.895	818.69
442.27	842.87
442.645	825.7
443.019	810.56
443.394	831.35
443.769	836.55
444.143	840.84
444.518	839.48
444.892	825.02
445.267	847.17
445.641	841.29
446.016	866.38
446.39	866.15
446.764	879.03
447.139	884.91
447.513	890.33
447.887	850.33
448.262	867.73
448.636	874.74
449.01	903.21
449.384	910.67
449.758	888.3
450.132	872.03
450.506	941.4
450.88	917.22
451.254	934.85
451.628	946.83
452.002	920.84
452.376	933.49
452.75	958.8
453.123	944.11
453.497	954.73
453.871	975.98
454.244	967.62
454.618	950.22
454.992	1012.36
455.365	1000.38
455.739	1016.88
456.112	1018.24
456.486	1015.3
456.859	1030.44
457.232	1029.31
457.606	1051
457.979	1046.94
458.352	1077.67
458.725	1095.75
459.099	1083.09
459.472	1092.58
459.845	1093.94
460.218	1129.65
460.591	1136.42
460.964	1147.05
461.337	1148.4
461.71	1146.82
462.083	1181.17
462.456	1191.56
462.829	1171.23
463.201	1181.85
463.574	1194.05
463.947	1224.33
464.32	1230.89
464.692	1245.35
465.065	1260.26
465.438	1274.95
465.81	1299.58
466.183	1335.06
466.555	1334.39
466.928	1336.19
467.3	1331.67
467.672	1334.84
468.045	1403.08
468.417	1373.25
468.789	1368.74
469.161	1425
469.534	1453.93
469.906	1449.64
470.278	1453.48
470.65	1517.66
471.022	1508.84
471.394	1523.08
471.766	1557.43
472.138	1565.11
472.51	1558.33
472.882	1587.26
473.253	1652.8
473.625	1646.47
473.997	1667.48
474.369	1696.18
474.74	1704.32
475.112	1752.91
475.484	1778.89
475.855	1783.19
476.227	1799.91
476.598	1866.35
476.97	1869.96
477.341	1889.17
477.713	1914.94
478.084	1966.69
478.455	1995.16
478.827	2035.38
479.198	2056.63
479.569	2100.02
479.94	2127.59
480.311	2165.32
480.682	2178.66
481.053	2223.85
481.424	2269.05
481.795	2330.52
482.166	2365.09
482.537	2365.32
482.908	2418.65
483.279	2466.56
483.65	2499.1
484.021	2521.02
484.391	2613.9
484.762	2583.84
485.133	2622.04
485.503	2650.74
485.874	2669.72
486.244	2735.48
486.615	2785.42
486.985	2807.12
487.356	2882.82
487.726	2859.32
488.097	2956.04
488.467	2974.79
488.837	3026.54
489.207	3062.7
489.578	3098.63
489.948	3155.81
490.318	3198.07
490.688	3236.26
491.058	3256.14
491.428	3276.71
491.798	3378.17
492.168	3456.59
492.538	3436.03
492.908	3456.14
493.278	3541.11
493.648	3534.33
494.017	3587.89
494.387	3590.15
494.757	3612.74
495.126	3671.05
495.496	3736.13
495.866	3708.79
496.235	3766.19
496.605	3793.76
496.974	3793.08
497.344	3859.52
497.713	3863.58
498.082	3911.49
498.452	3939.74
498.821	3979.51
499.19	3970.7
499.559	4047.53
499.928	4025.84
500.298	4102.45
500.667	4106.06
501.036	4123.24
501.405	4170.02
501.774	4154.42
502.143	4200.07
502.512	4227.19
502.88	4272.39
503.249	4221.99
503.618	4327.75
503.987	4266.51
504.356	4323.01
504.724	4336.11
505.093	4339.73
505.462	4365.04
505.83	4436.9
506.199	4417.69
506.567	4471.7
506.936	4425.6
507.304	4501.76
507.672	4506.51
508.041	4499.73
508.409	4596.9
508.777	4613.17
509.145	4649.33
509.514	4643
509.882	4668.08
510.25	4656.33
510.618	4764.58
510.986	4736.33
511.354	4798.02
511.722	4793.96
512.09	4830.79
512.458	4825.59
512.826	4885.7
513.193	4835.31
513.561	4898.59
513.929	4894.07
514.297	4922.77
514.664	4941.52
515.032	4987.62
515.4	4987.62
515.767	5003.44
516.135	5051.35
516.502	4998.7
516.869	5066.27
517.237	5103.78
517.604	5092.48
517.972	5161.4
518.339	5182.19
518.706	5167.96
519.073	5191.91
519.44	5212.02
519.808	5205.47
520.175	5270.1
520.542	5277.78
520.909	5332.92
521.276	5298.58
521.643	5381.51
522.009	5362.98
522.376	5403.66
522.743	5472.58
523.11	5436.88
523.477	5476.88
523.843	5492.47
524.21	5596.42
524.577	5604.78
524.943	5564.33
525.31	5598.23
525.676	5659.02
526.043	5742.18
526.409	5729.52
526.776	5769.98
527.142	5767.04
527.508	5837.32
527.874	5843.65
528.241	5821.05
528.607	5897.2
528.973	5960.25
529.339	5924.1
529.705	6005.68
530.071	6054.94
530.437	6029.18
530.803	6098.33
531.169	6158.44
531.535	6146.46
531.901	6146.91
532.267	6191.66
532.632	6207.48
532.998	6217.42
533.364	6275.27
533.73	6287.93
534.095	6329.28
534.461	6332.9
534.826	6428.26
535.192	6381.94
535.557	6499.22
535.923	6405.44
536.288	6479.34
536.653	6513.68
537.019	6497.64
537.384	6492.67
537.749	6578.99
538.114	6610.86
538.479	6609.05
538.845	6615.6
539.21	6595.26
539.575	6709.84
539.94	6705.32
540.305	6779.44
540.67	6745.32
541.034	6747.12
541.399	6828.48
541.764	6861.47
542.129	6834.58
542.494	6838.65
542.858	6910.51
543.223	6910.06
543.587	6954.58
543.952	7014.01
544.316	7067.79
544.681	7049.04
545.045	7032.77
545.41	7105.76
545.774	7150.96
546.138	7195.7
546.503	7178.98
546.867	7204.97
547.231	7229.6
547.595	7285.87
547.959	7302.82
548.324	7338.07
548.688	7322.25
549.052	7400.89
549.416	7372.87
549.779	7397.05
550.143	7456.94
550.507	7471.85
550.871	7427.11
551.235	7506.88
551.599	7521.12
551.962	7549.36
552.326	7581.45
552.689	7616.25
553.053	7610.6
553.417	7623.49
553.78	7738.51
554.143	7643.15
554.507	7766.76
554.87	7709.13
555.234	7865.29
555.597	7815.35
555.96	7861.45
556.323	7821.45
556.686	7876.81
557.05	7899.64
557.413	7893.31
557.776	7932.4
558.139	7997.26
558.502	7997.71
558.865	8025.96
559.228	8063.47
559.59	8107.09
559.953	8156.58
560.316	8226.86
560.679	8221.21
561.041	8218.05
561.404	8280.19
561.767	8322
562.129	8291.04
562.492	8451.94
562.854	8338.5
563.217	8298.5
563.579	8386.63
563.941	8442.9
564.304	8457.81
564.666	8512.5
565.028	8552.05
565.39	8555.44
565.753	8614.65
566.115	8628.21
566.477	8661.65
566.839	8690.12
567.201	8820.52
567.563	8736.23
567.925	8780.07
568.287	8801.99
568.648	8811.03
569.01	8870.46
569.372	8974.86
569.734	8929.21
570.095	9000.85
570.457	9052.6
570.819	9061.41
571.18	9048.76
571.542	9159.94
571.903	9194.97
572.265	9236.78
572.626	9304.12
572.987	9319.94
573.349	9397.45
573.71	9416.43
574.071	9412.14
574.432	9534.4
574.794	9554.73
575.155	9643.09
575.516	9612.59
575.877	9787.5
576.238	9731
576.599	9843.77
576.96	9879.25
577.32	9981.16
577.681	10028.62
578.042	10094.61
578.403	10222.29
578.763	10302.51
579.124	10290.53
579.485	10502.28
579.845	10560.13
580.206	10582.05
580.566	10771.43
580.927	10921.7
581.287	11031.98
581.648	11024.3
582.008	11240.57
582.368	11341.81
582.728	11485.98
583.089	11611.18
583.449	11768.01
583.809	11958.74
584.169	12133.88
584.529	12208.45
584.889	12502.91
585.249	12633.3
585.609	12762.79
585.969	13083
586.329	13182.44
586.688	13412.26
587.048	13552.6
587.408	13843.66
587.768	13955.07
588.127	14158
588.487	14397.77
588.846	14675.05
589.206	14751.66
589.565	15026
589.925	15287.69
590.284	15500.57
590.643	15786.66
591.003	16193.66
591.362	16380.77
591.721	16625.28
592.08	16842.9
592.44	17149.79
592.799	17446.96
593.158	17648.08
593.517	17900.5
593.876	18295.52
594.235	18466.59
594.593	18824.1
594.952	19055.5
595.311	19212.79
595.67	19536.85
596.029	20060.9
596.387	20318.29
596.746	20522.58
597.104	20786.3
597.463	20991.72
597.822	21361.66
598.18	21545.83
598.538	21854.98
598.897	22241.63
599.255	22267.85
599.613	22868.06
599.972	22978.34
600.33	23413.13
600.688	23559.34
601.046	23922.49
601.404	24221.92
601.762	24319.77
602.12	24702.81
602.478	24947.55
602.836	25166.75
603.194	25356.81
603.552	25693.07
603.91	25804.02
604.268	26192.94
604.625	26328.08
604.983	26727.62
605.341	26833.83
605.698	27186.59
606.056	27487.14
606.413	27660.93
606.771	27984.98
607.128	28156.05
607.485	28326.44
607.843	28354.69
608.2	28947.67
608.557	29100.21
608.914	29333.65
609.272	29648.44
609.629	29883.92
609.986	30154.19
610.343	30207.98
610.7	30581.07
611.057	30567.52
611.414	30919.82
611.771	30943.1
612.127	31369.75
612.484	31403.2
612.841	31689.97
613.198	31705.56
613.554	31851.32
613.911	32139.68
614.267	32271.43
614.624	32454.7
614.98	32573.79
615.337	32865.99
615.693	32937.62
616.05	32987.11
616.406	33392.75
616.762	33432.98
617.118	33532.64
617.475	33737.15
617.831	33882.91
618.187	33970.36
618.543	34197.93
618.899	34483.12
619.255	34439.96
619.611	34526.73
619.967	34957
620.323	34943.67
620.678	35027.29
621.034	35023.44
621.39	35166.49
621.746	35337.11
622.101	35675.18
622.457	35318.58
622.812	35737.78
623.168	35729.19
623.523	35864.78
623.879	36054.6
624.234	35954.27
624.589	36102.74
624.945	36162.85
625.3	36262.73
625.655	36312.22
626.01	36374.59
626.365	36483.07
626.72	36453.46
627.075	36708.82
627.43	36742.04
627.785	36729.84
628.14	36744.75
628.495	36727.13
628.85	36713.79
629.205	36669.5
629.559	37062.49
629.914	36876.95
630.269	37043.96
630.623	36888.48
630.978	36966.22
631.332	37264.06
631.687	37174.35
632.041	37054.58
632.396	37367.56
632.75	37031.3
633.104	37132.99
633.459	36954.92
633.813	37180.9
634.167	37081.92
634.521	37183.61
634.875	37245.53
635.229	37218.19
635.583	37088.25
635.937	37171.86
636.291	37125.99
636.645	37272.2
636.999	37185.42
637.352	37265.19
637.706	37044.63
638.06	37295.25
638.413	37239.43
638.767	37101.81
639.121	37129.15
639.474	37113.11
639.828	37052.99
640.181	37256.15
640.534	37282.14
640.888	37054.8
641.241	36884.64
641.594	37142.71
641.947	37147.68
642.301	37038.76
642.654	37062.26
643.007	37094.58
643.36	37047.35
643.713	37008.93
644.066	37159.88
644.419	36882.38
644.771	36676.28
645.124	36407.81
645.477	36324.88
645.83	36184.99
646.182	36047.6
646.535	35909.07
646.888	36023.87
647.24	35785.68
647.593	36034.04
647.945	35934.15
648.298	35835.17
648.65	35846.02
649.002	35673.82
649.355	36003.08
649.707	35820.94
650.059	35986.13
650.411	36477.42
650.763	36391.32
651.115	36826.33
651.467	36657.75
651.819	36741.14
652.171	36646.45
652.523	36626.57
652.875	36674.02
653.227	36449.62
653.578	36684.87
653.93	36638.77
654.282	36441.26
654.633	36399.45
654.985	36553.57
655.337	36469.96
655.688	36531.43
656.039	36617.75
656.391	36246.46
656.742	36372.56
657.094	36378.66
657.445	36498.43
657.796	36437.64
658.147	36411.66
658.498	36281.72
658.849	36519
659.2	36422.73
659.551	36318.78
659.902	36504.99
660.253	36434.93
660.604	36502.05
660.955	36368.27
661.306	36425.89
661.656	36209.85
662.007	36324.43
662.358	36284.65
662.708	36383.18
663.059	36052.34
663.409	36020.48
663.76	36229.74
664.11	36300.92
664.461	36230.42
664.811	36212.11
665.161	36115.62
665.511	36104.55
665.862	36208.05
666.212	36309.06
666.562	36289.4
666.912	36240.81
667.262	36222.51
667.612	36286.24
667.962	36122.62
668.312	36044.66
668.662	36288.72
669.011	36230.19
669.361	36296.4
669.711	36010.54
670.06	36034.72
670.41	36111.55
670.76	36050.76
671.109	36150.42
671.459	36090.76
671.808	35992.91
672.157	36036.07
672.507	35821.61
672.856	36003.3
673.205	35893.25
673.554	36040.37
673.904	35929.18
674.253	36067.03
674.602	35880.14
674.951	35444.9
675.3	35196.09
675.649	35859.35
675.998	35880.6
676.346	35792.46
676.695	36039.46
677.044	35673.82
677.393	35751.79
677.741	35798.79
678.09	35738
678.438	35644.44
678.787	35695.52
679.135	35714.5
679.484	35543.66
679.832	35629.98
680.181	35386.15
680.529	35572.58
680.877	35372.81
681.225	35479.02
681.573	35561.28
681.922	35285.36
682.27	35243.32
682.618	35256.88
682.966	35075.87
683.314	35148.19
683.661	35188.41
684.009	35013.73
684.357	34991.58
684.705	34839.72
685.053	34914.97
685.4	34850.11
685.748	34683.57
686.095	34809.44
686.443	34491.71
686.79	34629.78
687.138	34667.29
687.485	34470.69
687.832	34488.54
688.18	34394.31
688.527	34338.72
688.874	34349.79
689.221	34194.54
689.568	34061.89
689.915	33988.22
690.262	34046.07
690.609	33938.05
690.956	33740.99
691.303	33699.86
691.65	33732.4
691.997	33543.48
692.344	33348.23
692.69	33416.48
693.037	33390.94
693.383	33132.65
693.73	33287.22
694.077	33084.51
694.423	33004.97
694.769	32909.37
695.116	32910.73
695.462	32815.37
695.808	32656.05
696.155	32659.21
696.501	32520.01
696.847	32533.11
697.193	32403.17
697.539	32576.05
697.885	32184.87
698.231	32046.8
698.577	32070.75
698.923	32057.65
699.269	31869.63
699.614	31686.58
699.96	31624.66
700.306	31793.7
700.651	31516.87
700.997	31359.81
701.342	31422.63
701.688	31447.94
702.033	31235.29
702.379	31377.44
702.724	31126.37
703.069	31209.08
703.415	30758.02
703.76	30877.79
704.105	30905.36
704.45	31005.02
704.795	30639.15
705.14	30579.27
705.485	30410.91
705.83	30433.06
706.175	30450
706.52	30188.09
706.865	30212.72
707.209	30180.63
707.554	30091.14
707.899	30237.13
708.243	29997.81
708.588	30002.56
708.932	29747.65
709.277	29742
709.621	29835.11
709.966	29565.51
710.31	29598.73
710.654	29523.02
710.998	29504.72
711.342	29530.71
711.687	29330.03
712.031	29277.83
712.375	29128.46
712.719	29199.19
713.063	29125.97
713.407	29246.42
713.75	29038.97
714.094	28945.86
714.438	28951.51
714.782	28947.22
715.125	28717.39
715.469	28948.12
715.812	28595.36
716.156	28554.01
716.499	28550.39
716.843	28559.88
717.186	28424.07
717.53	28570.73
717.873	28482.6
718.216	28407.35
718.559	28397.86
718.902	28101.37
719.246	28213.68
719.589	28116.05
719.932	27982.72
720.275	28034.02
720.617	28003.52
720.96	27855.72
721.303	27977.98
721.646	27900.69
721.989	27719.91
722.331	27669.51
722.674	27636.29
723.016	27669.29
723.359	27554.94
723.701	27567.14
724.044	27496.86
724.386	27331.22
724.729	27416.19
725.071	27292.12
725.413	27263.65
725.755	27270.88
726.097	27087.61
726.439	27002.19
726.782	27088.06
727.124	27247.6
727.465	27065.46
727.807	27016.65
728.149	26987.5
728.491	27010.09
728.833	27024.56
729.175	26853.04
729.516	26921.28
729.858	26881.06
730.199	26776.88
730.541	26715.87
730.882	26657.34
731.224	26815.75
731.565	26529.88
731.906	26502.54
732.248	26545.02
732.589	26422.09
732.93	26355.87
733.271	26370.34
733.612	26435.42
733.953	26438.58
734.294	26374.41
734.635	26138.71
734.976	26366.04
735.317	26238.14
735.658	26108.2
735.999	26095.09
736.339	25954.08
736.68	26097.8
737.021	26155.2
737.361	25960.86
737.702	26044.02
738.042	25938.71
738.383	25911.37
738.723	25898.26
739.063	25770.13
739.404	25888.99
739.744	25766.74
740.084	25564.94
740.424	25765.61
740.764	25594.76
741.104	25682.9
741.444	25505.5
741.784	25389.35
742.124	25506.18
742.464	25488.1
742.804	25409.01
743.143	25307.31
743.483	25456.01
743.823	25286.98
744.162	25321.1
744.502	25250.59
744.841	25190.93
745.181	25272.74
745.52	25070.26
745.86	25239.07
746.199	25052.86
746.538	24942.8
746.877	25168.11
747.216	25081.11
747.556	24982.58
747.895	24907.55
748.234	24787.55
748.573	24851.96
748.911	24867.1
749.25	24734.67
749.589	24724.51
749.928	24608.58
750.267	24605.86
750.605	24599.76
750.944	24526.54
751.283	24405.87
751.621	24487.9
751.96	24392.54
752.298	24402.03
752.636	24395.93
752.975	24192.99
753.313	24172.88
753.651	24319.32
753.989	24229.6
754.327	24120.68
754.666	24053.11
755.004	24075.48
755.342	24039.55
755.679	23997.07
756.017	23938.09
756.355	23903.51
756.693	23815.6
757.031	23840.46
757.368	23671.43
757.706	23744.64
758.044	23523.18
758.381	23634.59
758.719	23456.06
759.056	23378.33
759.394	23325.45
759.731	23286.13
760.068	23250.87
760.405	23183.53
