Data from hue_160_FLMS001491_00083.txt Node
Date: Tue Feb 07 16:51:48 GMT 2017
User: dcchb
Spectrometer: FLMS00149
Trigger mode: 0
Integration Time (sec): 2.000000E-2
Scans to average: 10
Electric dark correction enabled: true
Nonlinearity correction enabled: false
Boxcar width: 0
XAxis mode: Wavelengths
Number of Pixels in Spectrum: 2048
>>>>>Begin Spectral Data<<<<<
341.393	13.98
341.776	13.98
342.16	13.98
342.543	-50.87
342.927	-57.2
343.31	-73.92
343.693	-79.35
344.077	-35.96
344.46	-68.73
344.843	-57.65
345.226	-36.41
345.61	-43.19
345.993	-27.6
346.376	-9.75
346.759	-0.25
347.142	56.02
347.525	33.64
347.908	66.64
348.291	56.92
348.674	100.99
349.057	118.61
349.44	152.74
349.823	142.34
350.206	174.43
350.588	206.52
350.971	215.33
351.354	243.36
351.737	226.63
352.119	238.61
352.502	258.04
352.884	279.96
353.267	278.38
353.65	291.04
354.032	293.07
354.414	304.37
354.797	315.44
355.179	329
355.562	323.58
355.944	338.95
356.326	335.33
356.709	334.88
357.091	344.37
357.473	356.57
357.855	337.14
358.238	346.4
358.62	341.43
359.002	331.26
359.384	331.94
359.766	326.97
360.148	333.3
360.53	335.1
360.912	325.61
361.294	348.44
361.676	364.26
362.057	348.89
362.439	324.03
362.821	321.55
363.203	334.88
363.584	359.06
363.966	331.04
364.348	331.71
364.729	321.32
365.111	322.68
365.493	321.77
365.874	335.33
366.256	329
366.637	308.89
367.019	307.53
367.4	343.92
367.781	320.87
368.163	315.9
368.544	323.81
368.925	323.58
369.306	298.27
369.688	320.64
370.069	335.1
370.45	314.77
370.831	305.5
371.212	326.52
371.593	314.09
371.974	313.86
372.355	324.03
372.736	327.65
373.117	325.61
373.498	320.64
373.879	324.48
374.26	323.13
374.641	320.87
375.021	327.87
375.402	327.87
375.783	343.47
376.163	337.36
376.544	322.9
376.925	327.42
377.305	333.07
377.686	329.91
378.066	332.17
378.447	322
378.827	326.97
379.208	323.81
379.588	338.04
379.968	334.65
380.349	348.21
380.729	304.82
381.109	333.52
381.489	338.04
381.87	345.5
382.25	345.27
382.63	335.1
383.01	349.57
383.39	348.21
383.77	350.92
384.15	343.47
384.53	338.49
384.91	352.5
385.29	374.88
385.67	357.7
386.049	340.53
386.429	354.09
386.809	353.18
387.189	358.15
387.568	362.67
387.948	364.48
388.328	375.1
388.707	373.75
389.087	372.62
389.466	368.1
389.846	369.45
390.225	366.52
390.605	368.32
390.984	373.07
391.363	377.81
391.743	365.39
392.122	376.01
392.501	388.89
392.881	363.13
393.26	388.44
393.639	375.33
394.018	383.92
394.397	392.05
394.776	390.47
395.155	359.28
395.534	396.8
395.913	377.81
396.292	374.65
396.671	384.37
397.05	398.38
397.429	395.89
397.808	387.53
398.186	373.07
398.565	393.86
398.944	396.12
399.323	403.12
399.701	397.7
400.08	402.45
400.458	399.74
400.837	424.14
401.215	400.87
401.594	402.45
401.972	430.69
402.351	410.81
402.729	432.05
403.107	420.53
403.486	410.58
403.864	439.96
404.242	419.85
404.62	410.81
404.999	413.75
405.377	440.41
405.755	433.41
406.133	426.63
406.511	424.82
406.889	428.66
407.267	441.99
407.645	426.85
408.023	442.67
408.401	452.84
408.779	448.1
409.156	456.23
409.534	465.27
409.912	442.45
410.29	465.27
410.667	474.99
411.045	467.53
411.422	458.49
411.8	474.31
412.178	489.68
412.555	489.22
412.933	484.25
413.31	476.34
413.687	492.39
414.065	497.59
414.442	475.67
414.819	511.82
415.197	518.15
415.574	504.82
415.951	505.04
416.328	523.8
416.705	509.79
417.082	500.3
417.46	517.02
417.837	533.52
418.214	534.87
418.591	549.11
418.967	544.82
419.344	544.82
419.721	542.33
420.098	543.91
420.475	556.34
420.852	547.75
421.228	551.37
421.605	540.3
421.982	570.8
422.358	590.01
422.735	581.43
423.111	599.73
423.488	560.63
423.864	589.11
424.241	588.88
424.617	598.6
424.994	588.88
425.37	609.9
425.746	618.71
426.123	617.58
426.499	606.28
426.875	618.26
427.251	638.15
427.627	625.94
428.003	638.15
428.379	658.49
428.756	656
429.132	657.13
429.507	655.1
429.883	686.73
430.259	674.3
430.635	660.52
431.011	668.43
431.387	656.68
431.763	688.77
432.138	710.46
432.514	705.49
432.89	718.14
433.265	718.82
433.641	707.07
434.016	733.29
434.392	746.84
434.767	752.49
435.143	761.99
435.518	750.01
435.894	769.9
436.269	798.14
436.644	786.39
437.02	789.78
437.395	807.18
437.77	804.7
438.145	821.65
438.52	823
438.895	840.63
439.271	829.1
439.646	851.47
440.021	840.85
440.395	838.82
440.77	846.96
441.145	871.36
441.52	865.71
441.895	888.31
442.27	895.09
442.645	898.03
443.019	882.89
443.394	891.02
443.769	907.52
444.143	889.21
444.518	926.95
444.892	947.07
445.267	930.57
445.641	957.23
446.016	922.66
446.39	940.29
446.764	970.79
447.139	944.81
447.513	965.14
447.887	976.67
448.262	958.82
448.636	963.79
449.01	979.83
449.384	993.17
449.758	993.17
450.132	1011.7
450.506	1035.65
450.88	1044.69
451.254	1052.6
451.628	1052.15
452.002	1082.43
452.376	1097.8
452.75	1077.68
453.123	1093.05
453.497	1094.41
453.871	1075.65
454.244	1124.91
454.618	1136.44
454.992	1142.99
455.365	1167.4
455.739	1178.25
456.112	1197.68
456.486	1189.09
456.859	1216.66
457.232	1222.09
457.606	1250.11
457.979	1224.8
458.352	1260.28
458.725	1291.24
459.099	1313.38
459.472	1310.45
459.845	1317.23
460.218	1319.03
460.591	1341.41
460.964	1363.33
461.337	1389.54
461.71	1405.81
462.083	1443.32
462.456	1455.53
462.829	1444.91
463.201	1456.2
463.574	1510.89
463.947	1552.25
464.32	1551.57
464.692	1578.24
465.065	1589.53
465.438	1616.2
465.81	1617.56
466.183	1664.56
466.555	1673.37
466.928	1707.95
467.3	1716.08
467.672	1720.15
468.045	1777.78
468.417	1770.55
468.789	1818
469.161	1876.08
469.534	1882.86
469.906	1940.03
470.278	1941.62
470.65	1980.03
471.022	2056.19
471.394	2080.6
471.766	2097.77
472.138	2153.81
472.51	2244.43
472.882	2233.13
473.253	2248.73
473.625	2305.9
473.997	2356.52
474.369	2404.88
474.74	2451.66
475.112	2514.71
475.484	2564.42
475.855	2659.11
476.227	2658.66
476.598	2748.15
476.97	2820.91
477.341	2890.52
477.713	2966
478.084	2979.78
478.455	3070.17
478.827	3131.19
479.198	3247.8
479.569	3301.35
479.94	3384.06
480.311	3489.6
480.682	3592.42
481.053	3678.75
481.424	3802.81
481.795	3832.19
482.166	3953.31
482.537	4044.39
482.908	4120.77
483.279	4210.03
483.65	4357.37
484.021	4469.91
484.391	4530.7
484.762	4627.87
485.133	4734.76
485.503	4881.2
485.874	4970.69
486.244	5087.97
486.615	5262.88
486.985	5360.06
487.356	5513.5
487.726	5579.71
488.097	5698.58
488.467	5811.34
488.837	5992.13
489.207	6069.42
489.578	6225.34
489.948	6392.8
490.318	6525.68
490.688	6558.22
491.058	6761.15
491.428	6864.88
491.798	6963.18
492.168	7148.94
492.538	7192.33
492.908	7334.69
493.278	7530.17
493.648	7622.6
494.017	7789.82
494.387	7873.44
494.757	8065.97
495.126	8155.46
495.496	8275.23
495.866	8236.59
496.235	8460.77
496.605	8573.31
496.974	8670.25
497.344	8842.45
497.713	8947.53
498.082	8996.12
498.452	9121.77
498.821	9136.23
499.19	9260.29
499.559	9393.85
499.928	9449.67
500.298	9569.89
500.667	9683.11
501.036	9724.01
501.405	9846.27
501.774	9886.72
502.143	9997.9
502.512	10037
502.88	10182.75
503.249	10175.98
503.618	10303.43
503.987	10330.77
504.356	10480.83
504.724	10483.09
505.093	10615.51
505.462	10601.95
505.83	10723.31
506.199	10728.73
506.567	10918.55
506.936	10878.56
507.304	11014.15
507.672	11096.63
508.041	11162.84
508.409	11222.28
508.777	11266.12
509.145	11369.16
509.514	11345.89
509.882	11466.56
510.25	11437.86
510.618	11525.54
510.986	11565.77
511.354	11720.34
511.722	11754.92
512.09	11751.75
512.458	11758.53
512.826	11836.72
513.193	11926.44
513.561	11920.56
513.929	12044.63
514.297	12112.42
514.664	12177.96
515.032	12121.91
515.4	12122.36
515.767	12204.4
516.135	12228.8
516.502	12216.37
516.869	12373.88
517.237	12441.9
517.604	12344.73
517.972	12479.87
518.339	12483.71
518.706	12508.34
519.073	12470.38
519.44	12503.6
519.808	12605.52
520.175	12634.89
520.542	12675.57
520.909	12745.85
521.276	12622.69
521.643	12715.8
522.009	12797.38
522.376	12844.61
522.743	12904.27
523.11	12973.64
523.477	13028.78
523.843	13010.93
524.21	13110.81
524.577	13201.88
524.943	13154.88
525.31	13144.26
525.676	13206.86
526.043	13201.21
526.409	13230.58
526.776	13257.02
527.142	13260.64
527.508	13277.81
527.874	13349.68
528.241	13384.48
528.607	13350.36
528.973	13345.84
529.339	13368.66
529.705	13445.95
530.071	13529.56
530.437	13462.22
530.803	13507.87
531.169	13555.77
531.535	13413.63
531.901	13362.78
532.267	13422.67
532.632	13459.05
532.998	13413.18
533.364	13374.99
533.73	13440.97
534.095	13440.75
534.461	13370.47
534.826	13467.64
535.192	13445.27
535.557	13438.04
535.923	13328.43
536.288	13383.57
536.653	13292.05
537.019	13296.12
537.384	13246.63
537.749	13288.89
538.114	13251.83
538.479	13208.66
538.845	13158.95
539.21	13117.37
539.575	13116.24
539.94	13102.9
540.305	13119.4
540.67	13024.49
541.034	13003.7
541.399	13103.13
541.764	12968.67
542.129	12897.26
542.494	12933.42
542.858	12977.71
543.223	12929.35
543.587	12931.84
543.952	12814.55
544.316	12902.46
544.681	12782.01
545.045	12773.65
545.41	12794.21
545.774	12673.99
546.138	12650.03
546.503	12681.67
546.867	12670.15
547.231	12593.31
547.595	12543.14
547.959	12509.47
548.324	12487.55
548.688	12438.97
549.052	12450.94
549.416	12391.96
549.779	12384.96
550.143	12364.62
550.507	12398.52
550.871	12357.16
551.235	12256.82
551.599	12419.31
551.962	12314.68
552.326	12253.89
552.689	12250.72
553.053	12121.46
553.417	12130.5
553.78	12308.8
554.143	12099.31
554.507	12140.22
554.87	12076.26
555.234	12178.86
555.597	12059.54
555.96	12014.8
556.323	12066.1
556.686	12061.35
557.05	12065.42
557.413	12056.38
557.776	11969.15
558.139	12068.81
558.502	12055.02
558.865	12005.31
559.228	12099.31
559.59	11976.15
559.953	11942.71
560.316	12058.19
560.679	12054.34
561.041	12036.04
561.404	12071.07
561.767	12063.61
562.129	12019.99
562.492	12026.1
562.854	12117.39
563.217	11976.61
563.579	11987.23
563.941	12074.68
564.304	12086.21
564.666	12085.98
565.028	12150.16
565.39	12143.61
565.753	12234.68
566.115	12100.67
566.477	12147
566.839	12122.59
567.201	12252.08
567.563	12255.24
567.925	12230.84
568.287	12244.62
568.648	12196.71
569.01	12346.54
569.372	12298.18
569.734	12210.5
570.095	12290.5
570.457	12252.08
570.819	12300.67
571.18	12310.16
571.542	12267.67
571.903	12365.07
572.265	12343.83
572.626	12253.89
572.987	12395.58
573.349	12410.49
573.71	12370.72
574.071	12403.04
574.432	12384.5
574.794	12497.72
575.155	12423.6
575.516	12358.29
575.877	12471.73
576.238	12422.92
576.599	12542.24
576.96	12456.14
577.32	12499.3
577.681	12527.33
578.042	12598.06
578.403	12508.12
578.763	12519.19
579.124	12506.08
579.485	12522.81
579.845	12641.67
580.206	12539.08
580.566	12478.06
580.927	12509.7
581.287	12410.27
581.648	12491.62
582.008	12583.37
582.368	12482.13
582.728	12426.76
583.089	12483.49
583.449	12476.03
583.809	12509.7
584.169	12493.43
584.529	12417.72
584.889	12502.92
585.249	12492.75
585.609	12421.79
585.969	12434
586.329	12378.18
586.688	12429.02
587.048	12491.17
587.408	12418.85
587.768	12338.18
588.127	12345.41
588.487	12308.35
588.846	12422.24
589.206	12295.69
589.565	12315.13
589.925	12363.94
590.284	12350.83
590.643	12364.17
591.003	12391.06
591.362	12290.04
591.721	12292.3
592.08	12369.36
592.44	12354.9
592.799	12266.77
593.158	12257.05
593.517	12289.37
593.876	12223.15
594.235	12256.6
594.593	12165.53
594.952	12297.28
595.311	12155.13
595.67	12230.16
596.029	12282.36
596.387	12348.35
596.746	12276.71
597.104	12235.58
597.463	12200.33
597.822	12285.3
598.18	12233.32
598.538	12178.41
598.897	12254.56
599.255	12219.09
599.613	12335.47
599.972	12216.6
600.33	12198.3
600.688	12209.14
601.046	12281.46
601.404	12274.9
601.762	12265.19
602.12	12189.93
602.478	12227.45
602.836	12308.8
603.194	12222.25
603.552	12214.79
603.91	12160.1
604.268	12246.2
604.625	12186.32
604.983	12191.52
605.341	12175.24
605.698	12212.53
606.056	12275.36
606.413	12249.82
606.771	12302.93
607.128	12271.06
607.485	12186.54
607.843	12224.28
608.2	12324.62
608.557	12347.44
608.914	12188.35
609.272	12228.12
609.629	12316.03
609.986	12366.88
610.343	12348.57
610.7	12365.97
611.057	12378.63
611.414	12358.97
611.771	12373.43
612.127	12393.77
612.484	12400.1
612.841	12384.96
613.198	12274.45
613.554	12336.37
613.911	12429.25
614.267	12450.27
614.624	12490.49
614.98	12389.48
615.337	12469.25
615.693	12492.75
616.05	12517.38
616.406	12499.08
616.762	12433.77
617.118	12415.24
617.475	12500.21
617.831	12574.56
618.187	12525.07
618.543	12565.74
618.899	12648.23
619.255	12567.78
619.611	12536.82
619.967	12577.95
620.323	12653.65
620.678	12548.12
621.034	12557.83
621.39	12638.28
621.746	12491.39
622.101	12626.53
622.457	12546.08
622.812	12570.94
623.168	12591.28
623.523	12545.63
623.879	12582.24
624.234	12528.91
624.589	12639.41
624.945	12538.85
625.3	12587.44
625.655	12643.48
626.01	12589.02
626.365	12599.87
626.72	12546.99
627.075	12553.99
627.43	12611.17
627.785	12537.27
628.14	12542.01
628.495	12542.92
628.85	12522.81
629.205	12561
629.559	12506.99
629.914	12543.82
630.269	12478.29
630.623	12481.45
630.978	12360.78
631.332	12440.32
631.687	12518.96
632.041	12424.5
632.396	12527.78
632.75	12379.31
633.104	12371.85
633.459	12448.46
633.813	12395.58
634.167	12343.38
634.521	12377.73
634.875	12439.64
635.229	12348.12
635.583	12290.95
635.937	12328.01
636.291	12256.37
636.645	12325.07
636.999	12231.06
637.352	12263.38
637.706	12233.1
638.06	12249.14
638.413	12144.51
638.767	12184.96
639.121	12131.63
639.474	12159.65
639.828	12128.47
640.181	12139.99
640.534	12140.67
640.888	12046.89
641.241	12021.12
641.594	12078.75
641.947	12055.7
642.301	12016.6
642.654	12091.63
643.007	12135.02
643.36	12019.09
643.713	11992.88
644.066	12082.82
644.419	11960.11
644.771	11961.01
645.124	11766.67
645.477	11833.56
645.83	11746.1
646.182	11686.9
646.535	11634.69
646.888	11639.89
647.24	11551.08
647.593	11659.78
647.945	11723.73
648.298	11595.6
648.65	11608.48
649.002	11562.61
649.355	11642.6
649.707	11615.26
650.059	11695.03
650.411	11832.65
650.763	11820.9
651.115	11872.43
651.467	11838.08
651.819	11878.76
652.171	11849.38
652.523	11810.06
652.875	11865.2
653.227	11767.8
653.578	11879.66
653.93	11834.46
654.282	11826.55
654.633	11803.05
654.985	11823.16
655.337	11843.05
655.688	11831.75
656.039	11906.78
656.391	11775.26
656.742	11820.9
657.094	11902.03
657.445	11904.29
657.796	11778.65
658.147	11763.5
658.498	11740.68
658.849	11842.15
659.2	11751.98
659.551	11807.57
659.902	11831.53
660.253	11798.08
660.604	11859.09
660.955	11753.11
661.306	11831.98
661.656	11805.31
662.007	11864.07
662.358	11795.14
662.708	11934.12
663.059	11868.81
663.409	11790.17
663.76	11939.09
664.11	11837.4
664.461	11949.94
664.811	11840.79
665.161	11849.38
665.511	11885.53
665.862	11873.78
666.212	11897.06
666.562	11852.54
666.912	11892.31
667.262	11918.75
667.612	11837.17
667.962	11947.23
668.312	11911.52
668.662	11977.74
669.011	11860.9
669.361	11827.91
669.711	11838.08
670.06	11810.96
670.41	11831.53
670.76	11839.89
671.109	11836.04
671.459	11906.1
671.808	11808.7
672.157	11868.81
672.507	11763.5
672.856	11723.73
673.205	11727.35
673.554	11790.85
673.904	11813.22
674.253	11853.22
674.602	11778.19
674.951	11648.48
675.3	11553.11
675.649	11747.23
675.998	11744.3
676.346	11637.18
676.695	11813.9
677.044	11647.58
677.393	11656.16
677.741	11716.95
678.09	11653.9
678.438	11617.75
678.787	11614.36
679.135	11620.46
679.484	11514.25
679.832	11619.33
680.181	11513.12
680.529	11581.14
680.877	11535.94
681.225	11436.73
681.573	11530.06
681.922	11442.61
682.27	11402.61
682.618	11473.79
682.966	11412.1
683.314	11378.43
683.661	11375.94
684.009	11301.37
684.357	11237.87
684.705	11305.89
685.053	11280.58
685.4	11253.24
685.748	11230.41
686.095	11144.54
686.443	11238.55
686.79	11137.76
687.138	11149.51
687.485	11110.64
687.832	11071.09
688.18	11114.71
688.527	11006.01
688.874	11029.29
689.221	11002.62
689.568	10962.62
689.915	10978.44
690.262	10917.88
690.609	10889.4
690.956	10795.39
691.303	10825.68
691.65	10734.6
691.997	10740.03
692.344	10728.28
692.69	10635.62
693.037	10660.93
693.383	10525.34
693.73	10595.4
694.077	10503.42
694.423	10543.88
694.769	10435.86
695.116	10384.78
695.462	10431.11
695.808	10391.56
696.155	10313.6
696.501	10294.62
696.847	10223.43
697.193	10172.81
697.539	10266.14
697.885	10182.08
698.231	10104.11
698.577	10118.58
698.923	10020.5
699.269	9960.61
699.614	9934.85
699.96	9930.78
700.306	9931.91
700.651	9874.97
700.997	9860.96
701.342	9841.52
701.688	9743.67
702.033	9774.18
702.379	9718.59
702.724	9693.05
703.069	9675.88
703.415	9628.65
703.76	9632.49
704.105	9556.33
704.45	9528.76
704.795	9458.48
705.14	9462.77
705.485	9418.71
705.83	9410.8
706.175	9450.34
706.52	9448.54
706.865	9363.12
707.209	9350.91
707.554	9239.73
707.899	9327.86
708.243	9269.56
708.588	9220.75
708.932	9184.36
709.277	9155.21
709.621	9100.3
709.966	9089.45
710.31	9085.83
710.654	9063.46
710.998	9048.77
711.342	9023.01
711.687	9020.53
712.031	8951.6
712.375	8945.73
712.719	8946.18
713.063	8905.27
713.407	8922.45
713.75	8827.08
714.094	8851.26
714.438	8735.79
714.782	8864.37
715.125	8811.49
715.469	8805.62
715.812	8754.09
716.156	8693.08
716.499	8715.45
716.843	8745.5
717.186	8653.98
717.53	8727.88
717.873	8671.16
718.216	8656.24
718.559	8647.88
718.902	8514.55
719.246	8587.77
719.589	8569.24
719.932	8595.45
720.275	8554.55
720.617	8585.28
720.96	8500.31
721.303	8577.15
721.646	8552.74
721.989	8476.13
722.331	8602.91
722.674	8519.07
723.016	8496.25
723.359	8416.02
723.701	8520.43
724.044	8511.16
724.386	8371.73
724.729	8421.67
725.071	8495.79
725.413	8408.56
725.755	8464.38
726.097	8359.53
726.439	8343.03
726.782	8404.95
727.124	8463.48
727.465	8325.63
727.807	8364.27
728.149	8415.34
728.491	8318.62
728.833	8355.91
729.175	8293.54
729.516	8391.84
729.858	8314.78
730.199	8322.24
730.541	8355.68
730.882	8309.58
731.224	8389.81
731.565	8297.61
731.906	8335.12
732.248	8335.8
732.589	8315.69
732.93	8327.66
733.271	8291.05
733.612	8297.38
733.953	8329.24
734.294	8280.66
734.635	8273.65
734.976	8286.08
735.317	8250.6
735.658	8222.81
735.999	8276.14
736.339	8309.58
736.68	8297.83
737.021	8328.34
737.361	8271.84
737.702	8320.88
738.042	8345.06
738.383	8279.75
738.723	8389.58
739.063	8397.27
739.404	8370.15
739.744	8399.07
740.084	8303.93
740.424	8422.58
740.764	8340.09
741.104	8456.02
741.444	8375.57
741.784	8423.71
742.124	8474.55
742.464	8404.95
742.804	8479.07
743.143	8455.57
743.483	8478.39
743.823	8482.69
744.162	8543.93
744.502	8570.82
744.841	8554.1
745.181	8600.42
745.52	8603.14
745.86	8670.25
746.199	8696.24
746.538	8712.74
746.877	8725.62
747.216	8807.42
747.556	8893.52
747.895	8891.04
748.234	8926.52
748.573	8944.6
748.911	9022.56
749.25	9054.65
749.589	9104.37
749.928	9245.83
750.267	9280.86
750.605	9323.12
750.944	9381.65
751.283	9427.07
751.621	9515.88
751.96	9575.99
752.298	9611.02
752.636	9784.12
752.975	9812.37
753.313	9917.45
753.651	10037.22
753.989	10118.35
754.327	10212.36
754.666	10308.4
755.004	10412.35
755.342	10491.9
755.679	10658.45
756.017	10771.21
756.355	10914.94
756.693	11029.51
757.031	11087.36
757.368	11261.6
757.706	11335.94
758.044	11493.91
758.381	11654.58
758.719	11685.31
759.056	12008.47
759.394	12067
