Data from hue_50_FLMS001491_66.txt Node
Date: Mon Feb 06 15:10:45 GMT 2017
User: dcchb
Spectrometer: FLMS00149
Trigger mode: 0
Integration Time (sec): 2.000000E-2
Scans to average: 10
Electric dark correction enabled: true
Nonlinearity correction enabled: false
Boxcar width: 0
XAxis mode: Wavelengths
Number of Pixels in Spectrum: 2048
>>>>>Begin Spectral Data<<<<<
341.393	3.08
341.776	3.08
342.16	3.08
342.543	-64.49
342.927	-59.52
343.31	-76.24
343.693	-86.64
344.077	-51.16
344.46	-63.59
344.843	-32.17
345.226	-47.32
345.61	-20.2
345.993	-37.82
346.376	-5.51
346.759	10.31
347.142	29.74
347.525	37.2
347.908	61.16
348.291	76.3
348.674	96.41
349.057	109.52
349.44	128.27
349.823	139.35
350.206	162.17
350.588	202.4
350.971	206.69
351.354	236.29
351.737	246.69
352.119	245.78
352.502	272.68
352.884	274.71
353.267	269.96
353.65	302.51
354.032	314.48
354.414	310.19
354.797	343.18
355.179	325.56
355.562	327.36
355.944	329.17
356.326	342.28
356.709	343.86
357.091	347.48
357.473	357.42
357.855	358.32
358.238	342.51
358.62	330.53
359.002	350.64
359.384	352
359.766	381.37
360.148	362.39
360.53	350.41
360.912	351.77
361.294	338.89
361.676	350.41
362.057	321.71
362.439	334.37
362.821	351.54
363.203	333.01
363.584	337.31
363.966	317.65
364.348	330.75
364.729	334.82
365.111	327.82
365.493	325.1
365.874	320.58
366.256	318.1
366.637	345.22
367.019	316.52
367.4	319.45
367.781	322.17
368.163	316.97
368.544	323.07
368.925	301.15
369.306	319.68
369.688	294.14
370.069	331.21
370.45	326.46
370.831	328.04
371.212	314.26
371.593	339.34
371.974	315.61
372.355	319.45
372.736	339.79
373.117	330.08
373.498	320.58
373.879	329.62
374.26	314.26
374.641	318.78
375.021	350.41
375.402	359.23
375.783	323.07
376.163	341.15
376.544	328.04
376.925	328.04
377.305	328.27
377.686	319.91
378.066	360.58
378.447	332.79
378.827	326.23
379.208	328.04
379.588	330.08
379.968	344.54
380.349	334.14
380.729	330.53
381.109	352.9
381.489	351.54
381.87	337.31
382.25	321.94
382.63	353.8
383.01	333.92
383.39	347.02
383.77	354.93
384.15	340.02
384.53	341.83
384.91	355.16
385.29	361.04
385.67	368.04
386.049	348.83
386.429	347.93
386.809	369.62
387.189	366.01
387.568	369.17
387.948	352
388.328	367.14
388.707	339.57
389.087	381.37
389.466	381.6
389.846	360.36
390.225	367.36
390.605	372.11
390.984	369.17
391.363	365.78
391.743	381.15
392.122	356.74
392.501	371.2
392.881	377.98
393.26	377.53
393.639	364.88
394.018	379.11
394.397	380.47
394.776	379.11
395.155	386.57
395.534	398.1
395.913	392.22
396.292	380.92
396.671	395.16
397.05	386.57
397.429	394.93
397.808	384.99
398.186	400.81
398.565	389.96
398.944	384.54
399.323	371.66
399.701	390.64
400.08	407.14
400.458	407.81
400.837	421.15
401.215	388.61
401.594	383.18
401.972	394.48
402.351	415.05
402.729	402.84
403.107	405.55
403.486	416.4
403.864	382.28
404.242	416.63
404.62	408.27
404.999	422.28
405.377	426.34
405.755	418.44
406.133	404.65
406.511	415.95
406.889	429.73
407.267	426.12
407.645	429.96
408.023	433.58
408.401	441.49
408.779	413.92
409.156	416.85
409.534	433.8
409.912	433.12
410.29	441.49
410.667	429.96
411.045	419.11
411.422	432.22
411.8	447.36
412.178	456.63
412.555	457.53
412.933	450.52
413.31	449.85
413.687	447.14
414.065	454.82
414.442	471.77
414.819	470.41
415.197	479.45
415.574	471.99
415.951	448.72
416.328	486.46
416.705	481.26
417.082	490.98
417.46	473.12
417.837	495.72
418.214	496.4
418.591	489.17
418.967	490.52
419.344	491.2
419.721	484.65
420.098	494.59
420.475	513.35
420.852	490.3
421.228	507.02
421.605	496.63
421.982	511.09
422.358	514.03
422.735	527.58
423.111	516.74
423.488	512.67
423.864	523.97
424.241	542.73
424.617	512.67
424.994	518.55
425.37	527.13
425.746	535.27
426.123	549.05
426.499	552.67
426.875	557.41
427.251	557.87
427.627	553.35
428.003	544.08
428.379	557.19
428.756	574.36
429.132	562.84
429.507	564.65
429.883	561.26
430.259	573.46
430.635	597.64
431.011	589.5
431.387	589.96
431.763	600.13
432.138	600.13
432.514	589.96
432.89	600.58
433.265	613.68
433.641	631.09
434.016	620.01
434.392	638.32
434.767	617.07
435.143	633.12
435.518	634.7
435.894	641.48
436.269	655.49
436.644	641.93
437.02	664.53
437.395	663.63
437.77	650.52
438.145	660.69
438.52	644.19
438.895	683.29
439.271	679.9
439.646	687.58
440.021	696.62
440.395	707.02
440.77	689.16
441.145	709.5
441.52	720.8
441.895	711.76
442.27	725.32
442.645	718.77
443.019	741.59
443.394	701.37
443.769	723.96
444.143	726.22
444.518	722.83
444.892	739.78
445.267	748.82
445.641	712.21
446.016	753.34
446.39	746.79
446.764	754.7
447.139	737.75
447.513	754.47
447.887	747.92
448.262	760.35
448.636	780.46
449.01	774.81
449.384	783.85
449.758	770.29
450.132	801.25
450.506	800.8
450.88	808.71
451.254	803.06
451.628	802.15
452.002	796.5
452.376	822.04
452.75	856.16
453.123	842.38
453.497	833.34
453.871	835.83
454.244	857.29
454.618	863.4
454.992	855.49
455.365	871.53
455.739	884.41
456.112	887.58
456.486	903.85
456.859	897.29
457.232	931.64
457.606	916.95
457.979	919.44
458.352	922.15
458.725	937.52
459.099	964.41
459.472	974.35
459.845	996.5
460.218	998.31
460.591	974.35
460.964	1019.32
461.337	1027.01
461.71	1033.11
462.083	1041.24
462.456	1037.18
462.829	1063.62
463.201	1066.78
463.574	1089.83
463.947	1111.07
464.32	1124.41
464.692	1102.03
465.065	1113.78
465.438	1143.16
465.81	1176.83
466.183	1184.97
466.555	1199.88
466.928	1223.16
467.3	1176.61
467.672	1241.24
468.045	1280.11
468.417	1297.06
468.789	1287.57
469.161	1319.43
469.534	1337.06
469.906	1372.53
470.278	1412.08
470.65	1417.96
471.022	1452.31
471.394	1486.66
471.766	1495.7
472.138	1517.62
472.51	1567.56
472.882	1605.3
473.253	1636.93
473.625	1644.39
473.997	1705.86
474.369	1740.66
474.74	1755.58
475.112	1800.32
475.484	1850.49
475.855	1898.4
476.227	1922.12
476.598	2002.8
476.97	2044.83
477.341	2108.79
477.713	2179.97
478.084	2181.55
478.455	2239.86
478.827	2330.7
479.198	2376.12
479.569	2483.01
479.94	2535.89
480.311	2610.24
480.682	2732.05
481.053	2775.66
481.424	2856.34
481.795	2916
482.166	3054.07
482.537	3097.91
482.908	3203.45
483.279	3278.47
483.65	3432.59
484.021	3551.01
484.391	3570.67
484.762	3655.41
485.133	3776.54
485.503	3892.24
485.874	4019.24
486.244	4118.45
486.615	4225.34
486.985	4371.1
487.356	4517.99
487.726	4587.37
488.097	4742.39
488.467	4874.82
488.837	5008.6
489.207	5194.13
489.578	5265.09
489.948	5381.47
490.318	5534.23
490.688	5662.82
491.058	5836.15
491.428	5977.84
491.798	6074.11
492.168	6295.79
492.538	6340.77
492.908	6572.4
493.278	6746.4
493.648	6812.62
494.017	6972.39
494.387	7137.58
494.757	7229.56
495.126	7384.35
495.496	7498.93
495.866	7682.88
496.235	7851.69
496.605	7988.18
496.974	8084.22
497.344	8249.42
497.713	8352.01
498.082	8498.67
498.452	8703.19
498.821	8842.62
499.19	8938.44
499.559	9047.59
499.928	9209.16
500.298	9307.69
500.667	9523.28
501.036	9597.18
501.405	9739.32
501.774	9737.06
502.143	10033.1
502.512	10028.8
502.88	10205.07
503.249	10288.68
503.618	10456.82
503.987	10534.33
504.356	10718.73
504.724	10870.82
505.093	10920.76
505.462	11054.09
505.83	11182.9
506.199	11360.07
506.567	11491.59
506.936	11522.1
507.304	11731.13
507.672	11786.27
508.041	11963.89
508.409	12012.25
508.777	12228.52
509.145	12301.74
509.514	12337.22
509.882	12526.14
510.25	12581.96
510.618	12676.87
510.986	12809.75
511.354	13054.71
511.722	13129.51
512.09	13201.6
512.458	13281.15
512.826	13478.43
513.193	13527.7
513.561	13594.59
513.929	13792.77
514.297	13889.27
514.664	13989.6
515.032	14145.31
515.4	14234.57
515.767	14273.89
516.135	14389.82
516.502	14424.39
516.869	14662.35
517.237	14805.63
517.604	14766.98
517.972	15001.78
518.339	15039.07
518.706	15066.41
519.073	15171.72
519.44	15308.44
519.808	15538.26
520.175	15510.02
520.542	15758.6
520.909	15876.56
521.276	15908.88
521.643	16017.8
522.009	16230.67
522.376	16352.93
522.743	16430.67
523.11	16565.81
523.477	16700.49
523.843	16851.9
524.21	17078.79
524.577	17098.67
524.943	17179.8
525.31	17282.17
525.676	17467.03
526.043	17544.31
526.409	17677.87
526.776	17883.96
527.142	17897.3
527.508	18018.42
527.874	18120.57
528.241	18255.93
528.607	18317.63
528.973	18591.74
529.339	18539.77
529.705	18806.43
530.071	19015.23
530.437	19006.2
530.803	19107.89
531.169	19110.15
531.535	19285.74
531.901	19252.74
532.267	19483.24
532.632	19473.3
532.998	19527.31
533.364	19740.87
533.73	19736.8
534.095	20029.45
534.461	20065.6
534.826	20050.24
535.192	20158.93
535.557	20444.8
535.923	20173.17
536.288	20428.08
536.653	20562.54
537.019	20518.92
537.384	20597.79
537.749	20768.41
538.114	20920.04
538.479	20849.08
538.845	21030.77
539.21	20925.01
539.575	21096.54
539.94	21123.65
540.305	21293.14
540.67	21340.37
541.034	21344.66
541.399	21504.89
541.764	21404.1
542.129	21605.67
542.494	21745.56
542.858	21864.88
543.223	21800.7
543.587	21894.93
543.952	21979.45
544.316	22045.21
544.681	22088.15
545.045	22197.3
545.41	22306.9
545.774	22334.47
546.138	22409.95
546.503	22557.06
546.867	22545.54
547.231	22709.83
547.595	22767
547.959	22796.83
548.324	22790.5
548.688	23028.69
549.052	23066.88
549.416	22972.64
549.779	23056.48
550.143	23264.16
550.507	23312.97
550.871	23439.52
551.235	23541.67
551.599	23589.13
551.962	23705.28
552.326	23729.91
552.689	23876.58
553.053	23871.38
553.417	23796.8
553.78	24160.18
554.143	24007.19
554.507	24121.99
554.87	24366.28
555.234	24507.97
555.597	24502.55
555.96	24516.78
556.323	24617.8
556.686	24627.06
557.05	24768.3
557.413	24860.73
557.776	24913.84
558.139	25151.12
558.502	25145.92
558.865	25236.99
559.228	25509.3
559.59	25548.62
559.953	25503.88
560.316	25857.99
560.679	25742.97
561.041	25936.18
561.404	26002.4
561.767	26080.36
562.129	26135.5
562.492	26293.24
562.854	26325.1
563.217	26369.39
563.579	26553.79
563.941	26747.23
564.304	26909.04
564.666	26974.8
565.028	27068.36
565.39	27247.33
565.753	27300.21
566.115	27310.38
566.477	27549.02
566.839	27562.58
567.201	27697.94
567.563	27698.62
567.925	27946.53
568.287	28029.23
568.648	28035.79
569.01	28246.18
569.372	28372.73
569.734	28270.13
570.095	28482.78
570.457	28687.75
570.819	28663.79
571.18	28647.98
571.542	28860.4
571.903	28997.12
572.265	29068.98
572.626	29116.21
572.987	29219.71
573.349	29509.42
573.71	29417.45
574.071	29621.51
574.432	29611.57
574.794	29983.08
575.155	29847.04
575.516	29929.07
575.877	30077.99
576.238	30175.39
576.599	30367.48
576.96	30322.28
577.32	30445.22
577.681	30543.52
578.042	30791.2
578.403	30757.98
578.763	30945.99
579.124	31028.48
579.485	31160.68
579.845	31318.19
580.206	31338.07
580.566	31357.73
580.927	31560.44
581.287	31747.1
581.648	31716.82
582.008	31969.7
582.368	31930.38
582.728	32043.14
583.089	32223.7
583.449	32340.99
583.809	32453.75
584.169	32661.43
584.529	32709.11
584.889	33017.58
585.249	32792.27
585.609	32947.98
585.969	33191.58
586.329	33297.57
586.688	33417.57
587.048	33591.8
587.408	33481.97
587.768	33604.68
588.127	33773.49
588.487	33756.77
588.846	34085.35
589.206	33977.78
589.565	34117.21
589.925	34327.37
590.284	34424.09
590.643	34552.68
591.003	34726.69
591.362	35014.81
591.721	35036.96
592.08	35119.22
592.44	35331.19
592.799	35334.35
593.158	35372.77
593.517	35474.01
593.876	35725.08
594.235	35788.35
594.593	35914.9
594.952	35947.67
595.311	35915.36
595.67	36222.69
596.029	36425.17
596.387	36570.71
596.746	36617.48
597.104	36544.04
597.463	36665.84
597.822	36878.72
598.18	36925.72
598.538	36934.31
598.897	37201.42
599.255	37015.44
599.613	37683.67
599.972	37450.91
600.33	37591.24
600.688	37538.82
601.046	37666.27
601.404	37900.84
601.762	37984.68
602.12	38201.17
602.478	38249.98
602.836	38237.33
603.194	38087.5
603.552	38383.54
603.91	38387.83
604.268	38680.48
604.625	38540.14
604.983	38856.75
605.341	38790.99
605.698	38912.34
606.056	39065.33
606.413	38980.59
606.771	39228.26
607.128	39316.17
607.485	39131.99
607.843	39265.32
608.2	39524.75
608.557	39760.9
608.914	39637.07
609.272	39898.98
609.629	39948.92
609.986	40055.13
610.343	39912.76
610.7	40141.23
611.057	40250.38
611.414	40262.13
611.771	40420.1
612.127	40565.18
612.484	40503.93
612.841	40626.87
613.198	40550.94
613.554	40707.77
613.911	40982.57
614.267	40911.61
614.624	40811.95
614.98	41099.4
615.337	41356.57
615.693	41316.79
616.05	41269.56
616.406	41533.96
616.762	41495.1
617.118	41513.85
617.475	41476.79
617.831	41615.09
618.187	41760.85
618.543	41850.34
618.899	42125.36
619.255	42016.44
619.611	41960.39
619.967	42100.28
620.323	42120.84
620.678	42045.59
621.034	42047.4
621.39	42096.44
621.746	42069.77
622.101	42500.04
622.457	42278.8
622.812	42290.55
623.168	42513.37
623.523	42488.29
623.879	42608.29
624.234	42291.91
624.589	42520.61
624.945	42636.31
625.3	42725.8
625.655	42755.18
626.01	42744.78
626.365	42829.3
626.72	42741.84
627.075	42746.59
627.43	42639.47
627.785	42797.66
628.14	42772.12
628.495	42822.07
628.85	42796.98
629.205	42578.23
629.559	42919.24
629.914	42741.62
630.269	42750.66
630.623	42688.28
630.978	42662.07
631.332	42864.55
631.687	42865.23
632.041	42709.75
632.396	42806.7
632.75	42636.53
633.104	42788.39
633.459	42566.48
633.813	42614.84
634.167	42655.97
634.521	42604.22
634.875	42739.13
635.229	42578.23
635.583	42418.46
635.937	42519.7
636.291	42483.32
636.645	42413.04
636.999	42335.07
637.352	42450.78
637.706	42352.47
638.06	42403.55
638.413	42377.56
638.767	42294.4
639.121	42265.92
639.474	42127.4
639.828	42165.81
640.181	42335.98
640.534	42326.03
640.888	42081.97
641.241	41998.13
641.594	41922.43
641.947	42184.57
642.301	42148.64
642.654	42074.74
643.007	41969.89
643.36	41866.84
643.713	41926.72
644.066	42057.11
644.419	41821.19
644.771	41595.43
645.124	41233.18
645.477	41230.47
645.83	40962.23
646.182	40703.03
646.535	40765.62
646.888	40651.73
647.24	40476.82
647.593	40837.94
647.945	40581
648.298	40696.92
648.65	40408.57
649.002	40489.92
649.355	40626.19
649.707	40373.54
650.059	40618.06
650.411	40960.19
650.763	41039.74
651.115	41566.96
651.467	41430.46
651.819	41480.86
652.171	41270.24
652.523	41160.41
652.875	41245.84
653.227	41170.36
653.578	41306.4
653.93	41191.6
654.282	41089.23
654.633	40892.4
654.985	41086.07
655.337	41008.55
655.688	41093.3
656.039	41118.38
656.391	40835
656.742	40913.42
657.094	40872.74
657.445	41055.78
657.796	41008.33
658.147	40930.36
658.498	40765.4
658.849	40804.94
659.2	40816.24
659.551	40750.03
659.902	40886.75
660.253	40836.13
660.604	40940.76
660.955	40683.59
661.306	40864.83
661.656	40721.1
662.007	40776.47
662.358	40723.36
662.708	40672.52
663.059	40727.21
663.409	40385.97
663.76	40751.61
664.11	40758.17
664.461	40722.01
664.811	40687.43
665.161	40655.8
665.511	40596.36
665.862	40620.09
666.212	40679.75
666.562	40810.14
666.912	40724.95
667.262	40522.69
667.612	40576.48
667.962	40739.18
668.312	40612.18
668.662	40866.41
669.011	40549.13
669.361	40638.85
669.711	40530.15
670.06	40421.9
670.41	40423.49
670.76	40270.95
671.109	40453.31
671.459	40378.06
671.808	40272.98
672.157	40381.45
672.507	40184.62
672.856	40285.18
673.205	40174.68
673.554	40434.56
673.904	40175.58
674.253	40384.84
674.602	40349.14
674.951	39717.97
675.3	39496.28
675.649	40238.18
675.998	40144.4
676.346	40216.48
676.695	40321.79
677.044	39914.35
677.393	40137.16
677.741	40111.18
678.09	39978.3
678.438	39882.48
678.787	40043.38
679.135	40017.62
679.484	39704.41
679.832	39862.82
680.181	39700.11
680.529	39842.48
680.877	39662.38
681.225	39509.38
681.573	39855.36
681.922	39465.54
682.27	39452.44
682.618	39581.93
682.966	39356.62
683.314	39589.61
683.661	39404.3
684.009	39192.78
684.357	39080.47
684.705	39114.82
685.053	39129.06
685.4	39065.55
685.748	38756.64
686.095	38898.55
686.443	38815.17
686.79	38468.51
687.138	38720.71
687.485	38676.19
687.832	38522.07
688.18	38503.54
688.527	38403.2
688.874	38391.67
689.221	38406.36
689.568	38185.8
689.915	38173.37
690.262	38169.31
690.609	37925.7
690.956	37903.78
691.303	37879.15
691.65	37628.53
691.997	37810.22
692.344	37460.85
692.69	37436.22
693.037	37529.78
693.383	37114.65
693.73	37307.41
694.077	37023.57
694.423	37061.77
694.769	36792.85
695.116	36899.06
695.462	36776.58
695.808	36728.67
696.155	36709.46
696.501	36356.25
696.847	36399.86
697.193	36239.87
697.539	36268.34
697.885	36071.51
698.231	35964.85
698.577	35886.66
698.923	35961.46
699.269	35737.96
699.614	35570.96
699.96	35486.67
700.306	35572.99
700.651	35515.59
700.997	35282.15
701.342	35373.9
701.688	35238.31
702.033	35126.68
702.379	35155.83
702.724	34956.96
703.069	35029.05
703.415	34653.92
703.76	34760.81
704.105	34753.35
704.45	34476.52
704.795	34414.83
705.14	34201.73
705.485	34199.47
705.83	34199.47
706.175	34147.94
706.52	34053.03
706.865	33999.93
707.209	33948.18
707.554	33792.25
707.899	33875.63
708.243	33628.18
708.588	33713.61
708.932	33422.99
709.277	33385.03
709.621	33347.74
709.966	33094.86
710.31	33223.67
710.654	33036.79
710.998	33091.7
711.342	33025.04
711.687	32939.61
712.031	32748.66
712.375	32715.21
712.719	32876.11
713.063	32637.7
713.407	32662.79
713.75	32609.23
714.094	32512.05
714.438	32395.67
714.782	32368.33
715.125	32216.02
715.469	32348.44
715.812	32141.89
716.156	32026.19
716.499	32122.69
716.843	32047.89
717.186	31710.04
717.53	32149.58
717.873	31933.09
718.216	31941.67
718.559	31770.83
718.902	31558.63
719.246	31498.3
719.589	31720.21
719.932	31405.87
720.275	31486.77
720.617	31292.88
720.96	31358.19
721.303	31384.17
721.646	31228.47
721.989	31120.45
722.331	31245.2
722.674	31159.77
723.016	31051.53
723.359	30976.28
723.701	30954.13
724.044	30732.89
724.386	30719.56
724.729	30813.79
725.071	30757.75
725.413	30826.22
725.755	30627.58
726.097	30532.45
726.439	30349.17
726.782	30427.59
727.124	30527.93
727.465	30287.93
727.807	30340.59
728.149	30063.98
728.491	30162.06
728.833	30209.74
729.175	30023.31
729.516	29992.35
729.858	29950.99
730.199	30028.05
730.541	29862.86
730.882	29949.86
731.224	29881.16
731.565	29774.05
731.906	29808.4
732.248	29803.2
732.589	29607.72
732.93	29605.01
733.271	29594.17
733.612	29564.11
733.953	29563.66
734.294	29268.52
734.635	29322.99
734.976	29436.66
735.317	29225.14
735.658	29213.84
735.999	29228.3
736.339	29117.57
736.68	29166.15
737.021	29091.81
737.361	28945.82
737.702	29136.1
738.042	29042.54
738.383	28921.41
738.723	28957.8
739.063	28836.45
739.404	28967.29
739.744	28704.47
740.084	28730.01
740.424	28740.4
740.764	28631.25
741.104	28680.97
741.444	28529.56
741.784	28423.8
742.124	28468.09
742.464	28472.39
742.804	28468.77
743.143	28268.32
743.483	28344.03
743.823	28148.33
744.162	28180.64
744.502	28257.25
744.841	28061.1
745.181	28210.02
745.52	28063.81
745.86	28179.97
746.199	27995.79
746.538	27980.2
746.877	28096.58
747.216	28055.9
747.556	27918.05
747.895	27894.32
748.234	27737.94
748.573	27624.27
748.911	27617.49
749.25	27673.31
749.589	27554.9
749.928	27591.28
750.267	27645.52
750.605	27556.25
750.944	27496.14
751.283	27389.93
751.621	27395.35
751.96	27373.66
752.298	27246.66
752.636	27282.36
752.975	27128.24
753.313	27100.67
753.651	27021.13
753.989	26999.88
754.327	26873.11
754.666	26829.94
755.004	26868.14
755.342	26893.45
755.679	26792.21
756.017	26553.34
756.355	26713.11
756.693	26568.26
757.031	26586.11
