Data from hue_10_FLMS001491_20.txt Node
Date: Mon Feb 06 15:31:30 GMT 2017
User: dcchb
Spectrometer: FLMS00149
Trigger mode: 0
Integration Time (sec): 2.000000E-2
Scans to average: 10
Electric dark correction enabled: true
Nonlinearity correction enabled: false
Boxcar width: 0
XAxis mode: Wavelengths
Number of Pixels in Spectrum: 2048
>>>>>Begin Spectral Data<<<<<
341.393	-0.13
341.776	-0.13
342.16	-0.13
342.543	-50.52
342.927	-60.01
343.31	-84.42
343.693	-63.85
344.077	-69.5
344.46	-69.73
344.843	-62.27
345.226	-31.54
345.61	-29.28
345.993	-9.84
346.376	-1.93
346.759	8.46
347.142	30.38
347.525	49.82
347.908	55.24
348.291	83.26
348.674	96.37
349.057	98.85
349.44	120.77
349.823	144.73
350.206	172.52
350.588	210.26
350.971	196.25
351.354	215.01
351.737	241.22
352.119	250.94
352.502	271.05
352.884	284.39
353.267	286.19
353.65	299.98
354.032	278.96
354.414	310.37
354.797	306.98
355.179	310.6
355.562	323.03
355.944	313.76
356.326	325.97
356.709	317.15
357.091	336.59
357.473	339.07
357.855	335.68
358.238	349.69
358.62	345.17
359.002	323.48
359.384	330.26
359.766	346.98
360.148	335.46
360.53	315.34
360.912	342.46
361.294	322.8
361.676	328.9
362.057	322.58
362.439	323.48
362.821	330.94
363.203	314.21
363.584	327.55
363.966	314.89
364.348	300.88
364.729	328.45
365.111	334.78
365.493	312.86
365.874	283.71
366.256	309.92
366.637	318.06
367.019	294.78
367.4	304.95
367.781	323.93
368.163	320.77
368.544	305.63
368.925	319.86
369.306	310.37
369.688	309.02
370.069	311.28
370.45	310.37
370.831	309.24
371.212	311.5
371.593	309.7
371.974	312.63
372.355	314.67
372.736	310.6
373.117	314.89
373.498	319.86
373.879	317.38
374.26	314.44
374.641	288.23
375.021	297.49
375.402	315.12
375.783	303.14
376.163	319.86
376.544	331.84
376.925	328.68
377.305	313.54
377.686	321.22
378.066	315.12
378.447	300.88
378.827	338.85
379.208	297.04
379.588	309.24
379.968	300.66
380.349	331.39
380.729	313.08
381.109	318.96
381.489	337.04
381.87	329.58
382.25	343.37
382.63	320.32
383.01	322.58
383.39	321.67
383.77	318.28
384.15	342.91
384.53	342.24
384.91	329.36
385.29	330.94
385.67	328.45
386.049	333.65
386.429	333.88
386.809	330.26
387.189	335.23
387.568	332.07
387.948	363.93
388.328	338.62
388.707	338.4
389.087	335.91
389.466	355.8
389.846	344.95
390.225	322.35
390.605	366.87
390.984	354.21
391.363	330.94
391.743	333.42
392.122	360.32
392.501	361.45
392.881	351.28
393.26	369.81
393.639	353.99
394.018	356.25
394.397	366.64
394.776	365.29
395.155	360.09
395.534	345.85
395.913	356.93
396.292	372.97
396.671	348.11
397.05	387.21
397.429	372.74
397.808	377.72
398.186	360.77
398.565	378.17
398.944	364.38
399.323	375.23
399.701	359.19
400.08	352.86
400.458	368.9
400.837	362.58
401.215	396.47
401.594	372.29
401.972	374.78
402.351	385.4
402.729	386.76
403.107	385.4
403.486	406.87
403.864	397.15
404.242	390.6
404.62	410.03
404.999	384.04
405.377	410.26
405.755	383.82
406.133	399.18
406.511	401.44
406.889	388.11
407.267	420.88
407.645	392.63
408.023	411.61
408.401	419.07
408.779	423.36
409.156	410.03
409.534	391.05
409.912	423.59
410.29	438.28
410.667	416.81
411.045	405.74
411.422	417.72
411.8	428.11
412.178	431.05
412.555	434.89
412.933	441.44
413.31	422.46
413.687	445.28
414.065	437.83
414.442	427.21
414.819	458.39
415.197	451.16
415.574	465.4
415.951	462.01
416.328	455
416.705	448.67
417.082	452.74
417.46	453.87
417.837	489.8
418.214	466.08
418.591	459.75
418.967	483.02
419.344	477.37
419.721	503.14
420.098	483.48
420.475	506.98
420.852	473.98
421.228	486.41
421.605	495.23
421.982	480.76
422.358	503.81
422.735	503.59
423.111	501.1
423.488	501.78
423.864	502.68
424.241	497.49
424.617	505.85
424.994	518.73
425.37	537.94
425.746	522.57
426.123	506.98
426.499	515.34
426.875	523.25
427.251	545.85
427.627	504.27
428.003	553.98
428.379	516.92
428.756	537.03
429.132	551.95
429.507	544.27
429.883	542.23
430.259	555.79
430.635	563.25
431.011	578.61
431.387	580.2
431.763	578.61
432.138	567.54
432.514	570.71
432.89	591.04
433.265	590.37
433.641	609.35
434.016	602.34
434.392	602.34
434.767	610.48
435.143	612.51
435.518	614.09
435.894	608.44
436.269	621.78
436.644	628.1
437.02	640.99
437.395	610.7
437.77	613.42
438.145	638.73
438.52	663.13
438.895	635.79
439.271	657.71
439.646	649.8
440.021	653.87
440.395	664.49
440.77	638.05
441.145	650.48
441.52	706.97
441.895	687.09
442.27	651.61
442.645	682.11
443.019	686.18
443.394	694.77
443.769	674.21
444.143	692.51
444.518	711.04
444.892	696.8
445.267	696.35
445.641	674.43
446.016	697.93
446.39	724.37
446.764	727.54
447.139	722.79
447.513	690.02
447.887	733.19
448.262	703.13
448.636	732.96
449.01	721.66
449.384	732.28
449.758	739.29
450.132	747.65
450.506	760.76
450.88	759.63
451.254	755.11
451.628	766.63
452.002	771.15
452.376	756.01
452.75	776.8
453.123	789
453.497	772.96
453.871	792.62
454.244	791.49
454.618	810.7
454.992	796.91
455.365	824.71
455.739	821.55
456.112	856.57
456.486	842.11
456.859	830.59
457.232	863.8
457.606	845.27
457.979	871.26
458.352	882.34
458.725	887.53
459.099	880.75
459.472	908.55
459.845	877.14
460.218	902.67
460.591	911.49
460.964	942
461.337	919.4
461.71	923.46
462.083	956.68
462.456	947.42
462.829	966.85
463.201	1000.75
463.574	971.37
463.947	981.99
464.32	998.26
464.692	1017.93
465.065	1024.03
465.438	1055.21
465.81	1041.2
466.183	1047.08
466.555	1055.21
466.928	1064.48
467.3	1049.34
467.672	1079.62
468.045	1107.64
468.417	1121.88
468.789	1127.3
469.161	1116
469.534	1141.54
469.906	1185.15
470.278	1189.67
470.65	1214.76
471.022	1237.81
471.394	1234.87
471.766	1244.13
472.138	1280.52
472.51	1285.04
472.882	1305.15
473.253	1330.01
473.625	1311.93
473.997	1356
474.369	1382.44
474.74	1391.02
475.112	1405.26
475.484	1450.23
475.855	1472.38
476.227	1468.08
476.598	1531.36
476.97	1545.37
477.341	1552.6
477.713	1576.55
478.084	1602.99
478.455	1640.96
478.827	1659.94
479.198	1753.27
479.569	1708.3
479.94	1749.43
480.311	1775.42
480.682	1825.36
481.053	1873.72
481.424	1920.95
481.795	1905.59
482.166	1936.32
482.537	1982.19
482.908	2027.39
483.279	2027.39
483.65	2117.78
484.021	2122.3
484.391	2186.48
484.762	2182.64
485.133	2251.34
485.503	2244.79
485.874	2304.45
486.244	2350.77
486.615	2403.2
486.985	2399.13
487.356	2452.92
487.726	2436.42
488.097	2513.25
488.467	2574.27
488.837	2628.05
489.207	2687.71
489.578	2648.39
489.948	2689.75
490.318	2760.7
490.688	2790.99
491.058	2858.78
491.428	2842.96
491.798	2910.98
492.168	2967.03
492.538	2951.66
492.908	3038.21
493.278	3069.85
493.648	3065.55
494.017	3064.43
494.387	3141.03
494.757	3169.73
495.126	3197.75
495.496	3210.18
495.866	3279.11
496.235	3262.39
496.605	3314.36
496.974	3350.75
497.344	3368.82
497.713	3421.25
498.082	3470.29
498.452	3447.69
498.821	3518.2
499.19	3499.89
499.559	3531.53
499.928	3546.67
500.298	3614.92
500.667	3609.95
501.036	3617.18
501.405	3680
501.774	3643.17
502.143	3690.62
502.512	3732.88
502.88	3717.52
503.249	3760.68
503.618	3766.55
503.987	3813.11
504.356	3836.16
504.724	3783.05
505.093	3850.85
505.462	3881.13
505.83	3924.97
506.199	3913.22
506.567	4016.26
506.936	3968.36
507.304	4016.72
507.672	4031.63
508.041	4035.02
508.409	4026.21
508.777	4089.03
509.145	4105.08
509.514	4103.27
509.882	4100.33
510.25	4147.33
510.618	4164.74
510.986	4163.15
511.354	4184.62
511.722	4248.57
512.09	4202.47
512.458	4275.01
512.826	4293.32
513.193	4287.44
513.561	4281.57
513.929	4339.65
514.297	4363.15
514.664	4358.63
515.032	4361.79
515.4	4440.89
515.767	4420.55
516.135	4450.15
516.502	4441.79
516.869	4413.32
517.237	4458.51
517.604	4498.51
517.972	4517.72
518.339	4532.41
518.706	4545.74
519.073	4566.08
519.44	4557.27
519.808	4605.18
520.175	4584.16
520.542	4651.05
520.909	4656.93
521.276	4672.74
521.643	4705.51
522.009	4711.84
522.376	4718.17
522.743	4694.21
523.11	4802.01
523.477	4816.47
523.843	4823.7
524.21	4809.92
524.577	4882.91
524.943	4924.49
525.31	4896.24
525.676	4968.56
526.043	4963.36
526.409	4989.35
526.776	5039.97
527.142	5049.23
527.508	5027.09
527.874	5076.58
528.241	5103.02
528.607	5118.16
528.973	5171.49
529.339	5201.09
529.705	5214.43
530.071	5223.01
530.437	5256.91
530.803	5294.2
531.169	5337.81
531.535	5351.82
531.901	5349.11
532.267	5381.65
532.632	5392.27
532.998	5426.62
533.364	5449.67
533.73	5430.01
534.095	5463.23
534.461	5493.06
534.826	5519.28
535.192	5557.69
535.557	5647.86
535.923	5590.69
536.288	5573.51
536.653	5624.81
537.019	5594.75
537.384	5650.35
537.749	5671.14
538.114	5703.68
538.479	5727.41
538.845	5757.24
539.21	5754.75
539.575	5777.35
539.94	5830
540.305	5831.58
540.67	5806.05
541.034	5880.62
541.399	5901.86
541.764	5931.24
542.129	5962.2
542.494	5967.63
542.858	5986.83
543.223	5965.37
543.587	6060.5
543.952	6046.72
544.316	6089.2
544.681	6110.9
545.045	6114.51
545.41	6197.22
545.774	6152.71
546.138	6237.9
546.503	6216.88
546.867	6248.07
547.231	6301.18
547.595	6262.99
547.959	6333.72
548.324	6331.01
548.688	6337.11
549.052	6396.54
549.416	6414.39
549.779	6429.08
550.143	6451.45
550.507	6468.18
550.871	6523.54
551.235	6466.14
551.599	6525.58
551.962	6562.19
552.326	6601.73
552.689	6627.72
553.053	6666.36
553.417	6613.03
553.78	6705.91
554.143	6642.86
554.507	6676.53
554.87	6704.78
555.234	6801.95
555.597	6768.96
555.96	6799.02
556.323	6849.86
556.686	6836.3
557.05	6821.84
557.413	6849.64
557.776	6839.69
558.139	6902.52
558.502	6938
558.865	6963.31
559.228	6989.29
559.59	7003.98
559.953	7003.3
560.316	7061.38
560.679	7067.71
561.041	7109.52
561.404	7133.24
561.767	7192.9
562.129	7133.24
562.492	7190.87
562.854	7205.79
563.217	7217.76
563.579	7243.75
563.941	7263.18
564.304	7337.08
564.666	7390.86
565.028	7364.43
565.39	7354.03
565.753	7363.07
566.115	7384.76
566.477	7448.04
566.839	7508.6
567.201	7535.49
567.563	7535.49
567.925	7611.65
568.287	7537.08
568.648	7641.25
569.01	7669.28
569.372	7717.64
569.734	7689.61
570.095	7718.77
570.457	7806
570.819	7833.11
571.18	7833.34
571.542	7893.9
571.903	7894.81
572.265	7925.09
572.626	8011.64
572.987	8043.05
573.349	8110.17
573.71	8144.97
574.071	8178.19
574.432	8227.91
574.794	8307.45
575.155	8299.99
575.516	8375.02
575.877	8443.04
576.238	8512.42
576.599	8595.81
576.96	8663.37
577.32	8751.51
577.681	8762.13
578.042	8797.61
578.403	8944.95
578.763	8975.68
579.124	9069.24
579.485	9154.66
579.845	9268.56
580.206	9314.43
580.566	9477.82
580.927	9544.03
581.287	9688.88
581.648	9789.9
582.008	9999.16
582.368	10027.86
582.728	10098.82
583.089	10320.28
583.449	10485.7
583.809	10628.29
584.169	10751.68
584.529	10938.57
584.889	11164.55
585.249	11303.98
585.609	11426.01
585.969	11647.48
586.329	11818.77
586.688	11951.88
587.048	12258.08
587.408	12390.51
587.768	12633.21
588.127	12893.77
588.487	13042.69
588.846	13485.39
589.206	13497.6
589.565	13783.24
589.925	14031.14
590.284	14317.24
590.643	14556.1
591.003	14811.01
591.362	15146.14
591.721	15342.07
592.08	15587.03
592.44	15833.13
592.799	16198.09
593.158	16395.83
593.517	16620.68
593.876	17027
594.235	17330.94
594.593	17437.83
594.952	17848.9
595.311	18085.73
595.67	18390.12
596.029	18866.95
596.387	19035.3
596.746	19404.33
597.104	19567.27
597.463	19854.94
597.822	20169.06
598.18	20466
598.538	20819.21
598.897	21058.98
599.255	21163.61
599.613	21856.93
599.972	21951.84
600.33	22264.15
600.688	22520.86
601.046	22900.74
601.404	23255.98
601.762	23464.57
602.12	23787.72
602.478	24161.5
602.836	24314.94
603.194	24484.65
603.552	24834.93
603.91	24987.46
604.268	25430.16
604.625	25566.66
604.983	25972.3
605.341	26008.45
605.698	26384.26
606.056	26749.23
606.413	26915.55
606.771	27242.55
607.128	27474.63
607.485	27538.58
607.843	27920.72
608.2	28286.59
608.557	28532.91
608.914	28646.13
609.272	28869.85
609.629	29167.47
609.986	29524.75
610.343	29565.42
610.7	29959.54
611.057	30016.26
611.414	30199.3
611.771	30372.86
612.127	30657.15
612.484	30914.77
612.841	31124.48
613.198	31251.25
613.554	31325.6
613.911	31700.73
614.267	31922.2
614.624	31913.16
614.98	32107.5
615.337	32592.24
615.693	32591.78
616.05	32671.33
616.406	33024.54
616.762	33137.53
617.118	33161.26
617.475	33449.39
617.831	33632.89
618.187	33743.62
618.543	33778.65
618.899	34173.21
619.255	34305.64
619.611	34363.49
619.967	34590.6
620.323	34666.98
620.678	34647.1
621.034	34749.02
621.39	34916.92
621.746	34958.05
622.101	35529.56
622.457	35175.45
622.812	35490.01
623.168	35513.74
623.523	35793.06
623.879	35840.96
624.234	35771.81
624.589	36031.24
624.945	36123.67
625.3	36123.22
625.655	36258.81
626.01	36279.37
626.365	36429.88
626.72	36350.33
627.075	36511.23
627.43	36628.51
627.785	36464.68
628.14	36691.11
628.495	36828.06
628.85	36728.62
629.205	36681.39
629.559	37027.6
629.914	36852.69
630.269	36960.71
630.623	36896.53
630.978	36851.79
631.332	37057.2
631.687	37303.52
632.041	37028.5
632.396	37125.22
632.75	37082.97
633.104	37158.9
633.459	37002.97
633.813	37007.94
634.167	37199.57
634.521	37243.87
634.875	37315.05
635.229	37225.33
635.583	37103.98
635.937	37172.23
636.291	37187.37
636.645	37291.55
636.999	37106.02
637.352	37390.3
637.706	37039.58
638.06	37365.67
638.413	37222.85
638.767	37132.91
639.121	37163.87
639.474	37185.56
639.828	37135.17
640.181	37219.01
640.534	37332.68
640.888	37159.8
641.241	37072.12
641.594	37097.2
641.947	37332.68
642.301	37122.96
642.654	37158.9
643.007	37176.3
643.36	37122.74
643.713	37171.32
644.066	37289.74
644.419	37015.85
644.771	36743.54
645.124	36500.16
645.477	36372.93
645.83	36219.26
646.182	36121.63
646.535	36062.43
646.888	36107.62
647.24	36007.74
647.593	36274.63
647.945	36063.11
648.298	35859.04
648.65	35929.55
649.002	35877.35
649.355	35941.07
649.707	35915.54
650.059	36046.61
650.411	36545.58
650.763	36548.97
651.115	37012.91
651.467	36928.39
651.819	36732.01
652.171	36488.18
652.523	36777.89
652.875	36793.03
653.227	36678
653.578	36873.03
653.93	36832.12
654.282	36484.79
654.633	36622.64
654.985	36633.49
655.337	36726.82
655.688	36640.94
656.039	36747.38
656.391	36507.16
656.742	36587.39
657.094	36548.29
657.445	36779.92
657.796	36604.33
658.147	36502.19
658.498	36510.33
658.849	36539.03
659.2	36494.28
659.551	36351.01
659.902	36477.11
660.253	36496.09
660.604	36562.08
660.955	36284.12
661.306	36518.46
661.656	36377.45
662.007	36463.77
662.358	36431.91
662.708	36391.01
663.059	36264
663.409	36090
663.76	36442.3
664.11	36445.02
664.461	36415.41
664.811	36400.5
665.161	36273.5
665.511	36412.7
665.862	36379.93
666.212	36495.41
666.562	36381.06
666.912	36215.19
667.262	36447.05
667.612	36334.74
667.962	36460.84
668.312	36300.39
668.662	36501.51
669.011	36315.08
669.361	36310.56
669.711	36268.52
670.06	36213.84
670.41	36234.85
670.76	36155.31
671.109	36279.37
671.459	36265.81
671.808	36157.34
672.157	36338.8
672.507	36152.82
672.856	36200.28
673.205	36104.69
673.554	36221.97
673.904	35976.78
674.253	36381.29
674.602	36238.69
674.951	35593.51
675.3	35583.8
675.649	36132.03
675.998	35985.14
676.346	35958.7
676.695	36084.57
677.044	35774.53
677.393	36014.07
677.741	36021.98
678.09	35868.53
678.438	35805.26
678.787	35915.76
679.135	35856.33
679.484	35642.1
679.832	35897.46
680.181	35523.46
680.529	35676.67
680.877	35604.81
681.225	35559.62
681.573	35766.39
681.922	35548.32
682.27	35303.35
682.618	35429.9
682.966	35377.25
683.314	35350.36
683.661	35325.27
684.009	35249.79
684.357	35083.24
684.705	35094.54
685.053	35055
685.4	35072.62
685.748	34862.69
686.095	34825.62
686.443	34803.48
686.79	34773.2
687.138	34791.27
687.485	34853.42
687.832	34579.08
688.18	34680.32
688.527	34371.62
688.874	34597.83
689.221	34390.16
689.568	34361
689.915	34236.71
690.262	34251.4
690.609	34127.56
690.956	34063.61
691.303	34140.67
691.65	33951.97
691.997	33958.3
692.344	33685.09
692.69	33736.84
693.037	33692.32
693.383	33422.27
693.73	33596.05
694.077	33309.05
694.423	33372.1
694.769	33188.15
695.116	33108.38
695.462	33020.25
695.808	32994.49
696.155	33054.37
696.501	32672.69
696.847	32809.86
697.193	32575.06
697.539	32587.94
697.885	32333.03
698.231	32342.3
698.577	32351.11
698.923	32365.12
699.269	32099.14
699.614	31965.13
699.96	31928.52
700.306	32046.49
700.651	31782.77
700.997	31772.82
701.342	31565.82
701.688	31705.25
702.033	31451.25
702.379	31517.91
702.724	31542.55
703.069	31492.15
703.415	31063.24
703.76	31049.68
704.105	31232.5
704.45	31114.31
704.795	30855.78
705.14	30786.63
705.485	30851.49
705.83	30716.35
706.175	30763.81
706.52	30645.39
706.865	30529.69
707.209	30370.15
707.554	30406.76
707.899	30431.84
708.243	30283.14
708.588	30217.16
708.932	30006.54
709.277	30052.19
709.621	30066.2
709.966	29877.05
710.31	29976.94
710.654	29592.99
710.998	29665.08
711.342	29724.06
711.687	29619.66
712.031	29516.38
712.375	29392.09
712.719	29423.05
713.063	29346.67
713.407	29379.67
713.75	29136.96
714.094	29193.23
714.438	29096.06
714.782	29240.23
715.125	28871.88
715.469	28947.13
715.812	28889.73
716.156	28518.67
716.499	28830.75
716.843	28804.54
717.186	28621.95
717.53	28814.26
717.873	28649.74
718.216	28649.97
718.559	28496.75
718.902	28304.44
719.246	28373.36
719.589	28317.77
719.932	28221.73
720.275	28191.67
720.617	28170.66
720.96	28080.26
721.303	28184.89
721.646	28105.57
721.989	27872.81
722.331	28084.78
722.674	27800.72
723.016	27861.97
723.359	27887.28
723.701	27861.97
724.044	27641.86
724.386	27644.57
724.729	27729.99
725.071	27614.74
725.413	27623.33
725.755	27496.55
726.097	27435.31
726.439	27306.73
726.782	27403.45
727.124	27417.91
727.465	27233.06
727.807	27425.59
728.149	27132.94
728.491	27261.08
728.833	27055.88
729.175	27072.61
729.516	27109.67
729.858	27020.41
730.199	27022.67
730.541	26901.31
730.882	26910.35
731.224	26958.03
731.565	26791.94
731.906	26783.35
732.248	26879.62
732.589	26617.48
732.93	26693.86
733.271	26664.26
733.612	26579.06
733.953	26676.01
734.294	26450.25
734.635	26540.87
734.976	26420.42
735.317	26315.57
735.658	26407.54
735.999	26252.29
736.339	26230.14
736.68	26373.19
737.021	26207.09
737.361	26100.66
737.702	26280.09
738.042	26235.57
738.383	26106.08
738.723	26137.49
739.063	26008.68
739.404	26087.32
739.744	25997.16
740.084	25995.12
740.424	25808.01
740.764	25997.61
741.104	26033.09
741.444	25746.77
741.784	25672.64
742.124	25881
742.464	25787.9
742.804	25646.66
743.143	25744.28
743.483	25662.02
743.823	25601.46
744.162	25503.38
744.502	25501.58
744.841	25536.6
745.181	25387.68
745.52	25408.02
745.86	25358.75
746.199	25390.62
746.538	25273.33
746.877	25391.07
747.216	25307.46
747.556	25182.94
747.895	25077.18
748.234	25116.95
748.573	25051.42
748.911	25105.88
749.25	25040.12
749.589	24973
749.928	24952.44
750.267	25014.58
750.605	24859.11
750.944	24809.84
751.283	24743.63
751.621	24775.27
751.96	24807.81
752.298	24755.61
752.636	24686.68
752.975	24580.02
753.313	24480.81
753.651	24567.59
753.989	24588.15
754.327	24517.87
754.666	24439.46
755.004	24287.6
755.342	24441.94
755.679	24319.01
756.017	24276.3
756.355	24093.02
756.693	24133.02
757.031	24119.69
757.368	24016.64
757.706	23970.09
758.044	23936.42
758.381	23857.1
758.719	23806.93
759.056	23773.03
759.394	23720.15
759.731	23588.18
760.068	23707.72
760.405	23473.61
760.743	23523.32
761.08	23576.88
761.417	23218.25
