Data from hue_350_FLMS001491_25.txt Node
Date: Mon Feb 06 15:37:48 GMT 2017
User: dcchb
Spectrometer: FLMS00149
Trigger mode: 0
Integration Time (sec): 2.000000E-2
Scans to average: 10
Electric dark correction enabled: true
Nonlinearity correction enabled: false
Boxcar width: 0
XAxis mode: Wavelengths
Number of Pixels in Spectrum: 2048
>>>>>Begin Spectral Data<<<<<
341.393	-28.02
341.776	-28.02
342.16	-28.02
342.543	-66.66
342.927	-74.8
343.31	-72.09
343.693	-72.77
344.077	-47.68
344.46	-67.12
344.843	-63.73
345.226	-28.93
345.61	-25.54
345.993	-13.56
346.376	-13.33
346.759	9.72
347.142	9.72
347.525	40
347.908	58.08
348.291	90.62
348.674	74.35
349.057	122.26
349.44	132.43
349.823	151.86
350.206	141.92
350.588	187.79
350.971	213.55
351.354	213.1
351.737	200.9
352.119	251.52
352.502	256.72
352.884	280.67
353.267	274.8
353.65	278.18
354.032	287.9
354.414	305.98
354.797	317.96
355.179	305.53
355.562	316.6
355.944	320.44
356.326	320.9
356.709	324.96
357.091	340.33
357.473	343.49
357.855	340.1
358.238	344.62
358.62	343.27
359.002	343.27
359.384	333.78
359.766	331.52
360.148	315.92
360.53	338.52
360.912	309.82
361.294	335.13
361.676	320.67
362.057	321.57
362.439	324.51
362.821	320.9
363.203	316.38
363.584	333.1
363.966	320.22
364.348	329.26
364.729	315.02
365.111	316.6
365.493	308.69
365.874	321.8
366.256	328.35
366.637	312.99
367.019	323.38
367.4	298.75
367.781	314.57
368.163	299.65
368.544	312.99
368.925	295.36
369.306	299.65
369.688	289.94
370.069	308.01
370.45	299.2
370.831	298.52
371.212	298.07
371.593	303.49
371.974	311.4
372.355	316.15
372.736	313.89
373.117	300.11
373.498	299.2
373.879	312.53
374.26	316.83
374.641	329.48
375.021	314.34
375.402	301.24
375.783	307.56
376.163	323.38
376.544	297.62
376.925	320.22
377.305	307.11
377.686	310.5
378.066	331.74
378.447	322.7
378.827	305.98
379.208	313.66
379.588	313.66
379.968	312.99
380.349	336.04
380.729	313.66
381.109	341.69
381.489	343.49
381.87	339.65
382.25	334.45
382.63	324.51
383.01	341.23
383.39	321.8
383.77	349.6
384.15	332.87
384.53	321.8
384.91	351.18
385.29	341.23
385.67	338.07
386.049	328.35
386.429	352.76
386.809	335.13
387.189	334.45
387.568	344.4
387.948	337.62
388.328	359.09
388.707	359.99
389.087	354.34
389.466	369.93
389.846	338.75
390.225	359.99
390.605	355.24
390.984	362.48
391.363	365.87
391.743	360.67
392.122	326.09
392.501	350.95
392.881	368.8
393.26	361.35
393.639	336.94
394.018	366.54
394.397	350.95
394.776	390.72
395.155	366.77
395.534	366.32
395.913	370.39
396.292	389.82
396.671	382.14
397.05	359.54
397.429	358.41
397.808	373.78
398.186	371.97
398.565	380.33
398.944	382.59
399.323	355.47
399.701	383.27
400.08	385.07
400.458	392.98
400.837	386.88
401.215	378.75
401.594	390.95
401.972	393.66
402.351	407.22
402.729	394.11
403.107	380.1
403.486	399.76
403.864	399.09
404.242	408.12
404.62	415.36
404.999	408.58
405.377	405.87
405.755	407.45
406.133	417.84
406.511	423.27
406.889	406.99
407.267	408.8
407.645	421.91
408.023	423.27
408.401	414.23
408.779	408.58
409.156	408.58
409.534	433.43
409.912	439.08
410.29	443.83
410.667	436.6
411.045	441.12
411.422	459.2
411.8	435.02
412.178	450.61
412.555	474.56
412.933	452.64
413.31	468.69
413.687	476.37
414.065	459.87
414.442	475.24
414.819	475.24
415.197	469.14
415.574	467.78
415.951	472.3
416.328	483.15
416.705	470.04
417.082	491.96
417.46	482.02
417.837	515.01
418.214	513.21
418.591	504.85
418.967	472.76
419.344	533.09
419.721	517.05
420.098	509.59
420.475	524.73
420.852	506.65
421.228	514.79
421.605	512.53
421.982	536.03
422.358	546.88
422.735	532.19
423.111	540.78
423.488	566.54
423.864	545.3
424.241	557.95
424.617	535.58
424.994	548.23
425.37	575.13
425.746	577.84
426.123	565.63
426.499	561.34
426.875	602.7
427.251	586.88
427.627	588.91
428.003	588.46
428.379	599.53
428.756	616.71
429.132	595.24
429.507	608.12
429.883	598.4
430.259	622.36
430.635	630.49
431.011	615.35
431.387	639.31
431.763	647.89
432.138	646.31
432.514	658.51
432.89	666.88
433.265	659.19
433.641	672.98
434.016	684.05
434.392	669.13
434.767	668.68
435.143	696.03
435.518	691.96
435.894	697.83
436.269	736.03
436.644	715.91
437.02	708
437.395	737.16
437.77	725.86
438.145	725.63
438.52	737.61
438.895	754.1
439.271	743.71
439.646	764.95
440.021	736.48
440.395	787.1
440.77	773.09
441.145	754.78
441.52	798.85
441.895	776.48
442.27	774.22
442.645	787.78
443.019	792.07
443.394	787.1
443.769	798.85
444.143	788.45
444.518	806.98
444.892	826.19
445.267	807.89
445.641	830.94
446.016	813.09
446.39	797.72
446.764	823.48
447.139	819.19
447.513	835.23
447.887	817.83
448.262	840.2
448.636	828
449.01	843.82
449.384	845.4
449.758	878.62
450.132	856.25
450.506	868.68
450.88	874.78
451.254	873.88
451.628	876.59
452.002	892.41
452.376	864.61
452.75	923.37
453.123	906.42
453.497	922.01
453.871	904.83
454.244	923.82
454.618	940.31
454.992	935.34
455.365	936.7
455.739	960.43
456.112	981.9
456.486	957.49
456.859	994.78
457.232	997.26
457.606	999.07
457.979	976.7
458.352	1022.57
458.725	1039.29
459.099	1036.58
459.472	1084.72
459.845	1045.62
460.218	1053.08
460.591	1062.8
460.964	1082.23
461.337	1101.44
461.71	1107.77
462.083	1120.42
462.456	1107.09
462.829	1126.98
463.201	1150.48
463.574	1164.04
463.947	1169.46
464.32	1176.01
464.692	1178.27
465.065	1185.51
465.438	1224.37
465.81	1231.61
466.183	1236.13
466.555	1254.66
466.928	1292.17
467.3	1249.91
467.672	1279.74
468.045	1304.37
468.417	1309.12
468.789	1316.35
469.161	1339.63
469.534	1348.67
469.906	1370.59
470.278	1371.04
470.65	1398.16
471.022	1423.01
471.394	1441.09
471.766	1464.82
472.138	1456.23
472.51	1489
472.882	1519.73
473.253	1547.76
473.625	1542.11
473.997	1590.01
474.369	1597.25
474.74	1635.66
475.112	1661.43
475.484	1657.58
475.855	1710.92
476.227	1711.14
476.598	1763.12
476.97	1773.51
477.341	1830.91
477.713	1829.78
478.084	1852.61
478.455	1896.67
478.827	1918.82
479.198	1923.11
479.569	1995.43
479.94	2021.42
480.311	2031.81
480.682	2086.27
481.053	2121.75
481.424	2168.3
481.795	2168.76
482.166	2221.64
482.537	2223.9
482.908	2306.38
483.279	2303.67
483.65	2376.21
484.021	2388.41
484.391	2450.56
484.762	2462.08
485.133	2453.95
485.503	2521.97
485.874	2561.06
486.244	2578.46
486.615	2654.17
486.985	2697.33
487.356	2744.33
487.726	2746.82
488.097	2814.84
488.467	2835.41
488.837	2874.05
489.207	2911.56
489.578	2985.68
489.948	2992.69
490.318	3019.58
490.688	3035.4
491.058	3093.93
491.428	3078.11
491.798	3112.69
492.168	3208.28
492.538	3228.84
492.908	3270.87
493.278	3339.57
493.648	3288.95
494.017	3364.43
494.387	3382.74
494.757	3401.72
495.126	3492.11
495.496	3446.69
495.866	3464.77
496.235	3502.73
496.605	3568.49
496.974	3605.1
497.344	3670.86
497.713	3629.51
498.082	3706.8
498.452	3710.64
498.821	3728.72
499.19	3760.81
499.559	3772.78
499.928	3833.57
500.298	3820.46
500.667	3878.09
501.036	3887.81
501.405	3897.98
501.774	3915.83
502.143	3940.24
502.512	3958.99
502.88	4004.19
503.249	4009.16
503.618	4019.56
503.987	4010.52
504.356	4066.11
504.724	4049.84
505.093	4085.54
505.462	4096.16
505.83	4134.58
506.199	4159.89
506.567	4211.87
506.936	4176.39
507.304	4288.93
507.672	4266.78
508.041	4250.74
508.409	4311.3
508.777	4292.77
509.145	4330.73
509.514	4326.89
509.882	4378.42
510.25	4389.49
510.618	4412.99
510.986	4416.38
511.354	4428.58
511.722	4477.62
512.09	4461.8
512.458	4516.04
512.826	4496.6
513.193	4563.5
513.561	4560.56
513.929	4584.06
514.297	4589.03
514.664	4611.86
515.032	4629.26
515.4	4629.26
515.767	4641.46
516.135	4686.2
516.502	4621.57
516.869	4718.75
517.237	4702.7
517.604	4749.03
517.972	4758.07
518.339	4747.45
518.706	4792.87
519.073	4806.65
519.44	4809.59
519.808	4856.82
520.175	4885.07
520.542	4897.72
520.909	4941.79
521.276	4950.38
521.643	4961.9
522.009	4990.38
522.376	4975.01
522.743	5002.13
523.11	5041.22
523.477	5085.52
523.843	5130.94
524.21	5152.41
524.577	5196.25
524.943	5204.83
525.31	5218.62
525.676	5259.52
526.043	5260.88
526.409	5283.48
526.776	5367.09
527.142	5334.77
527.508	5358.73
527.874	5386.75
528.241	5429.69
528.607	5421.78
528.973	5492.28
529.339	5537.26
529.705	5530.7
530.071	5590.59
530.437	5577.48
530.803	5588.55
531.169	5664.26
531.535	5656.12
531.901	5712.39
532.267	5716.46
532.632	5700.19
532.998	5779.51
533.364	5810.24
533.73	5829.45
534.095	5864.25
534.461	5866.29
534.826	5852.5
535.192	5928.66
535.557	5972.5
535.923	6012.72
536.288	5958.26
536.653	6015.44
537.019	5972.05
537.384	6054.98
537.749	6090.69
538.114	6111.7
538.479	6110.12
538.845	6120.07
539.21	6135.43
539.575	6146.28
539.94	6186.05
540.305	6241.87
540.67	6222.89
541.034	6246.84
541.399	6305.14
541.764	6274.19
542.129	6347.18
542.494	6370.45
542.858	6380.85
543.223	6456.55
543.587	6421.53
543.952	6449.77
544.316	6475.99
544.681	6525.93
545.045	6544.91
545.41	6576.55
545.774	6571.35
546.138	6611.8
546.503	6596.44
546.867	6620.39
547.231	6647.28
547.595	6723.89
547.959	6744.23
548.324	6797.34
548.688	6753.04
549.052	6800.95
549.416	6798.47
549.779	6809.09
550.143	6828.3
550.507	6889.99
550.871	6909.65
551.235	6908.29
551.599	6957.56
551.962	6962.75
552.326	6992.36
552.689	7113.03
553.053	7004.79
553.417	7100.6
553.78	7175.18
554.143	7114.84
554.507	7166.37
554.87	7155.29
555.234	7247.49
555.597	7188.06
555.96	7233.71
556.323	7250.43
556.686	7274.61
557.05	7349.19
557.413	7296.31
557.776	7344.89
558.139	7349.64
558.502	7348.73
558.865	7396.64
559.228	7423.99
559.59	7471.67
559.953	7491.1
560.316	7579.01
560.679	7499.01
561.041	7576.3
561.404	7661.04
561.767	7691.78
562.129	7581.95
562.492	7732.45
562.854	7684.77
563.217	7755.05
563.579	7739.01
563.941	7809.29
564.304	7871.66
564.666	7844.09
565.028	7881.6
565.39	7883.86
565.753	7917.76
566.115	7936.06
566.477	7954.14
566.839	8039.34
567.201	8076.85
567.563	8024.2
567.925	8127.24
568.287	8091.54
568.648	8192.1
569.01	8172.21
569.372	8222.38
569.734	8201.14
570.095	8268.03
570.457	8304.41
570.819	8404.07
571.18	8328.37
571.542	8457.4
571.903	8505.31
572.265	8482.94
572.626	8563.62
572.987	8522.71
573.349	8599.55
573.71	8623.95
574.071	8710.51
574.432	8779.66
574.794	8875.25
575.155	8914.34
575.516	8864.85
575.877	8953.66
576.238	9018.75
576.599	9085.64
576.96	9122.7
577.32	9172.41
577.681	9251.28
578.042	9322.24
578.403	9485.63
578.763	9484.5
579.124	9601.33
579.485	9740.99
579.845	9840.19
580.206	9862.79
580.566	10042.22
580.927	10073.18
581.287	10213.52
581.648	10345.72
582.008	10526.05
582.368	10653.05
582.728	10783.45
583.089	10857.12
583.449	11017.34
583.809	11170.1
584.169	11339.81
584.529	11444.9
584.889	11765.11
585.249	11827.49
585.609	11865.68
585.969	12207.36
586.329	12365.32
586.688	12601.7
587.048	12671.53
587.408	12892.77
587.768	13068.58
588.127	13287.56
588.487	13529.81
588.846	13869.24
589.206	13982.91
589.565	14234.43
589.925	14556
590.284	14651.14
590.643	15003.67
591.003	15211.58
591.362	15468.97
591.721	15795.06
592.08	15920.03
592.44	16367.03
592.799	16514.59
593.158	16747.58
593.517	17103.28
593.876	17382.82
594.235	17637.95
594.593	17902.13
594.952	18223.25
595.311	18492.17
595.67	18744.82
596.029	19115.88
596.387	19433.39
596.746	19760.61
597.104	19865.47
597.463	20163.99
597.822	20449.41
598.18	20654.6
598.538	20923.74
598.897	21323.51
599.255	21450.96
599.613	22138.17
599.972	22200.77
600.33	22427.43
600.688	22835.56
601.046	23032.16
601.404	23250.46
601.762	23589.89
602.12	23930.67
602.478	24091.34
602.836	24401.84
603.194	24600.03
603.552	24874.6
603.91	25043.41
604.268	25463.51
604.625	25521.81
604.983	25868.02
605.341	25964.29
605.698	26365.41
606.056	26585.52
606.413	26830.48
606.771	27215.1
607.128	27366.51
607.485	27538.26
607.843	27862.32
608.2	28137.34
608.557	28525.35
608.914	28452.36
609.272	28778.9
609.629	29065.45
609.986	29305.9
610.343	29323.75
610.7	29855.26
611.057	29857.75
611.414	30085.99
611.771	30191.97
612.127	30599.65
612.484	30673.09
612.841	30987.89
613.198	31042.8
613.554	31311.04
613.911	31393.75
614.267	31675.33
614.624	31787.64
614.98	32026.73
615.337	32211.58
615.693	32260.39
616.05	32326.61
616.406	32678.01
616.762	32849.98
617.118	32776.31
617.475	33129.98
617.831	33315.96
618.187	33415.84
618.543	33606.57
618.899	33913.23
619.255	33850.18
619.611	33794.37
619.967	34223.51
620.323	34254.92
620.678	34445.65
621.034	34394.8
621.39	34561.13
621.746	34672.08
622.101	35168.57
622.457	34949.82
622.812	35013.99
623.168	35164.95
623.523	35167.89
623.879	35352.06
624.234	35230.26
624.589	35522.91
624.945	35571.04
625.3	35796.12
625.655	35705.73
626.01	35759.96
626.365	35840.19
626.72	35944.59
627.075	35910.92
627.43	36091.03
627.785	36092.38
628.14	36223.45
628.495	36372.38
628.85	36146.85
629.205	36287.63
629.559	36407.63
629.914	36215.09
630.269	36430.23
630.623	36452.6
630.978	36478.59
631.332	36561.52
631.687	36658.02
632.041	36469.78
632.396	36660.5
632.75	36524.01
633.104	36757.45
633.459	36515.42
633.813	36511.13
634.167	36617.57
634.521	36658.25
634.875	36659.38
635.229	36825.7
635.583	36573.95
635.937	36632.48
636.291	36746.38
636.645	36608.53
636.999	36667.06
637.352	36877.22
637.706	36585.25
638.06	36777.11
638.413	36721.97
638.767	36784.12
639.121	36727.4
639.474	36611.69
639.828	36594.07
640.181	36720.84
640.534	36725.14
640.888	36590.9
641.241	36526.05
641.594	36811.46
641.947	36710.67
642.301	36492.6
642.654	36650.34
643.007	36684.46
643.36	36542.09
643.713	36597.68
644.066	36677.23
644.419	36458.48
644.771	36292.61
645.124	36044.02
645.477	35865.05
645.83	35823.46
646.182	35604.26
646.535	35582.79
646.888	35571.49
647.24	35429.58
647.593	35603.81
647.945	35514.77
648.298	35407.88
648.65	35332.4
649.002	35201.79
649.355	35406.98
649.707	35237.04
650.059	35474.77
650.411	35891.26
650.763	35957.02
651.115	36420.51
651.467	36231.59
651.819	36287.86
652.171	36109.79
652.523	35932.16
652.875	36213.29
653.227	35924.48
653.578	36282.44
653.93	36001.77
654.282	35908.89
654.633	35851.03
654.985	35963.57
655.337	35945.5
655.688	35934.65
656.039	36222.78
656.391	35807.65
656.742	35851.94
657.094	35968.32
657.445	36030.24
657.796	36083.12
658.147	35884.48
658.498	35840.87
658.849	36005.61
659.2	36013.06
659.551	35862.11
659.902	35885.38
660.253	35968.55
660.604	35966.06
660.955	35818.72
661.306	35872.05
661.656	35910.47
662.007	35779.62
662.358	35805.84
662.708	35926.96
663.059	35802
663.409	35527.65
663.76	35837.48
664.11	35906.4
664.461	35866.18
664.811	35826.85
665.161	35832.05
665.511	35745.73
665.862	35698.72
666.212	35867.53
666.562	35840.19
666.912	35742.11
667.262	35747.31
667.612	35743.24
667.962	35635.9
668.312	35692.17
668.662	35858.72
669.011	35745.27
669.361	35641.55
669.711	35742.56
670.06	35649.01
670.41	35650.81
670.76	35568.56
671.109	35753.41
671.459	35535.34
671.808	35509.12
672.157	35640.19
672.507	35393.65
672.856	35287.43
673.205	35548.22
673.554	35500.31
673.904	35440.65
674.253	35569.23
674.602	35624.37
674.951	34964.05
675.3	34886.09
675.649	35414.21
675.998	35344.16
676.346	35382.35
676.695	35553.42
677.044	35151.17
677.393	35272.74
677.741	35352.74
678.09	35150.49
678.438	35219.86
678.787	35257.83
679.135	35366.08
679.484	34917.27
679.832	35207.89
680.181	34982.36
680.529	35120.66
680.877	35037.95
681.225	35045.41
681.573	35042.24
681.922	34794.34
682.27	34778.07
682.618	34725.64
682.966	34783.49
683.314	34876.82
683.661	34681.12
684.009	34447.91
684.357	34348.02
684.705	34413.56
685.053	34537.62
685.4	34489.49
685.748	34227.12
686.095	34098.54
686.443	34129.72
686.79	34001.82
687.138	34090.63
687.485	34121.81
687.832	33924.98
688.18	33996.85
688.527	33879.79
688.874	33771.99
689.221	33798.66
689.568	33702.16
689.915	33528.38
690.262	33587.14
690.609	33525.9
690.956	33343.08
691.303	33447.48
691.65	33214.27
691.997	33247.49
692.344	33117.77
692.69	33140.6
693.037	33048.62
693.383	32733.38
693.73	32853.6
694.077	32656.32
694.423	32707.16
694.769	32619.03
695.116	32561.63
695.462	32563.21
695.808	32262.43
696.155	32345.59
696.501	32246.61
696.847	32138.59
697.193	31948.54
697.539	32057.46
697.885	31901.53
698.231	31693.63
698.577	31753.29
698.923	31671.94
699.269	31556.01
699.614	31441.66
699.96	31331.83
700.306	31464.03
700.651	31335.67
700.997	31147.43
701.342	31073.99
701.688	31120.54
702.033	30964.61
702.379	31003.48
702.724	30859.08
703.069	30851.84
703.415	30580.89
703.76	30548.8
704.105	30478.97
704.45	30357.62
704.795	30398.97
705.14	30129.6
705.485	30249.37
705.83	30017.74
706.175	30134.35
706.52	30142.03
706.865	29825.43
707.209	29953.79
707.554	29800.57
707.899	29931.19
708.243	29730.97
708.588	29685.1
708.932	29538.66
709.277	29446.91
709.621	29505.44
709.966	29273.35
710.31	29387.93
710.654	29158.78
710.998	29122.85
711.342	29232.45
711.687	29041.95
712.031	28985
712.375	28829.3
712.719	28907.71
713.063	28759.24
713.407	28880.37
713.75	28756.08
714.094	28567.16
714.438	28491.68
714.782	28593.37
715.125	28339.82
715.469	28580.94
715.812	28340.95
716.156	28131.46
716.499	28241.74
716.843	28203.33
717.186	28047.85
717.53	28198.13
717.873	28290.56
718.216	28052.14
718.559	28028.64
718.902	27796.33
719.246	27913.16
719.589	27866.84
719.932	27712.27
720.275	27782.77
720.617	27670.01
720.96	27620.52
721.303	27587.75
721.646	27559.95
721.989	27535.55
722.331	27479.05
722.674	27254.88
723.016	27369.9
723.359	27342.33
723.701	27279.28
724.044	27066.18
724.386	27017.82
724.729	27122
725.071	27008.33
725.413	26986.41
725.755	26998.39
726.097	26901.44
726.439	26809.92
726.782	26745.29
727.124	26922.68
727.465	26840.42
727.807	26737.6
728.149	26720.88
728.491	26676.81
728.833	26665.74
729.175	26613.76
729.516	26614.44
729.858	26389.59
730.199	26521.34
730.541	26448.34
730.882	26382.36
731.224	26428.23
731.565	26299.42
731.906	26385.29
732.248	26269.59
732.589	26176.49
732.93	26018.07
733.271	26195.24
733.612	26109.82
733.953	26053.33
734.294	26026.89
734.635	25980.79
734.976	26095.81
735.317	25817.63
735.658	25879.77
735.999	25909.83
736.339	25834.8
736.68	25847.46
737.021	25695.14
737.361	25705.09
737.702	25750.96
738.042	25739.21
738.383	25600.68
738.723	25647.69
739.063	25461.7
739.404	25410.18
739.744	25408.15
740.084	25275.27
740.424	25411.99
740.764	25362.27
741.104	25458.54
741.444	25283.85
741.784	25112.33
742.124	25322.95
742.464	25179.45
742.804	25076.4
743.143	25124.54
743.483	25176.51
743.823	25039.79
744.162	25012.9
744.502	25044.77
744.841	24939.01
745.181	25021.04
745.52	24908.5
745.86	24871.21
746.199	24811.33
746.538	24703.08
746.877	24761.61
747.216	24881.15
747.556	24751.21
747.895	24685
748.234	24493.59
748.573	24661.27
748.911	24642.74
749.25	24492.46
749.589	24398
749.928	24514.16
750.267	24349.42
750.605	24406.59
750.944	24312.81
751.283	24289.08
751.621	24308.97
751.96	24128.86
752.298	24132.25
752.636	24117.33
752.975	23998.69
753.313	24043.66
753.651	23968.64
753.989	23864.46
754.327	23800.73
754.666	23697.23
755.004	23755.53
755.342	23707.63
755.679	23794.4
756.017	23417.69
756.355	23695.42
756.693	23434.64
757.031	23557.57
757.368	23429.21
757.706	23365.04
758.044	23259.5
758.381	23330.69
758.719	23282.33
759.056	23243.23
759.394	23140.63
759.731	23061.09
760.068	23036.23
760.405	22990.13
760.743	22937.25
