Data from hue_340_FLMS001491_18.txt Node
Date: Mon Feb 06 15:42:21 GMT 2017
User: dcchb
Spectrometer: FLMS00149
Trigger mode: 0
Integration Time (sec): 2.000000E-2
Scans to average: 10
Electric dark correction enabled: true
Nonlinearity correction enabled: false
Boxcar width: 0
XAxis mode: Wavelengths
Number of Pixels in Spectrum: 2048
>>>>>Begin Spectral Data<<<<<
341.393	-27
341.776	-27
342.16	-27
342.543	-71.98
342.927	-68.59
343.31	-54.8
343.693	-63.61
344.077	-84.63
344.46	-54.35
344.843	-54.35
345.226	-40.11
345.61	-8.47
345.993	-13.9
346.376	0.56
346.759	-8.93
347.142	12.99
347.525	31.98
347.908	54.8
348.291	96.83
348.674	86.66
349.057	99.32
349.44	136.83
349.823	152.43
350.206	165.53
350.588	163.5
350.971	204.63
351.354	224.51
351.737	216.38
352.119	240.33
352.502	257.96
352.884	276.26
353.267	270.16
353.65	288.69
354.032	280.56
354.414	309.03
354.797	311.97
355.179	320.56
355.562	320.33
355.944	323.49
356.326	324.62
356.709	324.4
357.091	330.5
357.473	345.64
357.855	337.96
358.238	336.6
358.62	325.3
359.002	316.49
359.384	335.7
359.766	337.05
360.148	313.33
360.53	339.09
360.912	333.21
361.294	346.54
361.676	309.26
362.057	329.6
362.439	310.39
362.821	322.36
363.203	319.88
363.584	326.21
363.966	311.52
364.348	321.69
364.729	306.55
365.111	313.33
365.493	333.44
365.874	312.65
366.256	320.1
366.637	305.87
367.019	304.74
367.4	307.68
367.781	311.52
368.163	319.2
368.544	306.09
368.925	289.14
369.306	318.52
369.688	305.42
370.069	306.55
370.45	326.88
370.831	322.36
371.212	303.83
371.593	316.71
371.974	311.97
372.355	305.19
372.736	299.77
373.117	311.74
373.498	307
373.879	304.74
374.26	316.26
374.641	308.35
375.021	293.89
375.402	307.68
375.783	315.36
376.163	311.74
376.544	302.48
376.925	309.94
377.305	304.96
377.686	316.26
378.066	316.26
378.447	314
378.827	317.62
379.208	331.18
379.588	311.52
379.968	322.14
380.349	336.83
380.729	327.34
381.109	321.23
381.489	329.37
381.87	335.02
382.25	316.94
382.63	325.98
383.01	319.65
383.39	351.29
383.77	342.7
384.15	336.6
384.53	332.99
384.91	322.14
385.29	330.05
385.67	342.25
386.049	351.06
386.429	339.54
386.809	358.52
387.189	330.05
387.568	343.61
387.948	347
388.328	344.51
388.707	340.22
389.087	348.13
389.466	367.56
389.846	348.8
390.225	340.89
390.605	343.38
390.984	360.56
391.363	331.86
391.743	362.14
392.122	349.48
392.501	369.59
392.881	355.58
393.26	362.82
393.639	357.39
394.018	350.16
394.397	362.14
394.776	363.95
395.155	363.04
395.534	366.88
395.913	363.49
396.292	372.31
396.671	383.83
397.05	383.61
397.429	377.28
397.808	360.78
398.186	363.49
398.565	377.5
398.944	392.65
399.323	381.57
399.701	378.41
400.08	369.59
400.458	381.35
400.837	402.59
401.215	395.81
401.594	364.17
401.972	389.26
402.351	375.7
402.729	408.01
403.107	403.94
403.486	400.78
403.864	395.36
404.242	398.29
404.62	407.56
404.999	424.28
405.377	408.92
405.755	425.86
406.133	405.98
406.511	418.86
406.889	430.61
407.267	431.51
407.645	438.97
408.023	402.81
408.401	438.07
408.779	422.47
409.156	424.28
409.534	451.17
409.912	420.44
410.29	441.46
410.667	453.66
411.045	464.73
411.422	469.93
411.8	462.25
412.178	457.95
412.555	464.06
412.933	464.73
413.31	482.81
413.687	480.33
414.065	442.36
414.442	487.56
414.819	498.18
415.197	488.91
415.574	474.9
415.951	496.15
416.328	504.73
416.705	501.57
417.082	507.44
417.46	508.35
417.837	518.07
418.214	529.14
418.591	536.14
418.967	530.49
419.344	529.82
419.721	535.24
420.098	528.46
420.475	548.35
420.852	541.12
421.228	531.85
421.605	554.67
421.982	564.62
422.358	577.05
422.735	576.14
423.111	579.31
423.488	575.47
423.864	585.41
424.241	599.19
424.617	605.29
424.994	612.53
425.37	609.36
425.746	599.87
426.123	616.37
426.499	598.97
426.875	607.78
427.251	611.85
427.627	614.56
428.003	652.3
428.379	635.35
428.756	624.73
429.132	644.62
429.507	636.71
429.883	658.63
430.259	687.1
430.635	702.47
431.011	667.89
431.387	674.67
431.763	702.69
432.138	687.78
432.514	712.86
432.89	722.81
433.265	732.3
433.641	735.69
434.016	743.14
434.392	731.62
434.767	784.27
435.143	785.4
435.518	748.12
435.894	744.27
436.269	787.66
436.644	768.91
437.02	777.72
437.395	788.79
437.77	782.92
438.145	791.5
438.52	810.49
438.895	824.72
439.271	803.93
439.646	819.3
440.021	820.66
440.395	849.36
440.77	847.77
441.145	858.62
441.52	834.22
441.895	851.39
442.27	851.16
442.645	856.36
443.019	856.36
443.394	842.35
443.769	855.01
444.143	865.85
444.518	877.38
444.892	871.5
445.267	896.36
445.641	870.82
446.016	867.89
446.39	906.08
446.764	922.57
447.139	926.87
447.513	911.95
447.887	907.43
448.262	942.01
448.636	929.13
449.01	929.81
449.384	939.75
449.758	947.66
450.132	956.92
450.506	960.77
450.88	960.54
451.254	926.64
451.628	966.19
452.002	969.13
452.376	976.36
452.75	1005.51
453.123	997.37
453.497	1019.97
453.871	1012.29
454.244	1001.67
454.618	1019.52
454.992	1019.97
455.365	1048.9
455.739	1039.18
456.112	1075.11
456.486	1045.74
456.859	1055.45
457.232	1091.38
457.606	1069.46
457.979	1087.99
458.352	1104.72
458.725	1124.83
459.099	1093.64
459.472	1125.06
459.845	1120.54
460.218	1151.27
460.591	1174.32
460.964	1120.99
461.337	1180.87
461.71	1211.61
462.083	1203.7
462.456	1193.08
462.829	1210.02
463.201	1247.99
463.574	1248.67
463.947	1278.05
464.32	1260.64
464.692	1251.61
465.065	1276.01
465.438	1289.57
465.81	1312.85
466.183	1306.29
466.555	1325.5
466.928	1302
467.3	1349
467.672	1342.9
468.045	1396.01
468.417	1393.75
468.789	1424.71
469.161	1414.77
469.534	1448.44
469.906	1464.26
470.278	1491.6
470.65	1509.23
471.022	1513.52
471.394	1513.75
471.766	1533.18
472.138	1573.18
472.51	1592.39
472.882	1591.71
473.253	1632.39
473.625	1668.77
473.997	1685.27
474.369	1661.54
474.74	1677.13
475.112	1719.39
475.484	1711.93
475.855	1788.77
476.227	1803.91
476.598	1845.04
476.97	1859.05
477.341	1880.97
477.713	1904.7
478.084	1918.93
478.455	1979.72
478.827	1974.07
479.198	2039.38
479.569	2032.6
479.94	2052.94
480.311	2075.09
480.682	2110.34
481.053	2122.32
481.424	2197.57
481.795	2213.84
482.166	2245.03
482.537	2257.45
482.908	2286.83
483.279	2334.29
483.65	2391.24
484.021	2414.06
484.391	2470.56
484.762	2485.25
485.133	2482.99
485.503	2497
485.874	2562.31
486.244	2584.68
486.615	2658.35
486.985	2645.69
487.356	2711.68
487.726	2707.84
488.097	2795.75
488.467	2779.7
488.837	2809.53
489.207	2870.32
489.578	2916.65
489.948	2914.84
490.318	2963.88
490.688	2997.32
491.058	3050.65
491.428	3056.98
491.798	3068.51
492.168	3132.91
492.538	3110.31
492.908	3143.08
493.278	3253.13
493.648	3205.23
494.017	3251.33
494.387	3287.26
494.757	3343.75
495.126	3339.01
495.496	3355.05
495.866	3403.64
496.235	3443.64
496.605	3414.03
496.974	3494.26
497.344	3524.99
497.713	3499.23
498.082	3500.59
498.452	3544.43
498.821	3576.74
499.19	3563.18
499.559	3596.85
499.928	3617.87
500.298	3663.29
500.667	3686.8
501.036	3701.26
501.405	3730.64
501.774	3724.31
502.143	3736.74
502.512	3755.27
502.88	3776.96
503.249	3820.13
503.618	3777.64
503.987	3832.1
504.356	3842.95
504.724	3853.8
505.093	3851.09
505.462	3885.66
505.83	3936.05
506.199	3938.99
506.567	3996.84
506.936	3965.43
507.304	3983.51
507.672	3994.58
508.041	4022.15
508.409	4039.55
508.777	4061.93
509.145	4134.02
509.514	4099.89
509.882	4120.68
510.25	4151.64
510.618	4146.67
510.986	4141.25
511.354	4188.7
511.722	4203.62
512.09	4278.87
512.458	4215.37
512.826	4284.97
513.193	4293.33
513.561	4238.87
513.929	4318.64
514.297	4323.84
514.664	4337.63
515.032	4367.46
515.4	4339.21
515.767	4376.95
516.135	4348.25
516.502	4394.57
516.869	4456.49
517.237	4401.58
517.604	4411.52
517.972	4449.26
518.339	4429.38
518.706	4453.56
519.073	4496.49
519.44	4513.44
519.808	4552.76
520.175	4514.12
520.542	4652.65
520.909	4563.16
521.276	4557.73
521.643	4612.42
522.009	4635.25
522.376	4651.97
522.743	4724.73
523.11	4701.01
523.477	4773.32
523.843	4785.52
524.21	4820.1
524.577	4805.64
524.943	4829.82
525.31	4870.04
525.676	4868.01
526.043	4909.36
526.409	4984.61
526.776	4941.45
527.142	4979.19
527.508	4964.5
527.874	5041.56
528.241	5060.32
528.607	5036.36
528.973	5101.9
529.339	5183.48
529.705	5156.14
530.071	5186.64
530.437	5206.98
530.803	5237.26
531.169	5235.91
531.535	5216.02
531.901	5288.79
532.267	5329.01
532.632	5306.87
532.998	5352.74
533.364	5368.79
533.73	5399.29
534.095	5432.29
534.461	5436.13
534.826	5465.96
535.192	5484.49
535.557	5538.72
535.923	5497.14
536.288	5506.18
536.653	5537.14
537.019	5606.97
537.384	5553.64
537.749	5644.71
538.114	5626.86
538.479	5621.66
538.845	5744.37
539.21	5713.86
539.575	5725.61
539.94	5762.22
540.305	5827.76
540.67	5754.09
541.034	5844.25
541.399	5842.22
541.764	5835.67
542.129	5874.76
542.494	5881.09
542.858	5894.87
543.223	5903.01
543.587	5971.48
543.952	5953.85
544.316	6045.6
544.681	6020.07
545.045	6077.24
545.41	6118.82
545.774	6129.67
546.138	6117.47
546.503	6125.38
546.867	6204.92
547.231	6241.98
547.595	6212.83
547.959	6248.31
548.324	6272.04
548.688	6272.04
549.052	6267.29
549.416	6399.49
549.779	6364.47
550.143	6365.37
550.507	6422.99
550.871	6442.43
551.235	6406.5
551.599	6471.81
551.962	6516.33
552.326	6484.69
552.689	6520.39
553.053	6521.52
553.417	6553.16
553.78	6588.64
554.143	6581.63
554.507	6619.83
554.87	6628.41
555.234	6673.16
555.597	6607.17
555.96	6714.96
556.323	6742.76
556.686	6762.42
557.05	6807.62
557.413	6781.4
557.776	6776.21
558.139	6830.22
558.502	6856.88
558.865	6852.59
559.228	6896.2
559.59	6937.78
559.953	6977.78
560.316	7031.79
560.679	7021.62
561.041	7022.98
561.404	7094.84
561.767	7089.19
562.129	7076.09
562.492	7137.78
562.854	7162.86
563.217	7119.25
563.579	7188.62
563.941	7199.25
564.304	7265.91
564.666	7301.84
565.028	7301.16
565.39	7353.82
565.753	7356.98
566.115	7410.99
566.477	7402.86
566.839	7441.27
567.201	7452.57
567.563	7496.41
567.925	7556.52
568.287	7482.85
568.648	7541.38
569.01	7618.9
569.372	7606.01
569.734	7594.72
570.095	7719.91
570.457	7740.93
570.819	7779.34
571.18	7764.2
571.542	7848.72
571.903	7847.82
572.265	7904.31
572.626	7927.36
572.987	7953.12
573.349	7980.69
573.71	8060.01
574.071	8145.89
574.432	8116.74
574.794	8239.22
575.155	8255.26
575.516	8247.13
575.877	8360.57
576.238	8416.61
576.599	8592.66
576.96	8554.92
577.32	8580.9
577.681	8711.3
578.042	8801.46
578.403	8737.28
578.763	8932.53
579.124	8946.77
579.485	9068.12
579.845	9236.25
580.206	9242.36
580.566	9357.61
580.927	9498.62
581.287	9632.4
581.648	9723.47
582.008	9828.33
582.368	9975.9
582.728	10046.18
583.089	10214.53
583.449	10348.09
583.809	10473.74
584.169	10705.82
584.529	10797.34
584.889	11052.48
585.249	11151.23
585.609	11304.9
585.969	11586.93
586.329	11730.43
586.688	12017.2
587.048	12071.89
587.408	12221.71
587.768	12465.77
588.127	12683.62
588.487	12895.82
588.846	13194.12
589.206	13407.67
589.565	13592.75
589.925	13928.11
590.284	14085.62
590.643	14458.49
591.003	14561.76
591.362	14938.7
591.721	15198.36
592.08	15346.6
592.44	15806.25
592.799	15976.42
593.158	16220.93
593.517	16472
593.876	16754.25
594.235	17076.95
594.593	17309.04
594.952	17610.95
595.311	17812.07
595.67	18179.75
596.029	18522.34
596.387	18746.06
596.746	19067.86
597.104	19356.89
597.463	19618.13
597.822	19872.58
598.18	20133.37
598.538	20317.09
598.897	20809.51
599.255	20778.1
599.613	21387.57
599.972	21492.66
600.33	21842.02
600.688	21997.05
601.046	22376.25
601.404	22829.8
601.762	22901.66
602.12	23308.43
602.478	23377.58
602.836	23724.91
603.194	23949.54
603.552	24262.75
603.91	24371.68
604.268	24747.71
604.625	24797.65
604.983	25194.25
605.341	25336.62
605.698	25671.98
606.056	25923.05
606.413	26204.85
606.771	26617.27
607.128	26700.2
607.485	26871.04
607.843	26965.05
608.2	27526.62
608.557	27692.27
608.914	27879.61
609.272	28032.14
609.629	28351.23
609.986	28476.43
610.343	28639.81
610.7	29001.61
611.057	29092
611.414	29285.9
611.771	29444.76
612.127	29780.12
612.484	29945.31
612.841	30195.03
613.198	30342.82
613.554	30431.63
613.911	30656.71
614.267	30777.16
614.624	31010.6
614.98	31089.24
615.337	31449.23
615.693	31545.27
616.05	31656
616.406	31983.45
616.762	32032.49
617.118	32054.64
617.475	32252.37
617.831	32389.09
618.187	32632.25
618.543	32766.71
618.899	32984.1
619.255	32985.23
619.611	33125.8
619.967	33377.54
620.323	33467.71
620.678	33556.29
621.034	33576.63
621.39	33562.62
621.746	33653.69
622.101	34177.29
622.457	34005.55
622.812	34132.1
623.168	34246.44
623.523	34338.19
623.879	34604.4
624.234	34425.42
624.589	34747.67
624.945	34825.41
625.3	34929.36
625.655	34750.39
626.01	35025.18
626.365	35101.56
626.72	35042.58
627.075	35142.24
627.43	35205.29
627.785	35269.47
628.14	35393.76
628.495	35406.41
628.85	35353.99
629.205	35450.93
629.559	35726.41
629.914	35545.39
630.269	35624.94
630.623	35703.81
630.978	35506.52
631.332	35727.54
631.687	35873.97
632.041	35711.26
632.396	35853.63
632.75	35745.16
633.104	35832.39
633.459	35681.43
633.813	35854.99
634.167	35847.76
634.521	35798.72
634.875	35869.45
635.229	35893.18
635.583	35784.48
635.937	35831.71
636.291	35730.25
636.645	35820.64
636.999	35722.79
637.352	35861.32
637.706	35727.31
638.06	35856.8
638.413	35710.81
638.767	35943.12
639.121	35762.79
639.474	35707.42
639.828	35714.43
640.181	35769.12
640.534	35847.31
640.888	35765.5
641.241	35767.31
641.594	35677.82
641.947	35808.89
642.301	35763.92
642.654	35771.38
643.007	35791.94
643.36	35697.93
643.713	35626.52
644.066	35850.24
644.419	35558.95
644.771	35367.77
645.124	35140.88
645.477	35128.91
645.83	34904.28
646.182	34836.71
646.535	34753.32
646.888	34863.83
647.24	34640.33
647.593	34764.85
647.945	34716.94
648.298	34699.99
648.65	34544.74
649.002	34427.68
649.355	34660.44
649.707	34546.55
650.059	34725.75
650.411	35061.79
650.763	35176.82
651.115	35604.6
651.467	35451.16
651.819	35370.48
652.171	35266.3
652.523	35403.25
652.875	35335
653.227	35119.87
653.578	35384.72
653.93	35224.5
654.282	35153.99
654.633	35076.93
654.985	35337.71
655.337	35283.93
655.688	35192.41
656.039	35397.15
656.391	34984.96
656.742	35268.34
657.094	35163.26
657.445	35241.22
657.796	35115.8
658.147	35183.37
658.498	35136.59
658.849	35141.56
659.2	35052.07
659.551	35002.81
659.902	35105.86
660.253	35075.35
660.604	35077.38
660.955	34905.86
661.306	34984.5
661.656	34921.45
662.007	35013.66
662.358	35002.58
662.708	34976.59
663.059	34969.36
663.409	34788.58
663.76	35232.86
664.11	35020.44
664.461	35136.36
664.811	34997.38
665.161	34990.83
665.511	35012.75
665.862	35089.59
666.212	35104.95
666.562	35070.38
666.912	34989.25
667.262	34991.74
667.612	34827.22
667.962	34926.43
668.312	35033.77
668.662	35089.13
669.011	34999.42
669.361	34937.05
669.711	34979.31
670.06	34791.97
670.41	34998.97
670.76	34805.53
671.109	34999.64
671.459	34747.22
671.808	34731.86
672.157	34876.26
672.507	34633.33
672.856	34643.95
673.205	34798.07
673.554	34851.63
673.904	34745.64
674.253	34891.17
674.602	34794.68
674.951	34313.11
675.3	34014.13
675.649	34607.11
675.998	34594.46
676.346	34619.99
676.695	34812.53
677.044	34468.81
677.393	34470.17
677.741	34676.26
678.09	34513.1
678.438	34363.73
678.787	34443.28
679.135	34531.18
679.484	34316.5
679.832	34468.36
680.181	34269.95
680.529	34375.03
680.877	34145.2
681.225	34298.42
681.573	34425.87
681.922	34083.28
682.27	34076.51
682.618	34112.66
682.966	34015.26
683.314	34018.2
683.661	33981.37
684.009	33854.36
684.357	33748.15
684.705	33697.76
685.053	33647.36
685.4	33635.16
685.748	33520.59
686.095	33567.82
686.443	33486.01
686.79	33367.37
687.138	33485.56
687.485	33358.56
687.832	33299.58
688.18	33281.72
688.527	33245.79
688.874	33293.25
689.221	32950.43
689.568	32981.39
689.915	32973.26
690.262	33028.85
690.609	32857.33
690.956	32664.11
691.303	32744.79
691.65	32491.46
691.997	32465.02
692.344	32310
692.69	32405.59
693.037	32356.78
693.383	32070.68
693.73	32227.06
694.077	32004.7
694.423	32104.58
694.769	31944.13
695.116	31817.13
695.462	31755.21
695.808	31578.94
696.155	31817.36
696.501	31528.78
696.847	31508.44
697.193	31232.29
697.539	31492.62
697.885	31111.84
698.231	31066.19
698.577	31018.96
698.923	31018.73
699.269	30941.45
699.614	30806.31
699.96	30688.12
700.306	30711.17
700.651	30734.9
700.997	30472.76
701.342	30444.06
701.688	30406.55
702.033	30389.82
702.379	30331.07
702.724	30294.01
703.069	30212.2
703.415	29809.5
703.76	29956.16
704.105	29925.65
704.45	29796.84
704.795	29623.97
705.14	29716.85
705.485	29694.02
705.83	29451.32
706.175	29445.67
706.52	29497.64
706.865	29277.99
707.209	29337.42
707.554	29180.59
707.899	29286.35
708.243	29033.93
708.588	29120.48
708.932	28843.2
709.277	28837.55
709.621	28828.96
709.966	28618.12
710.31	28972.91
710.654	28467.16
710.998	28584.22
711.342	28559.59
711.687	28440.95
712.031	28315.75
712.375	28292.25
712.719	28311.68
713.063	28242.76
713.407	28461.74
713.75	28206.38
714.094	28121.63
714.438	28049.32
714.782	27997.79
715.125	27809.78
715.469	27966.61
715.812	27872.6
716.156	27672.61
716.499	27684.58
716.843	27671.02
717.186	27562.78
717.53	27691.59
717.873	27684.13
718.216	27552.16
718.559	27454.31
718.902	27289.11
719.246	27285.72
719.589	27261.77
719.932	27089.8
720.275	27170.47
720.617	27158.04
720.96	27092.28
721.303	26916.92
721.646	27099.51
721.989	26874.66
722.331	27068.55
722.674	26847.32
723.016	26773.65
723.359	26766.87
723.701	26768
724.044	26629.47
724.386	26543.6
724.729	26723.93
725.071	26572.3
725.413	26498.4
725.755	26627.89
726.097	26469.02
726.439	26224.96
726.782	26396.03
727.124	26391.28
727.465	26167.11
727.807	26178.86
728.149	26236.49
728.491	26147
728.833	26188.35
729.175	26068.81
729.516	25998.75
729.858	25957.62
730.199	25956.04
730.541	25959.88
730.882	25876.27
731.224	26003.27
731.565	25711.53
731.906	25706.56
732.248	25786.78
732.589	25635.37
732.93	25662.72
733.271	25593.79
733.612	25562.15
733.953	25696.61
734.294	25446.68
734.635	25409.61
734.976	25454.36
735.317	25289.17
735.658	25293.69
735.999	25243.52
736.339	25293.46
736.68	25327.81
737.021	25312.44
737.361	25173.91
737.702	25391.76
738.042	25157.42
738.383	25091.88
738.723	25053.69
739.063	25051.88
739.404	25093.92
739.744	25026.8
740.084	24952.45
740.424	24930.08
740.764	24954.94
741.104	24932.79
741.444	24794.94
741.784	24786.58
742.124	24815.05
742.464	24711.33
742.804	24583.65
743.143	24592.23
743.483	24609.86
743.823	24453.03
744.162	24448.51
744.502	24591.33
744.841	24402.41
745.181	24455.74
745.52	24385.46
745.86	24317.44
746.199	24272.47
746.538	24214.84
746.877	24281.28
747.216	24228.85
747.556	24206.03
747.895	24293.03
748.234	24198.35
748.573	23999.26
748.911	24169.42
749.25	24048.52
749.589	23841.97
749.928	23902.76
750.267	23922.2
750.605	23903.67
750.944	23905.25
751.283	23784.8
751.621	23746.38
751.96	23691.69
752.298	23801.07
752.636	23670
752.975	23571.24
753.313	23495.99
753.651	23661.64
753.989	23417.12
754.327	23348.2
754.666	23319.95
755.004	23249.45
755.342	23275.43
755.679	23360.63
756.017	23122.44
756.355	23143.69
756.693	22946.18
757.031	23132.16
757.368	22840.64
757.706	22859.85
758.044	22750.48
758.381	22909.12
758.719	22825.28
759.056	22729.01
759.394	22678.16
759.731	22458.73
760.068	22493.53
760.405	22498.28
760.743	22347.1
