Data from hue_100_FLMS001491_00014.txt Node
Date: Tue Feb 07 17:02:43 GMT 2017
User: dcchb
Spectrometer: FLMS00149
Trigger mode: 0
Integration Time (sec): 2.000000E-2
Scans to average: 10
Electric dark correction enabled: true
Nonlinearity correction enabled: false
Boxcar width: 0
XAxis mode: Wavelengths
Number of Pixels in Spectrum: 2048
>>>>>Begin Spectral Data<<<<<
341.393	-26.54
341.776	-26.54
342.16	-26.54
342.543	-68.35
342.927	-50.94
343.31	-75.58
343.693	-87.78
344.077	-58.85
344.46	-44.84
344.843	-56.82
345.226	-30.15
345.61	-23.83
345.993	-39.19
346.376	8.94
346.759	4.65
347.142	24.31
347.525	45.78
347.908	52.56
348.291	91.2
348.674	81.25
349.057	108.37
349.44	108.82
349.823	118.99
350.206	155.83
350.588	192.89
350.971	205.09
351.354	206.22
351.737	229.73
352.119	273.57
352.502	262.95
352.884	271.31
353.267	272.89
353.65	286
354.032	291.42
354.414	307.01
354.797	305.88
355.179	323.73
355.562	294.13
355.944	314.92
356.326	333.23
356.709	330.06
357.091	344.3
357.473	324.86
357.855	320.57
358.238	332.55
358.62	341.81
359.002	342.27
359.384	337.52
359.766	345.65
360.148	328.93
360.53	342.94
360.912	315.83
361.294	329.16
361.676	332.55
362.057	317.41
362.439	320.34
362.821	317.63
363.203	307.46
363.584	339.33
363.966	321.7
364.348	302.04
364.729	322.83
365.111	324.86
365.493	313.79
365.874	315.83
366.256	316.95
366.637	323.73
367.019	303.62
367.4	325.99
367.781	279.89
368.163	314.02
368.544	313.11
368.925	317.41
369.306	316.05
369.688	315.37
370.069	298.88
370.45	297.29
370.831	309.05
371.212	294.36
371.593	305.66
371.974	326.9
372.355	302.49
372.736	315.6
373.117	300.91
373.498	310.63
373.879	307.92
374.26	300.46
374.641	315.83
375.021	298.42
375.402	311.98
375.783	318.76
376.163	316.95
376.544	301.59
376.925	337.07
377.305	321.93
377.686	309.05
378.066	326.45
378.447	308.37
378.827	336.16
379.208	331.42
379.588	355.82
379.968	327.12
380.349	332.1
380.729	324.64
381.109	326.45
381.489	333.9
381.87	347.24
382.25	344.52
382.63	340.91
383.01	346.56
383.39	361.7
383.77	336.62
384.15	365.09
384.53	349.04
384.91	364.86
385.29	339.78
385.67	348.14
386.049	372.77
386.429	356.05
386.809	344.07
387.189	345.43
387.568	349.95
387.948	346.78
388.328	351.3
388.707	374.58
389.087	358.08
389.466	375.48
389.846	358.99
390.225	373
390.605	389.27
390.984	366.45
391.363	367.35
391.743	362.6
392.122	371.87
392.501	357.18
392.881	369.38
393.26	379.55
393.639	390.17
394.018	387.46
394.397	379.1
394.776	380.68
395.155	406.9
395.534	396.27
395.913	395.37
396.292	373.45
396.671	382.49
397.05	405.77
397.429	379.33
397.808	393.11
398.186	387.24
398.565	414.58
398.944	400.79
399.323	398.53
399.701	413
400.08	394.24
400.458	404.18
400.837	398.99
401.215	414.58
401.594	430.4
401.972	393.79
402.351	408.25
402.729	389.72
403.107	432.21
403.486	416.84
403.864	416.84
404.242	422.49
404.62	437.18
404.999	448.7
405.377	429.49
405.755	431.75
406.133	412.09
406.511	451.19
406.889	445.31
407.267	453.45
407.645	467.01
408.023	454.13
408.401	456.39
408.779	469.95
409.156	436.27
409.534	468.82
409.912	466.56
410.29	481.7
410.667	478.76
411.045	476.5
411.422	494.13
411.8	487.35
412.178	482.37
412.555	479.44
412.933	490.06
413.31	507.91
413.687	495.26
414.065	520.34
414.442	515.82
414.819	507.68
415.197	515.82
415.574	536.38
415.951	521.24
416.328	525.99
416.705	520.11
417.082	541.81
417.46	526.89
417.837	545.42
418.214	540.45
418.591	533.22
418.967	561.47
419.344	545.2
419.721	574.8
420.098	576.84
420.475	550.17
420.852	570.73
421.228	580.45
421.605	568.93
421.982	581.81
422.358	591.75
422.735	588.81
423.111	565.76
423.488	590.85
423.864	610.51
424.241	572.77
424.617	606.89
424.994	620.68
425.37	626.33
425.746	623.39
426.123	616.61
426.499	615.7
426.875	649.6
427.251	610.05
427.627	636.72
428.003	633.33
428.379	634.23
428.756	661.35
429.132	664.97
429.507	666.32
429.883	652.09
430.259	680.56
430.635	656.38
431.011	673.56
431.387	696.38
431.763	695.7
432.138	697.51
432.514	704.06
432.89	717.17
433.265	733.44
433.641	719.88
434.016	739.32
434.392	749.94
434.767	767.34
435.143	772.99
435.518	747.9
435.894	766.89
436.269	783.38
436.644	799.43
437.02	792.2
437.395	776.15
437.77	813.67
438.145	816.6
438.52	834.23
438.895	841.69
439.271	820.22
439.646	841.23
440.021	852.99
440.395	862.03
440.77	872.87
441.145	847.79
441.52	864.51
441.895	883.27
442.27	902.25
442.645	901.12
443.019	893.66
443.394	900.22
443.769	916.49
444.143	918.52
444.518	927.56
444.892	923.49
445.267	952.87
445.641	958.75
446.016	945.41
446.39	945.19
446.764	943.61
447.139	951.06
447.513	975.47
447.887	980.21
448.262	961.01
448.636	973.43
449.01	990.84
449.384	1010.95
449.758	991.97
450.132	1003.94
450.506	1053.88
450.88	1041.46
451.254	1032.87
451.628	1034
452.002	1064.05
452.376	1040.55
452.75	1066.54
453.123	1083.71
453.497	1126.43
453.871	1071.29
454.244	1132.53
454.618	1126.88
454.992	1131.17
455.365	1127.56
455.739	1166.65
456.112	1179.31
456.486	1200.1
456.859	1236.03
457.232	1238.29
457.606	1236.93
457.979	1254.33
458.352	1251.17
458.725	1272.86
459.099	1307.89
459.472	1315.8
459.845	1326.65
460.218	1331.62
460.591	1350.6
460.964	1383.14
461.337	1392.86
461.71	1432.41
462.083	1413.65
462.456	1457.72
462.829	1426.98
463.201	1480.54
463.574	1477.15
463.947	1524.15
464.32	1572.29
464.692	1553.76
465.065	1598.96
465.438	1618.84
465.81	1619.29
466.183	1653.19
466.555	1668.56
466.928	1704.26
467.3	1712.4
467.672	1730.25
468.045	1785.84
468.417	1779.29
468.789	1790.36
469.161	1883.47
469.534	1898.61
469.906	1917.82
470.278	1945.61
470.65	1913.98
471.022	2018.61
471.394	2053.41
471.766	2098.15
472.138	2157.36
472.51	2198.04
472.882	2224.02
473.253	2254.31
473.625	2303.8
473.997	2370.69
474.369	2401.42
474.74	2443
475.112	2486.84
475.484	2554.18
475.855	2626.27
476.227	2653.84
476.598	2767.96
476.97	2813.61
477.341	2936.55
477.713	2984
478.084	2998.01
478.455	3135.19
478.827	3177.9
479.198	3311.68
479.569	3345.8
479.94	3452.47
480.311	3523.2
480.682	3647.94
481.053	3748.05
481.424	3848.39
481.795	3894.71
482.166	4037.31
482.537	4178.32
482.908	4301.48
483.279	4403.18
483.65	4511.65
484.021	4651.08
484.391	4742.38
484.762	4864.63
485.133	4980.11
485.503	5059.2
485.874	5256.94
486.244	5345.52
486.615	5525.63
486.985	5645.18
487.356	5802.46
487.726	5930.37
488.097	6086.07
488.467	6215.1
488.837	6379.85
489.207	6477.24
489.578	6662.78
489.948	6863.22
490.318	7025.03
490.688	7110.45
491.058	7265.02
491.428	7470.44
491.798	7554.05
492.168	7776.87
492.538	7914.72
492.908	8088.95
493.278	8233.13
493.648	8325.78
494.017	8497.98
494.387	8722.38
494.757	8841.02
495.126	9001.47
495.496	9053.9
495.866	9224.97
496.235	9452.76
496.605	9614.34
496.974	9721.68
497.344	9806.65
497.713	9921.9
498.082	10082.35
498.452	10228.56
498.821	10422.68
499.19	10442.79
499.559	10559.62
499.928	10685.27
500.298	10865.6
500.667	10991.02
501.036	11112.83
501.405	11193.28
501.774	11235.76
502.143	11405.02
502.512	11478.02
502.88	11569.09
503.249	11669.88
503.618	11809.31
503.987	11858.12
504.356	12020.83
504.724	12101.96
505.093	12141.28
505.462	12203.2
505.83	12400.48
506.199	12486.13
506.567	12588.5
506.936	12651.55
507.304	12846.57
507.672	12966.34
508.041	12915.04
508.409	13103.74
508.777	13222.15
509.145	13288.37
509.514	13340.79
509.882	13330.17
510.25	13439.55
510.618	13464.18
510.986	13534.01
511.354	13643.61
511.722	13744.85
512.09	13902.36
512.458	13855.36
512.826	14023.49
513.193	14027.55
513.561	14015.35
513.929	14159.08
514.297	14220.77
514.664	14299.19
515.032	14288.34
515.4	14352.52
515.767	14460.76
516.135	14572.85
516.502	14388.9
516.869	14710.7
517.237	14665.05
517.604	14608.78
517.972	14704.83
518.339	14845.61
518.706	14834.54
519.073	14839.51
519.44	14835.67
519.808	15014.87
520.175	14957.93
520.542	15137.58
520.909	15193.63
521.276	15221.87
521.643	15107.98
522.009	15317.69
522.376	15331.93
522.743	15400.4
523.11	15491.25
523.477	15586.38
523.843	15575.54
524.21	15641.52
524.577	15745.02
524.943	15729.43
525.31	15737.57
525.676	15888.75
526.043	15966.71
526.409	15787.51
526.776	15957.9
527.142	15986.15
527.508	16008.75
527.874	16176.42
528.241	16103.66
528.607	16089.65
528.973	16185.69
529.339	16032.7
529.705	16192.92
530.071	16256.65
530.437	16210.55
530.803	16238.8
531.169	16316.99
531.535	16212.58
531.901	16179.36
532.267	16174.39
532.632	16288.96
532.998	16237.67
533.364	16234.05
533.73	16246.48
534.095	16331.45
534.461	16276.08
534.826	16366.25
535.192	16340.04
535.557	16333.93
535.923	16258.46
536.288	16271.79
536.653	16245.58
537.019	16138.69
537.384	16209.42
537.749	16154.05
538.114	16085.58
538.479	16077.67
538.845	16114.28
539.21	16033.38
539.575	15983.21
539.94	15999.48
540.305	16078.12
540.67	16047.16
541.034	15914.74
541.399	15914.74
541.764	15926.04
542.129	15798.36
542.494	15952.25
542.858	15883.55
543.223	15808.98
543.587	15910.22
543.952	15752.26
544.316	15744.8
544.681	15605.82
545.045	15780.5
545.41	15632.71
545.774	15614.41
546.138	15637
546.503	15543.45
546.867	15481.3
547.231	15593.16
547.595	15494.41
547.959	15522.88
548.324	15417.12
548.688	15416.9
549.052	15364.02
549.416	15365.82
549.779	15345.71
550.143	15232.49
550.507	15358.82
550.871	15244.02
551.235	15127.64
551.599	15345.26
551.962	15171.03
552.326	15220.07
552.689	15266.84
553.053	15033.18
553.417	15081.76
553.78	15312.27
554.143	15086.96
554.507	15070.24
554.87	15082.89
555.234	15169.9
555.597	14991.15
555.96	14940.3
556.323	15082.44
556.686	15014.2
557.05	15011.48
557.413	15044.93
557.776	15010.13
558.139	15011.71
558.502	15016.91
558.865	14981.88
559.228	14965.61
559.59	14935.33
559.953	14977.59
560.316	15157.47
560.679	15004.7
561.041	15003.57
561.404	15113.4
561.767	15021.43
562.129	15079.5
562.492	15114.08
562.854	15061.65
563.217	15012.39
563.579	15090.8
563.941	15064.82
564.304	15125.38
564.666	15164.02
565.028	15169.22
565.39	15178.03
565.753	15116.57
566.115	15190.01
566.477	15241.76
566.839	15237.92
567.201	15248.99
567.563	15310.23
567.925	15316.56
568.287	15329.22
568.648	15325.15
569.01	15355.43
569.372	15413.73
569.734	15404.02
570.095	15402.66
570.457	15465.71
570.819	15431.13
571.18	15458.03
571.542	15482.43
571.903	15521.07
572.265	15514.3
572.626	15532.83
572.987	15455.54
573.349	15511.81
573.71	15603.33
574.071	15511.13
574.432	15574.86
574.794	15615.76
575.155	15659.15
575.516	15651.92
575.877	15626.38
576.238	15585.03
576.599	15611.02
576.96	15578.02
577.32	15604.69
577.681	15755.42
578.042	15687.17
578.403	15746.61
578.763	15648.53
579.124	15646.04
579.485	15749.32
579.845	15750.22
580.206	15827.28
580.566	15640.62
580.927	15731.69
581.287	15678.58
581.648	15695.08
582.008	15673.84
582.368	15706.15
582.728	15645.14
583.089	15549.77
583.449	15695.31
583.809	15727.4
584.169	15695.99
584.529	15609.43
584.889	15690.56
585.249	15586.38
585.609	15601.75
585.969	15661.86
586.329	15554.07
586.688	15640.17
587.048	15506.16
587.408	15488.53
587.768	15466.39
588.127	15584.8
588.487	15468.42
588.846	15509.78
589.206	15457.35
589.565	15509.1
589.925	15541.41
590.284	15472.26
590.643	15519.04
591.003	15520.85
591.362	15574.41
591.721	15474.52
592.08	15502.77
592.44	15540.51
592.799	15450.79
593.158	15397.01
593.517	15378.71
593.876	15427.29
594.235	15320.18
594.593	15456.9
594.952	15469.78
595.311	15338.03
595.67	15349.55
596.029	15507.97
596.387	15501.87
596.746	15487.18
597.104	15381.42
597.463	15356.56
597.822	15446.95
598.18	15319.95
598.538	15377.8
598.897	15423.22
599.255	15229.56
599.613	15466.16
599.972	15375.09
600.33	15428.87
600.688	15263.68
601.046	15417.12
601.404	15422.55
601.762	15379.16
602.12	15381.87
602.478	15461.42
602.836	15350.68
603.194	15334.64
603.552	15315.66
603.91	15300.74
604.268	15396.11
604.625	15255.55
604.983	15413.51
605.341	15326.5
605.698	15370.57
606.056	15537.8
606.413	15435.2
606.771	15394.3
607.128	15564.46
607.485	15341.87
607.843	15399.72
608.2	15419.38
608.557	15524.69
608.914	15441.53
609.272	15535.54
609.629	15428.2
609.986	15420.74
610.343	15389.1
610.7	15571.24
611.057	15482.88
611.414	15489.66
611.771	15511.36
612.127	15531.02
612.484	15561.75
612.841	15603.11
613.198	15563.56
613.554	15529.44
613.911	15523.79
614.267	15586.84
614.624	15576.89
614.98	15643.11
615.337	15725.14
615.693	15734.85
616.05	15584.35
616.406	15743.22
616.762	15691.24
617.118	15719.94
617.475	15634.74
617.831	15749.77
618.187	15750.67
618.543	15756.77
618.899	15846.26
619.255	15773.95
619.611	15772.59
619.967	15839.03
620.323	15928.97
620.678	15822.08
621.034	15865.02
621.39	15803.33
621.746	15775.31
622.101	15948.86
622.457	15765.59
622.812	15922.87
623.168	15883.1
623.523	15861.18
623.879	15846.04
624.234	15711.35
624.589	15839.94
624.945	15762.42
625.3	15772.37
625.655	15861.18
626.01	15891.69
626.365	15855.53
626.72	15784.34
627.075	15889.2
627.43	15806.27
627.785	15783.67
628.14	15839.71
628.495	15817.34
628.85	15842.2
629.205	15766.04
629.559	15914.06
629.914	15711.13
630.269	15703.89
630.623	15679.04
630.978	15653.27
631.332	15703.89
631.687	15780.05
632.041	15617.8
632.396	15706.38
632.75	15549.55
633.104	15677.91
633.459	15601.52
633.813	15601.07
634.167	15591.13
634.521	15589.32
634.875	15519.04
635.229	15456.44
635.583	15459.83
635.937	15423.68
636.291	15502.77
636.645	15478.36
636.999	15376.45
637.352	15446.05
637.706	15392.72
638.06	15471.58
638.413	15334.41
638.767	15351.14
639.121	15359.27
639.474	15208.09
639.828	15263.68
640.181	15307.07
640.534	15317.69
640.888	15198.82
641.241	15153.63
641.594	15170.35
641.947	15236.34
642.301	15204.25
642.654	15260.06
643.007	15157.69
643.36	15192.27
643.713	15166.73
644.066	15274.53
644.419	15079.96
644.771	15025.04
645.124	14858.27
645.477	14924.71
645.83	14750.7
646.182	14713.41
646.535	14658.72
646.888	14700.53
647.24	14696.01
647.593	14723.58
647.945	14644.04
648.298	14615.56
648.65	14627.77
649.002	14519.75
649.355	14660.08
649.707	14623.02
650.059	14693.07
650.411	14848.78
650.763	14862.11
651.115	14998.83
651.467	14969
651.819	15025.49
652.171	15049.45
652.523	14970.35
652.875	14928.1
653.227	14869.11
653.578	14933.07
653.93	14974.87
654.282	14792.28
654.633	14936.68
654.985	14898.49
655.337	14887.19
655.688	14935.78
656.039	15025.27
656.391	14842.22
656.742	14880.19
657.094	14901.2
657.445	14931.49
657.796	15005.16
658.147	14916.12
658.498	14952.05
658.849	14969.45
659.2	14886.52
659.551	14881.77
659.902	15027.53
660.253	14944.82
660.604	14985.72
660.955	14929.45
661.306	15049
661.656	14980.3
662.007	15052.39
662.358	15044.7
662.708	15046.51
663.059	14976.91
663.409	14870.24
663.76	15005.61
664.11	15097.36
664.461	15036.12
664.811	15129.9
665.161	15039.05
665.511	14995.67
665.862	14976.46
666.212	15026.85
666.562	15079.96
666.912	14943.24
667.262	15025.04
667.612	15027.3
667.962	15077.24
668.312	14951.15
668.662	15107.07
669.011	14974.87
669.361	15042.9
669.711	15047.42
670.06	15021.43
670.41	14972.16
670.76	14953.86
671.109	14995.89
671.459	14923.8
671.808	14865.95
672.157	14959.73
672.507	14896.01
672.856	14937.59
673.205	14906.18
673.554	14996.12
673.904	14913.18
674.253	14945.04
674.602	14875.44
674.951	14613.98
675.3	14595.68
675.649	14779.63
675.998	14791.83
676.346	14830.25
676.695	14776.46
677.044	14712.06
677.393	14855.78
677.741	14743.24
678.09	14642.23
678.438	14662.79
678.787	14738.04
679.135	14698.5
679.484	14549.58
679.832	14565.62
680.181	14620.08
680.529	14501.67
680.877	14478.62
681.225	14618.27
681.573	14500.99
681.922	14388.9
682.27	14330.6
682.618	14429.13
682.966	14387.09
683.314	14410.6
683.661	14348
684.009	14217.61
684.357	14307.1
684.705	14234.1
685.053	14178.51
685.4	14270.26
685.748	14124.28
686.095	14175.57
686.443	14070.49
686.79	14063.71
687.138	14017.16
687.485	14001.79
687.832	14018.52
688.18	14023.71
688.527	13869.82
688.874	13853.77
689.221	13834.57
689.568	13791.18
689.915	13764.06
690.262	13739.88
690.609	13732.65
690.956	13686.55
691.303	13665.98
691.65	13487.23
691.997	13536.95
692.344	13488.13
692.69	13490.62
693.037	13441.36
693.383	13341.7
693.73	13359.55
694.077	13230.97
694.423	13300.12
694.769	13218.08
695.116	13110.29
695.462	13172.21
695.808	13068.48
696.155	13098.99
696.501	12940.58
696.847	12946
697.193	12851.77
697.539	12950.52
697.885	12879.11
698.231	12789.17
698.577	12740.81
698.923	12786.46
699.269	12656.07
699.614	12529.06
699.96	12521.61
700.306	12516.18
700.651	12433.02
700.997	12477.99
701.342	12419.24
701.688	12365.68
702.033	12275.96
702.379	12214.04
702.724	12251.1
703.069	12245.68
703.415	12082.97
703.76	12123.65
704.105	12054.73
704.45	12016.08
704.795	11966.82
705.14	11866.48
705.485	11956.87
705.83	11890.66
706.175	11946.03
706.52	11766.15
706.865	11772.7
707.209	11726.6
707.554	11624.68
707.899	11712.59
708.243	11623.55
708.588	11569.31
708.932	11481.63
709.277	11508.53
709.621	11452.48
709.966	11414.06
710.31	11421.97
710.654	11387.85
710.998	11354.4
711.342	11354.4
711.687	11384.91
712.031	11190.79
712.375	11253.16
712.719	11264.69
713.063	11196.67
713.407	11239.83
713.75	11243.67
714.094	11123
714.438	11067.41
714.782	11075.32
715.125	11065.6
715.469	11117.57
715.812	10942.66
716.156	10984.47
716.499	11014.07
716.843	10979.5
717.186	10877.36
717.53	10994.41
717.873	10986.28
718.216	10913.74
718.559	10868.09
718.902	10774.31
719.246	10824.48
719.589	10874.87
719.932	10678.72
720.275	10744.25
720.617	10781.76
720.96	10788.32
721.303	10757.58
721.646	10795.32
721.989	10669.9
722.331	10781.09
722.674	10661.09
723.016	10732.95
723.359	10677.59
723.701	10667.64
724.044	10627.64
724.386	10582.22
724.729	10685.95
725.071	10614.76
725.413	10653.41
725.755	10618.38
726.097	10617.93
726.439	10562.11
726.782	10500.87
727.124	10557.59
727.465	10477.37
727.807	10537.93
728.149	10502.45
728.491	10516.23
728.833	10484.15
729.175	10507.87
729.516	10454.99
729.858	10451.83
730.199	10542.67
730.541	10485.05
730.882	10457.71
731.224	10498.61
731.565	10458.61
731.906	10440.08
732.248	10458.84
732.589	10474.2
732.93	10414.99
733.271	10404.6
733.612	10503.35
733.953	10441.89
734.294	10413.86
734.635	10451.6
734.976	10440.76
735.317	10375.45
735.658	10337.03
735.999	10381.78
736.339	10422
736.68	10468.55
737.021	10400.98
737.361	10430.81
737.702	10449.12
738.042	10388.33
738.383	10391.72
738.723	10491.83
739.063	10514.88
739.404	10564.37
739.744	10435.11
740.084	10467.87
740.424	10546.06
740.764	10477.59
741.104	10579.06
741.444	10550.58
741.784	10494.09
742.124	10596.23
742.464	10614.31
742.804	10536.8
743.143	10671.26
743.483	10650.92
743.823	10586.52
744.162	10653.86
744.502	10744.48
744.841	10720.52
745.181	10807.07
745.52	10739.73
745.86	10813.63
746.199	10896.79
746.538	10983.79
746.877	10919.61
747.216	11056.79
747.556	11170
747.895	11146.27
748.234	11150.12
748.573	11203.9
748.911	11242.77
749.25	11360.96
749.589	11396.89
749.928	11511.69
750.267	11559.37
750.605	11553.27
750.944	11705.13
751.283	11757.11
751.621	11904.22
751.96	11989.42
752.298	12002.75
752.636	12268.28
752.975	12282.97
753.313	12287.71
753.651	12437.54
753.989	12533.13
754.327	12740.36
754.666	12769.96
755.004	12939.9
755.342	13124.98
755.679	13220.34
756.017	13404.97
