Data from hue_290_FLMS001491_00088.txt Node
Date: Tue Feb 07 15:53:24 GMT 2017
User: dcchb
Spectrometer: FLMS00149
Trigger mode: 0
Integration Time (sec): 2.000000E-2
Scans to average: 10
Electric dark correction enabled: true
Nonlinearity correction enabled: false
Boxcar width: 0
XAxis mode: Wavelengths
Number of Pixels in Spectrum: 2048
>>>>>Begin Spectral Data<<<<<
341.393	-14.52
341.776	-14.52
342.16	-14.52
342.543	-52.03
342.927	-62.88
343.31	-61.52
343.693	-74.4
344.077	-83.22
344.46	-45.71
344.843	-44.35
345.226	-49.32
345.61	-26.5
345.993	-12.71
346.376	2.43
346.759	0.62
347.142	16.44
347.525	39.26
347.908	49.21
348.291	82.2
348.674	99.83
349.057	107.74
349.44	113.61
349.823	146.61
350.206	138.24
350.588	186.83
350.971	193.84
351.354	201.97
351.737	226.6
352.119	235.19
352.502	256.66
352.884	241.29
353.267	251.91
353.65	276.09
354.032	284.91
354.414	285.13
354.797	321.52
355.179	314.96
355.562	321.97
355.944	315.64
356.326	312.48
356.709	340.95
357.091	318.58
357.473	331.46
357.855	327.39
358.238	332.82
358.62	331.91
359.002	333.49
359.384	315.19
359.766	320.39
360.148	308.18
360.53	323.78
360.912	309.09
361.294	317
361.676	296.88
362.057	332.14
362.439	308.41
362.821	321.52
363.203	336.43
363.584	308.41
363.966	320.16
364.348	307.73
364.729	331.91
365.111	302.76
365.493	309.77
365.874	303.21
366.256	306.38
366.637	317
367.019	285.13
367.4	298.01
367.781	301.86
368.163	310.22
368.544	295.98
368.925	319.03
369.306	307.28
369.688	297.56
370.069	304.79
370.45	293.27
370.831	315.42
371.212	276.32
371.593	307.96
371.974	303.21
372.355	300.5
372.736	315.64
373.117	302.76
373.498	307.51
373.879	302.99
374.26	310.22
374.641	300.5
375.021	286.49
375.402	312.7
375.783	295.3
376.163	334.17
376.544	336.88
376.925	306.6
377.305	310.44
377.686	297.56
378.066	306.6
378.447	328.3
378.827	331.69
379.208	329.65
379.588	317.68
379.968	327.84
380.349	330.78
380.729	337.34
381.109	312.25
381.489	330.33
381.87	338.69
382.25	330.33
382.63	310.67
383.01	334.62
383.39	327.84
383.77	358.13
384.15	351.35
384.53	360.39
384.91	334.17
385.29	341.63
385.67	362.19
386.049	373.72
386.429	336.21
386.809	346.83
387.189	366.26
387.568	360.16
387.948	336.43
388.328	344.57
388.707	375.75
389.087	352.25
389.466	368.07
389.846	354.74
390.225	344.34
390.605	376.88
390.984	365.36
391.363	347.05
391.743	357.22
392.122	366.49
392.501	350.22
392.881	371.46
393.26	381.4
393.639	395.64
394.018	394.06
394.397	377.11
394.776	382.76
395.155	375.07
395.534	376.2
395.913	378.69
396.292	401.74
396.671	389.99
397.05	380.27
397.429	391.8
397.808	398.58
398.186	401.51
398.565	400.61
398.944	407.39
399.323	397.45
399.701	417.11
400.08	387.5
400.458	397.45
400.837	410.33
401.215	404.68
401.594	401.74
401.972	402.87
402.351	418.01
402.729	424.11
403.107	425.02
403.486	403.1
403.864	420.27
404.242	435.64
404.62	449.2
404.999	453.94
405.377	443.55
405.755	453.26
406.133	449.2
406.511	478.57
406.889	453.94
407.267	470.67
407.645	449.2
408.023	476.54
408.401	472.25
408.779	494.85
409.156	502.08
409.534	492.59
409.912	489.2
410.29	500.5
410.667	527.16
411.045	522.64
411.422	534.62
411.8	536.88
412.178	539.82
412.555	552.47
412.933	558.12
413.31	558.35
413.687	584.56
414.065	584.33
414.442	593.15
414.819	572.81
415.197	610.32
415.574	616.65
415.951	592.47
416.328	634.5
416.705	655.52
417.082	646.25
417.46	652.36
417.837	650.32
418.214	676.76
418.591	671.79
418.967	701.17
419.344	681.51
419.721	696.65
420.098	694.84
420.475	688.29
420.852	703.88
421.228	702.3
421.605	721.28
421.982	733.03
422.358	753.37
422.735	724.44
423.111	770.54
423.488	795.18
423.864	774.61
424.241	793.37
424.617	806.48
424.994	808.51
425.37	816.65
425.746	809.19
426.123	832.69
426.499	815.97
426.875	840.15
427.251	859.36
427.627	863.88
428.003	879.92
428.379	894.84
428.756	897.55
429.132	902.97
429.507	937.55
429.883	951.33
430.259	937.55
430.635	957.66
431.011	960.82
431.387	984.78
431.763	1014.83
432.138	1006.92
432.514	1023.87
432.89	1032.68
433.265	1069.75
433.641	1057.32
434.016	1040.82
434.392	1077.66
434.767	1105.23
435.143	1118.78
435.518	1140.7
435.894	1107.26
436.269	1165.11
436.644	1177.99
437.02	1167.14
437.395	1177.77
437.77	1214.15
438.145	1208.95
438.52	1208.27
438.895	1221.38
439.271	1237.88
439.646	1272
440.021	1253.47
440.395	1283.07
440.77	1284.66
441.145	1285.56
441.52	1301.6
441.895	1284.43
442.27	1319.23
442.645	1316.75
443.019	1354.03
443.394	1340.7
443.769	1335.73
444.143	1356.97
444.518	1358.78
444.892	1377.76
445.267	1374.14
445.641	1391.09
446.016	1399.23
446.39	1384.99
446.764	1403.07
447.139	1396.52
447.513	1409.62
447.887	1461.6
448.262	1415.5
448.636	1440.36
449.01	1443.07
449.384	1453.92
449.758	1459.34
450.132	1465.89
450.506	1497.98
450.88	1488.49
451.254	1481.03
451.628	1510.19
452.002	1486.91
452.376	1542.73
452.75	1547.47
453.123	1524.42
453.497	1535.72
453.871	1548.15
454.244	1559.9
454.618	1589.51
454.992	1587.02
455.365	1613.01
455.739	1651.65
456.112	1668.37
456.486	1673.12
456.859	1656.85
457.232	1668.6
457.606	1711.08
457.979	1683.06
458.352	1745.66
458.725	1756.06
459.099	1747.92
459.472	1776.39
459.845	1782.04
460.218	1839.67
460.591	1811.2
460.964	1812.55
461.337	1828.6
461.71	1848.26
462.083	1873.11
462.456	1833.34
462.829	1867.01
463.201	1895.49
463.574	1900.23
463.947	1907.92
464.32	1912.21
464.692	1972.32
465.065	1968.48
465.438	2030.4
465.81	2014.35
466.183	2036.95
466.555	2096.39
466.928	2081.47
467.3	2082.83
467.672	2111.53
468.045	2185.42
468.417	2136.38
468.789	2189.72
469.161	2187.23
469.534	2196.27
469.906	2274.23
470.278	2269.71
470.65	2228.81
471.022	2307
471.394	2326.44
471.766	2365.08
472.138	2386.1
472.51	2417.96
472.882	2428.13
473.253	2438.3
473.625	2465.19
473.997	2536.37
474.369	2504.51
474.74	2514.68
475.112	2578.63
475.484	2617.05
475.855	2594.45
476.227	2586.99
476.598	2718.74
476.97	2709.93
477.341	2726.2
477.713	2747.22
478.084	2823.37
478.455	2848.46
478.827	2870.83
479.198	2927.55
479.569	2951.96
479.94	2998.06
480.311	3012.29
480.682	3060.88
481.053	3102.01
481.424	3116.92
481.795	3157.6
482.166	3180.2
482.537	3204.61
482.908	3287.77
483.279	3292.74
483.65	3370.7
484.021	3400.31
484.391	3419.29
484.762	3443.47
485.133	3451.83
485.503	3487.76
485.874	3535.67
486.244	3574.54
486.615	3632.62
486.985	3638.04
487.356	3725.72
487.726	3714.65
488.097	3773.63
488.467	3775.44
488.837	3883.68
489.207	3851.14
489.578	3879.39
489.948	3991.25
490.318	4021.53
490.688	3999.39
491.058	4053.62
491.428	4126.84
491.798	4080.51
492.168	4181.98
492.538	4217.23
492.908	4257.46
493.278	4256.1
493.648	4269.89
494.017	4271.02
494.387	4355.31
494.757	4327.29
495.126	4424.91
495.496	4361.18
495.866	4404.57
496.235	4447.74
496.605	4468.53
496.974	4515.08
497.344	4526.15
497.713	4552.14
498.082	4553.04
498.452	4567.51
498.821	4636.43
499.19	4686.37
499.559	4650.67
499.928	4682.53
500.298	4732.02
500.667	4747.39
501.036	4712.36
501.405	4783.55
501.774	4723.21
502.143	4756.88
502.512	4813.6
502.88	4853.6
503.249	4852.92
503.618	4917.33
503.987	4849.08
504.356	4884.11
504.724	4947.84
505.093	4880.49
505.462	4928.4
505.83	4939.02
506.199	4967.5
506.567	5034.16
506.936	4987.61
507.304	5131.11
507.672	5116.65
508.041	5126.59
508.409	5137.89
508.777	5153.25
509.145	5235.06
509.514	5187.15
509.882	5167.94
510.25	5204.55
510.618	5214.95
510.986	5198.68
511.354	5277.77
511.722	5284.55
512.09	5332.68
512.458	5301.95
512.826	5313.93
513.193	5306.7
513.561	5355.73
513.929	5360.03
514.297	5398.9
514.664	5465.56
515.032	5451.78
515.4	5441.16
515.767	5483.87
516.135	5552.11
516.502	5448.84
516.869	5555.05
517.237	5515.73
517.604	5524.32
517.972	5614.94
518.339	5542.62
518.706	5642.96
519.073	5603.86
519.44	5623.75
519.808	5647.7
520.175	5710.75
520.542	5706.69
520.909	5748.49
521.276	5708.49
521.643	5785.55
522.009	5781.49
522.376	5799.11
522.743	5808.15
523.11	5908.94
523.477	5915.04
523.843	5954.36
524.21	5903.52
524.577	5988.49
524.943	5969.73
525.31	6056.51
525.676	6022.84
526.043	6026.68
526.409	6115.26
526.776	6164.53
527.142	6206.56
527.508	6148.71
527.874	6225.99
528.241	6228.25
528.607	6220.57
528.973	6292.66
529.339	6280.46
529.705	6331.3
530.071	6402.04
530.437	6391.41
530.803	6430.06
531.169	6450.4
531.535	6419.44
531.901	6467.8
532.267	6472.99
532.632	6524.29
532.998	6485.2
533.364	6620.11
533.73	6602.26
534.095	6655.14
534.461	6671.41
534.826	6679.77
535.192	6661.92
535.557	6712.54
535.923	6679.54
536.288	6689.03
536.653	6734.68
537.019	6813.1
537.384	6802.7
537.749	6763.16
538.114	6760.44
538.479	6828.92
538.845	6831.18
539.21	6822.36
539.575	6907.78
539.94	6912.08
540.305	6915.92
540.67	6949.37
541.034	6941
541.399	6894.45
541.764	7046.31
542.129	6997.27
542.494	7021
542.858	7055.8
543.223	7045.18
543.587	7136.93
543.952	7150.26
544.316	7149.13
544.681	7153.2
545.045	7190.49
545.41	7238.4
545.774	7211.96
546.138	7257.83
546.503	7285.18
546.867	7187.78
547.231	7333.08
547.595	7325.63
547.959	7300.09
548.324	7337.15
548.688	7344.38
549.052	7366.53
549.416	7381.67
549.779	7394.33
550.143	7449.01
550.507	7450.14
550.871	7407.21
551.235	7470.48
551.599	7536.24
551.962	7478.16
552.326	7498.05
552.689	7548.22
553.053	7518.39
553.417	7507.77
553.78	7575.34
554.143	7602
554.507	7634.77
554.87	7645.17
555.234	7675.45
555.597	7660.08
555.96	7718.84
556.323	7691.49
556.686	7700.31
557.05	7784.6
557.413	7750.93
557.776	7807.87
558.139	7854.43
558.502	7784.82
558.865	7878.38
559.228	7919.06
559.59	7886.97
559.953	7969.45
560.316	7995.67
560.679	7951.6
561.041	7999.73
561.404	8011.26
561.767	8048.09
562.129	8016.46
562.492	8098.26
562.854	8106.62
563.217	8080.86
563.579	8137.58
563.941	8146.17
564.304	8130.13
564.666	8208.54
565.028	8281.08
565.39	8270.23
565.753	8271.36
566.115	8335.32
566.477	8360.85
566.839	8368.54
567.201	8418.25
567.563	8439.5
567.925	8460.06
568.287	8522.88
568.648	8499.61
569.01	8532.6
569.372	8586.16
569.734	8584.8
570.095	8667.29
570.457	8628.64
570.819	8676.1
571.18	8690.56
571.542	8684.46
571.903	8750.67
572.265	8829.09
572.626	8886.94
572.987	8870.9
573.349	8893.72
573.71	8922.19
574.071	8987.73
574.432	9004.68
574.794	9095.75
575.155	9133.49
575.516	9198.8
575.877	9147.05
576.238	9214.39
576.599	9294.61
576.96	9369.41
577.32	9402.63
577.681	9441.73
578.042	9512.01
578.403	9596.53
578.763	9630.88
579.124	9688.95
579.485	9705.68
579.845	9777.77
580.206	9885.11
580.566	9921.94
580.927	9967.14
581.287	10100.92
581.648	10098.21
582.008	10223.63
582.368	10328.94
582.728	10395.6
583.089	10400.8
583.449	10517.86
583.809	10705.42
584.169	10726.44
584.529	10815.93
584.889	10984.06
585.249	11076.94
585.609	11120.78
585.969	11309.7
586.329	11346.99
586.688	11391.51
587.048	11599.86
587.408	11617.49
587.768	11807.54
588.127	11893.42
588.487	12036.01
588.846	12186.74
589.206	12233.97
589.565	12391.03
589.925	12567.52
590.284	12635.77
590.643	12869.21
591.003	12905.82
591.362	13123.67
591.721	13166.83
592.08	13296.09
592.44	13530.21
592.799	13640.04
593.158	13775.17
593.517	13875.51
593.876	14072.57
594.235	14096.97
594.593	14276.18
594.952	14403.63
595.311	14454.48
595.67	14655.6
596.029	14875.71
596.387	14919.78
596.746	15102.37
597.104	15171.75
597.463	15366.09
597.822	15502.13
598.18	15530.38
598.538	15691.28
598.897	15835.23
599.255	15736.25
599.613	16144.83
599.972	16193.19
600.33	16361.77
600.688	16466.4
601.046	16559.06
601.404	16771.48
601.762	16688.32
602.12	17049.89
602.478	17080.85
602.836	17109.32
603.194	17194.07
603.552	17280.62
603.91	17285.14
604.268	17483.1
604.625	17504.34
604.983	17784.79
605.341	17657.56
605.698	17834.73
606.056	18002.86
606.413	17977.55
606.771	18126.47
607.128	18216.19
607.485	18301.16
607.843	18374.6
608.2	18479.46
608.557	18650.07
608.914	18580.47
609.272	18836.28
609.629	18899.33
609.986	18903.4
610.343	18988.6
610.7	19066.33
611.057	19150.63
611.414	19202.6
611.771	19208.93
612.127	19418.42
612.484	19386.1
612.841	19415.7
613.198	19478.3
613.554	19594
613.911	19759.2
614.267	19667.22
614.624	19836.94
614.98	19847.56
615.337	19938.4
615.693	19881.91
616.05	20020.43
616.406	20063.14
616.762	20154.22
617.118	20086.87
617.475	20263.14
617.831	20331.39
618.187	20384.04
618.543	20426.3
618.899	20605.5
619.255	20530.25
619.611	20444.38
619.967	20617.93
620.323	20788.1
620.678	20647.76
621.034	20634.66
621.39	20617.25
621.746	20815.22
622.101	20982.44
622.457	20806.85
622.812	20807.76
623.168	21020.41
623.523	20959.62
623.879	21041.42
624.234	20876.68
624.589	21081.65
624.945	20998.26
625.3	21084.81
625.655	20987.87
626.01	21075.32
626.365	21211.59
626.72	21108.77
627.075	21174.3
627.43	21116.22
627.785	21131.82
628.14	21174.75
628.495	21216.56
628.85	21187.63
629.205	21130.69
629.559	21269.21
629.914	21235.77
630.269	21253.4
630.623	21174.75
630.978	21100.86
631.332	21240.06
631.687	21301.08
632.041	21068.32
632.396	21212.49
632.75	21189.67
633.104	21130.46
633.459	21072.16
633.813	21129.11
634.167	21056.34
634.521	21132.72
634.875	21073.29
635.229	21053.4
635.583	21097.69
635.937	21132.5
636.291	21030.35
636.645	21017.92
636.999	21037.36
637.352	20979.5
637.706	20882.33
638.06	21032.38
638.413	20964.36
638.767	20886.4
639.121	21059.05
639.474	20861.54
639.828	20887.08
640.181	20897.47
640.534	20965.49
640.888	20838.94
641.241	20763.92
641.594	20796.68
641.947	20915.1
642.301	20908.32
642.654	20865.16
643.007	20972.73
643.36	20954.19
643.713	20712.17
644.066	20862.67
644.419	20703.81
644.771	20546.07
645.124	20495.9
645.477	20457.71
645.83	20267.43
646.182	20225.17
646.535	20142.69
646.888	20174.33
647.24	20083.71
647.593	20273.53
647.945	20185.4
648.298	20119.19
648.65	20059.3
649.002	20091.39
649.355	20209.81
649.707	20227.89
650.059	20210.71
650.411	20563.24
650.763	20527.09
651.115	20717.82
651.467	20759.4
651.819	20681.21
652.171	20588.78
652.523	20656.35
652.875	20624.26
653.227	20626.07
653.578	20725.95
653.93	20715.33
654.282	20619.51
654.633	20467.65
654.985	20664.26
655.337	20674.43
655.688	20689.79
656.039	20715.11
656.391	20643.47
656.742	20725.73
657.094	20665.39
657.445	20672.85
657.796	20646.18
658.147	20635.33
658.498	20652.51
658.849	20612.28
659.2	20667.42
659.551	20506.97
659.902	20674.43
660.253	20612.73
660.604	20655.67
660.955	20540.65
661.306	20642.56
661.656	20620.19
662.007	20684.37
662.358	20604.83
662.708	20653.41
663.059	20545.17
663.409	20569.12
663.76	20771.6
664.11	20671.26
664.461	20736.35
664.811	20706.74
665.161	20718.49
665.511	20654.32
665.862	20745.84
666.212	20743.8
666.562	20731.15
666.912	20699.06
667.262	20734.31
667.612	20634.66
667.962	20829.68
668.312	20676.01
668.662	20804.82
669.011	20765.95
669.361	20687.99
669.711	20668.33
670.06	20651.83
670.41	20583.13
670.76	20528.22
671.109	20690.47
671.459	20623.36
671.808	20621.32
672.157	20598.27
672.507	20487.77
672.856	20515.79
673.205	20571.83
673.554	20668.55
673.904	20530.48
674.253	20562.57
674.602	20673.52
674.951	20188.79
675.3	20199.41
675.649	20454.09
675.998	20445.96
676.346	20449.35
676.695	20553.53
677.044	20364.38
677.393	20388.11
677.741	20455.68
678.09	20358.28
678.438	20368.67
678.787	20295.23
679.135	20382.68
679.484	20207.77
679.832	20313.53
680.181	20118.74
680.529	20171.84
680.877	20140.2
681.225	20103.37
681.573	20243.25
681.922	20096.82
682.27	19930.72
682.618	20025.18
682.966	19949.93
683.314	20015.01
683.661	19966.42
684.009	19915.8
684.357	19875.13
684.705	19780.44
685.053	19704.51
685.4	19699.09
685.748	19641.23
686.095	19675.36
686.443	19555.14
686.79	19463.39
687.138	19646.88
687.485	19499.32
687.832	19481.47
688.18	19483.95
688.527	19319.44
688.874	19372.54
689.221	19287.12
689.568	19239.21
689.915	19136.16
690.262	19238.99
690.609	19114.47
690.956	19050.52
691.303	19017.75
691.65	18942.95
691.997	18924.87
692.344	18755.83
692.69	18762.16
693.037	18721.94
693.383	18484.88
693.73	18622.96
694.077	18514.94
694.423	18449.85
694.769	18439.23
695.116	18398.78
695.462	18288.28
695.808	18220.26
696.155	18299.12
696.501	18098
696.847	18199.01
697.193	18070.65
697.539	18115.63
697.885	17942.3
698.231	17886.93
698.577	17799.02
698.923	17766.03
699.269	17764.67
699.614	17555.64
699.96	17538.24
700.306	17514.06
700.651	17514.51
700.997	17388.64
701.342	17392.03
701.688	17392.48
702.033	17217.8
702.379	17254.41
702.724	17116.78
703.069	17229.1
703.415	17082.66
703.76	16990.01
704.105	16985.71
704.45	16889.89
704.795	16876.56
705.14	16799.95
705.485	16808.99
705.83	16665.04
706.175	16701.2
706.52	16618.26
706.865	16523.58
707.209	16569.68
707.554	16423.47
707.899	16444.48
708.243	16346.63
708.588	16420.75
708.932	16212.4
709.277	16244.94
709.621	16121.1
709.966	16114.55
710.31	16117.49
710.654	15938.96
710.998	15991.84
711.342	16011.95
711.687	15853.76
712.031	15889.47
712.375	15794.33
712.719	15884.27
713.063	15802.92
713.407	15851.28
713.75	15772.86
714.094	15688.57
714.438	15521.34
714.782	15677.27
715.125	15592.75
715.469	15612.19
715.812	15517.5
716.156	15417.84
716.499	15429.82
716.843	15568.8
717.186	15401.12
717.53	15395.47
717.873	15425.53
718.216	15420.1
718.559	15244.97
718.902	15219.2
719.246	15340.33
719.589	15243.61
719.932	15183.95
720.275	15217.85
720.617	15165.42
720.96	15121.35
721.303	15266.21
721.646	15197.74
721.989	15038.19
722.331	15157.74
722.674	15038.19
723.016	15093.78
723.359	15008.59
723.701	15025.09
724.044	14992.77
724.386	14933.56
724.729	14938.76
725.071	14922.49
725.413	14968.14
725.755	14868.25
726.097	14811.76
726.439	14821.47
726.782	14815.15
727.124	14815.83
727.465	14750.74
727.807	14834.81
728.149	14789.61
728.491	14752.78
728.833	14802.27
729.175	14665.09
729.516	14780.12
729.858	14721.36
730.199	14775.6
730.541	14725.88
730.882	14678.88
731.224	14738.99
731.565	14597.75
731.906	14666.22
732.248	14700.12
732.589	14600.01
732.93	14548.04
733.271	14619.67
733.612	14667.13
733.953	14624.87
734.294	14616.28
734.635	14535.15
734.976	14663.74
735.317	14584.64
735.658	14535.61
735.999	14538.54
736.339	14530.63
736.68	14525.44
737.021	14564.76
737.361	14518.43
737.702	14580.58
738.042	14577.19
738.383	14611.99
738.723	14624.19
739.063	14585.1
739.404	14628.26
739.744	14664.42
740.084	14509.39
740.424	14594.14
740.764	14568.6
741.104	14689.5
741.444	14552.33
741.784	14695.38
742.124	14636.39
742.464	14773.79
742.804	14714.13
743.143	14661.7
743.483	14752.55
743.823	14762.72
744.162	14753.68
744.502	14737.64
744.841	14763.85
745.181	14824.86
745.52	14864.41
745.86	14873.68
746.199	14883.85
746.538	14881.13
746.877	15072.99
747.216	15025.09
747.556	15016.27
747.895	15134.23
748.234	15137.17
748.573	15192.99
748.911	15265.3
749.25	15285.19
749.589	15276.15
749.928	15522.25
750.267	15536.48
750.605	15524.51
750.944	15551.62
751.283	15576.26
751.621	15800.88
751.96	15740.55
752.298	15816.25
752.636	15919.3
752.975	15963.59
753.313	16008.56
753.651	16129.46
753.989	16231.83
754.327	16333.53
754.666	16371.72
755.004	16426.63
755.342	16603.12
755.679	16679.28
756.017	16697.36
756.355	16932.83
756.693	17005.82
757.031	17133.96
757.368	17149.1
757.706	17271.35
758.044	17362.42
758.381	17424.12
758.719	17593.61
759.056	17695.98
759.394	17794.73
