Data from hue_32_FLMS001491_00053.txt Node
Date: Tue Feb 07 17:23:36 GMT 2017
User: dcchb
Spectrometer: FLMS00149
Trigger mode: 0
Integration Time (sec): 2.000000E-2
Scans to average: 10
Electric dark correction enabled: true
Nonlinearity correction enabled: false
Boxcar width: 0
XAxis mode: Wavelengths
Number of Pixels in Spectrum: 2048
>>>>>Begin Spectral Data<<<<<
341.393	-22.25
341.776	-22.25
342.16	-22.25
342.543	-63.15
342.927	-69.25
343.31	-69.25
343.693	-67.89
344.077	-62.92
344.46	-68.12
344.843	-31.28
345.226	-33.77
345.61	-31.96
345.993	-12.3
346.376	-39.19
346.759	5.78
347.142	47.81
347.525	35.38
347.908	52.56
348.291	94.81
348.674	72.44
349.057	107.92
349.44	121.93
349.823	145.43
350.206	163.29
350.588	184.76
350.971	205.32
351.354	215.94
351.737	242.15
352.119	246.45
352.502	276.05
352.884	263.62
353.267	283.74
353.65	281.25
354.032	299.55
354.414	270.63
354.797	302.27
355.179	340.46
355.562	326.67
355.944	330.29
356.326	318.31
356.709	332.55
357.091	327.12
357.473	334.13
357.855	329.38
358.238	349.5
358.62	321.93
359.002	335.71
359.384	357.18
359.766	341.81
360.148	319.44
360.53	361.47
360.912	362.38
361.294	334.58
361.676	326.9
362.057	362.6
362.439	345.43
362.821	323.06
363.203	329.16
363.584	328.71
363.966	318.08
364.348	301.36
364.729	323.06
365.111	332.1
365.493	309.95
365.874	325.32
366.256	311.31
366.637	321.02
367.019	314.92
367.4	323.96
367.781	315.83
368.163	314.47
368.544	312.66
368.925	308.37
369.306	325.09
369.688	297.07
370.069	317.41
370.45	330.51
370.831	314.47
371.212	326.9
371.593	299.1
371.974	322.6
372.355	311.31
372.736	305.66
373.117	297.97
373.498	293.68
373.879	305.88
374.26	328.48
374.641	311.76
375.021	287.13
375.402	344.75
375.783	311.76
376.163	306.11
376.544	309.95
376.925	324.86
377.305	325.99
377.686	337.29
378.066	340.01
378.447	331.19
378.827	336.62
379.208	336.84
379.588	342.94
379.968	325.54
380.349	331.19
380.729	335.94
381.109	329.16
381.489	346.78
381.87	321.7
382.25	344.98
382.63	338.2
383.01	340.68
383.39	329.16
383.77	337.52
384.15	364.19
384.53	340.23
384.91	326.67
385.29	373.22
385.67	346.56
386.049	354.47
386.429	360.8
386.809	339.1
387.189	359.44
387.568	354.24
387.948	360.57
388.328	362.15
388.707	371.64
389.087	374.35
389.466	361.02
389.846	359.89
390.225	364.86
390.605	347.46
390.984	375.03
391.363	365.09
391.743	373.22
392.122	375.26
392.501	379.1
392.881	385.2
393.26	362.38
393.639	351.53
394.018	378.65
394.397	386.56
394.776	374.35
395.155	385.65
395.534	366.9
395.913	385.2
396.292	379.78
396.671	401.7
397.05	415.48
397.429	389.72
397.808	395.14
398.186	398.08
398.565	373.22
398.944	391.3
399.323	398.76
399.701	395.6
400.08	387.24
400.458	408.25
400.837	379.1
401.215	388.37
401.594	409.61
401.972	394.47
402.351	398.31
402.729	430.4
403.107	419.55
403.486	424.97
403.864	437.63
404.242	405.77
404.62	408.48
404.999	428.36
405.377	430.62
405.755	415.71
406.133	425.43
406.511	428.59
406.889	438.99
407.267	416.39
407.645	428.59
408.023	426.78
408.401	440.57
408.779	429.72
409.156	435.37
409.534	456.16
409.912	453.22
410.29	443.28
410.667	471.75
411.045	457.29
411.422	448.02
411.8	462.26
412.178	476.27
412.555	482.83
412.933	465.2
413.31	476.5
413.687	471.3
414.065	461.36
414.442	476.5
414.819	498.19
415.197	488.7
415.574	492.09
415.951	509.27
416.328	522.83
416.705	479.21
417.082	483.28
417.46	489.38
417.837	502.26
418.214	510.62
418.591	523.96
418.967	520.34
419.344	519.21
419.721	520.79
420.098	517.85
420.475	521.92
420.852	544.97
421.228	535.25
421.605	535.25
421.982	524.41
422.358	552.43
422.735	536.38
423.111	537.97
423.488	548.36
423.864	560.56
424.241	570.06
424.617	577.29
424.994	561.47
425.37	553.33
425.746	582.03
426.123	581.58
426.499	603.95
426.875	594.01
427.251	583.39
427.627	591.07
428.003	596.5
428.379	588.59
428.756	623.61
429.132	606.66
429.507	629.26
429.883	620.22
430.259	640.11
430.635	622.26
431.011	627.91
431.387	638.08
431.763	648.92
432.138	626.1
432.514	658.87
432.89	661.58
433.265	662.03
433.641	661.58
434.016	653.67
434.392	656.38
434.767	671.07
435.143	669.94
435.518	692.76
435.894	712.42
436.269	692.09
436.644	688.02
437.02	737.51
437.395	713.78
437.77	715.36
438.145	723.72
438.52	729.37
438.895	733.67
439.271	758.75
439.646	733.67
440.021	741.58
440.395	781.8
440.77	755.59
441.145	772.76
441.52	794.68
441.895	769.6
442.27	771.63
442.645	780.22
443.019	823.38
443.394	808.02
443.769	781.58
444.143	802.82
444.518	813.44
444.892	815.02
445.267	815.47
445.641	840.56
446.016	801.91
446.39	829.94
446.764	835.81
447.139	815.92
447.513	824.96
447.887	851.63
448.262	830.39
448.636	850.95
449.01	869.71
449.384	854.12
449.758	867.9
450.132	867.22
450.506	875.58
450.88	883.04
451.254	880.78
451.628	891.4
452.002	901.57
452.376	902.7
452.75	943.61
453.123	932.31
453.497	922.81
453.871	954
454.244	961.68
454.618	979.31
454.992	970.05
455.365	979.31
455.739	973.43
456.112	1007.78
456.486	1017.28
456.859	1015.24
457.232	999.65
457.606	998.07
457.979	1050.49
458.352	1044.62
458.725	1059.08
459.099	1083.04
459.472	1098.18
459.845	1120.78
460.218	1119.42
460.591	1111.96
460.964	1110.15
461.337	1137.95
461.71	1130.94
462.083	1176.82
462.456	1206.2
462.829	1175.92
463.201	1192.41
463.574	1221.11
463.947	1207.1
464.32	1250.26
464.692	1254.11
465.065	1279.19
465.438	1278.96
465.81	1295.46
466.183	1312.86
466.555	1362.8
466.928	1355.35
467.3	1357.61
467.672	1395.8
468.045	1388.57
468.417	1412.52
468.789	1438.73
469.161	1435.57
469.534	1445.29
469.906	1495
470.278	1493.87
470.65	1536.13
471.022	1574.32
471.394	1585.17
471.766	1588.56
472.138	1615.23
472.51	1653.19
472.882	1688.44
473.253	1727.09
473.625	1782.68
473.997	1782.68
474.369	1802.57
474.74	1825.16
475.112	1860.42
475.484	1921.66
475.855	1973.18
476.227	1987.42
476.598	2017.25
476.97	2045.95
477.341	2107.42
477.713	2121.2
478.084	2184.93
478.455	2230.35
478.827	2242.1
479.198	2353.06
479.569	2383.12
479.94	2444.13
480.311	2471.47
480.682	2533.85
481.053	2613.62
481.424	2691.13
481.795	2734.97
482.166	2800.05
482.537	2833.72
482.908	2955.76
483.279	2952.14
483.65	3060.84
484.021	3092.02
484.391	3160.95
484.762	3244.34
485.133	3258.57
485.503	3364.11
485.874	3479.58
486.244	3509.64
486.615	3635.06
486.985	3637.09
487.356	3807.26
487.726	3814.94
488.097	3940.14
488.467	3977.2
488.837	4098.1
489.207	4143.52
489.578	4233.01
489.948	4284.99
490.318	4411.76
490.688	4458.31
491.058	4531.53
491.428	4629.16
491.798	4695.14
492.168	4793.67
492.538	4865.31
492.908	4967.91
493.278	5066.66
493.648	5073.44
494.017	5216.71
494.387	5296.26
494.757	5326.09
495.126	5398.86
495.496	5474.79
495.866	5551.39
496.235	5689.92
496.605	5740.77
496.974	5835
497.344	5873.19
497.713	5885.4
498.082	5962
498.452	6097.59
498.821	6142.34
499.19	6225.5
499.559	6225.73
499.928	6300.3
500.298	6368.1
500.667	6452.39
501.036	6513.4
501.405	6574.64
501.774	6598.37
502.143	6700.06
502.512	6744.13
502.88	6857.57
503.249	6829.55
503.618	6931.24
503.987	6888.08
504.356	7062.31
504.724	7061.64
505.093	7115.42
505.462	7164.23
505.83	7195.19
506.199	7282.42
506.567	7408.29
506.936	7427.28
507.304	7471.8
507.672	7561.96
508.041	7579.59
508.409	7621.17
508.777	7666.37
509.145	7734.61
509.514	7774.16
509.882	7860.03
510.25	7924.21
510.618	7954.95
510.986	7992.23
511.354	8046.47
511.722	8141.16
512.09	8228.61
512.458	8144.32
512.826	8318.55
513.193	8366.23
513.561	8347.48
513.929	8385.44
514.297	8462.28
514.664	8535.72
515.032	8573.01
515.4	8593.57
515.767	8604.42
516.135	8727.36
516.502	8648.49
516.869	8770.74
517.237	8824.08
517.604	8802.16
517.972	8873.11
518.339	8963.96
518.706	8955.15
519.073	8991.08
519.44	9057.06
519.808	9116.95
520.175	9132.77
520.542	9278.08
520.909	9321.92
521.276	9326.89
521.643	9352.65
522.009	9423.83
522.376	9492.76
522.743	9579.99
523.11	9667.9
523.477	9659.99
523.843	9760.55
524.21	9806.87
524.577	9949.7
524.943	9980.2
525.31	10005.97
525.676	10020.88
526.043	10148.11
526.409	10153.98
526.776	10243.93
527.142	10264.94
527.508	10288.9
527.874	10380.19
528.241	10454.99
528.607	10455.67
528.973	10628.55
529.339	10635.33
529.705	10695.67
530.071	10765.04
530.437	10834.42
530.803	10904.93
531.169	10882.33
531.535	10913.96
531.901	10986.05
532.267	11036.22
532.632	11102.89
532.998	11148.53
533.364	11199.83
533.73	11241.87
534.095	11316.89
534.461	11367.51
534.826	11398.25
535.192	11463.33
535.557	11573.16
535.923	11544.68
536.288	11555.08
536.653	11653.38
537.019	11676.2
537.384	11741.97
537.749	11776.31
538.114	11728.86
538.479	11823.09
538.845	11915.97
539.21	11864.22
539.575	11928.18
539.94	12061.28
540.305	12103.31
540.67	12059.25
541.034	12112.35
541.399	12194.83
541.764	12265.57
542.129	12311.67
542.494	12327.71
542.858	12410.42
543.223	12341.72
543.587	12455.17
543.952	12506.69
544.316	12547.37
544.681	12576.52
545.045	12597.54
545.41	12718.44
545.774	12670.75
546.138	12761.37
546.503	12813.35
546.867	12839.34
547.231	12963.85
547.595	12948.49
547.959	13055.6
548.324	13044.08
548.688	13144.87
549.052	13195.03
549.416	13158.65
549.779	13243.17
550.143	13302.15
550.507	13430.06
550.871	13331.75
551.235	13339.44
551.599	13521.35
551.962	13535.36
552.326	13510.96
552.689	13592.54
553.053	13601.8
553.417	13659.88
553.78	13829.82
554.143	13790.95
554.507	13883.83
554.87	13851.29
555.234	13922.7
555.597	13921.79
555.96	14052.19
556.323	14030.04
556.686	14077.5
557.05	14234.33
557.413	14281.33
557.776	14232.07
558.139	14399.07
558.502	14379.86
558.865	14374.21
559.228	14576.47
559.59	14608.33
559.953	14480.2
560.316	14681.32
560.679	14698.5
561.041	14714.99
561.404	14867.98
561.767	14943.69
562.129	14802.45
562.492	15038.38
562.854	15045.16
563.217	15005.83
563.579	15162.89
563.941	15191.14
564.304	15352.94
564.666	15310.46
565.028	15358.14
565.39	15335.09
565.753	15471.58
566.115	15434.3
566.477	15660.51
566.839	15481.3
567.201	15664.8
567.563	15731.24
567.925	15892.14
568.287	15835.42
568.648	15931.01
569.01	15969.42
569.372	16150.89
569.734	16071.12
570.095	16202.64
570.457	16229.98
570.819	16254.61
571.18	16335.29
571.542	16475.63
571.903	16434.27
572.265	16633.59
572.626	16728.27
572.987	16814.6
573.349	16767.6
573.71	16906.35
574.071	16945.22
574.432	17077.87
574.794	17290.97
575.155	17233.8
575.516	17286
575.877	17431.76
576.238	17441.02
576.599	17634.69
576.96	17660
577.32	17706.1
577.681	17873.33
578.042	17993.55
578.403	18101.12
578.763	18216.82
579.124	18388.8
579.485	18561.9
579.845	18747.66
580.206	18822.46
580.566	18876.69
580.927	19142.67
581.287	19332.05
581.648	19323.69
582.008	19700.63
582.368	19720.29
582.728	19906.27
583.089	20068.3
583.449	20253.15
583.809	20291.57
584.169	20591.22
584.529	20792.8
584.889	21093.58
585.249	21227.14
585.609	21477.3
585.969	21786.9
586.329	21763.4
586.688	21956.39
587.048	22195.7
587.408	22510.72
587.768	22749.81
588.127	22936.02
588.487	23133.08
588.846	23465.05
589.206	23576.46
589.565	23889.89
589.925	24254.4
590.284	24380.73
590.643	24663.21
591.003	24970.32
591.362	25300.48
591.721	25473.36
592.08	25682.39
592.44	25978.88
592.799	26385.87
593.158	26589.03
593.517	26718.07
593.876	27092.07
594.235	27308.79
594.593	27531.38
594.952	27824.03
595.311	28010.69
595.67	28268.31
596.029	28711.91
596.387	28948.74
596.746	29289.75
597.104	29360.49
597.463	29517.54
597.822	30015.16
598.18	30055.83
598.538	30253.12
598.897	30786.44
599.255	30643.62
599.613	31386.87
599.972	31364.27
600.33	31593.65
600.688	31767.65
601.046	31921.77
601.404	32460.74
601.762	32585.03
602.12	32849.88
602.478	33142.31
602.836	33380.04
603.194	33432.24
603.552	33719.47
603.91	33739.8
604.268	34228.83
604.625	34188.83
604.983	34432.89
605.341	34599.9
605.698	34859.55
606.056	35109.71
606.413	35356.94
606.771	35555.35
607.128	35877.15
607.485	35765.51
607.843	35911.95
608.2	36299.96
608.557	36507.19
608.914	36470.58
609.272	36924.81
609.629	37073.05
609.986	37362.31
610.343	37296.1
610.7	37681.62
611.057	37735.63
611.414	37959.13
611.771	38035.51
612.127	38378.78
612.484	38377.42
612.841	38682.05
613.198	38543.07
613.554	38744.19
613.911	39087.01
614.267	39026.67
614.624	39184.63
614.98	39368.36
615.337	39623.72
615.693	39652.19
616.05	39752.75
616.406	40067.1
616.762	40078.85
617.118	40150.48
617.475	40124.95
617.831	40423.25
618.187	40517.03
618.543	40618.72
618.899	40961.08
619.255	40961.99
619.611	40940.75
619.967	41169.89
620.323	41265.93
620.678	41232.94
621.034	41250.12
621.39	41379.83
621.746	41281.53
622.101	41864.56
622.457	41545.7
622.812	41773.04
623.168	41837.45
623.523	41965.13
623.879	42082.64
624.234	42012.81
624.589	42166.93
624.945	42160.15
625.3	42397.43
625.655	42253.25
626.01	42442.63
626.365	42462.74
626.72	42427.26
627.075	42434.27
627.43	42441.95
627.785	42545.22
628.14	42700.47
628.495	42635.84
628.85	42673.36
629.205	42456.19
629.559	42893.46
629.914	42712.68
630.269	42748.16
630.623	42681.94
630.978	42762.62
631.332	42871.54
631.687	43019.33
632.041	42920.35
632.396	42882.62
632.75	42841.49
633.104	42885.55
633.459	42697.08
633.813	42785.67
634.167	42841.94
634.521	42821.83
634.875	42961.26
635.229	42818.66
635.583	42772.11
635.937	42763.52
636.291	42834.48
636.645	42725.78
636.999	42764.2
637.352	42829.96
637.706	42677.2
638.06	42937.08
638.413	42671.32
638.767	42601.94
639.121	42796.06
639.474	42502.06
639.828	42611.21
640.181	42570.76
640.534	42676.52
640.888	42491.44
641.241	42432.46
641.594	42592.91
641.947	42592
642.301	42532.57
642.654	42503.42
643.007	42606.46
643.36	42650.08
643.713	42582.06
644.066	42576.86
644.419	42427.49
644.771	42262.07
645.124	41869.53
645.477	41726.49
645.83	41527.62
646.182	41519.26
646.535	41284.47
646.888	41427.51
647.24	41146.16
647.593	41467.96
647.945	41215.77
648.298	41136.9
648.65	41083.11
649.002	40960.18
649.355	41103.91
649.707	41167.86
650.059	41348.19
650.411	41786.37
650.763	41847.39
651.115	42111.34
651.467	41999.25
651.819	42039.25
652.171	41915.41
652.523	41969.87
652.875	41946.37
653.227	41756.54
653.578	41884.45
653.93	41907.05
654.282	41841.96
654.633	41640.16
654.985	41749.54
655.337	42006.03
655.688	41858.91
656.039	42096.2
656.391	41542.09
656.742	41683.1
657.094	41825.24
657.445	41902.75
657.796	41843.09
658.147	41708.63
658.498	41678.13
658.849	41677.68
659.2	41852.36
659.551	41520.84
659.902	41761.74
660.253	41629.99
660.604	41729.65
660.955	41530.79
661.306	41806.71
661.656	41549.54
662.007	41664.79
662.358	41653.72
662.708	41727.84
663.059	41622.76
663.409	41365.59
663.76	41599.71
664.11	41541.63
664.461	41642.65
664.811	41573.27
665.161	41638.13
665.511	41511.58
665.862	41541.86
666.212	41551.35
666.562	41574.4
666.912	41427.51
667.262	41492.6
667.612	41513.84
667.962	41449.66
668.312	41306.39
668.662	41580.28
669.011	41636.32
669.361	41392.94
669.711	41379.83
670.06	41351.81
670.41	41357.23
670.76	41158.59
671.109	41532.14
671.459	41444.01
671.808	41250.57
672.157	41263.45
672.507	41131.7
672.856	41212.6
673.205	41285.6
673.554	41315.2
673.904	41237.23
674.253	41340.74
674.602	41324.92
674.951	40699.4
675.3	40612.17
675.649	41168.99
675.998	41226.84
676.346	41105.71
676.695	41151.81
677.044	40940.97
677.393	41012.38
677.741	41036.79
678.09	41096.67
678.438	40974.42
678.787	40952.95
679.135	40997.69
679.484	40675.22
679.832	40773.29
680.181	40549.34
680.529	40640.19
680.877	40654.65
681.225	40568.78
681.573	40901.2
681.922	40604.48
682.27	40432.96
682.618	40489.23
682.966	40392.51
683.314	40450.81
683.661	40242.91
684.009	40050.83
684.357	40141.67
684.705	40140.54
685.053	40132.86
685.4	40053.76
685.748	39834.11
686.095	39745.75
686.443	39797.95
686.79	39666.2
687.138	39716.82
687.485	39805.18
687.832	39456.49
688.18	39710.72
688.527	39445.42
688.874	39364.29
689.221	39205.88
689.568	39233.22
689.915	39129.04
690.262	39079.78
690.609	38936.28
690.956	38902.16
691.303	38821.48
691.65	38594.14
691.997	38664.65
692.344	38375.62
692.69	38382.85
693.037	38463.3
693.383	38135.4
693.73	38268.05
694.077	38049.07
694.423	38077.77
694.769	37864.67
695.116	37888.17
695.462	37823.54
695.808	37653.83
696.155	37825.8
696.501	37429.88
696.847	37512.14
697.193	37233.5
697.539	37224.01
697.885	37097.23
698.231	36968.87
698.577	37062.43
698.923	36987.18
699.269	36845.03
699.614	36680.74
699.96	36574.98
700.306	36638.26
700.651	36497.25
700.997	36353.97
701.342	36320.75
701.688	36169.12
702.033	36058.84
702.379	36024.94
702.724	35940.2
703.069	36078.27
703.415	35540.44
703.76	35712.41
704.105	35597.61
704.45	35517.84
704.795	35318.07
705.14	35283.27
705.485	35199.88
705.83	35182.48
706.175	35251.63
706.52	35047.79
706.865	35001.47
707.209	34981.81
707.554	34807.57
707.899	34834.92
708.243	34771.42
708.588	34621.36
708.932	34339.11
709.277	34416.62
709.621	34364.2
709.966	34249.62
710.31	34301.6
710.654	33943.42
710.998	34079.01
711.342	34037.88
711.687	33916.98
712.031	33832.23
712.375	33697.77
712.719	33716.3
713.063	33770.09
713.407	33702.97
713.75	33473.82
714.094	33492.58
714.438	33355.63
714.782	33399.7
715.125	33305.92
715.469	33445.12
715.812	33171.68
716.156	33037.22
716.499	32962.65
716.843	33055.76
717.186	32761.98
717.53	33028.19
717.873	33005.36
718.216	32884.46
718.559	32741.87
718.902	32434.53
719.246	32630.23
719.589	32439.27
719.932	32287.64
720.275	32499.84
720.617	32251.03
720.96	32247.87
721.303	32232.5
721.646	32218.71
721.989	32053.07
722.331	32185.27
722.674	32014.43
723.016	32137.81
723.359	31971.26
723.701	31893.53
724.044	31707.77
724.386	31624.15
724.729	31793.87
725.071	31653.31
725.413	31605.62
725.755	31571.5
726.097	31519.75
726.439	31334.67
726.782	31532.86
727.124	31452.41
727.465	31246.54
727.807	31252.64
728.149	31272.07
728.491	31177.84
728.833	31231.4
729.175	31098.97
729.516	31097.39
729.858	31015.36
730.199	30975.81
730.541	30918.64
730.882	30816.49
731.224	31084.06
731.565	30823.72
731.906	30746.21
732.248	30704.4
732.589	30704.86
732.93	30556.39
733.271	30591.64
733.612	30470.74
733.953	30715.7
734.294	30539.89
734.635	30456.05
734.976	30515.71
735.317	30296.96
735.658	30357.07
735.999	30168.6
736.339	30133.35
736.68	30171.31
737.021	30138.32
737.361	29879.34
737.702	30208.15
738.042	29941.03
738.383	29875.27
738.723	29999.34
739.063	29931.77
739.404	29983.07
739.744	29829.63
740.084	29690.42
740.424	29881.15
740.764	29773.81
741.104	29846.8
741.444	29489.07
741.784	29620.14
742.124	29550.99
742.464	29537.43
742.804	29410.43
743.143	29425.12
743.483	29413.82
743.823	29265.12
744.162	29261.5
744.502	29228.96
744.841	29134.05
745.181	29262.18
745.52	29089.08
745.86	29201.39
746.199	29191.9
746.538	29203.43
746.877	29165.91
747.216	29022.19
747.556	29078.01
747.895	28940.84
748.234	28773.61
748.573	28960.04
748.911	28784
749.25	28743.55
749.589	28616.32
749.928	28635.98
750.267	28593.5
750.605	28547.63
750.944	28593.73
751.283	28362.77
751.621	28433.05
751.96	28263.56
752.298	28356.67
752.636	28357.35
752.975	28127.3
753.313	28067.86
753.651	28195.54
753.989	28095.89
754.327	27966.4
754.666	27826.74
755.004	27885.04
755.342	27935.44
755.679	27833.75
756.017	27748.78
756.355	27897.92
756.693	27624.26
757.031	27716.91
757.368	27579.51
757.706	27401.21
