Data from hue_150_FLMS001491_00072.txt Node
Date: Tue Feb 07 16:54:29 GMT 2017
User: dcchb
Spectrometer: FLMS00149
Trigger mode: 0
Integration Time (sec): 2.000000E-2
Scans to average: 10
Electric dark correction enabled: true
Nonlinearity correction enabled: false
Boxcar width: 0
XAxis mode: Wavelengths
Number of Pixels in Spectrum: 2048
>>>>>Begin Spectral Data<<<<<
341.393	-29.34
341.776	-29.34
342.16	-29.34
342.543	-72.05
342.927	-80.86
343.31	-73.4
343.693	-80.41
344.077	-72.95
344.46	-53.97
344.843	-43.12
345.226	-27.98
345.61	-35.66
345.993	-30.69
346.376	-0.41
346.759	24
347.142	36.2
347.525	35.07
347.908	64.67
348.291	75.52
348.674	86.37
349.057	96.76
349.44	131.56
349.823	119.81
350.206	151
350.588	189.42
350.971	194.84
351.354	219.02
351.737	217.21
352.119	246.36
352.502	250.43
352.884	268.28
353.267	284.33
353.65	286.14
354.032	306.93
354.414	304.22
354.797	318.9
355.179	322.52
355.562	332.46
355.944	317.32
356.326	309.86
356.709	337.43
357.091	335.85
357.473	321.16
357.855	343.76
358.238	360.03
358.62	353.71
359.002	380.82
359.384	324.33
359.766	320.03
360.148	343.08
360.53	341.05
360.912	335.4
361.294	313.93
361.676	338.79
362.057	313.93
362.439	338.11
362.821	308.96
363.203	311.45
363.584	310.09
363.966	343.99
364.348	321.39
364.729	339.69
365.111	324.78
365.493	322.07
365.874	319.36
366.256	320.26
366.637	303.31
367.019	319.36
367.4	311.67
367.781	299.92
368.163	327.27
368.544	334.95
368.925	299.92
369.306	315.74
369.688	309.64
370.069	311.67
370.45	311.45
370.831	297.44
371.212	298.57
371.593	315.97
371.974	302.63
372.355	311.45
372.736	322.07
373.117	328.62
373.498	313.25
373.879	305.57
374.26	320.71
374.641	311.67
375.021	295.18
375.402	320.26
375.783	335.17
376.163	308.73
376.544	329.07
376.925	317.77
377.305	336.98
377.686	326.36
378.066	329.75
378.447	326.59
378.827	332.69
379.208	333.82
379.588	335.63
379.968	328.4
380.349	333.59
380.729	322.75
381.109	323.65
381.489	333.59
381.87	318
382.25	320.03
382.63	358.9
383.01	340.82
383.39	329.75
383.77	346.47
384.15	362.74
384.53	347.83
384.91	322.29
385.29	359.35
385.67	336.3
386.049	347.83
386.429	350.32
386.809	360.03
387.189	342.41
387.568	332.46
387.948	370.88
388.328	356.64
388.707	334.04
389.087	360.26
389.466	354.38
389.846	362.74
390.225	359.81
390.605	365.91
390.984	358.23
391.363	371.11
391.743	366.13
392.122	367.94
392.501	376.53
392.881	368.62
393.26	362.97
393.639	377.43
394.018	384.21
394.397	386.47
394.776	386.7
395.155	382.41
395.534	379.47
395.913	384.67
396.292	368.17
396.671	376.98
397.05	398.22
397.429	383.31
397.808	416.53
398.186	408.62
398.565	401.61
398.944	396.42
399.323	385.79
399.701	377.21
400.08	402.74
400.458	381.05
400.837	389.41
401.215	415.4
401.594	415.17
401.972	373.14
402.351	388.73
402.729	411.11
403.107	409.07
403.486	406.13
403.864	406.81
404.242	401.84
404.62	435.29
404.999	411.78
405.377	434.61
405.755	423.08
406.133	428.05
406.511	416.08
406.889	434.83
407.267	442.06
407.645	434.83
408.023	442.29
408.401	441.39
408.779	461.05
409.156	471.22
409.534	441.84
409.912	442.06
410.29	469.86
410.667	453.14
411.045	478.45
411.422	460.6
411.8	479.13
412.178	476.87
412.555	466.24
412.933	474.15
413.31	488.84
413.687	479.13
414.065	493.81
414.442	491.55
414.819	490.65
415.197	470.76
415.574	498.33
415.951	501.27
416.328	486.36
416.705	493.59
417.082	492.46
417.46	483.42
417.837	524.1
418.214	518.67
418.591	510.09
418.967	516.41
419.344	523.87
419.721	517.99
420.098	521.16
420.475	543.76
420.852	556.41
421.228	538.56
421.605	550.08
421.982	524.32
422.358	547.37
422.735	553.47
423.111	565.9
423.488	563.87
423.864	589.18
424.241	574.94
424.617	591.21
424.994	583.98
425.37	575.85
425.746	573.59
426.123	595.73
426.499	619.91
426.875	602.74
427.251	607.26
427.627	606.13
428.003	634.6
428.379	632.79
428.756	613.59
429.132	608.61
429.507	620.59
429.883	644.77
430.259	653.81
430.635	645.45
431.011	663.08
431.387	689.97
431.763	671.66
432.138	666.92
432.514	683.19
432.89	684.77
433.265	710.98
433.641	687.26
434.016	692.23
434.392	705.33
434.767	705.11
435.143	700.14
435.518	723.64
435.894	744.43
436.269	755.73
436.644	755.73
437.02	767.48
437.395	763.86
437.77	791.66
438.145	755.05
438.52	773.13
438.895	793.47
439.271	800.02
439.646	807.03
440.021	822.39
440.395	825.78
440.77	817.42
441.145	822.85
441.52	839.34
441.895	850.87
442.27	834.37
442.645	847.03
443.019	850.64
443.394	868.72
443.769	842.51
444.143	843.18
444.518	861.71
444.892	877.53
445.267	858.1
445.641	883.86
446.016	894.03
446.39	857.87
446.764	904.43
447.139	916.4
447.513	902.17
447.887	913.24
448.262	932.67
448.636	927.25
449.01	957.53
449.384	938.55
449.758	940.81
450.132	955.72
450.506	958.66
450.88	983.29
451.254	962.28
451.628	997.76
452.002	1010.41
452.376	1024.65
452.75	1007.02
453.123	1027.81
453.497	1021.71
453.871	1045.21
454.244	1072.1
454.618	1089.73
454.992	1077.98
455.365	1074.36
455.739	1106.23
456.112	1096.06
456.486	1139.67
456.859	1135.38
457.232	1139.67
457.606	1155.04
457.979	1166.79
458.352	1174.93
458.725	1202.27
459.099	1221.03
459.472	1241.14
459.845	1261.48
460.218	1252.66
460.591	1269.39
460.964	1285.88
461.337	1302.61
461.71	1322.95
462.083	1343.74
462.456	1348.48
462.829	1345.09
463.201	1380.35
463.574	1384.64
463.947	1404.75
464.32	1435.26
464.692	1468.93
465.065	1455.37
465.438	1500.57
465.81	1493.56
466.183	1543.05
466.555	1550.06
466.928	1585.54
467.3	1616.95
467.672	1646.55
468.045	1644.07
468.417	1690.62
468.789	1689.94
469.161	1742.6
469.534	1740.56
469.906	1782.59
470.278	1812.2
470.65	1860.33
471.022	1870.95
471.394	1915.25
471.766	1967.67
472.138	1979.43
472.51	2037.05
472.882	2070.95
473.253	2094.22
473.625	2176.71
473.997	2218.74
474.369	2232.07
474.74	2286.54
475.112	2346.65
475.484	2366.53
475.855	2442.92
476.227	2476.81
476.598	2565.62
476.97	2618.5
477.341	2674.1
477.713	2762.91
478.084	2799.29
478.455	2868.44
478.827	2948.89
479.198	2997.03
479.569	3079.06
479.94	3193.18
480.311	3275.66
480.682	3395.66
481.053	3502.78
481.424	3554.07
481.795	3625.48
482.166	3700.06
482.537	3843.78
482.908	3938.7
483.279	4010.11
483.65	4142.76
484.021	4260.5
484.391	4314.73
484.762	4437.89
485.133	4517.44
485.503	4663.87
485.874	4795.85
486.244	4888.73
486.615	5055.5
486.985	5137.08
487.356	5235.61
487.726	5390.41
488.097	5544.3
488.467	5665.88
488.837	5786.1
489.207	5929.6
489.578	6048.47
489.948	6180.22
490.318	6357.84
490.688	6420.89
491.058	6545.63
491.428	6650.04
491.798	6872.18
492.168	7067.65
492.538	7131.38
492.908	7254.77
493.278	7335.44
493.648	7492.27
494.017	7590.58
494.387	7782.44
494.757	7897.24
495.126	8037.57
495.496	8124.57
495.866	8230.11
496.235	8384.23
496.605	8470.1
496.974	8622.64
497.344	8743.77
497.713	8792.13
498.082	8910.77
498.452	9058.34
498.821	9114.6
499.19	9207.94
499.559	9372.9
499.928	9516.63
500.298	9598.66
500.667	9691.31
501.036	9740.35
501.405	9895.83
501.774	9946.9
502.143	10047.01
502.512	10084.52
502.88	10200.68
503.249	10226.89
503.618	10429.82
503.987	10437.28
504.356	10512.53
504.724	10645.19
505.093	10681.34
505.462	10759.99
505.83	10789.36
506.199	10939.42
506.567	11003.82
506.936	11046.98
507.304	11148.22
507.672	11239.75
508.041	11267.09
508.409	11390.93
508.777	11473.64
509.145	11593.18
509.514	11515.22
509.882	11711.37
510.25	11701.88
510.618	11792.73
510.986	11775.1
511.354	11887.41
511.722	12006.28
512.09	12053.06
512.458	11929.45
512.826	12113.17
513.193	12187.52
513.561	12157.46
513.929	12328.08
514.297	12352.94
514.664	12426.38
515.032	12469.55
515.4	12451.47
515.767	12593.84
516.135	12541.41
516.502	12526.94
516.869	12718.35
517.237	12782.08
517.604	12643.1
517.972	12832.02
518.339	12776.66
518.706	12808.52
519.073	12804.9
519.44	12886.03
519.808	12938.91
520.175	12926.48
520.542	13082.41
520.909	13085.35
521.276	13028.85
521.643	13155.85
522.009	13177.55
522.376	13279.02
522.743	13231.11
523.11	13269.52
523.477	13378
523.843	13461.38
524.21	13449.86
524.577	13485.11
524.943	13519.23
525.31	13582.96
525.676	13556.52
526.043	13641.27
526.409	13625.67
526.776	13677.65
527.142	13675.39
527.508	13673.13
527.874	13719.91
528.241	13758.55
528.607	13721.26
528.973	13856.63
529.339	13679.68
529.705	13890.3
530.071	13823.63
530.437	13826.57
530.803	13980.24
531.169	13910.19
531.535	13809.62
531.901	13799
532.267	13872.45
532.632	13825.89
532.998	13770.75
533.364	13916.96
533.73	13866.12
534.095	13861.6
534.461	13889.85
534.826	13901.37
535.192	13814.82
535.557	13839.9
535.923	13813.46
536.288	13854.82
536.653	13855.95
537.019	13697.76
537.384	13694.6
537.749	13695.28
538.114	13643.75
538.479	13690.76
538.845	13661.38
539.21	13613.24
539.575	13591.55
539.94	13542.06
540.305	13563.53
540.67	13486.02
541.034	13474.04
541.399	13466.35
541.764	13511.33
542.129	13387.04
542.494	13363.53
542.858	13392.91
543.223	13328.05
543.587	13313.14
543.952	13258.9
544.316	13196.08
544.681	13110.21
545.045	13212.12
545.41	13253.93
545.774	13222.29
546.138	13035.18
546.503	13074.95
546.867	12938.69
547.231	13065.91
547.595	12993.6
547.959	12986.59
548.324	12942.75
548.688	12859.82
549.052	12872.47
549.416	12849.2
549.779	12778.69
550.143	12803.32
550.507	12855.75
550.871	12805.36
551.235	12679.93
551.599	12735.53
551.962	12708.41
552.326	12592.93
552.689	12702.31
553.053	12575.98
553.417	12590.22
553.78	12618.24
554.143	12636.55
554.507	12526.94
554.87	12487.85
555.234	12618.24
555.597	12485.82
555.96	12508.41
556.323	12458.47
556.686	12396.78
557.05	12489.66
557.413	12437.91
557.776	12487.85
558.139	12509.77
558.502	12414.63
558.865	12398.13
559.228	12438.81
559.59	12440.17
559.953	12442.2
560.316	12497.79
560.679	12477
561.041	12524.23
561.404	12447.85
561.767	12493.05
562.129	12469.09
562.492	12578.47
562.854	12483.78
563.217	12473.84
563.579	12474.06
563.941	12487.4
564.304	12526.27
564.666	12554.51
565.028	12448.98
565.39	12512.71
565.753	12509.09
566.115	12501.86
566.477	12614.85
566.839	12601.29
567.201	12634.06
567.563	12647.39
567.925	12643.78
568.287	12644.23
568.648	12710.67
569.01	12760.84
569.372	12782.08
569.734	12686.26
570.095	12756.09
570.457	12691.01
570.819	12675.87
571.18	12750.89
571.542	12761.97
571.903	12782.31
572.265	12812.59
572.626	12771.46
572.987	12830.67
573.349	12742.98
573.71	12866.6
574.071	12831.57
574.432	12780.95
574.794	12944.11
575.155	12911.79
575.516	12851
575.877	12940.95
576.238	12803.77
576.599	12898.91
576.96	12926.93
577.32	12847.39
577.681	12971.23
578.042	12848.97
578.403	12869.31
578.763	12837.9
579.124	12940.27
579.485	12927.39
579.845	12849.87
580.206	12887.39
580.566	12949.08
580.927	12828.86
581.287	12927.84
581.648	12911.34
582.008	12968.06
582.368	12945.46
582.728	12981.85
583.089	12936.65
583.449	12893.04
583.809	12934.62
584.169	12879.03
584.529	12884
584.889	12941.4
585.249	12831.8
585.609	12855.07
585.969	12918.57
586.329	12833.15
586.688	12813.94
587.048	12826.6
587.408	12782.98
587.768	12843.55
588.127	12826.15
588.487	12697.79
588.846	12814.17
589.206	12771.23
589.565	12735.07
589.925	12730.78
590.284	12780.95
590.643	12758.8
591.003	12733.72
591.362	12780.5
591.721	12732.36
592.08	12737.79
592.44	12726.26
592.799	12672.03
593.158	12680.84
593.517	12718.58
593.876	12704.34
594.235	12689.65
594.593	12723.1
594.952	12686.71
595.311	12639.03
595.67	12672.7
596.029	12738.01
596.387	12768.07
596.746	12733.49
597.104	12629.31
597.463	12649.65
597.822	12732.36
598.18	12642.87
598.538	12612.59
598.897	12698.92
599.255	12576.66
599.613	12653.72
599.972	12568.98
600.33	12704.57
600.688	12587.73
601.046	12615.98
601.404	12600.16
601.762	12672.7
602.12	12701.63
602.478	12685.58
602.836	12646.26
603.194	12574.85
603.552	12647.85
603.91	12576.89
604.268	12599.94
604.625	12587.73
604.983	12647.85
605.341	12603.33
605.698	12594.06
606.056	12654.85
606.413	12565.36
606.771	12672.48
607.128	12629.31
607.485	12661.18
607.843	12600.39
608.2	12683.32
608.557	12648.98
608.914	12652.14
609.272	12714.51
609.629	12676.55
609.986	12774.4
610.343	12714.51
610.7	12866.6
611.057	12788.41
611.414	12746.83
611.771	12788.86
612.127	12855.3
612.484	12788.18
612.841	12835.64
613.198	12790.21
613.554	12786.82
613.911	12914.05
614.267	12866.82
614.624	12855.75
614.98	12858.01
615.337	12822.08
615.693	12905.92
616.05	12830.89
616.406	13040.38
616.762	12964.22
617.118	12897.56
617.475	12885.81
617.831	12984.11
618.187	12951.79
618.543	12968.29
618.899	13029.08
619.255	13004.9
619.611	12989.76
619.967	13050.77
620.323	13088.96
620.678	12982.75
621.034	13024.56
621.39	12923.32
621.746	12938.46
622.101	13119.25
622.457	12945.24
622.812	12995.63
623.168	13083.31
623.523	13036.31
623.879	13093.26
624.234	13033.15
624.589	13053.94
624.945	12996.76
625.3	13027.27
625.655	12988.85
626.01	12996.99
626.365	12972.36
626.72	12972.81
627.075	13046.03
627.43	13028.4
627.785	12974.84
628.14	13028.63
628.495	13047.83
628.85	12948.18
629.205	12977.78
629.559	13048.96
629.914	12830.89
630.269	12998.12
630.623	12891.91
630.978	12890.1
631.332	12921.28
631.687	12975.29
632.041	12862.76
632.396	12868.63
632.75	12811.46
633.104	12894.84
633.459	12817.11
633.813	12780.72
634.167	12819.59
634.521	12885.13
634.875	12948.4
635.229	12722.65
635.583	12734.62
635.937	12812.81
636.291	12679.26
636.645	12710.89
636.999	12709.76
637.352	12650.56
637.706	12636.09
638.06	12576.21
638.413	12596.77
638.767	12604.23
639.121	12572.14
639.474	12542.99
639.828	12528.07
640.181	12521.75
640.534	12496.89
640.888	12526.94
641.241	12462.77
641.594	12532.82
641.947	12515.42
642.301	12467.51
642.654	12479.04
643.007	12528.07
643.36	12457.34
643.713	12411.24
644.066	12475.42
644.419	12423.67
644.771	12323.11
645.124	12184.13
645.477	12248.31
645.83	12152.04
646.182	12150.01
646.535	12036.79
646.888	12110.23
647.24	11953.4
647.593	11912.95
647.945	12101.87
648.298	11960.63
648.65	11959.05
649.002	11953.63
649.355	11999.73
649.707	12086.96
650.059	12108.65
650.411	12201.98
650.763	12246.27
651.115	12385.71
651.467	12347.97
651.819	12257.8
652.171	12289.44
652.523	12255.31
652.875	12278.59
653.227	12252.6
653.578	12312.49
653.93	12307.97
654.282	12198.82
654.633	12268.19
654.985	12258.93
655.337	12256.22
655.688	12285.37
656.039	12324.46
656.391	12187.52
656.742	12196.11
657.094	12262.32
657.445	12256.67
657.796	12201.98
658.147	12223.45
658.498	12230.68
658.849	12264.8
659.2	12330.79
659.551	12258.7
659.902	12295.54
660.253	12268.42
660.604	12280.62
660.955	12250.57
661.306	12246.05
661.656	12328.08
662.007	12281.98
662.358	12278.36
662.708	12340.06
663.059	12354.29
663.409	12329.44
663.76	12358.81
664.11	12316.78
664.461	12382.99
664.811	12297.12
665.161	12313.16
665.511	12295.09
665.862	12328.53
666.212	12313.84
666.562	12337.12
666.912	12238.82
667.262	12248.53
667.612	12309.55
667.962	12270.23
668.312	12305.71
668.662	12299.83
669.011	12295.31
669.361	12343.45
669.711	12306.16
670.06	12279.95
670.41	12224.35
670.76	12250.79
671.109	12274.3
671.459	12188.2
671.808	12168.54
672.157	12272.71
672.507	12204.47
672.856	12182.55
673.205	12206.28
673.554	12260.96
673.904	12134.86
674.253	12235.43
674.602	12154.3
674.951	12035.43
675.3	11961.54
675.649	12070.69
675.998	12121.31
676.346	12084.24
676.695	12089.67
677.044	12086.5
677.393	12030.23
677.741	12097.13
678.09	12013.29
678.438	12052.15
678.787	12086.05
679.135	12074.53
679.484	12025.26
679.832	11931.03
680.181	11941.65
680.529	11979.61
680.877	11925.38
681.225	11840.86
681.573	11944.59
681.922	11776.46
682.27	11811.03
682.618	11730.13
682.966	11750.02
683.314	11814.2
683.661	11719.28
684.009	11672.96
684.357	11657.36
684.705	11711.6
685.053	11638.15
685.4	11610.13
685.748	11585.95
686.095	11537.82
686.443	11505.73
686.79	11536.46
687.138	11504.82
687.485	11549.8
687.832	11456.69
688.18	11492.85
688.527	11432.96
688.874	11255.57
689.221	11327.65
689.568	11305.51
689.915	11278.62
690.262	11353.87
690.609	11235
690.956	11198.17
691.303	11113.65
691.65	11065.51
691.997	11104.61
692.344	11032.75
692.69	11035.46
693.037	11010.83
693.383	10895.8
693.73	10887.21
694.077	10884.95
694.423	10902.81
694.769	10776.93
695.116	10783.04
695.462	10781.68
695.808	10712.53
696.155	10705.75
696.501	10700.1
696.847	10630.72
697.193	10537.39
697.539	10633.66
697.885	10502.14
698.231	10432.54
698.577	10446.55
698.923	10438.19
699.269	10358.87
699.614	10299.66
699.96	10295.14
700.306	10260.56
700.651	10251.98
700.997	10134.69
701.342	10119.32
701.688	10099.21
702.033	10079.78
702.379	10024.86
702.724	10021.02
703.069	10010.85
703.415	9923.4
703.76	9900.57
704.105	9989.38
704.45	9807.92
704.795	9884.08
705.14	9745.55
705.485	9770.63
705.83	9684.53
706.175	9762.72
706.52	9700.58
706.865	9618.55
707.209	9646.12
707.554	9644.08
707.899	9602.05
708.243	9508.04
708.588	9560.24
708.932	9532
709.277	9494.71
709.621	9461.49
709.966	9330.19
710.31	9361.38
710.654	9350.3
710.998	9276.63
711.342	9331.32
711.687	9344.88
712.031	9240.03
712.375	9214.26
712.719	9193.47
713.063	9242.74
713.407	9209.74
713.75	9118.67
714.094	9117.77
714.438	9117.77
714.782	9148.5
715.125	9104.66
715.469	9075.51
715.812	9033.93
716.156	9046.13
716.499	9010.65
716.843	9056.08
717.186	8890.66
717.53	8989.18
717.873	8967.72
718.216	8953.71
718.559	8988.73
718.902	8911.45
719.246	8929.75
719.589	8897.66
719.932	8785.12
720.275	8871
720.617	8873.26
720.96	8833.93
721.303	8760.04
721.646	8819.25
721.989	8739.25
722.331	8846.59
722.674	8745.8
723.016	8817.44
723.359	8781.28
723.701	8792.13
724.044	8751.45
724.386	8726.37
724.729	8706.48
725.071	8733.82
725.413	8688.18
725.755	8663.77
726.097	8629.65
726.439	8664.22
726.782	8616.54
727.124	8766.37
727.465	8664.22
727.807	8657.22
728.149	8599.36
728.491	8634.17
728.833	8691.34
729.175	8581.51
729.516	8650.21
729.858	8610.89
730.199	8564.79
730.541	8632.36
730.882	8559.82
731.224	8637.1
731.565	8556.43
731.906	8563.88
732.248	8577.9
732.589	8565.01
732.93	8518.24
733.271	8614.96
733.612	8469.88
733.953	8586.26
734.294	8529.08
734.635	8528.18
734.976	8588.52
735.317	8517.11
735.658	8507.84
735.999	8550.33
736.339	8545.81
736.68	8594.62
737.021	8561.63
737.361	8478.69
737.702	8572.25
738.042	8517.33
738.383	8529.31
738.723	8567.27
739.063	8558.69
739.404	8580.38
739.744	8633.26
740.084	8598.46
740.424	8591.23
740.764	8592.13
741.104	8642.98
741.444	8608.63
741.784	8630.1
742.124	8622.41
742.464	8695.63
742.804	8648.85
743.143	8689.76
743.483	8768.63
743.823	8699.93
744.162	8765.24
744.502	8761.62
744.841	8834.16
745.181	8876.19
745.52	8901.28
745.86	8890.88
746.199	8919.36
746.538	8985.57
746.877	9096.98
747.216	9130.88
747.556	8999.35
747.895	9125.45
748.234	9127.26
748.573	9222.4
748.911	9239.12
749.25	9373.58
749.589	9365.22
749.928	9437.08
750.267	9522.05
750.605	9525.44
750.944	9580.81
751.283	9679.11
751.621	9768.15
751.96	9828.03
752.298	9931.76
752.636	10032.77
752.975	10098.99
753.313	10108.25
753.651	10333.33
753.989	10383.05
754.327	10453.78
754.666	10491.74
755.004	10646.09
755.342	10848.8
755.679	11015.57
756.017	11051.96
756.355	11222.35
756.693	11199.07
757.031	11469.35
757.368	11544.82
757.706	11630.02
758.044	11861.43
758.381	11960.18
758.719	12103.23
