Data from hue_30_FLMS001491_46.txt Node
Date: Mon Feb 06 15:05:23 GMT 2017
User: dcchb
Spectrometer: FLMS00149
Trigger mode: 0
Integration Time (sec): 2.000000E-2
Scans to average: 10
Electric dark correction enabled: true
Nonlinearity correction enabled: false
Boxcar width: 0
XAxis mode: Wavelengths
Number of Pixels in Spectrum: 2048
>>>>>Begin Spectral Data<<<<<
341.393	-9.39
341.776	-9.39
342.16	-9.39
342.543	-33.12
342.927	-57.75
343.31	-48.71
343.693	-54.36
344.077	-63.85
344.46	-73.12
344.843	-45.1
345.226	-54.36
345.61	-44.19
345.993	-18.21
346.376	0.32
346.759	-10.97
347.142	52.53
347.525	67.22
347.908	45.97
348.291	56.59
348.674	82.58
349.057	107.67
349.44	134.56
349.823	138.17
350.206	144.73
350.588	175.69
350.971	213.2
351.354	223.6
351.737	233.54
352.119	237.83
352.502	286.87
352.884	278.96
353.267	285.06
353.65	288.45
354.032	292.97
354.414	325.74
354.797	299.75
355.179	334.33
355.562	325.29
355.944	330.03
356.326	344.95
356.709	342.69
357.091	350.37
357.473	337.04
357.855	345.17
358.238	346.76
358.62	347.66
359.002	352.18
359.384	336.81
359.766	343.37
360.148	335.46
360.53	345.63
360.912	320.09
361.294	314.44
361.676	324.38
362.057	316.25
362.439	316.47
362.821	336.36
363.203	328.23
363.584	334.78
363.966	328.23
364.348	330.94
364.729	316.25
365.111	324.84
365.493	316.93
365.874	313.54
366.256	311.28
366.637	316.47
367.019	315.34
367.4	310.83
367.781	307.89
368.163	314.44
368.544	302.01
368.925	324.38
369.306	318.51
369.688	327.1
370.069	322.8
370.45	302.69
370.831	324.38
371.212	291.39
371.593	329.81
371.974	305.85
372.355	306.98
372.736	310.15
373.117	330.03
373.498	314.89
373.879	333.2
374.26	330.94
374.641	304.27
375.021	324.61
375.402	316.93
375.783	336.36
376.163	327.32
376.544	322.35
376.925	309.47
377.305	316.25
377.686	338.17
378.066	335.68
378.447	329.81
378.827	336.36
379.208	332.75
379.588	339.3
379.968	327.77
380.349	316.02
380.729	331.62
381.109	325.74
381.489	309.92
381.87	335.23
382.25	339.98
382.63	344.04
383.01	351.05
383.39	337.27
383.77	336.81
384.15	333.65
384.53	347.21
384.91	355.34
385.29	357.38
385.67	338.85
386.049	369.81
386.429	353.99
386.809	352.63
387.189	347.66
387.568	333.88
387.948	335.91
388.328	352.63
388.707	351.28
389.087	371.16
389.466	346.98
389.846	370.03
390.225	343.14
390.605	357.83
390.984	373.2
391.363	389.69
391.743	344.5
392.122	368.9
392.501	391.73
392.881	377.94
393.26	364.38
393.639	355.12
394.018	351.5
394.397	373.42
394.776	374.55
395.155	377.72
395.534	374.33
395.913	373.2
396.292	393.31
396.671	388.79
397.05	383.59
397.429	382.01
397.808	405.74
398.186	381.33
398.565	405.51
398.944	380.2
399.323	394.66
399.701	402.35
400.08	384.04
400.458	393.08
400.837	419.75
401.215	392.86
401.594	402.8
401.972	386.98
402.351	400.31
402.729	399.18
403.107	386.53
403.486	402.35
403.864	416.81
404.242	418.17
404.62	417.49
404.999	420.43
405.377	401.9
405.755	427.66
406.133	419.75
406.511	418.17
406.889	413.65
407.267	440.09
407.645	407.55
408.023	413.2
408.401	421.1
408.779	434.21
409.156	405.74
409.534	431.5
409.912	424.27
410.29	418.39
410.667	414.33
411.045	452.97
411.422	456.58
411.8	450.93
412.178	457.94
412.555	451.61
412.933	473.53
413.31	481.89
413.687	463.36
414.065	462.23
414.442	470.37
414.819	479.18
415.197	464.27
415.574	503.59
415.951	472.63
416.328	478.73
416.705	482.35
417.082	476.02
417.46	516.02
417.837	497.71
418.214	476.02
418.591	498.62
418.967	490.03
419.344	508.79
419.721	495.68
420.098	476.47
420.475	494.1
420.852	501.78
421.228	503.14
421.605	519.86
421.982	516.7
422.358	523.93
422.735	538.62
423.111	545.62
423.488	525.51
423.864	525.06
424.241	547.2
424.617	540.65
424.994	529.8
425.37	533.64
425.746	566.64
426.123	537.94
426.499	537.94
426.875	575.22
427.251	580.87
427.627	572.51
428.003	571.16
428.379	567.77
428.756	577.94
429.132	583.36
429.507	587.2
429.883	569.58
430.259	618.84
430.635	574.55
431.011	624.49
431.387	598.5
431.763	610.93
432.138	609.8
432.514	614.09
432.89	627.65
433.265	644.38
433.641	608.44
434.016	660.65
434.392	629.23
434.767	658.84
435.143	638.27
435.518	669.91
435.894	673.75
436.269	673.08
436.644	678.05
437.02	666.3
437.395	679.86
437.77	695.22
438.145	701.78
438.52	699.06
438.895	710.59
439.271	696.8
439.646	716.92
440.021	690.48
440.395	718.95
440.77	728.44
441.145	721.89
441.52	737.93
441.895	739.29
442.27	721.89
442.645	745.16
443.019	732.06
443.394	755.11
443.769	745.39
444.143	745.84
444.518	780.19
444.892	777.48
445.267	756.01
445.641	760.3
446.016	782.45
446.39	783.13
446.764	792.17
447.139	800.98
447.513	813.18
447.887	787.2
448.262	770.02
448.636	794.65
449.01	807.99
449.384	804.37
449.758	832.62
450.132	823.13
450.506	815.9
450.88	847.99
451.254	820.42
451.628	830.13
452.002	840.98
452.376	862.22
452.75	871.71
453.123	873.3
453.497	887.53
453.871	882.79
454.244	894.54
454.618	893.18
454.992	902.45
455.365	909
455.739	930.92
456.112	940.64
456.486	941.32
456.859	946.51
457.232	936.57
457.606	949.23
457.979	964.14
458.352	974.31
458.725	991.94
459.099	991.26
459.472	1026.51
459.845	1039.85
460.218	1038.04
460.591	1041.65
460.964	1033.74
461.337	1063.8
461.71	1096.12
462.083	1096.79
462.456	1071.71
462.829	1083.23
463.201	1090.01
463.574	1102.89
463.947	1133.4
464.32	1163.23
464.692	1157.81
465.065	1154.19
465.438	1164.36
465.81	1233.29
466.183	1200.52
466.555	1221.08
466.928	1243.23
467.3	1254.76
467.672	1250.46
468.045	1257.47
468.417	1283
468.789	1311.02
469.161	1338.14
469.534	1356
469.906	1390.57
470.278	1391.47
470.65	1379.72
471.022	1418.59
471.394	1477.57
471.766	1484.81
472.138	1468.08
472.51	1511.47
472.882	1530.23
473.253	1538.14
473.625	1590.79
473.997	1615.88
474.369	1605.71
474.74	1647.29
475.112	1685.03
475.484	1699.04
475.855	1726.61
476.227	1762.54
476.598	1807.73
476.97	1829.66
477.341	1851.58
477.713	1903.1
478.084	1925.92
478.455	1977.45
478.827	1983.1
479.198	2082.3
479.569	2050.44
479.94	2162.08
480.311	2151.23
480.682	2215.18
481.053	2291.34
481.424	2325.46
481.795	2366.36
482.166	2384.89
482.537	2437.32
482.908	2560.48
483.279	2547.83
483.65	2596.41
484.021	2652.91
484.391	2681.38
484.762	2766.81
485.133	2787.37
485.503	2860.59
485.874	2900.81
486.244	2982.62
486.615	3039.34
486.985	3065.78
487.356	3111.43
487.726	3160.92
488.097	3237.08
488.467	3310.52
488.837	3344.42
489.207	3421.93
489.578	3470.52
489.948	3516.16
490.318	3587.8
490.688	3649.04
491.058	3703.73
491.428	3796.84
491.798	3840
492.168	3916.15
492.538	3914.35
492.908	3990.5
493.278	4075.7
493.648	4084.74
494.017	4143.49
494.387	4188.46
494.757	4223.04
495.126	4330.83
495.496	4374.67
495.866	4398.63
496.235	4427.1
496.605	4517.72
496.974	4541.45
497.344	4588
497.713	4606.08
498.082	4658.51
498.452	4742.12
498.821	4819.41
499.19	4786.87
499.559	4872.97
499.928	4886.52
500.298	4938.27
500.667	4956.8
501.036	5003.36
501.405	5080.19
501.774	5112.28
502.143	5079.51
502.512	5144.6
502.88	5224.37
503.249	5210.58
503.618	5305.72
503.987	5295.1
504.356	5334.65
504.724	5352.95
505.093	5399.28
505.462	5461.65
505.83	5477.69
506.199	5543.46
506.567	5613.51
506.936	5581.87
507.304	5744.13
507.672	5661.64
508.041	5702.32
508.409	5755.88
508.777	5794.97
509.145	5800.85
509.514	5902.32
509.882	5903.22
510.25	5919.72
510.618	5920.17
510.986	5979.6
511.354	6007.62
511.722	6089.2
512.09	6104.57
512.458	6114.51
512.826	6144.34
513.193	6180.95
513.561	6208.75
513.929	6243.55
514.297	6274.74
514.664	6351.57
515.032	6345.47
515.4	6399.93
515.767	6422.3
516.135	6445.35
516.502	6376.43
516.869	6487.16
517.237	6566.25
517.604	6496.2
517.972	6600.38
518.339	6615.97
518.706	6616.2
519.073	6638.12
519.44	6679.92
519.808	6751.56
520.175	6726.93
520.542	6759.92
520.909	6844.66
521.276	6798.56
521.643	6904.55
522.009	6972.8
522.376	7003.98
522.743	6972.12
523.11	7020.71
523.477	7101.38
523.843	7079.46
524.21	7214.82
524.577	7211.66
524.943	7293.24
525.31	7324.88
525.676	7410.53
526.043	7359.23
526.409	7437.19
526.776	7484.42
527.142	7536.4
527.508	7557.19
527.874	7596.51
528.241	7556.28
528.607	7656.85
528.973	7694.36
529.339	7622.72
529.705	7757.18
530.071	7820.68
530.437	7904.3
530.803	7879.89
531.169	7970.51
531.535	7942.26
531.901	7967.57
532.267	8020
532.632	8076.27
532.998	8127.34
533.364	8131.64
533.73	8183.84
534.095	8250.28
534.461	8309.26
534.826	8321.46
535.192	8287.34
535.557	8400.56
535.923	8336.6
536.288	8433.78
536.653	8583.6
537.019	8447.11
537.384	8527.78
537.749	8615.92
538.114	8674.9
538.479	8602.36
538.845	8659.08
539.21	8676.71
539.575	8700.44
539.94	8716.71
540.305	8772.98
540.67	8827.21
541.034	8840.32
541.399	8850.94
541.764	8886.64
542.129	8925.51
542.494	9013.2
542.858	9000.31
543.223	9043.02
543.587	9116.7
543.952	9062.69
544.316	9162.8
544.681	9193.08
545.045	9225.84
545.41	9286.18
545.774	9273.3
546.138	9347.65
546.503	9324.6
546.867	9394.88
547.231	9416.35
547.595	9539.28
547.959	9506.97
548.324	9589.45
548.688	9565.27
549.052	9578.83
549.416	9639.39
549.779	9649.34
550.143	9705.38
550.507	9757.13
550.871	9784.93
551.235	9765.72
551.599	9892.27
551.962	9863.34
552.326	9974.07
552.689	9935.2
553.053	9971.36
553.417	9929.78
553.78	10036.22
554.143	9992.38
554.507	10067.18
554.87	10043.68
555.234	10210
555.597	10143.56
555.96	10162.54
556.323	10233.95
556.686	10261.3
557.05	10233.5
557.413	10328.64
557.776	10336.55
558.139	10468.52
558.502	10461.07
558.865	10473.5
559.228	10526.6
559.59	10542.19
559.953	10603.89
560.316	10708.97
560.679	10694.05
561.041	10660.16
561.404	10815.18
561.767	10828.97
562.129	10730.89
562.492	10849.98
562.854	10879.59
563.217	10879.13
563.579	10906.03
563.941	11021.28
564.304	11023.54
564.666	11092.46
565.028	11145.12
565.39	11078
565.753	11183.31
566.115	11211.1
566.477	11267.6
566.839	11307.82
567.201	11336.98
567.563	11381.72
567.925	11432.34
568.287	11514.15
568.648	11427.14
569.01	11557.54
569.372	11641.83
569.734	11591.43
570.095	11697.19
570.457	11744.42
570.819	11789.62
571.18	11765.21
571.542	11894.02
571.903	11840.92
572.265	11954.81
572.626	12070.06
572.987	12053.57
573.349	12152.77
573.71	12138.99
574.071	12342.83
574.432	12367.01
574.794	12420.79
575.155	12511.18
575.516	12490.84
575.877	12605.19
576.238	12668.24
576.599	12801.34
576.96	12766.77
577.32	12910.72
577.681	12955.01
578.042	13161.79
578.403	13145.97
578.763	13284.95
579.124	13394.77
579.485	13479.52
579.845	13639.29
580.206	13761.32
580.566	13840.86
580.927	13980.97
581.287	14197.24
581.648	14142.78
582.008	14495.99
582.368	14540.73
582.728	14713.61
583.089	14794.06
583.449	15059.14
583.809	15206.93
584.169	15363.54
584.529	15480.37
584.889	15744.09
585.249	15984.99
585.609	16012.79
585.969	16372.55
586.329	16464.07
586.688	16708.81
587.048	16843.72
587.408	16998.52
587.768	17203.26
588.127	17519.19
588.487	17661.78
588.846	18018.16
589.206	18056.8
589.565	18381.08
589.925	18658.37
590.284	18856.55
590.643	19154.4
591.003	19308.29
591.362	19603.65
591.721	19800.93
592.08	20077.76
592.44	20364.76
592.799	20586.9
593.158	20802.26
593.517	20960.9
593.876	21313.21
594.235	21567.89
594.593	21785.29
594.952	22072.06
595.311	22181.44
595.67	22492.61
596.029	22938.93
596.387	23064.58
596.746	23466.15
597.104	23522.87
597.463	23730.32
597.822	24058
598.18	24326.01
598.538	24594.71
598.897	24909.73
599.255	24743.86
599.613	25411.63
599.972	25536.38
600.33	25827.22
600.688	25931.17
601.046	26285.51
601.404	26505.16
601.762	26624.48
602.12	26948.09
602.478	27273.96
602.836	27502.2
603.194	27463.11
603.552	27784.23
603.91	27861.06
604.268	28179.7
604.625	28371.33
604.983	28671.44
605.341	28590.99
605.698	29011.54
606.056	29273.91
606.413	29377.63
606.771	29670.51
607.128	29946.2
607.485	29860.78
607.843	30131.96
608.2	30390.26
608.557	30682.46
608.914	30668.45
609.272	31092.16
609.629	31183.91
609.986	31394.08
610.343	31375.55
610.7	31828.41
611.057	31799.71
611.414	31966.72
611.771	32167.84
612.127	32388.63
612.484	32389.3
612.841	32582.29
613.198	32807.37
613.554	32809.86
613.911	33176.63
614.267	33173.69
614.624	33268.38
614.98	33476.51
615.337	33666.56
615.693	33796.72
616.05	33866.1
616.406	34056.15
616.762	33988.81
617.118	34217.96
617.475	34276.94
617.831	34421.57
618.187	34483.26
618.543	34783.37
618.899	34874.44
619.255	35104.26
619.611	35083.92
619.967	35201.43
620.323	35381.77
620.678	35300.41
621.034	35243.24
621.39	35426.74
621.746	35469.9
622.101	35947.85
622.457	35702.89
622.812	35828.54
623.168	35879.61
623.523	36080.51
623.879	36202.54
624.234	35909.21
624.589	36194.4
624.945	36265.59
625.3	36256.09
625.655	36374.51
626.01	36378.35
626.365	36664.67
626.72	36478.69
627.075	36568.18
627.43	36704.22
627.785	36722.98
628.14	36708.29
628.495	36861.5
628.85	36776.76
629.205	36645.24
629.559	36988.05
629.914	36771.11
630.269	36890.43
630.623	36868.06
630.978	36812.24
631.332	36988.28
631.687	36986.02
632.041	37040.71
632.396	37059.46
632.75	36948.51
633.104	36840.49
633.459	36932.69
633.813	36840.03
634.167	36926.13
634.521	36977.88
634.875	37085.68
635.229	36967.49
635.583	36892.01
635.937	36904.44
636.291	36926.59
636.645	36930.2
636.999	36907.83
637.352	37064.89
637.706	36851.33
638.06	36904.21
638.413	36782.18
638.767	36768.4
639.121	36953.48
639.474	36694.28
639.828	36856.76
640.181	36835.97
640.534	36742.64
640.888	36672.58
641.241	36648.4
641.594	36688.85
641.947	36769.98
642.301	36693.82
642.654	36855.85
643.007	36803.42
643.36	36653.15
643.713	36645.01
644.066	36794.39
644.419	36567.5
644.771	36329.31
645.124	36029.43
645.477	36053.61
645.83	35937.69
646.182	35681.65
646.535	35671.7
646.888	35677.8
647.24	35499.96
647.593	35695.66
647.945	35625.38
648.298	35335.67
648.65	35365.72
649.002	35345.16
649.355	35427.87
649.707	35339.06
650.059	35574.08
650.411	35971.81
650.763	36006.38
651.115	36356.21
651.467	36219.94
651.819	36304.23
652.171	36204.12
652.523	36211.8
652.875	36274.17
653.227	36111.24
653.578	36337.45
653.93	36148.53
654.282	36055.2
654.633	35918.7
654.985	36162.31
655.337	35996.89
655.688	36104.46
656.039	36130.9
656.391	36052.03
656.742	36054.74
657.094	36014.97
657.445	36132.93
657.796	35963.22
658.147	35960.06
658.498	35853.85
658.849	36016.55
659.2	35909.21
659.551	35779.05
659.902	35825.37
660.253	35886.61
660.604	36021.07
660.955	35786.05
661.306	35923.22
661.656	35903.79
662.007	35766.84
662.358	35868.76
662.708	35781.08
663.059	35750.57
663.409	35699.95
663.76	35897.23
664.11	35904.24
664.461	35764.58
664.811	35785.6
665.161	35811.13
665.511	35670.8
665.862	35765.26
666.212	35897.23
666.562	35755.09
666.912	35758.03
667.262	35769.78
667.612	35723.91
667.962	35826.5
668.312	35707.41
668.662	35854.52
669.011	35760.06
669.361	35712.38
669.711	35803.23
670.06	35618.82
670.41	35573.17
670.76	35512.84
671.109	35892.71
671.459	35681.42
671.808	35603.23
672.157	35691.36
672.507	35404.82
672.856	35455.44
673.205	35482.78
673.554	35690.01
673.904	35469.67
674.253	35636.9
674.602	35630.8
674.951	34919.41
675.3	34822.23
675.649	35355.33
675.998	35279.62
676.346	35450.92
676.695	35492.95
677.044	35278.72
677.393	35269
677.741	35375.67
678.09	35205.05
678.438	35200.3
678.787	35277.36
679.135	35250.47
679.484	35002.57
679.832	35103.58
680.181	34937.03
680.529	35086.18
680.877	34906.07
681.225	34999.86
681.573	35074.66
681.922	34755.8
682.27	34713.76
682.618	34803.48
682.966	34719.86
683.314	34894.32
683.661	34557.83
684.009	34522.58
684.357	34436.93
684.705	34353.09
685.053	34415.24
685.4	34304.96
685.748	34278.97
686.095	34264.51
686.443	34138.64
686.79	34080.33
687.138	34163.49
687.485	34225.87
687.832	34113.33
688.18	33896.16
688.527	33779.1
688.874	33790.4
689.221	33744.52
689.568	33697.07
689.915	33601.93
690.262	33654.36
690.609	33423.17
690.956	33544.3
691.303	33395.6
691.65	33125.33
691.997	33292.78
692.344	33086.23
692.69	32969.85
693.037	32984.09
693.383	32787.03
693.73	32797.2
694.077	32698.9
694.423	32699.58
694.769	32642.63
695.116	32490.54
695.462	32377.1
695.808	32274.28
696.155	32342.53
696.501	32083.55
696.847	32119.71
697.193	31914.06
697.539	31987.05
697.885	31746.83
698.231	31619.15
698.577	31684.46
698.923	31732.82
699.269	31566.27
699.614	31405.15
699.96	31315.21
700.306	31392.72
700.651	31260.29
700.997	31195.66
701.342	31104.37
701.688	31091.71
702.033	30880.42
702.379	30758.16
702.724	30727.43
703.069	30825.28
703.415	30495.12
703.76	30536.92
704.105	30486.3
704.45	30434.1
704.795	30321.56
705.14	30176.25
705.485	30173.77
705.83	30074.56
706.175	30099.42
706.52	29997.5
706.865	29861.91
707.209	29754.8
707.554	29767.9
707.899	29967.22
708.243	29657.4
708.588	29689.94
708.932	29463.73
709.277	29400
709.621	29430.96
709.966	29249.5
710.31	29317.75
710.654	29092.67
710.998	29125.21
711.342	28999.79
711.687	29043.4
712.031	28822.39
712.375	28677.99
712.719	28863.52
713.063	28691.77
713.407	28790.53
713.75	28638.44
714.094	28711.66
714.438	28514.38
714.782	28574.04
715.125	28359.13
715.469	28507.82
715.812	28235.06
716.156	28136.08
716.499	28065.8
716.843	28058.8
717.186	28096.54
717.53	28191
717.873	27987.61
718.216	28016.31
718.559	27963.21
718.902	27752.82
719.246	27920.27
719.589	27692.93
719.932	27626.49
720.275	27631.46
720.617	27743.1
720.96	27570.9
721.303	27471.92
721.646	27511.69
721.989	27291.58
722.331	27515.53
722.674	27398.25
723.016	27334.3
723.359	27260.85
723.701	27249.33
724.044	27108.99
724.386	27098.14
724.729	27026.51
725.071	26957.13
725.413	26979.5
725.755	27038.71
726.097	26836.91
726.439	26713.29
726.782	26771.15
727.124	26770.47
727.465	26758.94
727.807	26677.36
728.149	26539.97
728.491	26585.61
728.833	26574.77
729.175	26448.67
729.516	26414.32
729.858	26411.38
730.199	26522.34
730.541	26369.8
730.882	26383.36
731.224	26379.74
731.565	26213.87
731.906	26360.54
732.248	26265.62
732.589	26180.2
732.93	26138.85
733.271	26039.64
733.612	26105.18
733.953	26169.35
734.294	26115.57
734.635	25966.87
734.976	25974.11
735.317	25805.75
735.658	25826.76
735.999	25819.31
736.339	25775.24
736.68	25798.29
737.021	25681.68
737.361	25551.74
737.702	25760.78
738.042	25582.03
738.383	25588.13
738.723	25543.61
739.063	25478.75
739.404	25610.95
739.744	25517.39
740.084	25416.61
740.424	25316.27
740.764	25339.55
741.104	25447.11
741.444	25276.5
741.784	25090.96
742.124	25165.54
742.464	25215.71
742.804	25081.7
743.143	25059.33
743.483	25125.54
743.823	24928.03
744.162	24936.39
744.502	24925.32
744.841	24831.76
745.181	24916.51
745.52	24955.15
745.86	24904.53
746.199	24749.96
746.538	24773.46
746.877	24683.07
747.216	24753.8
747.556	24648.26
747.895	24729.84
748.234	24576.4
748.573	24663.18
748.911	24577.98
749.25	24570.3
749.589	24408.04
749.928	24564.65
750.267	24457.53
750.605	24414.82
750.944	24383.86
751.283	24253.02
751.621	24377.76
751.96	24130.54
752.298	24213.25
752.636	24213.7
752.975	24173.47
753.313	24079.92
753.651	24137.54
753.989	24007.6
754.327	23930.77
754.666	23853.26
755.004	23978.23
755.342	23857.78
755.679	23797.67
756.017	23698.46
756.355	23696.2
756.693	23677.89
757.031	23767.38
757.368	23554.51
757.706	23516.54
758.044	23461.18
758.381	23484.68
758.719	23361.07
759.056	23356.77
759.394	23343.89
759.731	23196.33
760.068	23160.17
