Data from hue_240_FLMS001491_00053.txt Node
Date: Tue Feb 07 16:35:39 GMT 2017
User: dcchb
Spectrometer: FLMS00149
Trigger mode: 0
Integration Time (sec): 2.000000E-2
Scans to average: 10
Electric dark correction enabled: true
Nonlinearity correction enabled: false
Boxcar width: 0
XAxis mode: Wavelengths
Number of Pixels in Spectrum: 2048
>>>>>Begin Spectral Data<<<<<
341.393	-1
341.776	-1
342.16	-1
342.543	-49.82
342.927	-63.83
343.31	-77.16
343.693	-71.74
344.077	-66.99
344.46	-78.29
344.843	-48.23
345.226	-41.23
345.61	-21.34
345.993	-33.32
346.376	-16.14
346.759	10.07
347.142	40.58
347.525	61.14
347.908	78.54
348.291	73.8
348.674	88.03
349.057	102.27
349.44	115.83
349.823	156.51
350.206	170.74
350.588	195.15
350.971	212.1
351.354	220.69
351.737	234.92
352.119	244.87
352.502	264.98
352.884	279.22
353.267	266.79
353.65	278.99
354.032	289.39
354.414	293.45
354.797	293.23
355.179	318.99
355.562	318.08
355.944	320.57
356.326	304.07
356.709	328.93
357.091	321.7
357.473	333
357.855	323.28
358.238	319.89
358.62	338.88
359.002	320.34
359.384	346.33
359.766	326.67
360.148	331.42
360.53	336.16
360.912	316.05
361.294	309.72
361.676	324.86
362.057	336.39
362.439	304.07
362.821	303.85
363.203	311.76
363.584	325.77
363.966	312.66
364.348	313.11
364.729	306.11
365.111	300.68
365.493	336.62
365.874	310.63
366.256	310.4
366.637	302.94
367.019	303.4
367.4	293.23
367.781	308.14
368.163	297.97
368.544	299.55
368.925	284.64
369.306	327.58
369.688	325.09
370.069	307.46
370.45	312.89
370.831	296.39
371.212	283.28
371.593	323.51
371.974	308.82
372.355	328.93
372.736	307.92
373.117	296.39
373.498	304.53
373.879	298.88
374.26	316.05
374.641	304.53
375.021	322.6
375.402	311.53
375.783	325.09
376.163	318.54
376.544	316.95
376.925	313.79
377.305	315.15
377.686	325.77
378.066	294.13
378.447	323.51
378.827	318.54
379.208	344.3
379.588	351.98
379.968	340.68
380.349	354.24
380.729	342.72
381.109	339.33
381.489	321.7
381.87	338.65
382.25	321.02
382.63	338.88
383.01	316.5
383.39	331.19
383.77	351.3
384.15	364.19
384.53	363.96
384.91	349.5
385.29	338.2
385.67	329.38
386.049	348.82
386.429	365.54
386.809	368.25
387.189	355.82
387.568	356.73
387.948	346.33
388.328	342.27
388.707	346.78
389.087	366.9
389.466	341.36
389.846	354.92
390.225	368.03
390.605	356.05
390.984	360.34
391.363	362.6
391.743	362.38
392.122	347.46
392.501	357.86
392.881	382.26
393.26	375.71
393.639	367.35
394.018	365.54
394.397	380.91
394.776	361.02
395.155	388.37
395.534	385.43
395.913	379.55
396.292	376.39
396.671	396.95
397.05	397.4
397.429	391.3
397.808	404.18
398.186	383.39
398.565	382.26
398.944	389.04
399.323	404.18
399.701	398.31
400.08	408.7
400.458	406.67
400.837	417.07
401.215	396.05
401.594	412.09
401.972	389.72
402.351	413.68
402.729	420.68
403.107	425.43
403.486	443.28
403.864	388.82
404.242	425.43
404.62	438.76
404.999	445.99
405.377	442.38
405.755	430.4
406.133	434.01
406.511	464.3
406.889	461.58
407.267	454.58
407.645	452.54
408.023	449.15
408.401	467.69
408.779	467.23
409.156	466.33
409.534	472.88
409.912	478.31
410.29	504.75
410.667	490.96
411.045	489.61
411.422	506.78
411.8	497.52
412.178	502.03
412.555	507.68
412.933	515.82
413.31	546.78
413.687	538.19
414.065	572.09
414.442	544.97
414.819	561.69
415.197	557.4
415.574	557.17
415.951	561.47
416.328	588.36
416.705	585.87
417.082	561.24
417.46	563.73
417.837	596.95
418.214	588.36
418.591	620.22
418.967	614.8
419.344	609.38
419.721	619.09
420.098	617.74
420.475	634.01
420.852	618.42
421.228	661.58
421.605	656.38
421.982	666.55
422.358	672.88
422.735	679.88
423.111	696.15
423.488	709.04
423.864	697.06
424.241	731.18
424.617	726.66
424.994	720.33
425.37	716.72
425.746	751.52
426.123	768.69
426.499	760.33
426.875	780.67
427.251	803.5
427.627	790.84
428.003	810.28
428.379	830.61
428.756	816.6
429.132	799.88
429.507	829.48
429.883	841.01
430.259	861.35
430.635	863.38
431.011	872.87
431.387	883.49
431.763	910.39
432.138	923.04
432.514	929.14
432.89	927.11
433.265	940.44
433.641	941.12
434.016	958.29
434.392	979.54
434.767	989.25
435.143	1006.43
435.518	1003.94
435.894	1041.23
436.269	1062.02
436.644	1092.53
437.02	1070.83
437.395	1071.29
437.77	1078.74
438.145	1113.32
438.52	1135.01
438.895	1121
439.271	1151.96
439.646	1186.54
440.021	1186.08
440.395	1208.23
440.77	1192.41
441.145	1229.93
441.52	1249.59
441.895	1217.5
442.27	1250.72
442.645	1221.11
443.019	1278.96
443.394	1273.09
443.769	1258.85
444.143	1282.35
444.518	1333.88
444.892	1300.88
445.267	1331.84
445.641	1331.84
446.016	1359.87
446.39	1364.61
446.764	1348.34
447.139	1397.38
447.513	1394.67
447.887	1394.89
448.262	1390.83
448.636	1405.51
449.01	1403.93
449.384	1434.21
449.758	1462.01
450.132	1466.53
450.506	1454.1
450.88	1482.57
451.254	1494.78
451.628	1503.14
452.002	1532.52
452.376	1490.94
452.75	1549.24
453.123	1541.78
453.497	1563.25
453.871	1608.45
454.244	1591.27
454.618	1605.28
454.992	1598.96
455.365	1625.4
455.739	1675.34
456.112	1720.31
456.486	1683.47
456.859	1704.94
457.232	1733.41
457.606	1728.44
457.979	1779.97
458.352	1777.03
458.725	1796.69
459.099	1815.9
459.472	1817.71
459.845	1843.92
460.218	1851.6
460.591	1879.17
460.964	1897.48
461.337	1893.64
461.71	1955.33
462.083	1958.49
462.456	1973.63
462.829	2016.35
463.201	2026.29
463.574	2017.02
463.947	2040.75
464.32	2070.36
464.692	2106.06
465.065	2106.06
465.438	2138.83
465.81	2152.61
466.183	2186.28
466.555	2257.02
466.928	2238.26
467.3	2262.44
467.672	2247.75
468.045	2325.26
468.417	2386.51
468.789	2332.72
469.161	2363.68
469.534	2417.24
469.906	2430.12
470.278	2468.76
470.65	2508.99
471.022	2543.34
471.394	2562.32
471.766	2624.69
472.138	2593.51
472.51	2613.62
472.882	2693.39
473.253	2732.94
473.625	2740.62
473.997	2784.23
474.369	2808.87
474.74	2824.23
475.112	2874.85
475.484	2959.37
475.855	2925.47
476.227	2998.69
476.598	3050.22
476.97	3078.01
477.341	3169.76
477.713	3202.3
478.084	3194.85
478.455	3244.56
478.827	3302.19
479.198	3376.99
479.569	3384.9
479.94	3419.7
480.311	3483.88
480.682	3566.81
481.053	3617.21
481.424	3676.19
481.795	3702.18
482.166	3740.59
482.537	3750.54
482.908	3835.05
483.279	3875.96
483.65	3911.89
484.021	3968.38
484.391	4039.34
484.762	4052.45
485.133	4108.72
485.503	4114.14
485.874	4212.67
486.244	4227.59
486.615	4348.71
486.985	4332.67
487.356	4461.48
487.726	4445.89
488.097	4541.48
488.467	4548.93
488.837	4593.23
489.207	4696.05
489.578	4691.76
489.948	4764.52
490.318	4839.32
490.688	4850.85
491.058	4886.33
491.428	4959.77
491.798	4956.38
492.168	5108.24
492.538	5111.63
492.908	5086.1
493.278	5191.63
493.648	5173.1
494.017	5253.55
494.387	5287.67
494.757	5295.81
495.126	5362.47
495.496	5348.01
495.866	5401.12
496.235	5499.19
496.605	5476.82
496.974	5518.17
497.344	5523.15
497.713	5599.08
498.082	5592.3
498.452	5595.91
498.821	5628.45
499.19	5671.16
499.559	5732.18
499.928	5762.46
500.298	5798.39
500.667	5838.62
501.036	5857.15
501.405	5868.22
501.774	5822.35
502.143	5896.24
502.512	5888.11
502.88	5952.74
503.249	5965.17
503.618	5979.86
503.987	5961.55
504.356	6024.15
504.724	6065.05
505.093	6063.24
505.462	6117.93
505.83	6110.02
506.199	6126.52
506.567	6198.83
506.936	6191.15
507.304	6221.66
507.672	6340.07
508.041	6264.6
508.409	6262.79
508.777	6285.84
509.145	6312.96
509.514	6355.44
509.882	6362.45
510.25	6367.19
510.618	6390.92
510.986	6384.82
511.354	6443.12
511.722	6529.67
512.09	6511.82
512.458	6489.22
512.826	6566.96
513.193	6558.6
513.561	6569.22
513.929	6554.31
514.297	6623.68
514.664	6666.62
515.032	6665.49
515.4	6743.68
515.767	6765.37
516.135	6716.11
516.502	6668.88
516.869	6781.87
517.237	6734.41
517.604	6728.99
517.972	6762.66
518.339	6822.55
518.706	6794.3
519.073	6791.13
519.44	6801.76
519.808	6876.78
520.175	6899.83
520.542	6891.25
520.909	6994.97
521.276	6918.59
521.643	6961.3
522.009	6961.3
522.376	6987.51
522.743	6979.6
523.11	7064.35
523.477	7073.61
523.843	7081.3
524.21	7184.57
524.577	7191.12
524.943	7158.13
525.31	7163.55
525.676	7207.62
526.043	7198.36
526.409	7262.31
526.776	7287.39
527.142	7302.08
527.508	7284.91
527.874	7300.5
528.241	7335.3
528.607	7325.13
528.973	7339.82
529.339	7325.81
529.705	7298.92
530.071	7380.5
530.437	7400.38
530.803	7437.9
531.169	7411.46
531.535	7379.14
531.901	7331.01
532.267	7374.4
532.632	7452.59
532.998	7387.5
533.364	7453.26
533.73	7471.34
534.095	7457.56
534.461	7432.02
534.826	7494.85
535.192	7456.43
535.557	7482.87
535.923	7451.23
536.288	7405.36
536.653	7479.7
537.019	7478.35
537.384	7411.01
537.749	7447.61
538.114	7455.3
538.479	7471.57
538.845	7466.37
539.21	7366.49
539.575	7450.78
539.94	7469.99
540.305	7427.73
540.67	7432.47
541.034	7478.8
541.399	7379.14
541.764	7385.02
542.129	7383.89
542.494	7425.02
542.858	7415.07
543.223	7415.75
543.587	7423.89
543.952	7445.13
544.316	7431.8
544.681	7396.09
545.045	7426.82
545.41	7445.58
545.774	7425.92
546.138	7369.88
546.503	7387.96
546.867	7399.48
547.231	7390.89
547.595	7419.59
547.959	7367.62
548.324	7455.52
548.688	7339.37
549.052	7396.77
549.416	7294.17
549.779	7408.75
550.143	7408.75
550.507	7358.35
550.871	7328.52
551.235	7302.31
551.599	7347.96
551.962	7408.07
552.326	7296.88
552.689	7361.97
553.053	7366.94
553.417	7331.69
553.78	7408.29
554.143	7326.04
554.507	7436.99
554.87	7307.28
555.234	7437.9
555.597	7420.05
555.96	7399.93
556.323	7374.85
556.686	7427.95
557.05	7472.25
557.413	7405.13
557.776	7462.76
558.139	7461.85
558.502	7487.39
558.865	7478.12
559.228	7447.39
559.59	7467.95
559.953	7485.58
560.316	7555.18
560.679	7595.41
561.041	7503.66
561.404	7588.63
561.767	7584.33
562.129	7585.24
562.492	7604.9
562.854	7593.37
563.217	7662.52
563.579	7587.05
563.941	7632.92
564.304	7722.18
564.666	7790.88
565.028	7750.88
565.39	7716.53
565.753	7746.82
566.115	7820.03
566.477	7791.11
566.839	7796.98
567.201	7820.49
567.563	7894.61
567.925	7926.02
568.287	7880.37
568.648	7911.78
569.01	7952.46
569.372	8013.93
569.734	7997.88
570.095	8007.83
570.457	7981.39
570.819	7955.62
571.18	8034.72
571.542	8120.82
571.903	8081.04
572.265	8095.73
572.626	8088.05
572.987	8068.62
573.349	8182.74
573.71	8182.28
574.071	8205.11
574.432	8275.16
574.794	8274.26
575.155	8278.78
575.516	8221.38
575.877	8203.98
576.238	8311.55
576.599	8341.6
576.96	8302.51
577.32	8299.8
577.681	8356.29
578.042	8385.67
578.403	8381.83
578.763	8452.11
579.124	8407.36
579.485	8483.75
579.845	8493.24
580.206	8464.09
580.566	8505.89
580.927	8544.76
581.287	8513.12
581.648	8541.6
582.008	8540.47
582.368	8502.28
582.728	8635.15
583.089	8592.44
583.449	8599.68
583.809	8647.36
584.169	8619.34
584.529	8577.53
584.889	8666.11
585.249	8659.79
585.609	8617.08
585.969	8693.23
586.329	8707.02
586.688	8706.79
587.048	8718.09
587.408	8716.06
587.768	8686.9
588.127	8700.24
588.487	8700.01
588.846	8775.94
589.206	8730.07
589.565	8728.49
589.925	8790.63
590.284	8745.66
590.643	8754.7
591.003	8866.79
591.362	8863.4
591.721	8794.02
592.08	8752.21
592.44	8901.14
592.799	8882.83
593.158	8821.82
593.517	8813.68
593.876	8857.75
594.235	8863.4
594.593	8915.82
594.952	8879.89
595.311	8831.53
595.67	8823.85
596.029	8945.65
596.387	8908.14
596.746	8935.03
597.104	8944.52
597.463	8923.28
597.822	8939.33
598.18	8869.27
598.538	8916.05
598.897	8942.04
599.255	8879.67
599.613	8998.31
599.972	8965.09
600.33	8950.63
600.688	8978.65
601.046	8970.74
601.404	9018.42
601.762	8948.37
602.12	9129.83
602.478	9005.54
602.836	9046.67
603.194	9001.7
603.552	9002.15
603.91	9031.98
604.268	9094.35
604.625	9014.13
604.983	9073.56
605.341	9015.26
605.698	9093.9
606.056	9101.13
606.413	9109.49
606.771	9172.77
607.128	9131.64
607.485	9138.42
607.843	9081.02
608.2	9079.66
608.557	9134.12
608.914	9043.28
609.272	9156.04
609.629	9166.89
609.986	9170.51
610.343	9121.92
610.7	9211.41
611.057	9200.11
611.414	9155.37
611.771	9228.59
612.127	9263.61
612.484	9194.24
612.841	9273.56
613.198	9227.91
613.554	9227.23
613.911	9295.25
614.267	9323.5
614.624	9253.44
614.98	9251.64
615.337	9287.11
615.693	9273.1
616.05	9260.45
616.406	9397.17
616.762	9309.03
617.118	9322.37
617.475	9309.94
617.831	9397.17
618.187	9337.96
618.543	9325.31
618.899	9487.56
619.255	9311.97
619.611	9413.21
619.967	9341.12
620.323	9402.37
620.678	9398.98
621.034	9368.02
621.39	9400.11
621.746	9367.11
622.101	9481.69
622.457	9475.13
622.812	9371.86
623.168	9396.72
623.523	9503.83
623.879	9425.19
624.234	9444.17
624.589	9463.16
624.945	9442.14
625.3	9435.36
625.655	9364.4
626.01	9367.34
626.365	9415.92
626.72	9381.58
627.075	9422.48
627.43	9437.85
627.785	9376.6
628.14	9423.61
628.495	9366.89
628.85	9362.82
629.205	9396.04
629.559	9365.53
629.914	9281.92
630.269	9358.07
630.623	9306.78
630.978	9312.42
631.332	9341.12
631.687	9386.1
632.041	9382.93
632.396	9369.82
632.75	9277.85
633.104	9302.71
633.459	9214.12
633.813	9241.24
634.167	9271.3
634.521	9204.86
634.875	9258.19
635.229	9222.26
635.583	9203.95
635.937	9201.02
636.291	9174.58
636.645	9215.48
636.999	9139.77
637.352	9136.16
637.706	9120.34
638.06	9131.19
638.413	9089.61
638.767	9154.46
639.121	9150.39
639.474	9119.21
639.828	9118.98
640.181	9111.53
640.534	9073.11
640.888	9093.9
641.241	9011.64
641.594	9029.49
641.947	9058.65
642.301	9054.58
642.654	9009.38
643.007	8956.05
643.36	9007.35
643.713	8958.31
644.066	9007.57
644.419	8966.9
644.771	8911.31
645.124	8780.91
645.477	8777.52
645.83	8747.92
646.182	8718.09
646.535	8740.91
646.888	8646.45
647.24	8599
647.593	8712.89
647.945	8625.44
648.298	8696.4
648.65	8616.17
649.002	8563.07
649.355	8620.24
649.707	8625.44
650.059	8732.1
650.411	8747.69
650.763	8808.94
651.115	8891.87
651.467	8780.46
651.819	8792.66
652.171	8857.07
652.523	8767.35
652.875	8796.05
653.227	8820.69
653.578	8833.57
653.93	8826.56
654.282	8773.23
654.633	8720.12
654.985	8752.67
655.337	8857.3
655.688	8808.26
656.039	8759.9
656.391	8718.54
656.742	8787.24
657.094	8753.12
657.445	8753.12
657.796	8775.04
658.147	8820.69
658.498	8768.26
658.849	8840.35
659.2	8746.34
659.551	8755.6
659.902	8747.02
660.253	8735.72
660.604	8794.7
660.955	8777.07
661.306	8787.47
661.656	8798.31
662.007	8723.97
662.358	8796.73
662.708	8810.06
663.059	8751.08
663.409	8734.81
663.76	8795.83
664.11	8792.66
664.461	8740.46
664.811	8772.78
665.161	8716.06
665.511	8775.49
665.862	8761.25
666.212	8789.27
666.562	8764.87
666.912	8785.21
667.262	8692.33
667.612	8738.2
667.962	8810.97
668.312	8740.91
668.662	8791.08
669.011	8759.44
669.361	8768.71
669.711	8749.05
670.06	8730.07
670.41	8728.49
670.76	8663.4
671.109	8692.33
671.459	8637.87
671.808	8697.3
672.157	8726
672.507	8736.17
672.856	8664.08
673.205	8692.55
673.554	8672.22
673.904	8668.37
674.253	8669.5
674.602	8679.22
674.951	8504.54
675.3	8482.16
675.649	8614.14
675.998	8668.6
676.346	8632.67
676.695	8621.37
677.044	8570.07
677.393	8573.01
677.741	8627.7
678.09	8591.09
678.438	8575.49
678.787	8563.74
679.135	8461.6
679.484	8490.3
679.832	8512.22
680.181	8459.34
680.529	8496.85
680.877	8408.04
681.225	8452.56
681.573	8545.21
681.922	8464.09
682.27	8430.41
682.618	8447.59
682.966	8376.63
683.314	8408.95
683.661	8406.69
684.009	8334.37
684.357	8353.35
684.705	8291.89
685.053	8304.54
685.4	8295.05
685.748	8332.34
686.095	8219.35
686.443	8167.37
686.79	8195.39
687.138	8268.61
687.485	8267.03
687.832	8175.28
688.18	8159.23
688.527	8075.17
688.874	8086.69
689.221	8074.04
689.568	8069.07
689.915	8057.77
690.262	8008.5
690.609	8006.47
690.956	8036.3
691.303	7975.74
691.65	7865.46
691.997	7984.55
692.344	7919.92
692.69	7877.43
693.037	7887.83
693.383	7792.69
693.73	7753.37
694.077	7764.22
694.423	7816.87
694.769	7754.95
695.116	7693.26
695.462	7717.21
695.808	7636.08
696.155	7630.89
696.501	7612.13
696.847	7631.34
697.193	7599.25
697.539	7612.13
697.885	7500.04
698.231	7517.44
698.577	7541.4
698.923	7464.56
699.269	7378.01
699.614	7384.57
699.96	7393.15
700.306	7364.23
700.651	7335.53
700.997	7275.64
701.342	7323.1
701.688	7293.72
702.033	7272.48
702.379	7186.15
702.724	7203.55
703.069	7200.16
703.415	7134.4
703.76	7182.76
704.105	7137.79
704.45	7112.03
704.795	7085.14
705.14	7038.13
705.485	7023.45
705.83	7052.15
706.175	7013.05
706.52	6970.57
706.865	6942.54
707.209	7013.28
707.554	6934.63
707.899	6906.39
708.243	6905.93
708.588	6879.04
708.932	6841.53
709.277	6895.54
709.621	6861.87
709.966	6803.11
710.31	6807.86
710.654	6770.12
710.998	6802.43
711.342	6785.49
711.687	6749.78
712.031	6679.5
712.375	6693.28
712.719	6667.3
713.063	6682.44
713.407	6723.57
713.75	6668.2
714.094	6618.26
714.438	6641.99
714.782	6613.06
715.125	6580.52
715.469	6671.59
715.812	6573.74
716.156	6586.17
716.499	6589.11
716.843	6605.6
717.186	6507.98
717.53	6549.56
717.873	6573.51
718.216	6523.8
718.559	6491.93
718.902	6477.92
719.246	6473.18
719.589	6500.75
719.932	6470.01
720.275	6428.66
720.617	6436.79
720.96	6435.66
721.303	6394.54
721.646	6447.87
721.989	6366.74
722.331	6336.23
722.674	6402.44
723.016	6377.13
723.359	6407.19
723.701	6369.9
724.044	6342.33
724.386	6336.91
724.729	6347.08
725.071	6318.38
725.413	6364.71
725.755	6311.37
726.097	6273.63
726.439	6293.52
726.782	6314.09
727.124	6332.84
727.465	6230.25
727.807	6331.94
728.149	6289.45
728.491	6216.01
728.833	6296.68
729.175	6239.29
729.516	6267.76
729.858	6251.71
730.199	6282.22
730.541	6210.13
730.882	6203.81
731.224	6268.44
731.565	6203.35
731.906	6182.34
732.248	6222.56
732.589	6172.62
732.93	6168.33
733.271	6192.05
733.612	6214.65
733.953	6230.25
734.294	6158.61
734.635	6227.76
734.976	6191.6
735.317	6203.13
735.658	6223.24
735.999	6154.32
736.339	6184.37
736.68	6227.31
737.021	6212.62
737.361	6190.92
737.702	6173.98
738.042	6201.77
738.383	6172.17
738.723	6177.82
739.063	6149.57
739.404	6203.58
739.744	6202.68
740.084	6212.85
740.424	6221.88
740.764	6237.93
741.104	6268.89
741.444	6209.23
741.784	6200.19
742.124	6219.62
742.464	6243.8
742.804	6236.12
743.143	6229.12
743.483	6301.66
743.823	6272.73
744.162	6276.12
744.502	6270.24
744.841	6315.67
745.181	6348.43
745.52	6311.37
745.86	6377.13
746.199	6384.82
746.538	6395.21
746.877	6416
747.216	6473.63
747.556	6456.91
747.895	6509.11
748.234	6494.87
748.573	6535.1
748.911	6600.18
749.25	6583.68
749.589	6663.45
749.928	6674.98
750.267	6773.06
750.605	6719.05
750.944	6736.67
751.283	6739.84
751.621	6830.23
751.96	6873.39
752.298	6912.94
752.636	6961.3
752.975	7025.93
753.313	7071.58
753.651	7120.17
753.989	7154.52
754.327	7210.33
754.666	7315.41
755.004	7336.66
755.342	7451.68
755.679	7468.86
756.017	7566.03
756.355	7728.51
756.693	7676.08
757.031	7834.5
757.368	7877.21
757.706	7995.85
758.044	8001.72
758.381	8153.81
758.719	8210.31
759.056	8318.55
759.394	8336.41
759.731	8406.23
760.068	8569.85
760.405	8645.55
760.743	8632.67
761.08	8765.32
761.417	8895.03
761.754	9005.99
762.091	9093.22
762.428	9170.06
762.765	9189.49
763.102	9368.24
763.438	9408.47
763.775	9483.95
764.112	9649.36
764.449	9719.19
764.785	9770.72
765.122	9813.88
765.458	9958.28
765.795	9904.95
766.131	10056.59
766.467	10141.78
766.804	10179.75
767.14	10189.01
767.476	10348.33
767.812	10393.53
768.148	10492.96
768.485	10505.84
768.821	10569.34
769.157	10654.31
