Data from hue_70_FLMS001491_70.txt Node
Date: Mon Feb 06 15:21:17 GMT 2017
User: dcchb
Spectrometer: FLMS00149
Trigger mode: 0
Integration Time (sec): 2.000000E-2
Scans to average: 10
Electric dark correction enabled: true
Nonlinearity correction enabled: false
Boxcar width: 0
XAxis mode: Wavelengths
Number of Pixels in Spectrum: 2048
>>>>>Begin Spectral Data<<<<<
341.393	-20.25
341.776	-20.25
342.16	-20.25
342.543	-42.4
342.927	-81.04
343.31	-66.35
343.693	-76.07
344.077	-48.5
344.46	-57.99
344.843	-55.06
345.226	-35.17
345.61	-31.55
345.993	-24.1
346.376	-11.44
346.759	4.38
347.142	34.21
347.525	45.51
347.908	49.57
348.291	70.59
348.674	104.04
349.057	97.94
349.44	151.95
349.823	163.24
350.206	165.96
350.588	186.07
350.971	206.18
351.354	227.88
351.737	247.99
352.119	257.03
352.502	256.35
352.884	263.35
353.267	299.51
353.65	288.66
354.032	318.95
354.414	309
354.797	310.81
355.179	335.22
355.562	323.69
355.944	327.76
356.326	311.04
356.709	327.53
357.091	340.64
357.473	340.41
357.855	336.8
358.238	335.9
358.62	331.15
359.002	345.16
359.384	332.73
359.766	331.38
360.148	325.95
360.53	329.34
360.912	339.51
361.294	347.19
361.676	330.92
362.057	305.39
362.439	332.28
362.821	330.02
363.203	333.18
363.584	320.08
363.966	320.75
364.348	313.52
364.729	314.88
365.111	286.86
365.493	301.77
365.874	329.12
366.256	327.53
366.637	319.85
367.019	315.78
367.4	321.66
367.781	303.81
368.163	310.81
368.544	318.49
368.925	298.16
369.306	309.68
369.688	321.88
370.069	315.78
370.45	308.1
370.831	313.75
371.212	314.2
371.593	325.73
371.974	319.62
372.355	300.87
372.736	296.35
373.117	313.52
373.498	314.2
373.879	306.97
374.26	298.61
374.641	313.3
375.021	324.14
375.402	309.46
375.783	318.72
376.163	295.44
376.544	331.38
376.925	345.39
377.305	346.97
377.686	333.86
378.066	322.11
378.447	322.79
378.827	325.73
379.208	342.67
379.588	333.41
379.968	324.14
380.349	310.59
380.729	302.68
381.109	339.96
381.489	333.41
381.87	314.43
382.25	321.66
382.63	343.58
383.01	325.95
383.39	331.38
383.77	350.81
384.15	361.66
384.53	343.35
384.91	346.06
385.29	339.06
385.67	335.9
386.049	317.59
386.429	360.08
386.809	333.41
387.189	346.29
387.568	361.43
387.948	331.6
388.328	342.45
388.707	360.75
389.087	347.65
389.466	353.07
389.846	344.71
390.225	375.22
390.605	350.13
390.984	353.3
391.363	348.32
391.743	354.65
392.122	364.37
392.501	362.11
392.881	359.62
393.26	362.79
393.639	381.09
394.018	377.7
394.397	391.49
394.776	391.71
395.155	382.22
395.534	374.09
395.913	379.74
396.292	372.96
396.671	359.17
397.05	384.93
397.429	365.95
397.808	374.09
398.186	374.09
398.565	388.78
398.944	382.22
399.323	409.57
399.701	384.93
400.08	386.06
400.458	373.18
400.837	394.42
401.215	361.21
401.594	383.13
401.972	400.98
402.351	388.78
402.729	386.29
403.107	408.44
403.486	391.94
403.864	389.91
404.242	419.28
404.62	416.12
404.999	399.17
405.377	412.96
405.755	417.02
406.133	392.39
406.511	419.96
406.889	419.28
407.267	407.31
407.645	437.36
408.023	426.51
408.401	427.87
408.779	412.5
409.156	424.93
409.534	415.44
409.912	433.97
410.29	423.8
410.667	438.49
411.045	420.41
411.422	469.45
411.8	451.6
412.178	416.8
412.555	453.86
412.933	436.46
413.31	455.44
413.687	449.34
414.065	457.02
414.442	470.13
414.819	463.12
415.197	473.74
415.574	464.71
415.951	451.37
416.328	464.71
416.705	470.81
417.082	468.32
417.46	496.57
417.837	497.92
418.214	476.23
418.591	484.82
418.967	491.82
419.344	494.99
419.721	506.29
420.098	499.05
420.475	497.7
420.852	492.95
421.228	507.87
421.605	496.12
421.982	517.59
422.358	519.62
422.735	508.77
423.111	497.92
423.488	528.43
423.864	539.28
424.241	504.93
424.617	558.71
424.994	532.27
425.37	527.75
425.746	545.83
426.123	563.69
426.499	560.3
426.875	543.35
427.251	558.94
427.627	577.47
428.003	563.46
428.379	574.98
428.756	586.74
429.132	589.22
429.507	600.52
429.883	606.85
430.259	578.37
430.635	590.35
431.011	590.8
431.387	605.49
431.763	610.46
432.138	587.41
432.514	624.93
432.89	625.15
433.265	627.19
433.641	630.35
434.016	635.32
434.392	638.03
434.767	624.7
435.143	647.07
435.518	654.3
435.894	637.81
436.269	669.67
436.644	643.46
437.02	661.08
437.395	684.36
437.77	687.3
438.145	693.17
438.52	697.02
438.895	695.43
439.271	697.24
439.646	720.07
440.021	715.32
440.395	698.15
440.77	709.67
441.145	710.8
441.52	706.51
441.895	722.78
442.27	725.26
442.645	738.14
443.019	741.99
443.394	741.76
443.769	757.13
444.143	748.09
444.518	768.88
444.892	772.49
445.267	773.62
445.641	771.36
446.016	777.47
446.39	767.52
446.764	784.24
447.139	763.91
447.513	776.11
447.887	802.78
448.262	774.3
448.636	805.04
449.01	794.19
449.384	806.39
449.758	812.04
450.132	856.56
450.506	833.96
450.88	852.94
451.254	839.61
451.628	863.11
452.002	847.97
452.376	862.21
452.75	864.24
453.123	843
453.497	882.1
453.871	881.64
454.244	896.33
454.618	904.69
454.992	934.52
455.365	898.59
455.739	943.79
456.112	908.54
456.486	945.6
456.859	960.06
457.232	978.14
457.606	970.45
457.979	998.25
458.352	1031.92
458.725	1031.02
459.099	1028.98
459.472	1038.48
459.845	1027.18
460.218	1034.63
460.591	1063.56
460.964	1048.87
461.337	1083.9
461.71	1121.86
462.083	1116.21
462.456	1114.63
462.829	1126.83
463.201	1151.69
463.574	1136.78
463.947	1166.38
464.32	1201.64
464.692	1213.61
465.065	1227.62
465.438	1249.32
465.81	1254.29
466.183	1270.79
466.555	1290.9
466.928	1297.23
467.3	1322.08
467.672	1311.46
468.045	1338.58
468.417	1357.56
468.789	1395.53
469.161	1402.08
469.534	1447.28
469.906	1460.84
470.278	1468.52
470.65	1535.86
471.022	1533.15
471.394	1571.34
471.766	1600.04
472.138	1627.39
472.51	1690.66
472.882	1679.59
473.253	1691.11
473.625	1753.03
473.997	1803.88
474.369	1805.01
474.74	1826.48
475.112	1881.62
475.484	1927.49
475.855	1994.38
476.227	2024.21
476.598	2094.27
476.97	2145.57
477.341	2243.87
477.713	2235.28
478.084	2294.04
478.455	2382.39
478.827	2372.45
479.198	2535.61
479.569	2535.39
479.94	2623.29
480.311	2663.74
480.682	2781.03
481.053	2840.24
481.424	2917.52
481.795	3036.39
482.166	3074.81
482.537	3158.87
482.908	3263.05
483.279	3346.89
483.65	3483.38
484.021	3564.06
484.391	3635.02
484.762	3752.3
485.133	3762.92
485.503	3898.74
485.874	4053.76
486.244	4151.61
486.615	4306.64
486.985	4352.74
487.356	4455.79
487.726	4623.92
488.097	4741.65
488.467	4844.48
488.837	5010.8
489.207	5101.42
489.578	5272.04
489.948	5333.28
490.318	5512.71
490.688	5583.21
491.058	5795.86
491.428	5935.75
491.798	5989.98
492.168	6239.02
492.538	6283.54
492.908	6479.46
493.278	6594.71
493.648	6665.45
494.017	6924.65
494.387	6991.09
494.757	7149.5
495.126	7304.07
495.496	7339.1
495.866	7560.11
496.235	7686.44
496.605	7833.1
496.974	7896.37
497.344	8106.54
497.713	8196.48
498.082	8325.06
498.452	8563.93
498.821	8652.74
499.19	8697.03
499.559	8932.28
499.928	8967.98
500.298	9090.69
500.667	9267.86
501.036	9369.78
501.405	9491.36
501.774	9598.02
502.143	9701.52
502.512	9828.98
502.88	9965.92
503.249	10106.71
503.618	10170.21
503.987	10317.78
504.356	10413.37
504.724	10523.2
505.093	10666.02
505.462	10758.9
505.83	10792.12
506.199	10990.3
506.567	11213.35
506.936	11230.75
507.304	11422.16
507.672	11517.97
508.041	11609.05
508.409	11636.84
508.777	11788.93
509.145	11885.87
509.514	11969.26
509.882	12020.79
510.25	12248.35
510.618	12308.91
510.986	12390.27
511.354	12451.96
511.722	12710.71
512.09	12811.73
512.458	12851.95
512.826	12975.56
513.193	12986.64
513.561	13168.78
513.929	13225.95
514.297	13338.72
514.664	13415.1
515.032	13511.37
515.4	13666.84
515.767	13713.17
516.135	13798.14
516.502	13836.11
516.869	14032.03
517.237	14154.97
517.604	14126.49
517.972	14251.91
518.339	14405.13
518.706	14450.55
519.073	14514.73
519.44	14629.53
519.808	14742.75
520.175	14785.91
520.542	14933.48
520.909	15053.25
521.276	14994.04
521.643	15154.49
522.009	15269.74
522.376	15362.39
522.743	15444.2
523.11	15577.3
523.477	15756.05
523.843	15824.98
524.21	15957.41
524.577	16062.26
524.943	16131.41
525.31	16166.21
525.676	16285.53
526.043	16483.04
526.409	16513.32
526.776	16621.57
527.142	16628.12
527.508	16702.7
527.874	16863.6
528.241	16986.3
528.607	16978.4
528.973	17086.19
529.339	17048
529.705	17175.68
530.071	17328.89
530.437	17338.39
530.803	17393.53
531.169	17484.6
531.535	17472.62
531.901	17455.22
532.267	17643.91
532.632	17724.14
532.998	17755.55
533.364	17841.88
533.73	17835.55
534.095	17998.26
534.461	18067.41
534.826	18057.24
535.192	18082.77
535.557	18205.26
535.923	18255.2
536.288	18232.6
536.653	18258.59
537.019	18178.82
537.384	18283.22
537.749	18355.53
538.114	18315.08
538.479	18375.87
538.845	18399.6
539.21	18394.4
539.575	18542.42
539.94	18402.09
540.305	18596.88
540.67	18522.76
541.034	18513.72
541.399	18534.29
541.764	18587.39
542.129	18704.23
542.494	18698.35
542.858	18718.46
543.223	18687.5
543.587	18815.86
543.952	18787.39
544.316	18825.13
544.681	18744.45
545.045	18927.5
545.41	19050.43
545.774	19005.46
546.138	18917.33
546.503	18875.52
546.867	18882.53
547.231	19049.75
547.595	19081.39
547.959	19081.84
548.324	19071.22
548.688	19032.13
549.052	18987.61
549.416	19054.72
549.779	18991.22
550.143	19169.98
550.507	19317.54
550.871	19324.32
551.235	19190.09
551.599	19424.66
551.962	19308.28
552.326	19367.49
552.689	19556.18
553.053	19354.15
553.417	19409.52
553.78	19536.97
554.143	19433.47
554.507	19548.05
554.87	19620.81
555.234	19698.55
555.597	19604.32
555.96	19597.76
556.323	19713.24
556.686	19727.02
557.05	19765.67
557.413	19790.52
557.776	19831.2
558.139	20000.69
558.502	19963.18
558.865	20028.03
559.228	20132.21
559.59	20115.71
559.953	20125.88
560.316	20342.83
560.679	20244.52
561.041	20368.59
561.404	20483.16
561.767	20485.65
562.129	20449.49
562.492	20720.22
562.854	20505.99
563.217	20586.44
563.579	20630.73
563.941	20707.34
564.304	20820.55
564.666	20989.59
565.028	20982.36
565.39	20985.3
565.753	21083.15
566.115	21183.71
566.477	21166.53
566.839	21212.86
567.201	21488.79
567.563	21429.8
567.925	21484.04
568.287	21394.78
568.648	21562.91
569.01	21537.6
569.372	21783.69
569.734	21704.6
570.095	21762.68
570.457	21762.9
570.819	21843.58
571.18	21933.07
571.542	22035.21
571.903	22073.85
572.265	22052.39
572.626	22062.33
572.987	22142.55
573.349	22207.18
573.71	22275.21
574.071	22266.84
574.432	22361.98
574.794	22452.38
575.155	22420.29
575.516	22443.11
575.877	22413.51
576.238	22581.64
576.599	22578.7
576.96	22603.11
577.32	22604.46
577.681	22668.19
578.042	22812.59
578.403	22650.79
578.763	22693.05
579.124	22709.09
579.485	22879.71
579.845	22905.92
580.206	22772.82
580.566	22782.76
580.927	22882.19
581.287	22824.12
581.648	22833.83
582.008	22976.66
582.368	22956.54
582.728	22982.08
583.089	22856.66
583.449	22906.83
583.809	22913.83
584.169	23001.51
584.529	22933.72
584.889	23110.21
585.249	22946.15
585.609	22926.49
585.969	23019.37
586.329	22933.49
586.688	22911.12
587.048	22963.55
587.408	22874.29
587.768	22935.07
588.127	22985.7
588.487	22869.77
588.846	23019.82
589.206	22947.05
589.565	22823.44
589.925	23066.14
590.284	22889.88
590.643	23025.02
591.003	23048.29
591.362	22967.62
591.721	23003.32
592.08	22997.67
592.44	23011.68
592.799	22937.56
593.158	22938.46
593.517	23021.4
593.876	23086.94
594.235	22993.83
594.593	22948.18
594.952	23069.53
595.311	22990.21
595.67	23062.08
596.029	23125.35
596.387	23043.55
596.746	23090.33
597.104	23023.89
597.463	23101.62
597.822	23076.77
598.18	23081.74
598.538	23021.85
598.897	23145.92
599.255	23001.97
599.613	23177.33
599.972	23113.6
600.33	23218.68
600.688	23052.36
601.046	23130.78
601.404	23326.25
601.762	23317.21
602.12	23341.62
602.478	23256.42
602.836	23284.22
603.194	23269.53
603.552	23287.16
603.91	23175.29
604.268	23284.44
604.625	23229.53
604.983	23366.93
605.341	23307.72
605.698	23413.71
606.056	23542.06
606.413	23378.23
606.771	23480.15
607.128	23483.54
607.485	23317.44
607.843	23461.84
608.2	23504.33
608.557	23638.11
608.914	23470.65
609.272	23598.11
609.629	23556.53
609.986	23758.33
610.343	23622.74
610.7	23934.82
611.057	23784.54
611.414	23801.49
611.771	23911.77
612.127	23874.26
612.484	23719.01
612.841	24013.92
613.198	23816.63
613.554	23924.65
613.911	24051.66
614.267	24057.76
614.624	24115.61
614.98	24128.04
615.337	24116.74
615.693	24077.42
616.05	24061.37
616.406	24282.16
616.762	24184.99
617.118	24280.35
617.475	24143.86
617.831	24217.08
618.187	24348.6
618.543	24333.91
618.899	24419.33
619.255	24407.35
619.611	24295.94
619.967	24461.59
620.323	24454.36
620.678	24350.63
621.034	24329.61
621.39	24392.66
621.746	24374.81
622.101	24570.96
622.457	24396.51
622.812	24518.31
623.168	24551.98
623.523	24512.21
623.879	24580
624.234	24471.76
624.589	24681.92
624.945	24665.42
625.3	24593.34
625.655	24535.03
626.01	24583.39
626.365	24587.69
626.72	24628.36
627.075	24539.55
627.43	24648.02
627.785	24446.22
628.14	24591.53
628.495	24601.02
628.85	24544.52
629.205	24511.76
629.559	24682.15
629.914	24590.62
630.269	24636.5
630.623	24570.51
630.978	24479.44
631.332	24591.08
631.687	24624.75
632.041	24410.06
632.396	24527.12
632.75	24511.53
633.104	24548.14
633.459	24424.3
633.813	24382.95
634.167	24287.13
634.521	24406
634.875	24351.99
635.229	24449.84
635.583	24353.34
635.937	24239
636.291	24297.3
636.645	24235.15
636.999	24231.54
637.352	24317.86
637.706	24152.22
638.06	24232.67
638.413	24210.07
638.767	24057.76
639.121	24176.4
639.474	24113.8
639.828	24099.11
640.181	24098.21
640.534	24100.92
640.888	23965.33
641.241	23826.12
641.594	23934.6
641.947	23956.29
642.301	23938.66
642.654	23929.17
643.007	23932.56
643.36	24052.56
643.713	23868.84
644.066	23819.8
644.419	23813.92
644.771	23563.98
645.124	23434.27
645.477	23385.46
645.83	23260.26
646.182	23207.38
646.535	23048.07
646.888	23202.41
647.24	23077.44
647.593	23084.9
647.945	23069.76
648.298	22970.1
648.65	23101.85
649.002	22917.45
649.355	23139.36
649.707	22943.21
650.059	23090.55
650.411	23368.96
650.763	23428.4
651.115	23587.71
651.467	23545.45
651.819	23557.66
652.171	23542.97
652.523	23512.46
652.875	23441.73
653.227	23382.07
653.578	23652.34
653.93	23477.89
654.282	23381.84
654.633	23407.83
654.985	23377.32
655.337	23382.75
655.688	23516.08
656.039	23456.42
656.391	23343.43
656.742	23389.3
657.094	23267.5
657.445	23432.24
657.796	23355.4
658.147	23355.4
658.498	23300.04
658.849	23426.81
659.2	23277.89
659.551	23387.04
659.902	23378
660.253	23382.97
660.604	23417.55
660.955	23335.06
661.306	23330.77
661.656	23330.09
662.007	23286.93
662.358	23338.68
662.708	23395.4
663.059	23324.67
663.409	23212.81
663.76	23439.92
664.11	23345.91
664.461	23338.45
664.811	23393.82
665.161	23348.4
665.511	23396.53
665.862	23351.11
666.212	23458.23
666.562	23465.68
666.912	23381.84
667.262	23301.39
667.612	23317.89
667.962	23366.48
668.312	23319.92
668.662	23381.16
669.011	23308.62
669.361	23347.04
669.711	23287.83
670.06	23288.29
670.41	23182.07
670.76	23126.93
671.109	23263.88
671.459	23256.65
671.808	23222.07
672.157	23335.52
672.507	23108.18
672.856	23137.78
673.205	23100.72
673.554	23199.7
673.904	23152.92
674.253	23208.97
674.602	23133.94
674.951	22810.33
675.3	22606.04
675.649	23024.56
675.998	23101.85
676.346	23026.37
676.695	23099.59
677.044	22957.22
677.393	23046.48
677.741	22863.66
678.09	22966.71
678.438	22841.07
678.787	22949.54
679.135	22912.93
679.484	22811.46
679.832	22853.5
680.181	22693.95
680.529	22731.46
680.877	22638.81
681.225	22582.32
681.573	22775.76
681.922	22538.48
682.27	22541.64
682.618	22410.34
682.966	22416.67
683.314	22562.66
683.661	22404.92
684.009	22340.74
684.357	22372.83
684.705	22277.92
685.053	22237.47
685.4	22201.53
685.748	22160.86
686.095	22135.77
686.443	22089.9
686.79	21949.34
687.138	22113.63
687.485	21990.24
687.832	22043.57
688.18	21873.41
688.527	21843.13
688.874	21798.83
689.221	21764.48
689.568	21710.7
689.915	21729.68
690.262	21632.74
690.609	21456.47
690.956	21447.43
691.303	21433.19
691.65	21244.72
691.997	21365.4
692.344	21212.63
692.69	21168.12
693.037	21140.32
693.383	21000.66
693.73	21101.9
694.077	20929.7
694.423	20935.58
694.769	20857.39
695.116	20818.75
695.462	20823.72
695.808	20682.7
696.155	20730.16
696.501	20560.22
696.847	20558.19
697.193	20482.26
697.539	20368.36
697.885	20262.38
698.231	20320.23
698.577	20154.36
698.923	20161.59
699.269	20015.15
699.614	19918.88
699.96	19836.85
700.306	19964.08
700.651	19829.17
700.997	19878.88
701.342	19679.79
701.688	19505.56
702.033	19604.09
702.379	19583.3
702.724	19420.82
703.069	19553.69
703.415	19235.96
703.76	19267.83
704.105	19326.13
704.45	19188.96
704.795	19087.72
705.14	18934.5
705.485	19084.55
705.83	18959.36
706.175	18947.16
706.52	18854.28
706.865	18804.11
707.209	18717.78
707.554	18706.26
707.899	18781.06
708.243	18608.18
708.588	18626.04
708.932	18471.01
709.277	18387.85
709.621	18503.1
709.966	18343.78
710.31	18364.12
710.654	18305.82
710.998	18273.28
711.342	18249.32
711.687	18188.76
712.031	18170.91
712.375	18078.03
712.719	18075.32
713.063	18053.4
713.407	17911.03
713.75	17942.21
714.094	17956.45
714.438	17913.06
714.782	17871.48
715.125	17808.66
715.469	17798.03
715.812	17607.98
716.156	17657.7
716.499	17798.94
716.843	17656.8
717.186	17506.07
717.53	17575.89
717.873	17529.79
718.216	17493.64
718.559	17432.39
718.902	17410.7
719.246	17346.52
719.589	17406.86
719.932	17299.52
720.275	17313.53
720.617	17292.74
720.96	17290.25
721.303	17225.62
721.646	17221.55
721.989	17202.57
722.331	17106.75
722.674	17156.24
723.016	17068.79
723.359	17110.14
723.701	17080.31
724.044	17013.42
724.386	16974.1
724.729	17078.73
725.071	16971.16
725.413	16947.89
725.755	16924.61
726.097	16934.1
726.439	16814.33
726.782	16751.96
727.124	16921
727.465	16778.85
727.807	16821.79
728.149	16760.55
728.491	16688.23
728.833	16691.85
729.175	16674.22
729.516	16640.55
729.858	16763.03
730.199	16653.43
730.541	16614.34
730.882	16670.61
731.224	16675.35
731.565	16617.27
731.906	16659.53
732.248	16603.26
732.589	16460.44
732.93	16529.37
733.271	16485.08
733.612	16528.92
733.953	16504.28
734.294	16479.65
734.635	16416.83
734.976	16474
735.317	16373.21
735.658	16409.6
735.999	16502.93
736.339	16443.27
736.68	16512.64
737.021	16387.22
737.361	16271.07
737.702	16355.81
738.042	16401.91
738.383	16405.3
738.723	16383.16
739.063	16402.14
739.404	16359.2
739.744	16292.31
740.084	16220.22
740.424	16278.98
740.764	16312.65
741.104	16503.38
741.444	16290.96
741.784	16299.32
742.124	16397.85
742.464	16360.33
742.804	16370.95
743.143	16280.79
743.483	16358.98
743.823	16294.35
744.162	16308.81
744.502	16340.45
744.841	16415.47
745.181	16464.28
745.52	16399.88
745.86	16437.17
746.199	16434.68
746.538	16534.11
746.877	16556.49
747.216	16512.64
747.556	16478.07
747.895	16573.89
748.234	16541.57
748.573	16532.31
748.911	16643.49
749.25	16704.96
749.589	16649.82
749.928	16646.65
750.267	16732.07
750.605	16783.37
750.944	16698.4
751.283	16849.59
751.621	16795.12
751.96	16861.56
752.298	16909.47
752.636	17063.59
752.975	16905.63
753.313	17130.48
753.651	17276.24
753.989	17188.79
754.327	17261.55
754.666	17205.28
755.004	17417.93
755.342	17464.26
755.679	17496.57
756.017	17491.6
756.355	17704.93
756.693	17576.8
