Data from hue_330_FLMS001491_18.txt Node
Date: Mon Feb 06 15:44:59 GMT 2017
User: dcchb
Spectrometer: FLMS00149
Trigger mode: 0
Integration Time (sec): 2.000000E-2
Scans to average: 10
Electric dark correction enabled: true
Nonlinearity correction enabled: false
Boxcar width: 0
XAxis mode: Wavelengths
Number of Pixels in Spectrum: 2048
>>>>>Begin Spectral Data<<<<<
341.393	-4.97
341.776	-4.97
342.16	-4.97
342.543	-45.65
342.927	-71.64
343.31	-68.47
343.693	-46.78
344.077	-58.3
344.46	-56.04
344.843	-51.3
345.226	-42.26
345.61	-44.07
345.993	-17.4
346.376	0.23
346.759	4.29
347.142	35.71
347.525	37.74
347.908	49.49
348.291	68.02
348.674	83.16
349.057	105.99
349.44	133.56
349.823	139.88
350.206	155.02
350.588	196.38
350.971	181.24
351.354	219.43
351.737	233.44
352.119	243.84
352.502	253.33
352.884	284.51
353.267	281.57
353.65	292.65
354.032	273.21
354.414	291.07
354.797	314.57
355.179	308.24
355.562	344.62
355.944	335.36
356.326	324.06
356.709	312.99
357.091	330.16
357.473	328.13
357.855	347.56
358.238	332.42
358.62	329.71
359.002	334.91
359.384	333.32
359.766	334.23
360.148	349.37
360.53	331.97
360.912	315.92
361.294	340.33
361.676	334.68
362.057	329.48
362.439	320.9
362.821	324.96
363.203	325.19
363.584	321.12
363.966	337.84
364.348	309.6
364.729	310.95
365.111	310.5
365.493	321.12
365.874	297.85
366.256	321.57
366.637	305.08
367.019	316.6
367.4	304.17
367.781	302.82
368.163	316.83
368.544	318.64
368.925	313.66
369.306	315.7
369.688	307.34
370.069	313.21
370.45	318.18
370.831	310.05
371.212	310.73
371.593	309.37
371.974	307.56
372.355	295.36
372.736	300.33
373.117	325.19
373.498	292.65
373.879	319.77
374.26	320.44
374.641	302.14
375.021	299.88
375.402	304.4
375.783	300.78
376.163	348.92
376.544	332.87
376.925	317.28
377.305	320.44
377.686	335.58
378.066	325.87
378.447	318.64
378.827	323.83
379.208	308.69
379.588	321.12
379.968	328.35
380.349	335.58
380.729	318.64
381.109	328.13
381.489	310.95
381.87	348.47
382.25	334.91
382.63	333.78
383.01	312.31
383.39	347.56
383.77	330.61
384.15	338.52
384.53	338.75
384.91	351.63
385.29	342.36
385.67	336.26
386.049	364.28
386.429	329.93
386.809	343.49
387.189	335.36
387.568	357.05
387.948	337.84
388.328	344.85
388.707	367.22
389.087	359.99
389.466	350.5
389.846	358.18
390.225	360.22
390.605	372.42
390.984	375.81
391.363	344.4
391.743	359.76
392.122	361.57
392.501	351.18
392.881	367.67
393.26	374
393.639	367.22
394.018	387.11
394.397	354.34
394.776	368.58
395.155	366.09
395.534	380.1
395.913	368.8
396.292	372.65
396.671	372.42
397.05	376.71
397.429	399.99
397.808	374
398.186	397.28
398.565	405.19
398.944	378.97
399.323	389.59
399.701	381.46
400.08	406.77
400.458	387.11
400.837	394.57
401.215	383.94
401.594	413.77
401.972	381.23
402.351	414
402.729	405.19
403.107	405.87
403.486	400.67
403.864	400.89
404.242	399.31
404.62	416.49
404.999	406.77
405.377	414.23
405.755	424.17
406.133	451.74
406.511	439.54
406.889	421.01
407.267	445.19
407.645	443.83
408.023	443.6
408.401	458.07
408.779	437.28
409.156	465.07
409.534	454
409.912	477.28
410.29	468.01
410.667	480.67
411.045	459.65
411.422	450.38
411.8	466.2
412.178	474.34
412.555	478.86
412.933	483.6
413.31	508.46
413.687	515.69
414.065	488.57
414.442	507.78
414.819	538.74
415.197	529.7
415.574	545.3
415.951	557.95
416.328	536.94
416.705	564.73
417.082	568.35
417.46	551.17
417.837	584.39
418.214	586.43
418.591	567.89
418.967	603.37
419.344	580.32
419.721	569.48
420.098	584.39
420.475	599.08
420.852	612.87
421.228	609.93
421.605	643.37
421.982	642.92
422.358	644.95
422.735	626.65
423.111	637.27
423.488	680.21
423.864	653.54
424.241	687.21
424.617	677.95
424.994	655.8
425.37	660.32
425.746	679.08
426.123	710.26
426.499	691.51
426.875	700.55
427.251	700.09
427.627	731.51
428.003	723.82
428.379	732.18
428.756	752.75
429.132	777.83
429.507	763.14
429.883	759.75
430.259	783.93
430.635	790.71
431.011	802.24
431.387	809.24
431.763	815.35
432.138	812.86
432.514	844.5
432.89	838.85
433.265	838.85
433.641	851.28
434.016	855.34
434.392	870.26
434.767	876.81
435.143	894.67
435.518	904.61
435.894	894.67
436.269	903.25
436.644	925.17
437.02	919.75
437.395	947.55
437.77	929.47
438.145	949.81
438.52	965.17
438.895	983.03
439.271	965.85
439.646	978.05
440.021	968.79
440.395	1005.4
440.77	988
441.145	1000.65
441.52	1009.46
441.895	998.39
442.27	1022.12
442.645	1019.86
443.019	1026.64
443.394	1028.22
443.769	1022.8
444.143	1014.89
444.518	1035.45
444.892	1029.8
445.267	1038.84
445.641	1055.79
446.016	1056.47
446.39	1062.34
446.764	1089.24
447.139	1075.9
447.513	1096.24
447.887	1070.93
448.262	1108.45
448.636	1095.34
449.01	1090.14
449.384	1077.71
449.758	1096.92
450.132	1134.43
450.506	1148.22
450.88	1138.95
451.254	1105.28
451.628	1143.25
452.002	1133.76
452.376	1152.06
452.75	1166.97
453.123	1124.72
453.497	1176.47
453.871	1176.47
454.244	1191.38
454.618	1198.61
454.992	1208.56
455.365	1212.17
455.739	1262.34
456.112	1236.35
456.486	1231.15
456.859	1230.7
457.232	1242.68
457.606	1266.86
457.979	1269.8
458.352	1265.05
458.725	1294.43
459.099	1286.29
459.472	1331.72
459.845	1332.39
460.218	1362
460.591	1338.95
460.964	1318.16
461.337	1356.35
461.71	1376.24
462.083	1400.19
462.456	1378.72
462.829	1373.52
463.201	1427.31
463.574	1402.9
463.947	1418.72
464.32	1452.39
464.692	1454.88
465.065	1439.51
465.438	1469.79
465.81	1501.43
466.183	1515.21
466.555	1526.06
466.928	1530.81
467.3	1516.12
467.672	1517.02
468.045	1597.25
468.417	1578.49
468.789	1570.13
469.161	1610.58
469.534	1607.42
469.906	1662.1
470.278	1643.57
470.65	1679.73
471.022	1670.92
471.394	1722.44
471.766	1731.25
472.138	1718.37
472.51	1766.51
472.882	1802.89
473.253	1791.14
473.625	1817.13
473.997	1844.02
474.369	1827.07
474.74	1848.31
475.112	1899.61
475.484	1879.72
475.855	1948.42
476.227	1984.58
476.598	2013.96
476.97	1993.39
477.341	2072.49
477.713	2046.95
478.084	2118.59
478.455	2168.08
478.827	2164.46
479.198	2174.63
479.569	2196.78
479.94	2223.67
480.311	2261.18
480.682	2277.23
481.053	2341.86
481.424	2365.14
481.795	2335.31
482.166	2413.5
482.537	2407.39
482.908	2477.22
483.279	2476.32
483.65	2522.19
484.021	2555.19
484.391	2556.32
484.762	2625.47
485.133	2606.71
485.503	2634.73
485.874	2691.45
486.244	2674.73
486.615	2740.04
486.985	2782.75
487.356	2851
487.726	2799.25
488.097	2888.96
488.467	2859.36
488.837	2915.18
489.207	2936.65
489.578	2996.53
489.948	3016.19
490.318	3046.93
490.688	3097.55
491.058	3126.25
491.428	3140.26
491.798	3131.67
492.168	3205.11
492.538	3240.14
492.908	3227.71
493.278	3300.25
493.648	3313.59
494.017	3321.49
494.387	3360.59
494.757	3382.96
495.126	3409.63
495.496	3391.55
495.866	3420.93
496.235	3505.44
496.605	3516.07
496.974	3486.24
497.344	3550.87
497.713	3571.21
498.082	3577.53
498.452	3605.78
498.821	3624.99
499.19	3617.31
499.559	3686.46
499.928	3615.05
500.298	3646.23
500.667	3675.84
501.036	3686.46
501.405	3726.68
501.774	3768.71
502.143	3779.56
502.512	3775.95
502.88	3782.27
503.249	3785.66
503.618	3812.56
503.987	3838.54
504.356	3858.43
504.724	3835.61
505.093	3864.98
505.462	3854.14
505.83	3901.37
506.199	3900.01
506.567	3938.2
506.936	3977.75
507.304	3979.1
507.672	4021.82
508.041	3980.01
508.409	4004.41
508.777	4038.09
509.145	4040.57
509.514	4054.13
509.882	4104.98
510.25	4070.85
510.618	4137.74
510.986	4132.77
511.354	4152.43
511.722	4185.2
512.09	4184.52
512.458	4192.88
512.826	4175.71
513.193	4161.02
513.561	4220.68
513.929	4215.26
514.297	4264.52
514.664	4281.47
515.032	4292.32
515.4	4269.27
515.767	4295.48
516.135	4339.32
516.502	4311.3
516.869	4386.78
517.237	4375.93
517.604	4363.28
517.972	4328.02
518.339	4394.46
518.706	4384.52
519.073	4433.56
519.44	4446.21
519.808	4466.78
520.175	4448.47
520.542	4504.06
520.909	4451.86
521.276	4495.7
521.643	4508.58
522.009	4577.28
522.376	4571.18
522.743	4541.12
523.11	4650.5
523.477	4626.55
523.843	4626.32
524.21	4671.52
524.577	4676.49
524.943	4678.75
525.31	4698.63
525.676	4728.46
526.043	4760.1
526.409	4750.16
526.776	4770.04
527.142	4859.31
527.508	4836.26
527.874	4834.68
528.241	4924.62
528.607	4871.74
528.973	4930.94
529.339	4945.18
529.705	4972.07
530.071	5025.18
530.437	5042.13
530.803	5108.57
531.169	5070.6
531.535	5110.15
531.901	5122.8
532.267	5132.29
532.632	5121.45
532.998	5170.94
533.364	5231.95
533.73	5205.74
534.095	5254.1
534.461	5255
534.826	5259.52
535.192	5303.59
535.557	5308.11
535.923	5336.36
536.288	5393.98
536.653	5381.33
537.019	5363.93
537.384	5416.58
537.749	5451.16
538.114	5442.79
538.479	5465.39
538.845	5478.27
539.21	5450.03
539.575	5539.97
539.94	5577.93
540.305	5587.88
540.67	5637.37
541.034	5655.67
541.399	5646.63
541.764	5724.82
542.129	5659.51
542.494	5690.25
542.858	5761.66
543.223	5749.23
543.587	5831.03
543.952	5784.71
544.316	5867.42
544.681	5843.46
545.045	5882.78
545.41	5905.83
545.774	5896.12
546.138	5915.1
546.503	5959.17
546.867	6011.59
547.231	6032.38
547.595	6061.31
547.959	6100.4
548.324	6049.56
548.688	6071.03
549.052	6082.55
549.416	6134.98
549.779	6111.25
550.143	6120.74
550.507	6209.33
550.871	6207.07
551.235	6231.93
551.599	6229.21
551.962	6263.34
552.326	6272.6
552.689	6324.58
553.053	6261.53
553.417	6295.88
553.78	6408.19
554.143	6358.48
554.507	6387.18
554.87	6421.3
555.234	6486.84
555.597	6426.95
555.96	6464.69
556.323	6519.15
556.686	6502.65
557.05	6499.04
557.413	6608.19
557.776	6587.85
558.139	6613.39
558.502	6631.01
558.865	6677.34
559.228	6636.21
559.59	6709.43
559.953	6685.7
560.316	6797.11
560.679	6793.49
561.041	6777.22
561.404	6791.46
561.767	6807.96
562.129	6843.89
562.492	6884.79
562.854	6841.85
563.217	6826.94
563.579	6927.73
563.941	6945.35
564.304	6965.92
564.666	7011.57
565.028	6981.96
565.39	6995.07
565.753	7070.77
566.115	7105.35
566.477	7141.73
566.839	7077.33
567.201	7191
567.563	7192.81
567.925	7217.21
568.287	7244.56
568.648	7282.97
569.01	7378.56
569.372	7387.15
569.734	7311.45
570.095	7413.36
570.457	7429.18
570.819	7485
571.18	7531.33
571.542	7549.18
571.903	7524.32
572.265	7588.73
572.626	7590.99
572.987	7651.78
573.349	7717.54
573.71	7736.29
574.071	7808.61
574.432	7866.69
574.794	7911.43
575.155	7993.24
575.516	7980.36
575.877	8048.83
576.238	8150.97
576.599	8201.59
576.96	8261.93
577.32	8291.53
577.681	8397.52
578.042	8470.74
578.403	8532.21
578.763	8580.57
579.124	8736.95
579.485	8814.91
579.845	8971.52
580.206	9010.38
580.566	9130.38
580.927	9233.2
581.287	9356.59
581.648	9452.63
582.008	9659.86
582.368	9774.66
582.728	9865.73
583.089	10068.21
583.449	10166.74
583.809	10340.97
584.169	10552.49
584.529	10672.94
584.889	10893.95
585.249	11000.39
585.609	11226.15
585.969	11416.2
586.329	11624.33
586.688	11860.03
587.048	12120.81
587.408	12245.78
587.768	12472.44
588.127	12730.96
588.487	12876.5
588.846	13187.9
589.206	13318.07
589.565	13680.09
589.925	13976.13
590.284	14212.51
590.643	14482.33
591.003	14735.66
591.362	15006.39
591.721	15364.34
592.08	15607.05
592.44	15869.41
592.799	16153.47
593.158	16367.48
593.517	16659.45
593.876	17007.69
594.235	17196.16
594.593	17585.3
594.952	17954.33
595.311	18187.54
595.67	18427.09
596.029	18905.27
596.387	19170.34
596.746	19551.12
597.104	19717.9
597.463	20020.26
597.822	20387.26
598.18	20552.68
598.538	20865.89
598.897	21302.72
599.255	21442.83
599.613	21969.82
599.972	22219.53
600.33	22544.72
600.688	22633.98
601.046	23085.27
601.404	23473.28
601.762	23639.15
602.12	24077.33
602.478	24268.51
602.836	24556.42
603.194	24585.79
603.552	24903.53
603.91	25046.12
604.268	25556.62
604.625	25683.39
604.983	26124.51
605.341	26226.43
605.698	26535.8
606.056	26786.19
606.413	27116.12
606.771	27367.64
607.128	27664.58
607.485	27728.31
607.843	27973.28
608.2	28289.88
608.557	28700.49
608.914	28737.55
609.272	29112.68
609.629	29348.38
609.986	29618.2
610.343	29714.7
610.7	30131.86
611.057	30160.56
611.414	30433.1
611.771	30710.38
612.127	30904.95
612.484	31065.62
612.841	31386.29
613.198	31530.92
613.554	31640.75
613.911	31916
614.267	31986.73
614.624	32120.06
614.98	32368.64
615.337	32679.14
615.693	32748.07
616.05	32926.37
616.406	33199.13
616.762	33195.96
617.118	33385.11
617.475	33419.46
617.831	33582.17
618.187	33708.04
618.543	33945.55
618.899	34325.88
619.255	34410.62
619.611	34305.54
619.967	34610.62
620.323	34805.19
620.678	34734.68
621.034	34829.82
621.39	34971.06
621.746	34888.57
622.101	35463.25
622.457	35243.14
622.812	35351.16
623.168	35731.04
623.523	35614.66
623.879	35792.05
624.234	35707.31
624.589	35874.76
624.945	36064.14
625.3	36085.15
625.655	36170.12
626.01	36129.45
626.365	36349.33
626.72	36350.46
627.075	36586.38
627.43	36342.77
627.785	36497.57
628.14	36643.56
628.495	36736.89
628.85	36661.18
629.205	36539.6
629.559	36980.5
629.914	36921.74
630.269	36984.34
630.623	36875.64
630.978	36903.66
631.332	37086.03
631.687	37224.56
632.041	37071.79
632.396	37160.38
632.75	37059.36
633.104	37296.19
633.459	37105.69
633.813	37207.38
634.167	37200.6
634.521	37183.66
634.875	37360.37
635.229	37259.81
635.583	37048.29
635.937	37195.18
636.291	37161.06
636.645	37270.43
636.999	37156.99
637.352	37302.52
637.706	36950.21
638.06	37295.29
638.413	37199.93
638.767	37085.58
639.121	37263.65
639.474	37026.37
639.828	37084.67
640.181	37222.3
640.534	37275.18
640.888	37259.81
641.241	37073.83
641.594	37229.53
641.947	37273.37
642.301	37115.63
642.654	37163.99
643.007	37272.69
643.36	37196.08
643.713	37151.34
644.066	37320.37
644.419	37054.62
644.771	36843.55
645.124	36601.98
645.477	36472.94
645.83	36224.13
646.182	36130.12
646.535	36114.08
646.888	36203.79
647.24	35947.53
647.593	36295.99
647.945	36085.15
648.298	36007.87
648.65	35917.02
649.002	35779.62
649.355	35983.69
649.707	36007.64
650.059	36137.58
650.411	36496.67
650.763	36577.34
651.115	36941.4
651.467	36831.12
651.819	36857.56
652.171	36766.04
652.523	36741.18
652.875	36750.45
653.227	36576.21
653.578	36896.43
653.93	36742.99
654.282	36640.39
654.633	36528.76
654.985	36677.45
655.337	36675.42
655.688	36598.13
656.039	36708.41
656.391	36500.96
656.742	36454.18
657.094	36472.49
657.445	36599.49
657.796	36775.98
658.147	36495.31
658.498	36494.18
658.849	36609.88
659.2	36531.47
659.551	36469.55
659.902	36417.12
660.253	36439.72
660.604	36535.99
660.955	36332.15
661.306	36448.53
661.656	36571.02
662.007	36496.22
662.358	36450.34
662.708	36503
663.059	36369.44
663.409	36219.39
663.76	36448.99
664.11	36439.27
664.461	36417.35
664.811	36493.5
665.161	36326.28
665.511	36266.17
665.862	36394.3
666.212	36490.79
666.562	36523.11
666.912	36423
667.262	36485.14
667.612	36432.71
667.962	36420.74
668.312	36368.31
668.662	36420.74
669.011	36348.65
669.361	36421.87
669.711	36353.85
670.06	36136.45
670.41	36326.5
670.76	36210.8
671.109	36373.73
671.459	36301.64
671.808	36210.35
672.157	36369.21
672.507	36009.22
672.856	35971.03
673.205	36199.95
673.554	36172.83
673.904	36113.85
674.253	36261.87
674.602	36236.56
674.951	35606.52
675.3	35433.64
675.649	36161.31
675.998	36078.37
676.346	35947.76
676.695	36044.02
677.044	35903.01
677.393	35998.6
677.741	36062.55
678.09	35849
678.438	35835.67
678.787	35962.44
679.135	35879.28
679.484	35712.96
679.832	35803.8
680.181	35520.42
680.529	35695.56
680.877	35639.51
681.225	35537.14
681.573	35814.65
681.922	35534.88
682.27	35449.01
682.618	35403.14
682.966	35401.33
683.314	35376.92
683.661	35341.44
684.009	35136.48
684.357	35055.12
684.705	35105.07
685.053	35057.84
685.4	35042.69
685.748	34823.72
686.095	34940.32
686.443	34703.04
686.79	34628.24
687.138	34745.53
687.485	34754.79
687.832	34637.73
688.18	34562.93
688.527	34448.59
688.874	34596.6
689.221	34422.82
689.568	34320.23
689.915	34324.97
690.262	34383.95
690.609	34151.19
690.956	34141.7
691.303	34174.24
691.65	33901.03
691.997	33883.85
692.344	33641.6
692.69	33682.28
693.037	33604.31
693.383	33383.3
693.73	33585.11
694.077	33298.33
694.423	33260.37
694.769	33177.88
695.116	33195.74
695.462	33106.47
695.808	32933.37
696.155	33095.85
696.501	32974.05
696.847	32847.5
697.193	32518.47
697.539	32704.22
697.885	32432.59
698.231	32335.42
698.577	32497.9
698.923	32318.25
699.269	32164.8
699.614	32059.5
699.96	32015.2
700.306	32111.25
700.651	31888.65
700.997	31869.22
701.342	31779.5
701.688	31800.75
702.033	31646.17
702.379	31535.44
702.724	31368.67
703.069	31508.55
703.415	31218.61
703.76	31167.54
704.105	31204.6
704.45	31144.04
704.795	30986.53
705.14	30870.6
705.485	30946.08
705.83	30690.72
706.175	30822.47
706.52	30656.82
706.865	30639.87
707.209	30544.28
707.554	30436.94
707.899	30437.39
708.243	30321.01
708.588	30274.91
708.932	30076.95
709.277	30182.03
709.621	30050.96
709.966	29913.34
710.31	30015.48
710.654	29732.33
710.998	29812.1
711.342	29683.29
711.687	29708.82
712.031	29543.18
712.375	29450.75
712.719	29534.59
713.063	29335.73
713.407	29539.79
713.75	29430.41
714.094	29352.45
714.438	29191.32
714.782	29184.54
715.125	29150.65
715.469	29132.34
715.812	29006.69
716.156	28857.77
716.499	28878.56
716.843	29016.86
717.186	28825.23
717.53	28854.83
717.873	28780.03
718.216	28720.6
718.559	28636.99
718.902	28385.24
719.246	28496.88
719.589	28386.15
719.932	28293.27
720.275	28291.91
720.617	28342.31
720.96	28271.8
721.303	28139.6
721.646	28215.3
721.989	27954.07
722.331	28227.05
722.674	28004.01
723.016	28092.59
723.359	28015.31
723.701	28006.5
724.044	27740.06
724.386	27521.76
724.729	27745.71
725.071	27747.74
725.413	27694.19
725.755	27650.57
726.097	27448.32
726.439	27353.63
726.782	27374.2
727.124	27467.75
727.465	27244.71
727.807	27338.26
728.149	27285.16
728.491	27127.65
728.833	27308.21
729.175	27160.42
729.516	27122.45
729.858	27028.67
730.199	27087.88
730.541	26973.98
730.882	27044.49
731.224	26981.66
731.565	26781.22
731.906	26762.23
732.248	26757.71
732.589	26694.89
732.93	26607.44
733.271	26670.26
733.612	26818.5
733.953	26791.84
734.294	26643.59
734.635	26457.16
734.976	26547.55
735.317	26436.14
735.658	26447.21
735.999	26342.81
736.339	26397.72
736.68	26415.12
737.021	26295.58
737.361	26269.37
737.702	26345.75
738.042	26228.69
738.383	26098.3
738.723	26237.05
739.063	26129.71
739.404	26144.17
739.744	26030.28
740.084	25916.61
740.424	26014.46
740.764	25943.95
741.104	25918.64
741.444	25844.74
741.784	25710.96
742.124	25812.43
742.464	25735.14
742.804	25682.04
743.143	25530.63
743.483	25653.11
743.823	25464.19
744.162	25472.78
744.502	25585.09
744.841	25461.48
745.181	25467.58
745.52	25437.98
745.86	25384.87
746.199	25346.9
746.538	25282.05
746.877	25284.53
747.216	25296.28
747.556	25144.88
747.895	25183.97
748.234	25022.17
748.573	25013.35
748.911	25007.48
749.25	25040.02
749.589	24935.84
749.928	24913.92
750.267	24948.04
750.605	24803.19
750.944	24781.04
751.283	24719.8
751.621	24826.01
751.96	24598
752.298	24659.24
752.636	24562.74
752.975	24409.53
753.313	24414.95
753.651	24524.55
753.989	24297.67
754.327	24383.99
754.666	24189.65
755.004	24199.82
755.342	24113.04
755.679	24019.48
756.017	23914.85
756.355	24023.1
756.693	24021.74
757.031	24011.8
757.368	23840.28
757.706	23753.73
758.044	23671.02
758.381	23791.46
758.719	23678.47
759.056	23563
759.394	23440.29
759.731	23435.32
760.068	23389.44
