Data from hue_120_FLMS001491_00011.txt Node
Date: Tue Feb 07 16:58:59 GMT 2017
User: dcchb
Spectrometer: FLMS00149
Trigger mode: 0
Integration Time (sec): 2.000000E-2
Scans to average: 10
Electric dark correction enabled: true
Nonlinearity correction enabled: false
Boxcar width: 0
XAxis mode: Wavelengths
Number of Pixels in Spectrum: 2048
>>>>>Begin Spectral Data<<<<<
341.393	-13.05
341.776	-13.05
342.16	-13.05
342.543	-67.29
342.927	-50.11
343.31	-55.31
343.693	-69.32
344.077	-75.65
344.46	-63.9
344.843	-39.04
345.226	-48.76
345.61	-16.21
345.993	-23.22
346.376	-5.59
346.759	-4.46
347.142	19.04
347.525	56.33
347.908	63.11
348.291	81.18
348.674	80.96
349.057	100.84
349.44	119.38
349.823	149.66
350.206	162.76
350.588	191.69
350.971	214.29
351.354	225.14
351.737	224.91
352.119	231.24
352.502	271.46
352.884	284.79
353.267	290.67
353.65	293.16
354.032	311.23
354.414	309.65
354.797	324.79
355.179	330.9
355.562	329.77
355.944	336.77
356.326	313.49
356.709	335.64
357.091	343.32
357.473	367.73
357.855	346.94
358.238	349.43
358.62	344.91
359.002	365.7
359.384	344.45
359.766	334.96
360.148	375.41
360.53	328.41
360.912	346.04
361.294	327.51
361.676	331.12
362.057	341.29
362.439	348.75
362.821	326.38
363.203	332.7
363.584	314.85
363.966	350.1
364.348	325.25
364.729	314.85
365.111	320.95
365.493	322.08
365.874	334.06
366.256	321.4
366.637	296.77
367.019	326.6
367.4	319.37
367.781	308.75
368.163	329.99
368.544	334.28
368.925	308.97
369.306	317.11
369.688	329.99
370.069	298.35
370.45	330.22
370.831	303.78
371.212	322.08
371.593	310.1
371.974	320.05
372.355	321.63
372.736	311.69
373.117	335.87
373.498	314.4
373.879	320.5
374.26	320.73
374.641	324.12
375.021	302.87
375.402	360.5
375.783	329.77
376.163	340.61
376.544	315.75
376.925	337.67
377.305	335.19
377.686	340.16
378.066	335.64
378.447	342.42
378.827	324.12
379.208	341.29
379.588	330.67
379.968	334.28
380.349	355.3
380.729	340.84
381.109	358.69
381.489	346.26
381.87	345.81
382.25	352.82
382.63	363.66
383.01	342.42
383.39	343.55
383.77	361.63
384.15	342.87
384.53	347.39
384.91	349.88
385.29	354.62
385.67	361.63
386.049	365.7
386.429	356.43
386.809	389.2
387.189	375.41
387.568	357.79
387.948	359.82
388.328	373.15
388.707	365.7
389.087	363.21
389.466	370.22
389.846	360.72
390.225	377.9
390.605	374.28
390.984	382.19
391.363	364.57
391.743	382.19
392.122	375.41
392.501	397.79
392.881	375.87
393.26	392.36
393.639	401.4
394.018	400.72
394.397	389.2
394.776	414.96
395.155	414.96
395.534	401.63
395.913	393.72
396.292	387.39
396.671	409.09
397.05	411.12
397.429	409.76
397.808	415.19
398.186	407.73
398.565	418.8
398.944	408.63
399.323	415.64
399.701	398.01
400.08	396.66
400.458	416.32
400.837	428.29
401.215	412.7
401.594	446.37
401.972	431.68
402.351	435.75
402.729	444.79
403.107	446.15
403.486	431.46
403.864	442.3
404.242	435.75
404.62	437.11
404.999	442.3
405.377	473.49
405.755	454.51
406.133	436.88
406.511	460.38
406.889	484.11
407.267	476.65
407.645	464
408.023	478.69
408.401	469.87
408.779	493.83
409.156	491.79
409.534	470.78
409.912	469.87
410.29	490.21
410.667	484.11
411.045	490.67
411.422	513.94
411.8	511.91
412.178	514.17
412.555	515.3
412.933	523.21
413.31	505.81
413.687	525.01
414.065	536.77
414.442	509.42
414.819	510.33
415.197	544
415.574	551
415.951	561.4
416.328	570.44
416.705	558.69
417.082	559.59
417.46	565.92
417.837	573.6
418.214	563.21
418.591	534.96
418.967	539.93
419.344	600.72
419.721	574.28
420.098	590.55
420.475	585.35
420.852	584
421.228	580.38
421.605	597.33
421.982	594.17
422.358	605.24
422.735	596.65
423.111	604.11
423.488	620.15
423.864	615.63
424.241	630.1
424.617	647.5
424.994	608.4
425.37	642.75
425.746	646.37
426.123	628.74
426.499	636.88
426.875	651.11
427.251	657.89
427.627	651.79
428.003	651.79
428.379	669.87
428.756	668.06
429.132	680.49
429.507	677.78
429.883	692.69
430.259	716.2
430.635	701.51
431.011	728.4
431.387	735.4
431.763	746.25
432.138	740.38
432.514	754.61
432.89	742.86
433.265	757.1
433.641	742.18
434.016	767.72
434.392	807.27
434.767	776.08
435.143	787.15
435.518	813.82
435.894	820.37
436.269	816.53
436.644	806.14
437.02	833.03
437.395	833.25
437.77	863.99
438.145	852.24
438.52	862.41
438.895	856.76
439.271	861.5
439.646	886.59
440.021	893.59
440.395	893.82
440.77	877.1
441.145	895.63
441.52	904.44
441.895	905.57
442.27	910.32
442.645	907.15
443.019	941.5
443.394	934.27
443.769	969.75
444.143	938.34
444.518	938.79
444.892	948.73
445.267	941.5
445.641	961.84
446.016	1004.32
446.39	970.65
446.764	989.18
447.139	1011.56
447.513	1001.84
447.887	994.15
448.262	1000.48
448.636	997.32
449.01	1013.82
449.384	1028.96
449.758	1036.64
450.132	1079.8
450.506	1042.51
450.88	1056.3
451.254	1064.66
451.628	1095.62
452.002	1096.3
452.376	1091.1
452.75	1101.95
453.123	1108.5
453.497	1155.73
453.871	1137.65
454.244	1156.64
454.618	1187.14
454.992	1188.95
455.365	1180.59
455.739	1190.53
456.112	1212.68
456.486	1249.52
456.859	1277.31
457.232	1259.46
457.606	1295.39
457.979	1296.75
458.352	1323.86
458.725	1336.52
459.099	1354.37
459.472	1342.62
459.845	1343.52
460.218	1406.35
460.591	1407.7
460.964	1420.13
461.337	1471.66
461.71	1445.89
462.083	1479.34
462.456	1462.39
462.829	1512.11
463.201	1525.67
463.574	1531.77
463.947	1567.7
464.32	1588.04
464.692	1601.6
465.065	1613.12
465.438	1673.01
465.81	1657.64
466.183	1690.86
466.555	1758.88
466.928	1756.85
467.3	1757.98
467.672	1781.03
468.045	1815.83
468.417	1842.72
468.789	1855.83
469.161	1900.8
469.534	1936.5
469.906	1972.66
470.278	1993.22
470.65	2013.79
471.022	2085.65
471.394	2121.81
471.766	2184.63
472.138	2185.31
472.51	2209.72
472.882	2305.76
473.253	2340.11
473.625	2370.62
473.997	2438.41
474.369	2414
474.74	2519.76
475.112	2557.96
475.484	2617.16
475.855	2691.06
476.227	2724.73
476.598	2844.05
476.97	2901
477.341	2969.92
477.713	3039.3
478.084	3075.91
478.455	3148.22
478.827	3238.39
479.198	3352.74
479.569	3400.87
479.94	3562.45
480.311	3599.28
480.682	3701.43
481.053	3835.44
481.424	3913.85
481.795	4009.44
482.166	4055.32
482.537	4172.38
482.908	4331.69
483.279	4426.38
483.65	4513.16
484.021	4694.62
484.391	4777.33
484.762	4920.15
485.133	4992.69
485.503	5096.19
485.874	5221.61
486.244	5382.97
486.615	5489.4
486.985	5682.39
487.356	5764.65
487.726	5909.96
488.097	6088.03
488.467	6193.57
488.837	6365.09
489.207	6486.67
489.578	6654.8
489.948	6779.31
490.318	6923.94
490.688	7086.88
491.058	7227.44
491.428	7408.68
491.798	7503.59
492.168	7713.3
492.538	7824.71
492.908	8004.14
493.278	8135.66
493.648	8236
494.017	8454.52
494.387	8566.38
494.757	8704.46
495.126	8872.37
495.496	8932.03
495.866	9059.48
496.235	9264.22
496.605	9395.97
496.974	9502.18
497.344	9579.92
497.713	9763.64
498.082	9893.81
498.452	9987.82
498.821	10106.01
499.19	10184.87
499.559	10370.63
499.928	10426
500.298	10546.22
500.667	10732.66
501.036	10664.41
501.405	10921.58
501.774	10911.86
502.143	11104.17
502.512	11220.1
502.88	11339.65
503.249	11314.79
503.618	11492.64
503.987	11512.3
504.356	11659.86
504.724	11681.78
505.093	11702.12
505.462	11839.07
505.83	11990.02
506.199	12027.08
506.567	12228.66
506.936	12273.41
507.304	12352.27
507.672	12370.35
508.041	12557.92
508.409	12626.39
508.777	12666.39
509.145	12794.07
509.514	12797.69
509.882	12874.97
510.25	12921.75
510.618	13049.88
510.986	13134.85
511.354	13172.59
511.722	13271.12
512.09	13377.78
512.458	13363.55
512.826	13432.25
513.193	13491.23
513.561	13576.87
513.929	13551.34
514.297	13673.82
514.664	13817.55
515.032	13767.83
515.4	13862.97
515.767	13986.36
516.135	14019.35
516.502	13857.09
516.869	14094.6
517.237	14102.06
517.604	14110.42
517.972	14132.79
518.339	14239
518.706	14366.23
519.073	14283.07
519.44	14407.36
519.808	14434.71
520.175	14415.27
520.542	14638.99
520.909	14612.78
521.276	14579.56
521.643	14653.68
522.009	14688.71
522.376	14713.34
522.743	14781.81
523.11	14884.18
523.477	14954.47
523.843	14927.35
524.21	15008.7
524.577	15095.25
524.943	15119.43
525.31	15137.74
525.676	15251.86
526.043	15294.34
526.409	15285.98
526.776	15398.07
527.142	15335.02
527.508	15394.68
527.874	15503.15
528.241	15443.49
528.607	15491.85
528.973	15556.26
529.339	15489.14
529.705	15584.96
530.071	15649.81
530.437	15610.95
530.803	15674.45
531.169	15665.86
531.535	15594.45
531.901	15563.04
532.267	15605.75
532.632	15660.89
532.998	15648.46
533.364	15738.63
533.73	15678.06
534.095	15714.45
534.461	15717.16
534.826	15699.76
535.192	15745.18
535.557	15814.56
535.923	15647.78
536.288	15634
536.653	15785.4
537.019	15465.19
537.384	15586.54
537.749	15670.15
538.114	15575.24
538.479	15527.56
538.845	15560.33
539.21	15474.68
539.575	15439.88
539.94	15452.98
540.305	15407.56
540.67	15374.12
541.034	15402.14
541.399	15482.14
541.764	15352.87
542.129	15426.09
542.494	15314.23
542.858	15370.95
543.223	15269.26
543.587	15397.84
543.952	15248.02
544.316	15187
544.681	15069.72
545.045	15173.89
545.41	15126.89
545.774	15151.3
546.138	15119.43
546.503	15023.62
546.867	15045.08
547.231	14991.98
547.595	15004.86
547.959	15028.59
548.324	14909.72
548.688	14906.56
549.052	14882.15
549.416	14851.64
549.779	14843.06
550.143	14837.18
550.507	14786.33
550.871	14776.62
551.235	14632.89
551.599	14821.81
551.962	14680.35
552.326	14743.17
552.689	14755.83
553.053	14665.89
553.417	14636.96
553.78	14735.71
554.143	14746.56
554.507	14565.78
554.87	14633.8
555.234	14703.85
555.597	14578.88
555.96	14712.66
556.323	14590.41
556.686	14621.82
557.05	14655.04
557.413	14714.02
557.776	14468.15
558.139	14613.68
558.502	14629.05
558.865	14595.83
559.228	14624.76
559.59	14630.41
559.953	14632.44
560.316	14651.42
560.679	14680.8
561.041	14618.88
561.404	14673.12
561.767	14724.42
562.129	14559.45
562.492	14752.89
562.854	14636.73
563.217	14643.97
563.579	14641.48
563.941	14690.07
564.304	14727.8
564.666	14826.79
565.028	14794.47
565.39	14752.89
565.753	14858.42
566.115	14878.08
566.477	14812.32
566.839	14788.59
567.201	14893
567.563	14945.65
567.925	14902.72
568.287	14932.09
568.648	15028.14
569.01	14986.78
569.372	14998.98
569.734	14975.71
570.095	15011.87
570.457	15091.41
570.819	15227.23
571.18	15037.85
571.542	15164.63
571.903	15179.32
572.265	15141.58
572.626	15156.72
572.987	15203.27
573.349	15202.59
573.71	15198.3
574.071	15285.08
574.432	15178.19
574.794	15324.17
575.155	15361.01
575.516	15177.96
575.877	15316.94
576.238	15329.14
576.599	15340.44
576.96	15296.83
577.32	15286.89
577.681	15387.67
578.042	15344.96
578.403	15396.04
578.763	15396.94
579.124	15410.05
579.485	15420.22
579.845	15481.23
580.206	15372.53
580.566	15362.14
580.927	15441.91
581.287	15450.95
581.648	15391.29
582.008	15412.98
582.368	15454.11
582.728	15365.75
583.089	15423.83
583.449	15309.26
583.809	15441.91
584.169	15383.38
584.529	15373.89
584.889	15419.99
585.249	15404.62
585.609	15290.73
585.969	15330.95
586.329	15285.76
586.688	15250.95
587.048	15274.68
587.408	15194.46
587.768	15194.46
588.127	15149.49
588.487	15195.82
588.846	15332.99
589.206	15165.99
589.565	15184.52
589.925	15271.07
590.284	15191.52
590.643	15232.88
591.003	15240.79
591.362	15315.59
591.721	15263.61
592.08	15183.16
592.44	15221.8
592.799	15189.94
593.158	15132.31
593.517	15109.72
593.876	15177.96
594.235	15112.43
594.593	15197.85
594.952	15092.77
595.311	15170.73
595.67	15160.34
596.029	15258.86
596.387	15211.41
596.746	15247.34
597.104	15121.69
597.463	15126.89
597.822	15172.54
598.18	15085.08
598.538	15024.75
598.897	15187.45
599.255	14976.16
599.613	15285.08
599.972	15066.55
600.33	15189.94
600.688	15118.3
601.046	15129.38
601.404	15154.01
601.762	15088.25
602.12	15239.43
602.478	15221.35
602.836	15193.56
603.194	15143.16
603.552	15156.72
603.91	15138.42
604.268	15196.49
604.625	15087.8
604.983	15150.62
605.341	15096.16
605.698	15129.38
606.056	15232.65
606.413	15206.89
606.771	15261.58
607.128	15182.48
607.485	15116.04
607.843	15162.37
608.2	15252.99
608.557	15259.77
608.914	15262.93
609.272	15309.71
609.629	15297.51
609.986	15328.24
610.343	15303.61
610.7	15361.91
611.057	15372.31
611.414	15386.32
611.771	15271.07
612.127	15387.22
612.484	15280.33
612.841	15305.87
613.198	15372.31
613.554	15305.87
613.911	15518.07
614.267	15363.72
614.624	15429.03
614.98	15426.54
615.337	15441.46
615.693	15470.61
616.05	15465.86
616.406	15554.9
616.762	15451.63
617.118	15415.92
617.475	15468.8
617.831	15626.99
618.187	15586.77
618.543	15567.33
618.899	15650.49
619.255	15637.61
619.611	15633.09
619.967	15644.84
620.323	15675.8
620.678	15563.49
621.034	15553.09
621.39	15684.84
621.746	15560.1
622.101	15738.4
622.457	15582.7
622.812	15610.72
623.168	15672.41
623.523	15667.44
623.879	15707.21
624.234	15615.47
624.589	15576.14
624.945	15640.55
625.3	15629.7
625.655	15667.89
626.01	15655.24
626.365	15568.46
626.72	15549.93
627.075	15526.2
627.43	15626.99
627.785	15655.92
628.14	15597.16
628.495	15630.83
628.85	15619.98
629.205	15563.49
629.559	15567.78
629.914	15544.96
630.269	15575.24
630.623	15500.67
630.978	15424.28
631.332	15522.59
631.687	15530.72
632.041	15443.72
632.396	15602.36
632.75	15455.24
633.104	15434
633.459	15273.33
633.813	15420.44
634.167	15310.16
634.521	15432.87
634.875	15373.89
635.229	15344.96
635.583	15229.26
635.937	15222.26
636.291	15390.61
636.645	15312.87
636.999	15225.64
637.352	15190.39
637.706	15170.28
638.06	15164.4
638.413	15210.28
638.767	15156.27
639.121	15127.57
639.474	15044.86
639.828	15053.67
640.181	15095.93
640.534	15111.07
640.888	15020.45
641.241	15045.54
641.594	15032.43
641.947	15082.6
642.301	14936.16
642.654	14916.73
643.007	15026.1
643.36	14975.26
643.713	14890.29
644.066	14992.66
644.419	14870.17
644.771	14860.91
645.124	14691.2
645.477	14653.46
645.83	14591.99
646.182	14513.57
646.535	14522.16
646.888	14484.87
647.24	14432.67
647.593	14457.53
647.945	14484.2
648.298	14338.44
648.65	14368.27
649.002	14362.84
649.355	14368.04
649.707	14377.31
650.059	14448.94
650.411	14585.89
650.763	14582.72
651.115	14809.84
651.467	14694.59
651.819	14721.48
652.171	14747.01
652.523	14730.06
652.875	14713.34
653.227	14599.22
653.578	14749.95
653.93	14759.44
654.282	14656.17
654.633	14611.2
654.985	14741.82
655.337	14794.7
655.688	14713.12
656.039	14761.48
656.391	14720.8
656.742	14669.73
657.094	14664.76
657.445	14759.44
657.796	14723.06
658.147	14773
658.498	14636.73
658.849	14782.27
659.2	14749.27
659.551	14740.01
659.902	14793.34
660.253	14702.72
660.604	14679.9
660.955	14659.56
661.306	14639.67
661.656	14749.95
662.007	14765.32
662.358	14773.91
662.708	14723.29
663.059	14766.45
663.409	14659.78
663.76	14728.93
664.11	14790.85
664.461	14783.85
664.811	14777.97
665.161	14829.72
665.511	14755.83
665.862	14800.8
666.212	14792.21
666.562	14751.31
666.912	14723.96
667.262	14721.25
667.612	14675.6
667.962	14760.35
668.312	14718.77
668.662	14808.25
669.011	14730.29
669.361	14693.91
669.711	14718.77
670.06	14646
670.41	14722.83
670.76	14710.4
671.109	14677.86
671.459	14664.3
671.808	14661.82
672.157	14692.33
672.507	14606
672.856	14661.82
673.205	14642.38
673.554	14700.46
673.904	14618.43
674.253	14703.85
674.602	14599.9
674.951	14386.57
675.3	14281.49
675.649	14648.03
675.998	14485.33
676.346	14482.61
676.695	14478.09
677.044	14420.02
677.393	14511.77
677.741	14473.12
678.09	14461.15
678.438	14389.51
678.787	14399.45
679.135	14446
679.484	14300.02
679.832	14394.71
680.181	14265.9
680.529	14364.88
680.877	14295.95
681.225	14256.4
681.573	14376.63
681.922	14259.12
682.27	14119.69
682.618	14221.15
682.966	14151.32
683.314	14087.14
683.661	14179.34
684.009	14088.73
684.357	14077.88
684.705	13989.07
685.053	14065.45
685.4	13972.12
685.748	13933.25
686.095	13900.93
686.443	13764.21
686.79	13740.49
687.138	13809.86
687.485	13773.03
687.832	13755.85
688.18	13786.59
688.527	13702.52
688.874	13660.26
689.221	13606.93
689.568	13535.75
689.915	13541.62
690.262	13582.98
690.609	13475.63
690.956	13389.99
691.303	13374.39
691.65	13340.95
691.997	13422.3
692.344	13277
692.69	13199.03
693.037	13186.15
693.383	13102.76
693.73	13152.71
694.077	13054.18
694.423	12966.27
694.769	13015.08
695.116	12888.08
695.462	12981.86
695.808	12926.5
696.155	12830.45
696.501	12799.04
696.847	12738.48
697.193	12688.08
697.539	12753.85
697.885	12548.43
698.231	12549.78
698.577	12538.71
698.923	12544.13
699.269	12488.77
699.614	12317.25
699.96	12405.83
700.306	12341.88
700.651	12174.43
700.997	12197.48
701.342	12183.92
701.688	12169.68
702.033	12118.61
702.379	12081.32
702.724	12009.91
703.069	12017.59
703.415	11876.35
703.76	11954.32
704.105	11896.92
704.45	11902.12
704.795	11746.19
705.14	11713.65
705.485	11760.88
705.83	11710.03
706.175	11685.17
706.52	11690.82
706.865	11585.74
707.209	11567.66
707.554	11511.17
707.899	11496.7
708.243	11442.47
708.588	11445.63
708.932	11372.19
709.277	11318.85
709.621	11336.03
709.966	11223.72
710.31	11282.25
710.654	11209.93
710.998	11215.81
711.342	11263.49
711.687	11080.44
712.031	11067.34
712.375	11009.71
712.719	11037.73
713.063	11097.39
713.407	11053.78
713.75	11013.55
714.094	11044.74
714.438	10884.74
714.782	10979.2
715.125	10879.09
715.469	10971.07
715.812	10877.06
716.156	10842.26
716.499	10841.13
716.843	10853.78
717.186	10748.93
717.53	10817.17
717.873	10772.65
718.216	10752.32
718.559	10670.74
718.902	10656.73
719.246	10627.35
719.589	10682.04
719.932	10557.74
720.275	10666.22
720.617	10635.03
720.96	10625.09
721.303	10625.54
721.646	10622.83
721.989	10561.13
722.331	10636.16
722.674	10554.58
723.016	10543.06
723.359	10492.89
723.701	10492.21
724.044	10426.22
724.386	10457.86
724.729	10456.05
725.071	10411.99
725.413	10437.97
725.755	10448.37
726.097	10458.09
726.439	10307.81
726.782	10348.48
727.124	10465.77
727.465	10325.66
727.807	10374.47
728.149	10354.59
728.491	10302.16
728.833	10350.07
729.175	10323.4
729.516	10371.99
729.858	10307.81
730.199	10313.91
730.541	10285.44
730.882	10290.86
731.224	10348.71
731.565	10253.12
731.906	10303.29
732.248	10291.31
732.589	10160.92
732.93	10270.52
733.271	10195.95
733.612	10187.81
733.953	10280.01
734.294	10274.14
734.635	10205.44
734.976	10257.64
735.317	10187.13
735.658	10250.18
735.999	10193.23
736.339	10290.41
736.68	10223.06
737.021	10241.37
737.361	10203.4
737.702	10275.49
738.042	10271.65
738.383	10208.83
738.723	10272.33
739.063	10240.01
739.404	10258.09
739.744	10288.6
740.084	10251.54
740.424	10265.78
740.764	10270.52
741.104	10263.97
741.444	10290.41
741.784	10282.72
742.124	10270.52
742.464	10357.07
742.804	10250.41
743.143	10343.74
743.483	10371.08
743.823	10408.6
744.162	10397.98
744.502	10471.87
744.841	10534.69
745.181	10564.75
745.52	10543.51
745.86	10619.89
746.199	10570.63
746.538	10634.35
746.877	10704.86
747.216	10769.94
747.556	10757.06
747.895	10842.26
748.234	10832.31
748.573	10883.61
748.911	10993.44
749.25	11059.2
749.589	11027.79
749.928	11103.27
750.267	11232.53
750.605	11294.67
750.944	11293.77
751.283	11355.24
751.621	11475.01
751.96	11536.93
752.298	11695.12
752.636	11644.95
752.975	11765.85
753.313	11861.21
753.651	12007.42
753.989	12034.09
754.327	12250.58
754.666	12249.23
755.004	12470.46
755.342	12587.75
755.679	12740.51
756.017	12778.03
