Data from hue_240_FLMS001491_00071.txt Node
Date: Tue Feb 07 16:35:55 GMT 2017
User: dcchb
Spectrometer: FLMS00149
Trigger mode: 0
Integration Time (sec): 2.000000E-2
Scans to average: 10
Electric dark correction enabled: true
Nonlinearity correction enabled: false
Boxcar width: 0
XAxis mode: Wavelengths
Number of Pixels in Spectrum: 2048
>>>>>Begin Spectral Data<<<<<
341.393	-14.45
341.776	-14.45
342.16	-14.45
342.543	-61
342.927	-71.17
343.31	-64.16
343.693	-65.07
344.077	-63.04
344.46	-48.8
344.843	-51.74
345.226	-46.31
345.61	-24.17
345.993	-12.87
346.376	-6.54
346.759	7.02
347.142	25.78
347.525	39.34
347.908	58.54
348.291	70.75
348.674	79.79
349.057	101.48
349.44	105.77
349.823	149.61
350.206	153.23
350.588	176.96
350.971	203.85
351.354	200.23
351.737	238.2
352.119	256.73
352.502	263.51
352.884	254.92
353.267	271.42
353.65	292.89
354.032	283.62
354.414	303.28
354.797	293.79
355.179	314.13
355.562	297.18
355.944	329.27
356.326	313.68
356.709	315.71
357.091	336.5
357.473	310.97
357.855	326.56
358.238	319.78
358.62	330.63
359.002	345.09
359.384	306.9
359.766	322.72
360.148	322.49
360.53	304.19
360.912	347.12
361.294	332.21
361.676	341.47
362.057	324.98
362.439	307.12
362.821	322.94
363.203	341.25
363.584	313.45
363.966	317.07
364.348	331.53
364.729	317.75
365.111	312.77
365.493	305.54
365.874	295.6
366.256	315.03
366.637	322.27
367.019	294.02
367.4	311.87
367.781	295.83
368.163	301.25
368.544	310.51
368.925	301.48
369.306	305.09
369.688	303.96
370.069	318.88
370.45	299.67
370.831	282.72
371.212	306.45
371.593	287.46
371.974	287.92
372.355	298.31
372.736	306.67
373.117	320.23
373.498	316.62
373.879	296.73
374.26	319.1
374.641	288.82
375.021	305.09
375.402	303.51
375.783	315.49
376.163	322.49
376.544	318.2
376.925	307.35
377.305	318.88
377.686	323.85
378.066	337.41
378.447	311.64
378.827	309.61
379.208	323.62
379.588	327.46
379.968	323.17
380.349	351.87
380.729	338.54
381.109	318.88
381.489	335.15
381.87	324.75
382.25	323.17
382.63	323.85
383.01	321.14
383.39	331.98
383.77	332.43
384.15	338.54
384.53	344.64
384.91	340.12
385.29	340.8
385.67	322.72
386.049	337.41
386.429	345.54
386.809	338.54
387.189	352.32
387.568	337.41
387.948	356.16
388.328	339.44
388.707	346.9
389.087	345.54
389.466	370.85
389.846	364.75
390.225	347.8
390.605	366.78
390.984	366.11
391.363	362.94
391.743	358.2
392.122	357.97
392.501	361.81
392.881	384.64
393.26	358.42
393.639	355.26
394.018	357.74
394.397	383.28
394.776	360.91
395.155	383.28
395.534	401.81
395.913	382.83
396.292	381.47
396.671	374.47
397.05	390.96
397.429	389.38
397.808	398.42
398.186	391.64
398.565	391.42
398.944	404.52
399.323	394.13
399.701	388.93
400.08	400
400.458	397.29
400.837	405.2
401.215	412.88
401.594	383.73
401.972	422.83
402.351	413.34
402.729	407.24
403.107	446.33
403.486	418.31
403.864	428.93
404.242	425.54
404.62	415.82
404.999	427.35
405.377	437.52
405.755	427.8
406.133	451.53
406.511	427.8
406.889	449.04
407.267	455.82
407.645	468.02
408.023	451.3
408.401	475.93
408.779	460.57
409.156	482.71
409.534	481.13
409.912	476.84
410.29	510.28
410.667	498.08
411.045	510.28
411.422	519.77
411.8	529.27
412.178	509.83
412.555	522.94
412.933	524.52
413.31	563.39
413.687	527.68
414.065	551.19
414.442	531.75
414.819	568.36
415.197	578.53
415.574	587.34
415.951	575.82
416.328	578.53
416.705	585.54
417.082	602.71
417.46	612.2
417.837	633.44
418.214	626.89
418.591	600.22
418.967	617.17
419.344	638.64
419.721	641.81
420.098	688.81
420.475	663.05
420.852	663.95
421.228	647.45
421.605	670.05
421.982	683.16
422.358	698.3
422.735	709.6
423.111	731.75
423.488	712.09
423.864	733.55
424.241	737.85
424.617	766.55
424.994	793.21
425.37	782.59
425.746	745.53
426.123	771.07
426.499	800.22
426.875	802.93
427.251	812.65
427.627	821.24
428.003	836.6
428.379	847.22
428.756	833.89
429.132	837.05
429.507	870.27
429.883	877.51
430.259	892.42
430.635	894.68
431.011	890.61
431.387	918.63
431.763	932.19
432.138	946.88
432.514	936.71
432.89	958.41
433.265	987.56
433.641	1017.39
434.016	1006.77
434.392	1039.53
434.767	1031.85
435.143	1031.4
435.518	1059.87
435.894	1062.81
436.269	1067.33
436.644	1108.01
437.02	1125.86
437.395	1123.6
437.77	1157.5
438.145	1146.88
438.52	1173.54
438.895	1192.3
439.271	1212.19
439.646	1241.11
440.021	1239.76
440.395	1244.05
440.77	1238.4
441.145	1270.94
441.52	1288.57
441.895	1289.25
442.27	1308.91
442.645	1298.51
443.019	1316.59
443.394	1353.88
443.769	1345.52
444.143	1338.96
444.518	1347.55
444.892	1379.19
445.267	1392.29
445.641	1422.58
446.016	1401.33
446.39	1427.1
446.764	1443.82
447.139	1426.87
447.513	1457.83
447.887	1432.52
448.262	1462.57
448.636	1484.04
449.01	1473.87
449.384	1510.93
449.758	1478.17
450.132	1531.05
450.506	1532.18
450.88	1559.75
451.254	1565.4
451.628	1570.82
452.002	1567.43
452.376	1590.25
452.75	1622.12
453.123	1615.11
453.497	1666.86
453.871	1656.02
454.244	1698.05
454.618	1711.16
454.992	1677.71
455.365	1713.64
455.739	1737.82
456.112	1764.04
456.486	1769.46
456.859	1806.52
457.232	1817.59
457.606	1819.18
457.979	1843.13
458.352	1866.86
458.725	1913.18
459.099	1893.98
459.472	1936.69
459.845	1937.82
460.218	1990.47
460.591	1967.42
460.964	2010.58
461.337	2034.08
461.71	2069.34
462.083	2079.51
462.456	2086.06
462.829	2094.42
463.201	2149.56
463.574	2138.94
463.947	2158.6
464.32	2199.73
464.692	2249.67
465.065	2235.44
465.438	2271.82
465.81	2286.96
466.183	2329.9
466.555	2378.26
466.928	2380.52
467.3	2363.57
467.672	2436.79
468.045	2481.53
468.417	2468.42
468.789	2474.53
469.161	2505.26
469.534	2562.43
469.906	2599.49
470.278	2621.19
470.65	2674.75
471.022	2711.58
471.394	2728.98
471.766	2731.24
472.138	2759.72
472.51	2850.56
472.882	2883.55
473.253	2916.1
473.625	2922.2
473.997	2960.16
474.369	2985.25
474.74	3031.57
475.112	3049.88
475.484	3096.2
475.855	3173.94
476.227	3190.66
476.598	3277.67
476.97	3258.01
477.341	3381.85
477.713	3396.99
478.084	3434.27
478.455	3490.32
478.827	3525.12
479.198	3613.03
479.569	3638.56
479.94	3708.84
480.311	3715.85
480.682	3799.24
481.053	3871.1
481.424	3902.28
481.795	3961.72
482.166	3973.92
482.537	4005.78
482.908	4101.15
483.279	4155.61
483.65	4203.07
484.021	4281.03
484.391	4308.38
484.762	4357.64
485.133	4425.66
485.503	4445.09
485.874	4526.45
486.244	4580.23
486.615	4631.76
486.985	4659.55
487.356	4753.56
487.726	4745.2
488.097	4884.18
488.467	4908.13
488.837	4991.75
489.207	4996.94
489.578	5042.37
489.948	5066.32
490.318	5137.28
490.688	5212.53
491.058	5248.92
491.428	5346.31
491.798	5343.38
492.168	5433.54
492.538	5447.55
492.908	5523.48
493.278	5569.13
493.648	5573.88
494.017	5660.2
494.387	5708.79
494.757	5734.1
495.126	5789.92
495.496	5817.94
495.866	5800.99
496.235	5903.14
496.605	5936.58
496.974	5996.92
497.344	5974.77
497.713	6007.09
498.082	6017.93
498.452	6125.28
498.821	6137.03
499.19	6116.01
499.559	6135.22
499.928	6183.58
500.298	6245.5
500.667	6319.4
501.036	6291.15
501.405	6371.37
501.774	6393.29
502.143	6353.52
502.512	6372.73
502.88	6407.76
503.249	6405.27
503.618	6461.09
503.987	6479.39
504.356	6554.64
504.724	6510.35
505.093	6539.73
505.462	6577.24
505.83	6632.16
506.199	6661.76
506.567	6716.22
506.936	6735.43
507.304	6802.1
507.672	6788.08
508.041	6826.95
508.409	6870.57
508.777	6830.79
509.145	6911.02
509.514	6880.96
509.882	6944.24
510.25	6936.78
510.618	6944.92
510.986	6986.05
511.354	7013.39
511.722	7044.57
512.09	7053.61
512.458	7057.68
512.826	7114.4
513.193	7149.43
513.561	7158.7
513.929	7196.44
514.297	7250.9
514.664	7224.91
515.032	7227.62
515.4	7263.78
515.767	7272.14
516.135	7285.92
516.502	7217.23
516.869	7339.71
517.237	7394.17
517.604	7311.46
517.972	7481.4
518.339	7400.95
518.706	7448.63
519.073	7447.28
519.44	7500.16
519.808	7475.75
520.175	7510.1
520.542	7562.3
520.909	7575.63
521.276	7564.11
521.643	7592.81
522.009	7585.58
522.376	7626.71
522.743	7692.24
523.11	7669.87
523.477	7758.68
523.843	7774.95
524.21	7772.01
524.577	7795.52
524.943	7769.53
525.31	7786.7
525.676	7895.63
526.043	7854.5
526.409	7916.64
526.776	7986.02
527.142	7968.84
527.508	7962.06
527.874	8012.91
528.241	8027.37
528.607	8021.27
528.973	8110.99
529.339	8087.26
529.705	8110.31
530.071	8117.31
530.437	8153.7
530.803	8150.31
531.169	8153.7
531.535	8096.07
531.901	8124.09
532.267	8130.42
532.632	8227.82
532.998	8206.35
533.364	8136.52
533.73	8233.24
534.095	8227.59
534.461	8268.05
534.826	8287.71
535.192	8283.19
535.557	8299.23
535.923	8259.91
536.288	8240.02
536.653	8264.2
537.019	8287.25
537.384	8268.95
537.749	8277.31
538.114	8211.78
538.479	8308.95
538.845	8288.38
539.21	8212.91
539.575	8216.97
539.94	8208.16
540.305	8260.36
540.67	8271.66
541.034	8214.94
541.399	8237.76
541.764	8234.83
542.129	8265.11
542.494	8233.92
542.858	8168.61
543.223	8244.77
543.587	8245.22
543.952	8170.87
544.316	8255.39
544.681	8300.59
545.045	8179.91
545.41	8222.17
545.774	8294.49
546.138	8217.2
546.503	8209.29
546.867	8212.91
547.231	8247.25
547.595	8188.05
547.959	8212.91
548.324	8180.59
548.688	8206.35
549.052	8204.09
549.416	8167.93
549.779	8205.67
550.143	8195.5
550.507	8199.35
550.871	8181.72
551.235	8143.53
551.599	8273.24
551.962	8163.42
552.326	8210.19
552.689	8312.34
553.053	8228.05
553.417	8191.21
553.78	8227.82
554.143	8207.93
554.507	8205.67
554.87	8218.78
555.234	8282.51
555.597	8206.8
555.96	8287.25
556.323	8212.91
556.686	8259.01
557.05	8280.25
557.413	8260.14
557.776	8226.92
558.139	8263.3
558.502	8282.06
558.865	8327.48
559.228	8404.31
559.59	8315.95
559.953	8332.68
560.316	8343.98
560.679	8388.72
561.041	8403.41
561.404	8410.64
561.767	8486.57
562.129	8366.57
562.492	8420.58
562.854	8389.4
563.217	8452.67
563.579	8472.33
563.941	8529.73
564.304	8466.23
564.666	8524.76
565.028	8586.23
565.39	8576.74
565.753	8639.79
566.115	8628.26
566.477	8597.53
566.839	8623.29
567.201	8690.86
567.563	8706.23
567.925	8736.73
568.287	8706.45
568.648	8727.92
569.01	8763.4
569.372	8808.6
569.734	8791.87
570.095	8828.93
570.457	8868.03
570.819	8832.32
571.18	8910.29
571.542	8913.45
571.903	8898.09
572.265	9003.62
572.626	8894.24
572.987	8981.92
573.349	9034.13
573.71	8997.52
574.071	8980.12
574.432	9100.34
574.794	9177.4
575.155	9112.32
575.516	9052.21
575.877	9088.14
576.238	9145.76
576.599	9175.37
576.96	9230.96
577.32	9188.02
577.681	9305.31
578.042	9202.48
578.403	9297.62
578.763	9310.73
579.124	9341.24
579.485	9287.68
579.845	9404.74
580.206	9335.14
580.566	9386.21
580.927	9377.17
581.287	9427.34
581.648	9371.29
582.008	9512.53
582.368	9408.81
582.728	9508.46
583.089	9444.51
583.449	9423.27
583.809	9522.25
584.169	9512.98
584.529	9463.04
584.889	9569.93
585.249	9514.11
585.609	9445.42
585.969	9590.72
586.329	9611.74
586.688	9550.95
587.048	9596.15
587.408	9590.27
587.768	9596.6
588.127	9598.63
588.487	9614.22
588.846	9639.08
589.206	9559.08
589.565	9662.13
589.925	9702.13
590.284	9647.22
590.643	9665.52
591.003	9670.04
591.362	9750.72
591.721	9661.91
592.08	9658.74
592.44	9780.55
592.799	9676.37
593.158	9740.55
593.517	9735.8
593.876	9757.05
594.235	9747.1
594.593	9771.73
594.952	9737.61
595.311	9731.51
595.67	9729.48
596.029	9764.05
596.387	9845.18
596.746	9834.33
597.104	9803.37
597.463	9813.09
597.822	9852.18
598.18	9841.11
598.538	9853.54
598.897	9838.85
599.255	9774.22
599.613	9950.49
599.972	9859.19
600.33	9877.27
600.688	9811.73
601.046	9879.98
601.404	9937.83
601.762	9875.69
602.12	9893.77
602.478	9957.04
602.836	10010.6
603.194	9881.11
603.552	9944.39
603.91	9848.57
604.268	9961.56
604.625	9888.12
604.983	9922.01
605.341	9873.2
605.698	9929.47
606.056	9965.18
606.413	9972.86
606.771	10002.69
607.128	10009.69
607.485	9988.23
607.843	9906.65
608.2	10061.67
608.557	10025.06
608.914	10039.07
609.272	10025.51
609.629	10089.92
609.986	10056.47
610.343	10049.69
610.7	10153.65
611.057	10074.78
611.414	10121.78
611.771	10147.32
612.127	10133.53
612.484	10170.82
612.841	10190.25
613.198	10193.42
613.554	10120.65
613.911	10220.99
614.267	10147.32
614.624	10179.63
614.98	10168.11
615.337	10183.25
615.693	10181.22
616.05	10148.45
616.406	10278.39
616.762	10220.76
617.118	10211.72
617.475	10201.55
617.831	10244.04
618.187	10389.12
618.543	10220.76
618.899	10330.36
619.255	10320.42
619.611	10306.64
619.967	10306.18
620.323	10319.06
620.678	10317.03
621.034	10246.75
621.39	10262.8
621.746	10265.96
622.101	10336.47
622.457	10330.82
622.812	10318.39
623.168	10352.96
623.523	10315.45
623.879	10390.93
624.234	10378.72
624.589	10343.47
624.945	10301.66
625.3	10330.14
625.655	10332.17
626.01	10345.28
626.365	10332.62
626.72	10345.05
627.075	10328.33
627.43	10247.43
627.785	10327.65
628.14	10322.45
628.495	10382.57
628.85	10301.89
629.205	10257.15
629.559	10280.87
629.914	10279.74
630.269	10247.65
630.623	10183.25
630.978	10181.22
631.332	10223.02
631.687	10290.59
632.041	10236.58
632.396	10189.58
632.75	10204.72
633.104	10221.89
633.459	10126.75
633.813	10128.34
634.167	10165.85
634.521	10117.94
634.875	10143.7
635.229	10096.7
635.583	10107.09
635.937	10076.59
636.291	10048.11
636.645	10091.95
636.999	10015.8
637.352	10024.61
637.706	9945.52
638.06	10092.86
638.413	10007.89
638.767	9954.1
639.121	9980.99
639.474	9961.11
639.828	9939.41
640.181	9910.71
640.534	9940.09
640.888	9898.74
641.241	9849.7
641.594	9858.74
641.947	9877.72
642.301	9858.06
642.654	9873.65
643.007	9945.52
643.36	9865.97
643.713	9872.97
644.066	9821.45
644.419	9804.28
644.771	9806.08
645.124	9650.38
645.477	9719.98
645.83	9589.14
646.182	9519.31
646.535	9539.65
646.888	9509.14
647.24	9470.27
647.593	9516.37
647.945	9470.27
648.298	9505.07
648.65	9480.44
649.002	9486.77
649.355	9531.06
649.707	9479.76
650.059	9511.85
650.411	9649.48
650.763	9583.94
651.115	9702.58
651.467	9717.95
651.819	9660.1
652.171	9745.07
652.523	9663.49
652.875	9643.38
653.227	9708.46
653.578	9728.12
653.93	9639.99
654.282	9669.82
654.633	9603.83
654.985	9685.41
655.337	9619.42
655.688	9601.57
656.039	9644.05
656.391	9559.31
656.742	9591.4
657.094	9590.5
657.445	9660.55
657.796	9722.02
658.147	9604.73
658.498	9616.71
658.849	9643.6
659.2	9642.92
659.551	9592.3
659.902	9658.07
660.253	9624.85
660.604	9662.58
660.955	9590.27
661.306	9694.22
661.656	9584.62
662.007	9665.07
662.358	9678.86
662.708	9652.42
663.059	9631.17
663.409	9617.39
663.76	9642.92
664.11	9671.62
664.461	9634.34
664.811	9675.47
665.161	9632.3
665.511	9642.25
665.862	9630.72
666.212	9609.7
666.562	9679.08
666.912	9652.87
667.262	9589.82
667.612	9665.75
667.962	9633.66
668.312	9606.77
668.662	9639.08
669.011	9593.21
669.361	9562.47
669.711	9637.5
670.06	9631.4
670.41	9523.83
670.76	9523.38
671.109	9621.91
671.459	9576.26
671.808	9542.14
672.157	9496.49
672.507	9506.66
672.856	9532.87
673.205	9472.99
673.554	9497.17
673.904	9549.14
674.253	9534.9
674.602	9512.08
674.951	9323.61
675.3	9290.84
675.649	9467.56
675.998	9444.06
676.346	9507.11
676.695	9449.48
677.044	9447
677.393	9423.72
677.741	9427.34
678.09	9335.14
678.438	9381.24
678.787	9374.68
679.135	9438.86
679.484	9295.36
679.832	9327.9
680.181	9291.52
680.529	9363.16
680.877	9301.01
681.225	9341.24
681.573	9323.61
681.922	9258.98
682.27	9275.7
682.618	9249.04
682.966	9207.46
683.314	9171.07
683.661	9142.6
684.009	9157.06
684.357	9113.9
684.705	9088.81
685.053	9091.07
685.4	9101.24
685.748	8997.97
686.095	9041.58
686.443	9028.7
686.79	9007.91
687.138	9021.7
687.485	8993
687.832	8954.81
688.18	8909.16
688.527	8884.98
688.874	8915.94
689.221	8856.96
689.568	8856.73
689.915	8758.2
690.262	8768.15
690.609	8801.14
690.956	8675.27
691.303	8761.14
691.65	8774.7
691.997	8718.2
692.344	8615.38
692.69	8599.56
693.037	8582.39
693.383	8564.76
693.73	8552.78
694.077	8506.68
694.423	8499.23
694.769	8475.27
695.116	8416.97
695.462	8459.23
695.808	8396.63
696.155	8389.85
696.501	8341.49
696.847	8348.5
697.193	8285.67
697.539	8270.53
697.885	8214.71
698.231	8218.1
698.577	8190.31
698.923	8217.88
699.269	8145.11
699.614	8112.8
699.96	8051.55
700.306	8028.96
700.651	7986.47
700.997	8000.71
701.342	8009.52
701.688	7951.22
702.033	7960.93
702.379	7935.4
702.724	7855.4
703.069	7944.44
703.415	7777.89
703.76	7789.19
704.105	7779.02
704.45	7774.5
704.795	7724.33
705.14	7689.3
705.485	7706.48
705.83	7600.94
706.175	7706.7
706.52	7645.91
706.865	7600.94
707.209	7531.34
707.554	7519.82
707.899	7520.72
708.243	7506.03
708.588	7518.23
708.932	7473.26
709.277	7478.24
709.621	7451.12
709.966	7358.01
710.31	7370.22
710.654	7296.32
710.998	7422.87
711.342	7341.52
711.687	7322.31
712.031	7363.21
712.375	7318.92
712.719	7237.11
713.063	7309.88
713.407	7301.52
713.75	7226.72
714.094	7267.62
714.438	7234.17
714.782	7268.07
715.125	7139.26
715.469	7167.51
715.812	7210.22
716.156	7134.52
716.499	7123.44
716.843	7151.24
717.186	7143.1
717.53	7120.73
717.873	7081.86
718.216	7120.05
718.559	7074.4
718.902	7003.9
719.246	7002.99
719.589	6949.44
719.932	7001.86
720.275	6995.76
720.617	7005.48
720.96	6961.41
721.303	6955.76
721.646	6929.78
721.989	6932.71
722.331	6969.55
722.674	6915.99
723.016	6979.04
723.359	6908.31
723.701	6932.94
724.044	6879.16
724.386	6868.31
724.729	6925.03
725.071	6831.47
725.413	6897.23
725.755	6825.15
726.097	6820.85
726.439	6826.28
726.782	6819.27
727.124	6798.71
727.465	6855.65
727.807	6855.88
728.149	6795.32
728.491	6781.08
728.833	6818.59
729.175	6755.77
729.516	6743.11
729.858	6772.04
730.199	6816.33
730.541	6776.56
730.882	6789.67
731.224	6777.92
731.565	6720.74
731.906	6800.97
732.248	6761.64
732.589	6743.11
732.93	6752.38
733.271	6788.54
733.612	6711.02
733.953	6698.6
734.294	6714.41
734.635	6745.6
734.976	6772.27
735.317	6692.72
735.658	6742.66
735.999	6753.73
736.339	6681.65
736.68	6733.62
737.021	6727.97
737.361	6775.88
737.702	6697.69
738.042	6684.13
738.383	6699.5
738.723	6780.4
739.063	6754.41
739.404	6793.96
739.744	6707.63
740.084	6728.2
740.424	6782.89
740.764	6708.31
741.104	6753.28
741.444	6772.27
741.784	6768.65
742.124	6797.8
742.464	6749.22
742.804	6781.76
743.143	6802.77
743.483	6794.41
743.823	6753.96
744.162	6820.17
744.502	6798.03
744.841	6836.22
745.181	6953.73
745.52	6918.7
745.86	6934.52
746.199	6875.31
746.538	6955.99
746.877	7006.38
747.216	7022.2
747.556	7042.09
747.895	7026.5
748.234	7066.72
748.573	7083.44
748.911	7117.34
749.25	7182.42
749.589	7162.99
749.928	7236.43
750.267	7287.51
750.605	7256.32
750.944	7330.89
751.283	7387.16
751.621	7396.66
751.96	7434.85
752.298	7521.17
752.636	7599.59
752.975	7580.83
753.313	7641.62
753.651	7720.26
753.989	7730.66
754.327	7883.65
754.666	7916.64
755.004	7954.83
755.342	8091.78
755.679	8133.81
756.017	8261.72
756.355	8307.59
756.693	8375.84
757.031	8491.09
757.368	8433.01
757.706	8602.5
758.044	8718.2
758.381	8811.99
758.719	8873.23
759.056	9058.53
759.394	8967.91
759.731	9134.01
760.068	9213.78
760.405	9331.75
760.743	9419.2
761.08	9508.01
761.417	9595.92
761.754	9731.06
762.091	9833.2
762.428	9845.63
762.765	9853.09
763.102	10101.67
763.438	10098.73
763.775	10215.11
764.112	10303.7
764.449	10383.7
764.785	10449.68
765.122	10561.32
765.458	10585.72
765.795	10751.6
766.131	10738.26
766.467	10925.83
766.804	10921.31
767.14	10985.94
767.476	11113.17
