Data from hue_260_FLMS001491_00032.txt Node
Date: Tue Feb 07 15:58:54 GMT 2017
User: dcchb
Spectrometer: FLMS00149
Trigger mode: 0
Integration Time (sec): 2.000000E-2
Scans to average: 10
Electric dark correction enabled: true
Nonlinearity correction enabled: false
Boxcar width: 0
XAxis mode: Wavelengths
Number of Pixels in Spectrum: 2048
>>>>>Begin Spectral Data<<<<<
341.393	-18.45
341.776	-18.45
342.16	-18.45
342.543	-59.12
342.927	-67.26
343.31	-70.87
343.693	-48.28
344.077	-63.87
344.46	-51.67
344.843	-51.21
345.226	-38.33
345.61	-39.69
345.993	-22.74
346.376	0.76
346.759	15.23
347.142	16.81
347.525	33.98
347.908	39.63
348.291	64.94
348.674	93.87
349.057	121.44
349.44	127.99
349.823	134.09
350.206	153.75
350.588	196.92
350.971	186.07
351.354	217.93
351.737	233.75
352.119	228.1
352.502	259.96
352.884	277.14
353.267	266.29
353.65	253.64
354.032	292.51
354.414	280.98
354.797	278.95
355.179	302.9
355.562	303.35
355.944	329.57
356.326	314.88
356.709	334.09
357.091	325.95
357.473	332.51
357.855	332.73
358.238	327.08
358.62	338.61
359.002	316.01
359.384	322.56
359.766	324.82
360.148	327.76
360.53	334.77
360.912	330.7
361.294	318.49
361.676	317.82
362.057	342.9
362.439	327.08
362.821	323.24
363.203	318.49
363.584	323.47
363.966	324.14
364.348	325.27
364.729	304.71
365.111	309.46
365.493	332.05
365.874	309.46
366.256	279.63
366.637	301.09
367.019	328.21
367.4	304.03
367.781	313.07
368.163	302.9
368.544	298.16
368.925	302.68
369.306	301.77
369.688	301.55
370.069	309.23
370.45	316.23
370.831	334.77
371.212	299.51
371.593	287.76
371.974	309.46
372.355	320.3
372.736	326.63
373.117	340.87
373.498	324.14
373.879	282.79
374.26	319.17
374.641	306.29
375.021	303.81
375.402	313.3
375.783	311.71
376.163	306.97
376.544	304.94
376.925	311.26
377.305	313.97
377.686	325.5
378.066	320.98
378.447	324.6
378.827	334.77
379.208	316.01
379.588	310.59
379.968	323.92
380.349	340.19
380.729	317.59
381.109	314.88
381.489	319.17
381.87	347.19
382.25	333.41
382.63	339.28
383.01	309.23
383.39	335.9
383.77	363.24
384.15	340.64
384.53	334.31
384.91	343.58
385.29	347.42
385.67	357.59
386.049	344.48
386.429	353.07
386.809	332.28
387.189	376.57
387.568	357.82
387.948	367.31
388.328	371.37
388.707	361.21
389.087	364.37
389.466	368.66
389.846	349.45
390.225	367.98
390.605	370.92
390.984	363.01
391.363	337.48
391.743	375.22
392.122	371.83
392.501	369.79
392.881	385.61
393.26	377.48
393.639	354.65
394.018	371.6
394.397	354.65
394.776	382
395.155	383.58
395.534	369.57
395.913	375.22
396.292	396.01
396.671	411.37
397.05	395.55
397.429	391.49
397.808	400.75
398.186	397.59
398.565	413.86
398.944	394.42
399.323	385.84
399.701	400.98
400.08	406.85
400.458	414.54
400.837	398.27
401.215	414.31
401.594	410.47
401.972	397.36
402.351	428.77
402.729	419.06
403.107	420.86
403.486	410.47
403.864	454.54
404.242	448.66
404.62	437.14
404.999	417.7
405.377	438.27
405.755	449.56
406.133	459.28
406.511	441.2
406.889	453.41
407.267	442.78
407.645	478.94
408.023	473.74
408.401	489.11
408.779	479.62
409.156	478.94
409.534	483.24
409.912	504.25
410.29	499.73
410.667	511.48
411.045	490.69
411.422	536.34
411.8	521.65
412.178	538.83
412.555	530.69
412.933	543.57
413.31	557.81
413.687	558.94
414.065	573.63
414.442	569.34
414.819	559.17
415.197	571.82
415.574	589.9
415.951	610.69
416.328	598.26
416.705	593.06
417.082	612.95
417.46	616.11
417.837	633.51
418.214	627.86
418.591	632.16
418.967	654.08
419.344	656.11
419.721	669.22
420.098	660.41
420.475	675.77
420.852	680.29
421.228	706.51
421.605	689.56
421.982	746.73
422.358	702.89
422.735	721.87
423.111	738.14
423.488	763.23
423.864	751.25
424.241	769.56
424.617	784.7
424.994	760.97
425.37	804.81
425.746	822.66
426.123	805.94
426.499	816.11
426.875	828.54
427.251	851.59
427.627	854.75
428.003	880.29
428.379	868.08
428.756	883.23
429.132	915.31
429.507	891.13
429.883	932.94
430.259	944.92
430.635	939.5
431.011	955.99
431.387	960.74
431.763	985.82
432.138	974.3
432.514	1032.83
432.89	1003.9
433.265	1040.06
433.641	1056.1
434.016	1048.42
434.392	1043.67
434.767	1086.38
435.143	1122.99
435.518	1135.2
435.894	1136.78
436.269	1157.12
436.644	1164.35
437.02	1202.54
437.395	1198.25
437.77	1241.86
438.145	1249.09
438.52	1260.16
438.895	1249.54
439.271	1262.65
439.646	1286.6
440.021	1314.85
440.395	1322.99
440.77	1342.87
441.145	1357.11
441.52	1369.09
441.895	1349.2
442.27	1383.1
442.645	1396.88
443.019	1420.39
443.394	1421.74
443.769	1458.58
444.143	1435.08
444.518	1480.72
444.892	1475.3
445.267	1473.49
445.641	1492.25
446.016	1522.76
446.39	1508.97
446.764	1501.29
447.139	1522.53
447.513	1540.61
447.887	1588.29
448.262	1560.27
448.636	1585.13
449.01	1591
449.384	1579.7
449.758	1609.31
450.132	1667.61
450.506	1618.12
450.88	1653.83
451.254	1644.34
451.628	1663.32
452.002	1696.76
452.376	1720.72
452.75	1694.5
453.123	1718.68
453.497	1738.12
453.871	1738.8
454.244	1795.97
454.618	1812.92
454.992	1838.91
455.365	1831.9
455.739	1843.88
456.112	1879.81
456.486	1886.14
456.859	1916.42
457.232	1916.64
457.606	1957.77
457.979	1958.45
458.352	2012.24
458.725	2035.96
459.099	2014.04
459.472	2060.6
459.845	2074.83
460.218	2069.41
460.591	2109.63
460.964	2130.88
461.337	2170.88
461.71	2202.96
462.083	2210.42
462.456	2234.38
462.829	2247.71
463.201	2259.01
463.574	2233.7
463.947	2280.25
464.32	2358.89
464.692	2333.36
465.065	2398.21
465.438	2405.9
465.81	2423.98
466.183	2426.01
466.555	2470.53
466.928	2534.03
467.3	2493.8
467.672	2506.46
468.045	2596.4
468.417	2595.27
468.789	2639.11
469.161	2684.08
469.534	2660.35
469.906	2729.05
470.278	2729.73
470.65	2763.4
471.022	2812.44
471.394	2890.4
471.766	2891.76
472.138	2909.61
472.51	2962.49
472.882	2992.1
473.253	3002.72
473.625	3079.1
473.997	3132.66
474.369	3121.36
474.74	3169.94
475.112	3190.96
475.484	3228.7
475.855	3295.37
476.227	3307.79
476.598	3397.06
476.97	3441.35
477.341	3489.94
477.713	3541.01
478.084	3537.84
478.455	3605.64
478.827	3649.93
479.198	3697.16
479.569	3751.4
479.94	3834.33
480.311	3848.8
480.682	3914.56
481.053	3978.51
481.424	4041.33
481.795	4076.14
482.166	4129.47
482.537	4116.59
482.908	4242.46
483.279	4268.67
483.65	4368.33
484.021	4417.14
484.391	4437.03
484.762	4458.72
485.133	4524.03
485.503	4557.48
485.874	4663.92
486.244	4701.43
486.615	4725.16
486.985	4802.9
487.356	4838.38
487.726	4901.2
488.097	4927.64
488.467	5014.19
488.837	5088.54
489.207	5124.24
489.578	5188.87
489.948	5206.73
490.318	5294.63
490.688	5290.79
491.058	5379.15
491.428	5411.69
491.798	5442.43
492.168	5575.98
492.538	5540.73
492.908	5602.88
493.278	5693.04
493.648	5709.31
494.017	5723.55
494.387	5785.7
494.757	5825.69
495.126	5836.32
495.496	5884
495.866	5888.29
496.235	5932.36
496.605	5956.76
496.974	6032.92
497.344	6007.38
497.713	5984.11
498.082	6104.33
498.452	6123.09
498.821	6154.5
499.19	6203.76
499.559	6226.14
499.928	6235.85
500.298	6250.77
500.667	6351.56
501.036	6315.17
501.405	6324.21
501.774	6375.28
502.143	6374.38
502.512	6410.99
502.88	6467.26
503.249	6456.86
503.618	6458.22
503.987	6507.94
504.356	6547.26
504.724	6523.98
505.093	6568.73
505.462	6593.13
505.83	6638.1
506.199	6709.29
506.567	6705.22
506.936	6724.2
507.304	6782.51
507.672	6724.2
508.041	6772.11
508.409	6825.44
508.777	6825.67
509.145	6888.49
509.514	6884.42
509.882	6908.83
510.25	6951.99
510.618	6916.29
510.986	6972.56
511.354	6949.51
511.722	7004.65
512.09	7009.84
512.458	7019.34
512.826	7033.57
513.193	7085.55
513.561	7141.14
513.929	7111.31
514.297	7145.43
514.664	7135.04
515.032	7168.71
515.4	7215.94
515.767	7209.61
516.135	7217.3
516.502	7097.07
516.869	7267.69
517.237	7268.59
517.604	7200.35
517.972	7281.48
518.339	7287.12
518.706	7286.22
519.073	7312.21
519.44	7322.83
519.808	7406.44
520.175	7359.89
520.542	7341.81
520.909	7426.1
521.276	7373.45
521.643	7390.17
522.009	7444.63
522.376	7489.61
522.743	7509.49
523.11	7515.59
523.477	7559.89
523.843	7593.33
524.21	7646.89
524.577	7707.68
524.943	7632.43
525.31	7669.04
525.676	7641.47
526.043	7725.08
526.409	7689.6
526.776	7777.28
527.142	7747
527.508	7793.1
527.874	7777.73
528.241	7758.52
528.607	7828.81
528.973	7811.4
529.339	7795.36
529.705	7837.84
530.071	7839.2
530.437	7916.03
530.803	7909.26
531.169	7913.77
531.535	7849.82
531.901	7867.9
532.267	7824.96
532.632	7927.79
532.998	7939.31
533.364	8011.4
533.73	7968.24
534.095	7989.25
534.461	7960.55
534.826	7917.62
535.192	7964.62
535.557	8023.6
535.923	7907.45
536.288	7939.31
536.653	7914.68
537.019	7894.57
537.384	7849.82
537.749	7917.39
538.114	7982.7
538.479	7890.27
538.845	7932.31
539.21	7886.21
539.575	7903.61
539.94	7900.89
540.305	7898.18
540.67	7887.79
541.034	7931.85
541.399	7941.12
541.764	7921.68
542.129	7829.48
542.494	7905.41
542.858	7901.57
543.223	7931.63
543.587	7919.42
543.952	7906.77
544.316	7889.37
544.681	7836.49
545.045	7813.21
545.41	7880.78
545.774	7852.76
546.138	7865.41
546.503	7805.98
546.867	7833.78
547.231	7910.84
547.595	7897.28
547.959	7882.36
548.324	7877.39
548.688	7802.59
549.052	7830.39
549.416	7851.4
549.779	7842.36
550.143	7823.16
550.507	7888.01
550.871	7819.09
551.235	7795.36
551.599	7832.87
551.962	7810.5
552.326	7726.44
552.689	7832.2
553.053	7755.14
553.417	7811.18
553.78	7786.32
554.143	7799.65
554.507	7815.02
554.87	7837.84
555.234	7872.42
555.597	7838.3
555.96	7795.59
556.323	7791.74
556.686	7839.88
557.05	7844.62
557.413	7871.97
557.776	7835.58
558.139	7921.91
558.502	7907.45
558.865	7879.65
559.228	7861.12
559.59	7890.72
559.953	7903.83
560.316	7925.3
560.679	7889.14
561.041	7930.72
561.404	7948.35
561.767	8008.91
562.129	7984.96
562.492	8080.32
562.854	7988.8
563.217	8010.5
563.579	8032.42
563.941	8051.85
564.304	8113.77
564.666	8112.41
565.028	8107.44
565.39	8101.11
565.753	8154.45
566.115	8137.05
566.477	8168.01
566.839	8185.18
567.201	8223.15
567.563	8212.52
567.925	8299.98
568.287	8293.43
568.648	8272.41
569.01	8363.71
569.372	8371.16
569.734	8370.26
570.095	8384.27
570.457	8456.13
570.819	8462.24
571.18	8492.06
571.542	8438.51
571.903	8530.48
572.265	8459.07
572.626	8550.14
572.987	8538.84
573.349	8577.71
573.71	8562.35
574.071	8553.08
574.432	8569.12
574.794	8709.23
575.155	8660.2
575.516	8617.71
575.877	8673.08
576.238	8683.25
576.599	8715.34
576.96	8770.7
577.32	8775.67
577.681	8773.19
578.042	8817.03
578.403	8857.48
578.763	8835.11
579.124	8874.88
579.485	8875.11
579.845	8950.13
580.206	8864.26
580.566	8928.89
580.927	8943.58
581.287	9038.04
581.648	8967.31
582.008	9001.88
582.368	8997.14
582.728	8984.93
583.089	9028.32
583.449	9001.43
583.809	9069
584.169	9088.43
584.529	9017.02
584.889	9124.59
585.249	9090.92
585.609	9115.55
585.969	9153.29
586.329	9138.15
586.688	9132.27
587.048	9114.2
587.408	9130.92
587.768	9165.95
588.127	9239.62
588.487	9147.19
588.846	9287.98
589.206	9151.93
589.565	9210.46
589.925	9269.67
590.284	9297.92
590.643	9321.2
591.003	9311.48
591.362	9313.74
591.721	9364.13
592.08	9277.81
592.44	9394.64
592.799	9341.08
593.158	9381.53
593.517	9437.35
593.876	9379.73
594.235	9390.57
594.593	9340.63
594.952	9418.59
595.311	9427.86
595.67	9368.43
596.029	9433.96
596.387	9490.68
596.746	9484.36
597.104	9435.99
597.463	9496.56
597.822	9470.57
598.18	9419.72
598.538	9417.92
598.897	9553.28
599.255	9411.59
599.613	9534.98
599.972	9512.15
600.33	9497.46
600.688	9509.21
601.046	9537.91
601.404	9629.21
601.762	9505.82
602.12	9544.92
602.478	9581.08
602.836	9610.45
603.194	9521.64
603.552	9562.77
603.91	9540.4
604.268	9532.72
604.625	9471.47
604.983	9570.91
605.341	9515.99
605.698	9599.83
606.056	9619.94
606.413	9612.26
606.771	9643.45
607.128	9547.63
607.485	9565.26
607.843	9628.53
608.2	9671.47
608.557	9693.16
608.914	9597.35
609.272	9650
609.629	9691.58
609.986	9731.81
610.343	9664.01
610.7	9771.13
611.057	9700.62
611.414	9689.77
611.771	9785.82
612.127	9786.04
612.484	9802.99
612.841	9823.1
613.198	9750.56
613.554	9770
613.911	9779.26
614.267	9887.06
614.624	9852.48
614.98	9855.42
615.337	9873.5
615.693	9882.99
616.05	9856.32
616.406	9917.34
616.762	9865.36
617.118	9814.97
617.475	9871.01
617.831	9818.58
618.187	9929.99
618.543	9926.83
618.899	9992.36
619.255	9948.98
619.611	9902.2
619.967	9888.86
620.323	9942.87
620.678	9948.3
621.034	9955.53
621.39	9922.76
621.746	9917.79
622.101	9981.97
622.457	10007.51
622.812	9936.09
623.168	9981.07
623.523	9928.86
623.879	9990.1
624.234	9895.19
624.589	9958.47
624.945	9994.85
625.3	10010.22
625.655	9830.33
626.01	9922.08
626.365	9939.71
626.72	9919.37
627.075	9901.97
627.43	9938.81
627.785	9869.88
628.14	9906.72
628.495	9941.74
628.85	9911.69
629.205	9844.35
629.559	9923.89
629.914	9853.84
630.269	9936.55
630.623	9851.58
630.978	9786.27
631.332	9873.5
631.687	9801.41
632.041	9841.41
632.396	9887.28
632.75	9720.96
633.104	9820.84
633.459	9744.01
633.813	9752.37
634.167	9829.2
634.521	9724.35
634.875	9734.97
635.229	9760.51
635.583	9688.87
635.937	9691.58
636.291	9678.47
636.645	9682.99
636.999	9655.65
637.352	9653.16
637.706	9654.75
638.06	9669.21
638.413	9600.96
638.767	9594.41
639.121	9654.07
639.474	9556.22
639.828	9563.9
640.181	9541.98
640.534	9583.79
640.888	9561.87
641.241	9529.1
641.594	9532.04
641.947	9499.5
642.301	9477.35
642.654	9555.54
643.007	9539.04
643.36	9466.95
643.713	9480.29
644.066	9560.06
644.419	9420.63
644.771	9393.74
645.124	9283.23
645.477	9270.8
645.83	9221.76
646.182	9173.63
646.535	9149.67
646.888	9184.48
647.24	9130.47
647.593	9167.3
647.945	9164.36
648.298	9177.92
648.65	9091.37
649.002	9055.21
649.355	9151.93
649.707	9136.79
650.059	9212.95
650.411	9276.45
650.763	9297.02
651.115	9349.67
651.467	9281.2
651.819	9341.76
652.171	9326.85
652.523	9286.17
652.875	9328.65
653.227	9277.58
653.578	9348.09
653.93	9306.05
654.282	9270.58
654.633	9240.52
654.985	9316
655.337	9298.6
655.688	9387.41
656.039	9344.7
656.391	9292.27
656.742	9263.57
657.094	9269.45
657.445	9382.44
657.796	9332.95
658.147	9257.69
658.498	9221.99
658.849	9336.34
659.2	9341.31
659.551	9263.34
659.902	9247.75
660.253	9318.03
660.604	9316.68
660.955	9319.39
661.306	9327.98
661.656	9261.54
662.007	9306.51
662.358	9328.88
662.708	9265.15
663.059	9344.25
663.409	9231.25
663.76	9355.77
664.11	9320.74
664.461	9317.58
664.811	9367.97
665.161	9300.63
665.511	9236.45
665.862	9273.29
666.212	9273.29
666.562	9358.48
666.912	9322.55
667.262	9298.37
667.612	9330.23
667.962	9286.62
668.312	9297.69
668.662	9340.86
669.011	9358.71
669.361	9259.73
669.711	9263.57
670.06	9244.81
670.41	9260.18
670.76	9287.52
671.109	9242.55
671.459	9273.51
671.808	9261.54
672.157	9248.88
672.507	9172.05
672.856	9204.36
673.205	9213.4
673.554	9245.94
673.904	9185.83
674.253	9262.89
674.602	9213.18
674.951	9111.26
675.3	8977.02
675.649	9176.79
675.998	9144.25
676.346	9161.88
676.695	9206.62
677.044	9122.33
677.393	9172.5
677.741	9134.53
678.09	9086.17
678.438	9067.64
678.787	9096.57
679.135	9099.05
679.484	9020.86
679.832	9086.63
680.181	8964.37
680.529	9023.58
680.877	9021.32
681.225	8987.87
681.573	9029.68
681.922	8940.41
682.27	8879.85
682.618	8915.33
682.966	8886.63
683.314	8966.18
683.661	8808.67
684.009	8803.24
684.357	8772.96
684.705	8778.16
685.053	8786.29
685.4	8795.33
685.748	8721.89
686.095	8768.89
686.443	8696.58
686.79	8701.78
687.138	8695.45
687.485	8691.61
687.832	8588.56
688.18	8632.85
688.527	8614.55
688.874	8606.64
689.221	8570.71
689.568	8564.15
689.915	8565.06
690.262	8479.18
690.609	8490.03
690.956	8409.13
691.303	8520.31
691.65	8400.77
691.997	8409.36
692.344	8384.05
692.69	8337.49
693.037	8353.76
693.383	8314.44
693.73	8248.91
694.077	8239.87
694.423	8171.17
694.769	8149.93
695.116	8148.35
695.462	8088.01
695.808	8061.34
696.155	8097.5
696.501	8013.21
696.847	7949.71
697.193	7952.42
697.539	7991.97
697.885	7931.63
698.231	7895.24
698.577	7868.13
698.923	7877.17
699.269	7847.56
699.614	7832.2
699.96	7767.11
700.306	7760.11
700.651	7740.22
700.997	7722.59
701.342	7680.11
701.688	7719.88
702.033	7647.57
702.379	7649.38
702.724	7576.38
703.069	7598.3
703.415	7562.6
703.76	7536.16
704.105	7503.16
704.45	7524.63
704.795	7493
705.14	7427.46
705.485	7411.64
705.83	7379.78
706.175	7331.64
706.52	7329.61
706.865	7273.57
707.209	7279.44
707.554	7249.61
707.899	7313.79
708.243	7218.43
708.588	7211.19
708.932	7147.24
709.277	7212.32
709.621	7124.19
709.966	7100.69
710.31	7061.59
710.654	7016.62
710.998	7041.03
711.342	7061.82
711.687	7050.29
712.031	6983.63
712.375	6963.97
712.719	6958.55
713.063	6936.17
713.407	6981.14
713.75	6901.37
714.094	6949.96
714.438	6865.67
714.782	6876.74
715.125	6834.03
715.469	6875.61
715.812	6823.18
716.156	6803.3
716.499	6777.76
716.843	6817.08
717.186	6798.55
717.53	6780.25
717.873	6844.2
718.216	6749.06
718.559	6765.33
718.902	6691.43
719.246	6741.6
719.589	6730.98
719.932	6694.6
720.275	6669.06
720.617	6659.12
720.96	6721.94
721.303	6695.05
721.646	6698.67
721.989	6653.02
722.331	6723.98
722.674	6661.15
723.016	6642.4
723.359	6616.86
723.701	6627.93
724.044	6586.58
724.386	6646.24
724.729	6606.01
725.071	6594.26
725.413	6606.24
725.755	6585.67
726.097	6565.11
726.439	6576.86
726.782	6577.54
727.124	6613.47
727.465	6561.04
727.807	6572.57
728.149	6509.52
728.491	6536.41
728.833	6525.11
729.175	6524.66
729.516	6538.22
729.858	6516.3
730.199	6537.54
730.541	6516.98
730.882	6508.16
731.224	6512.46
731.565	6462.74
731.906	6491.89
732.248	6509.74
732.589	6454.38
732.93	6459.12
733.271	6546.58
733.612	6477.2
733.953	6513.13
734.294	6533.92
734.635	6487.82
734.976	6453.47
735.317	6493.25
735.658	6522.63
735.999	6497.99
736.339	6479.24
736.68	6512.91
737.021	6537.54
737.361	6427.49
737.702	6483.08
738.042	6451.21
738.383	6494.6
738.723	6527.82
739.063	6487.82
739.404	6541.16
739.744	6488.73
740.084	6494.83
740.424	6552.23
740.764	6479.46
741.104	6525.11
741.444	6500.7
741.784	6503.64
742.124	6603.3
742.464	6549.74
742.804	6595.84
743.143	6590.42
743.483	6618.67
743.823	6520.82
744.162	6634.03
744.502	6617.31
744.841	6625.45
745.181	6659.12
745.52	6722.85
745.86	6677.88
746.199	6736.4
746.538	6710.64
746.877	6806.46
747.216	6786.8
747.556	6803.97
747.895	6888.49
748.234	6915.61
748.573	6946.12
748.911	6958.32
749.25	7062.95
749.589	7070.41
749.928	7069.73
750.267	7183.85
750.605	7235.6
750.944	7219.33
751.283	7314.47
751.621	7391.53
751.96	7399.44
752.298	7490.06
752.636	7560.56
752.975	7595.82
753.313	7667.45
753.651	7697.28
753.989	7783.61
754.327	7915.36
754.666	7912.19
755.004	8057.27
755.342	8134.56
755.679	8199.87
756.017	8230.83
756.355	8396.7
756.693	8482.35
757.031	8596.24
757.368	8669.69
757.706	8753.75
758.044	8916.01
758.381	9031.03
758.719	9049.11
759.056	9260.18
759.394	9351.25
759.731	9433.96
760.068	9540.4
760.405	9694.75
760.743	9734.07
761.08	9943.78
761.417	10022.42
761.754	10059.93
762.091	10205.47
762.428	10409.3
762.765	10391.45
763.102	10614.49
763.438	10681.16
763.775	10812.68
764.112	10925.67
764.449	11121.15
764.785	11172.9
765.122	11202.5
765.458	11364.76
765.795	11471.87
766.131	11566.33
766.467	11648.14
766.804	11775.14
767.14	11866.89
767.476	12040.22
767.812	12064.17
768.148	12122.03
768.485	12163.83
768.821	12317.73
769.157	12412.64
