Data from hue_24_FLMS001491_00033.txt Node
Date: Tue Feb 07 17:12:10 GMT 2017
User: dcchb
Spectrometer: FLMS00149
Trigger mode: 0
Integration Time (sec): 2.000000E-2
Scans to average: 10
Electric dark correction enabled: true
Nonlinearity correction enabled: false
Boxcar width: 0
XAxis mode: Wavelengths
Number of Pixels in Spectrum: 2048
>>>>>Begin Spectral Data<<<<<
341.393	5.99
341.776	5.99
342.16	5.99
342.543	-60.45
342.927	-59.77
343.31	-71.3
343.693	-77.4
344.077	-75.82
344.46	-53.67
344.843	-28.13
345.226	-38.3
345.61	-52.54
345.993	-26.78
346.376	6.21
346.759	3.5
347.142	46.89
347.525	36.27
347.908	66.78
348.291	62.94
348.674	70.39
349.057	130.96
349.44	149.94
349.823	153.56
350.206	166.66
350.588	205.53
350.971	227
351.354	245.08
351.737	262.25
352.119	250.73
352.502	269.26
352.884	280.78
353.267	278.52
353.65	304.74
354.032	315.36
354.414	329.14
354.797	302.25
355.179	313.33
355.562	325.98
355.944	337.05
356.326	346.77
356.709	339.77
357.091	324.85
357.473	353.1
357.855	325.75
358.238	349.48
358.62	350.39
359.002	370.72
359.384	351.06
359.766	347
360.148	341.57
360.53	338.41
360.912	331.18
361.294	318.75
361.676	350.61
362.057	344.28
362.439	323.49
362.821	329.14
363.203	336.15
363.584	330.27
363.966	323.72
364.348	321.46
364.729	318.3
365.111	323.49
365.493	318.75
365.874	329.14
366.256	326.88
366.637	327.11
367.019	325.98
367.4	332.53
367.781	315.36
368.163	319.43
368.544	306.32
368.925	303.38
369.306	339.99
369.688	329.37
370.069	333.66
370.45	313.78
370.831	311.29
371.212	325.75
371.593	331.86
371.974	321.91
372.355	325.98
372.736	298.64
373.117	318.07
373.498	334.34
373.879	328.24
374.26	320.1
374.641	319.43
375.021	327.11
375.402	323.72
375.783	349.71
376.163	319.65
376.544	342.02
376.925	356.26
377.305	340.67
377.686	335.25
378.066	350.39
378.447	337.28
378.827	316.49
379.208	340.89
379.588	340.22
379.968	338.64
380.349	339.77
380.729	326.21
381.109	341.12
381.489	340.22
381.87	353.78
382.25	353.78
382.63	337.05
383.01	354.45
383.39	353.78
383.77	363.04
384.15	362.59
384.53	360.1
384.91	328.01
385.29	360.56
385.67	355.58
386.049	364.85
386.429	367.11
386.809	353.78
387.189	360.56
387.568	358.52
387.948	362.82
388.328	384.74
388.707	369.59
389.087	386.09
389.466	374.11
389.846	382.02
390.225	376.15
390.605	368.46
390.984	382.93
391.363	392.65
391.743	385.64
392.122	384.06
392.501	386.54
392.881	410.05
393.26	375.92
393.639	412.98
394.018	377.96
394.397	379.09
394.776	403.49
395.155	402.81
395.534	389.48
395.913	415.02
396.292	400.1
396.671	407.11
397.05	403.04
397.429	399.88
397.808	409.37
398.186	402.59
398.565	408.69
398.944	403.04
399.323	402.81
399.701	408.92
400.08	434.45
400.458	415.24
400.837	415.24
401.215	412.76
401.594	423.6
401.972	433.32
402.351	411.85
402.729	423.15
403.107	440.33
403.486	439.88
403.864	432.19
404.242	443.72
404.62	449.37
404.999	434
405.377	452.3
405.755	427.9
406.133	439.42
406.511	451.63
406.889	428.35
407.267	439.88
407.645	456.82
408.023	445.07
408.401	458.63
408.779	466.32
409.156	469.71
409.534	464.73
409.912	444.17
410.29	469.25
410.667	485.98
411.045	486.43
411.422	483.49
411.8	471.96
412.178	492.76
412.555	496.15
412.933	489.59
413.31	491.85
413.687	506.77
414.065	527.78
414.442	517.16
414.819	502.02
415.197	502.25
415.574	522.13
415.951	521.91
416.328	542.92
416.705	524.62
417.082	524.39
417.46	522.36
417.837	541.34
418.214	532.53
418.591	535.24
418.967	534.34
419.344	556.71
419.721	564.84
420.098	535.69
420.475	553.32
420.852	556.48
421.228	561.91
421.605	563.71
421.982	571.62
422.358	563.49
422.735	558.29
423.111	592.87
423.488	601.91
423.864	582.24
424.241	595.35
424.617	597.16
424.994	615.92
425.37	608.68
425.746	617.27
426.123	611.62
426.499	626.54
426.875	592.41
427.251	623.6
427.627	634.9
428.003	640.77
428.379	641
428.756	657.5
429.132	635.8
429.507	660.43
429.883	650.94
430.259	657.95
430.635	682.81
431.011	671.28
431.387	666.76
431.763	670.83
432.138	692.98
432.514	702.69
432.89	707.21
433.265	718.51
433.641	714.9
434.016	737.49
434.392	732.52
434.767	763.71
435.143	739.98
435.518	769.13
435.894	744.73
436.269	762.58
436.644	768.23
437.02	775.23
437.395	749.92
437.77	785.63
438.145	782.24
438.52	804.61
438.895	797.15
439.271	800.09
439.646	809.81
440.021	811.62
440.395	840.77
440.77	823.82
441.145	829.7
441.52	842.35
441.895	843.48
442.27	845.29
442.645	845.29
443.019	850.71
443.394	844.16
443.769	852.52
444.143	872.41
444.518	862.92
444.892	852.07
445.267	887.55
445.641	871.5
446.016	913.31
446.39	897.04
446.764	891.39
447.139	889.36
447.513	909.24
447.887	928.22
448.262	935.68
448.636	918.05
449.01	936.13
449.384	943.82
449.758	961.22
450.132	948.11
450.506	959.41
450.88	974.32
451.254	998.96
451.628	990.6
452.002	997.15
452.376	990.82
452.75	966.19
453.123	1013.42
453.497	1014.1
453.871	1009.8
454.244	1052.51
454.618	1049.58
454.992	1083.93
455.365	1049.12
455.739	1104.72
456.112	1111.72
456.486	1087.32
456.859	1125.73
457.232	1117.15
457.606	1102.91
457.979	1117.15
458.352	1149.69
458.725	1176.35
459.099	1183.81
459.472	1207.09
459.845	1203.25
460.218	1205.73
460.591	1232.62
460.964	1213.64
461.337	1243.92
461.71	1287.99
462.083	1285.73
462.456	1256.35
462.829	1289.8
463.201	1309.01
463.574	1323.69
463.947	1376.8
464.32	1367.08
464.692	1381.55
465.065	1389.68
465.438	1401.66
465.81	1391.04
466.183	1451.37
466.555	1444.14
466.928	1461.09
467.3	1484.59
467.672	1482.56
468.045	1533.86
468.417	1536.12
468.789	1555.1
469.161	1576.12
469.534	1610.24
469.906	1643.69
470.278	1636
470.65	1664.48
471.022	1694.08
471.394	1730.46
471.766	1734.76
472.138	1777.02
472.51	1785.6
472.882	1804.36
473.253	1823.12
473.625	1860.63
473.997	1902.44
474.369	1921.19
474.74	1920.51
475.112	1984.69
475.484	2012.04
475.855	2050.23
476.227	2044.8
476.598	2122.54
476.97	2148.98
477.341	2172.03
477.713	2248.64
478.084	2244.57
478.455	2315.76
478.827	2348.98
479.198	2446.38
479.569	2433.5
479.94	2442.31
480.311	2505.58
480.682	2579.93
481.053	2621.96
481.424	2676.2
481.795	2718.69
482.166	2770.66
482.537	2823.09
482.908	2856.76
483.279	2939.24
483.65	2943.76
484.021	3059.02
484.391	3104.66
484.762	3102.63
485.133	3084.1
485.503	3208.84
485.874	3268.73
486.244	3320.48
486.615	3385.79
486.985	3392.57
487.356	3494.03
487.726	3530.64
488.097	3639.11
488.467	3642.5
488.837	3689.06
489.207	3746.68
489.578	3781.48
489.948	3837.75
490.318	3905.55
490.688	3948.94
491.058	4026
491.428	4113.45
491.798	4114.81
492.168	4217.63
492.538	4269.83
492.908	4281.36
493.278	4320.68
493.648	4399.32
494.017	4430.5
494.387	4495.81
494.757	4538.07
495.126	4614.23
495.496	4612.87
495.866	4656.49
496.235	4717.5
496.605	4765.41
496.974	4739.65
497.344	4801.34
497.713	4854.45
498.082	4868.23
498.452	4948.91
498.821	4980.55
499.19	5021.68
499.559	5065.74
499.928	5093.76
500.298	5080.66
500.667	5162.92
501.036	5202.91
501.405	5251.05
501.774	5266.64
502.143	5235.68
502.512	5340.76
502.88	5333.76
503.249	5382.8
503.618	5417.82
503.987	5434.55
504.356	5474.55
504.724	5512.06
505.093	5523.13
505.462	5516.13
505.83	5539.4
506.199	5673.41
506.567	5702.34
506.936	5680.42
507.304	5778.72
507.672	5797.7
508.041	5780.53
508.409	5831.6
508.777	5923.57
509.145	5926.06
509.514	5919.51
509.882	5897.13
510.25	5916.12
510.618	5956.79
510.986	6060.29
511.354	6091.03
511.722	6126.73
512.09	6150.46
512.458	6168.54
512.826	6187.75
513.193	6283.79
513.561	6248.99
513.929	6295.77
514.297	6392.49
514.664	6374.63
515.032	6378.25
515.4	6388.19
515.767	6422.99
516.135	6452.15
516.502	6418.48
516.869	6525.82
517.237	6554.52
517.604	6580.96
517.972	6618.92
518.339	6659.82
518.706	6660.05
519.073	6685.59
519.44	6705.02
519.808	6763.78
520.175	6731.91
520.542	6857.11
520.909	6869.99
521.276	6879.03
521.643	6923.77
522.009	7006.48
522.376	7030.66
522.743	7060.27
523.11	7105.69
523.477	7137.33
523.843	7156.53
524.21	7235.85
524.577	7242.41
524.943	7293.71
525.31	7347.49
525.676	7356.53
526.043	7407.83
526.409	7458
526.776	7508.16
527.142	7546.81
527.508	7564.66
527.874	7582.96
528.241	7677.43
528.607	7726.69
528.973	7754.49
529.339	7786.8
529.705	7852.34
530.071	7913.58
530.437	7921.49
530.803	7929.4
531.169	8023.18
531.535	7989.51
531.901	8027.02
532.267	8111.54
532.632	8132.55
532.998	8148.37
533.364	8185.66
533.73	8255.94
534.095	8299.33
534.461	8283.96
534.826	8412.32
535.192	8360.8
535.557	8411.19
535.923	8458.42
536.288	8494.8
536.653	8599.43
537.019	8516.73
537.384	8517.4
537.749	8616.38
538.114	8582.94
538.479	8633.11
538.845	8698.42
539.21	8708.81
539.575	8734.57
539.94	8756.49
540.305	8818.19
540.67	8821.8
541.034	8921.23
541.399	8950.84
541.764	8939.99
542.129	9007.79
542.494	9008.92
542.858	9138.86
543.223	9041.68
543.587	9132.3
543.952	9175.01
544.316	9185.18
544.681	9206.42
545.045	9230.15
545.41	9260.89
545.774	9356.93
546.138	9290.94
546.503	9325.52
546.867	9408
547.231	9441.45
547.595	9515.57
547.959	9527.77
548.324	9509.47
548.688	9570.48
549.052	9640.31
549.416	9709.01
549.779	9723.47
550.143	9685.96
550.507	9758.27
550.871	9719.63
551.235	9791.04
551.599	9893.19
551.962	9854.32
552.326	9953.98
552.689	9948.78
553.053	9908.1
553.417	9964.82
553.78	10084.82
554.143	10093.63
554.507	10082.11
554.87	10075.33
555.234	10193.29
555.597	10153.74
555.96	10195.55
556.323	10251.82
556.686	10344.47
557.05	10336.11
557.413	10423.12
557.776	10364.36
558.139	10470.35
558.502	10503.34
558.865	10451.14
559.228	10583.56
559.59	10530.68
559.953	10591.02
560.316	10767.97
560.679	10709.89
561.041	10789.43
561.404	10788.08
561.767	10886.15
562.129	10832.14
562.492	10971.8
562.854	10963.89
563.217	10956.89
563.579	10973.16
563.941	11001.86
564.304	11116.88
564.666	11141.97
565.028	11184.45
565.39	11142.87
565.753	11284.79
566.115	11292.92
566.477	11357.33
566.839	11330.44
567.201	11449.08
567.563	11404.78
567.925	11539.92
568.287	11544.67
568.648	11512.35
569.01	11612.01
569.372	11643.87
569.734	11702.4
570.095	11763.19
570.457	11807.49
570.819	11813.14
571.18	11852.46
571.542	11938.33
571.903	11973.58
572.265	12035.05
572.626	12104.43
572.987	12204.09
573.349	12245.44
573.71	12183.3
574.071	12290.41
574.432	12409.96
574.794	12448.6
575.155	12567.69
575.516	12544.87
575.877	12641.81
576.238	12618.76
576.599	12836.39
576.96	12855.59
577.32	12889.94
577.681	13014.23
578.042	13100.56
578.403	13236.83
578.763	13281.57
579.124	13416.94
579.485	13507.78
579.845	13577.61
580.206	13736.7
580.566	13826.42
580.927	13957.26
581.287	14150.02
581.648	14175.33
582.008	14428.21
582.368	14517.25
582.728	14685.83
583.089	14747.97
583.449	14868.65
583.809	15141.18
584.169	15261.18
584.529	15464.57
584.889	15829.75
585.249	15752.47
585.609	15935.29
585.969	16228.39
586.329	16460.47
586.688	16665.66
587.048	17001.25
587.408	17119.44
587.768	17318.98
588.127	17540.22
588.487	17680.1
588.846	18116.7
589.206	18285.96
589.565	18502.68
589.925	18773.4
590.284	19007.3
590.643	19325.93
591.003	19704.23
591.362	20021.96
591.721	20126.36
592.08	20490.2
592.44	21020.8
592.799	21094.93
593.158	21338.31
593.517	21719.54
593.876	22034.79
594.235	22260.09
594.593	22567.2
594.952	22924.71
595.311	23218.03
595.67	23521.98
596.029	23978.01
596.387	24296.65
596.746	24485.8
597.104	24735.73
597.463	25198.09
597.822	25465.21
598.18	25639.66
598.538	25982.93
598.897	26513.99
599.255	26472.19
599.613	27293.86
599.972	27334.08
600.33	27582.21
600.688	27803.22
601.046	28189.43
601.404	28639.36
601.762	28846.13
602.12	29240.25
602.478	29518.66
602.836	29735.38
603.194	29897.86
603.552	30344.85
603.91	30436.15
604.268	30895.35
604.625	30969.47
604.983	31491.49
605.341	31524.93
605.698	31950.01
606.056	32287.63
606.413	32447.4
606.771	32712.7
607.128	32933.03
607.485	33177.32
607.843	33424.09
608.2	33864.08
608.557	34165.09
608.914	34234.92
609.272	34603.95
609.629	34914.22
609.986	35081.22
610.343	35271.73
610.7	35580.87
611.057	35834.2
611.414	35973.86
611.771	36123.68
612.127	36540.62
612.484	36628.75
612.841	36900.84
613.198	37021.96
613.554	37244.56
613.911	37564.55
614.267	37784.43
614.624	37848.38
614.98	38109.85
615.337	38372.44
615.693	38516.16
616.05	38673.9
616.406	38946.21
616.762	38870.5
617.118	39053.1
617.475	39268.46
617.831	39543.71
618.187	39786.41
618.543	39800.2
618.899	40018.04
619.255	40105.05
619.611	40128.78
619.967	40500.74
620.323	40661.64
620.678	40631.14
621.034	40648.99
621.39	40932.14
621.746	40864.8
622.101	41420.04
622.457	41285.36
622.812	41442.87
623.168	41558.79
623.523	41755.63
623.879	41797.88
624.234	41733.48
624.589	41929.86
624.945	41945.22
625.3	42088.5
625.655	42127.14
626.01	42046.69
626.365	42258.21
626.72	42264.99
627.075	42246.69
627.43	42410.3
627.785	42361.94
628.14	42602.16
628.495	42672.21
628.85	42601.03
629.205	42540.24
629.559	42792.66
629.914	42598.77
630.269	42918.08
630.623	42780.91
630.978	42876.73
631.332	43028.81
631.687	43259.77
632.041	42993.11
632.396	43128.24
632.75	42944.52
633.104	43089.38
633.459	43027
633.813	42985.42
634.167	43162.14
634.521	43086.44
634.875	43159.43
635.229	43163.05
635.583	43049.6
635.937	43182.03
636.291	42993.56
636.645	43225.64
636.999	43112.2
637.352	43240.33
637.706	43019.09
638.06	43187.68
638.413	43071.97
638.767	43112.65
639.121	43189.49
639.474	43006.21
639.828	43027.46
640.181	43056.61
640.534	43043.73
640.888	43051.18
641.241	42874.47
641.594	43056.83
641.947	43086.44
642.301	43032.43
642.654	43091.41
643.007	43026.33
643.36	43047.79
643.713	43014.58
644.066	43132.09
644.419	42845.31
644.771	42694.36
645.124	42276.52
645.477	42380.02
645.83	42137.31
646.182	41926.02
646.535	41793.36
646.888	41863.87
647.24	41713.59
647.593	41881.27
647.945	41804.21
648.298	41584.56
648.65	41426.59
649.002	41543.88
649.355	41629.75
649.707	41740.48
650.059	41839.69
650.411	42339.56
650.763	42384.99
651.115	42692.78
651.467	42531.42
651.819	42702.72
652.171	42516.51
652.523	42471.54
652.875	42446
653.227	42305.67
653.578	42514.48
653.93	42463.86
654.282	42374.14
654.633	42282.39
654.985	42391.77
655.337	42481.03
655.688	42415.27
656.039	42530.29
656.391	42182.96
656.742	42322.62
657.094	42322.62
657.445	42467.47
657.796	42357.64
658.147	42222.96
658.498	42267.48
658.849	42367.13
659.2	42287.59
659.551	42127.82
659.902	42337.08
660.253	42292.11
660.604	42315.38
660.955	42157.87
661.306	42338.89
661.656	42210.75
662.007	42150.19
662.358	42286.68
662.708	42287.14
663.059	42260.47
663.409	42024.32
663.76	42293.46
664.11	42215.27
664.461	42237.65
664.811	42365.33
665.161	42194.94
665.511	42286.68
665.862	42181.83
666.212	42426.79
666.562	42348.38
666.912	42296.85
667.262	42199.68
667.612	42060.25
667.962	42264.31
668.312	42200.59
668.662	42224.77
669.011	42054.37
669.361	42075.16
669.711	42025.67
670.06	41947.26
670.41	41886.02
670.76	41833.59
671.109	42043.53
671.459	41935.73
671.808	41914.49
672.157	41994.49
672.507	41594.05
672.856	41846.7
673.205	41996.07
673.554	42081.72
673.904	41747.26
674.253	42041.27
674.602	41967.15
674.951	41382.75
675.3	41203.78
675.649	41862.52
675.998	41826.36
676.346	41626.59
676.695	41848.73
677.044	41519.7
677.393	41559.47
677.741	41756.76
678.09	41615.97
678.438	41518.12
678.787	41499.59
679.135	41666.81
679.484	41451.23
679.832	41515.63
680.181	41336.43
680.529	41325.58
680.877	41158.13
681.225	41125.81
681.573	41437.22
681.922	41208.97
682.27	41099.82
682.618	41158.13
682.966	40989.77
683.314	41015.76
683.661	40946.16
684.009	40659.61
684.357	40725.14
684.705	40792.49
685.053	40696.67
685.4	40675.88
685.748	40592.04
686.095	40596.79
686.443	40466.39
686.79	40296.23
687.138	40357.92
687.485	40543.91
687.832	40333.97
688.18	40265.27
688.527	40178.04
688.874	40071.38
689.221	39901.89
689.568	40001.1
689.915	39811.27
690.262	39832.06
690.609	39711.61
690.956	39570.6
691.303	39500.09
691.65	39358.4
691.997	39335.12
692.344	39146.2
692.69	39079.76
693.037	39046.32
693.383	38825.98
693.73	38864.18
694.077	38742.82
694.423	38720.68
694.769	38518.65
695.116	38481.59
695.462	38378.54
695.808	38329.5
696.155	38348.26
696.501	37991.88
696.847	38118.88
697.193	37774.71
697.539	37899.91
697.885	37774.71
698.231	37759.35
698.577	37602.06
698.923	37599.35
699.269	37460.6
699.614	37374.95
699.96	37236.2
700.306	37284.78
700.651	36987.16
700.997	37047.05
701.342	36972.25
701.688	36890.67
702.033	36725.48
702.379	36667.85
702.724	36589.43
703.069	36754.85
703.415	36247.07
703.76	36326.84
704.105	36267.86
704.45	36161.87
704.795	35984.25
705.14	35913.52
705.485	35918.04
705.83	35752.39
706.175	35725.28
706.52	35667.88
706.865	35661.55
707.209	35595.79
707.554	35380.65
707.899	35455
708.243	35233.99
708.588	35214.78
708.932	34967.56
709.277	34869.03
709.621	34977.95
709.966	34872.64
710.31	34869.03
710.654	34542.93
710.998	34600.79
711.342	34603.04
711.687	34499.32
712.031	34266.56
712.375	34198.08
712.719	34350.85
713.063	34223.62
713.407	34316.5
713.75	34149.5
714.094	34151.31
714.438	33902.05
714.782	33963.74
715.125	33755.84
715.469	33855.04
715.812	33687.14
716.156	33498.44
716.499	33519.91
716.843	33564.2
717.186	33382.74
717.53	33587.93
717.873	33447.37
718.216	33412.34
718.559	33222.97
718.902	33066.59
719.246	33147.04
719.589	32933.26
719.932	32951.11
720.275	32879.93
720.617	32988.62
720.96	32869.76
721.303	32895.29
721.646	32836.31
721.989	32600.84
722.331	32676.77
722.674	32582.31
723.016	32629.31
723.359	32578.69
723.701	32593.83
724.044	32399.04
724.386	32249.66
724.729	32419.15
725.071	32168.98
725.413	32207.85
725.755	32135.99
726.097	32070.91
726.439	31883.79
726.782	31851.03
727.124	32030.91
727.465	31783.46
727.807	31851.03
728.149	31697.58
728.491	31687.87
728.833	31755.21
729.175	31594.76
729.516	31559.51
729.858	31434.99
730.199	31569.9
730.541	31389.12
730.882	31394.54
731.224	31463.01
731.565	31190.93
731.906	31259.4
732.248	31283.58
732.589	31106.64
732.93	31035.46
733.271	31028.22
733.612	31081.33
733.953	31263.92
734.294	30873.2
734.635	30906.64
734.976	30972.41
735.317	30768.12
735.658	30620.55
735.999	30723.15
736.339	30743.26
736.68	30802.24
737.021	30637.5
737.361	30505.3
737.702	30710.72
738.042	30483.38
738.383	30572.64
738.723	30563.15
739.063	30381.01
739.404	30516.82
739.744	30457.62
740.084	30304.63
740.424	30298.75
740.764	30233.44
741.104	30353.21
741.444	30103.95
741.784	29902.6
742.124	30066.44
742.464	30075.25
742.804	29958.87
743.143	30012.88
743.483	29941.7
743.823	29834.81
744.162	29839.33
744.502	29920.91
744.841	29686.34
745.181	29836.84
745.52	29675.72
745.86	29864.19
746.199	29677.3
746.538	29510.52
746.877	29664.19
747.216	29602.27
747.556	29517.08
747.895	29562.05
748.234	29346.23
748.573	29390.3
748.911	29329.06
749.25	29355.27
749.589	29223.98
749.928	29316.18
750.267	29277.76
750.605	29129.52
750.944	29105.11
751.283	28993.47
751.621	29122.51
751.96	28906.02
752.298	28948.73
752.636	28871.44
752.975	28825.8
753.313	28756.19
753.651	28842.74
753.989	28649.08
754.327	28494.96
754.666	28400.27
755.004	28467.39
755.342	28534.5
755.679	28424.45
756.017	28308.75
756.355	28386.03
756.693	28244.34
757.031	28136.32
757.368	28064.69
757.706	28020.85
758.044	27896.78
758.381	28060.39
758.719	27804.58
759.056	27850
