Data from hue_250_FLMS001491_00080.txt Node
Date: Tue Feb 07 16:01:28 GMT 2017
User: dcchb
Spectrometer: FLMS00149
Trigger mode: 0
Integration Time (sec): 2.000000E-2
Scans to average: 10
Electric dark correction enabled: true
Nonlinearity correction enabled: false
Boxcar width: 0
XAxis mode: Wavelengths
Number of Pixels in Spectrum: 2048
>>>>>Begin Spectral Data<<<<<
341.393	-10.69
341.776	-10.69
342.16	-10.69
342.543	-57.47
342.927	-83.68
343.31	-88.88
343.693	-74.64
344.077	-63.57
344.46	-61.09
344.843	-46.17
345.226	-56.11
345.61	-21.31
345.993	3.32
346.376	-8.21
346.759	36.09
347.142	41.06
347.525	51.91
347.908	51.91
348.291	66.37
348.674	70.21
349.057	99.14
349.44	126.03
349.823	138
350.206	145.69
350.588	190.21
350.971	204.22
351.354	209.42
351.737	235.63
352.119	242.41
352.502	243.54
352.884	266.14
353.267	278.11
353.65	283.31
354.032	285.35
354.414	277.89
354.797	304.78
355.179	300.26
355.562	300.94
355.944	320.6
356.326	343.65
356.709	324.21
357.091	328.06
357.473	333.48
357.855	325.57
358.238	313.82
358.62	326.93
359.002	325.57
359.384	338.45
359.766	327.38
360.148	317.66
360.53	321.73
360.912	317.21
361.294	342.97
361.676	307.49
362.057	321.5
362.439	308.62
362.821	337.1
363.203	319.92
363.584	332.8
363.966	310.66
364.348	306.14
364.729	328.28
365.111	313.59
365.493	318.57
365.874	304.55
366.256	308.4
366.637	277.44
367.019	314.5
367.4	294.84
367.781	317.21
368.163	291.22
368.544	287.83
368.925	313.82
369.306	313.14
369.688	288.51
370.069	302.75
370.45	303.65
370.831	286.7
371.212	318.57
371.593	314.05
371.974	312.69
372.355	318.57
372.736	307.72
373.117	325.57
373.498	323.99
373.879	305.91
374.26	319.47
374.641	336.19
375.021	306.14
375.402	310.2
375.783	338.23
376.163	327.83
376.544	317.21
376.925	299.13
377.305	317.21
377.686	324.89
378.066	318.57
378.447	333.03
378.827	314.27
379.208	316.08
379.588	332.35
379.968	331.45
380.349	333.03
380.729	340.49
381.109	339.13
381.489	332.12
381.87	332.8
382.25	345.91
382.63	317.66
383.01	333.71
383.39	347.49
383.77	328.96
384.15	365.12
384.53	340.94
384.91	355.63
385.29	343.88
385.67	359.24
386.049	347.72
386.429	335.06
386.809	340.49
387.189	353.82
387.568	337.1
387.948	357.43
388.328	332.35
388.707	360.6
389.087	358.11
389.466	359.47
389.846	360.82
390.225	378
390.605	378.9
390.984	353.59
391.363	382.97
391.743	371.45
392.122	364.89
392.501	365.57
392.881	375.96
393.26	374.83
393.639	359.02
394.018	355.17
394.397	373.25
394.776	350.2
395.155	400.37
395.534	394.5
395.913	378.68
396.292	379.58
396.671	396.76
397.05	385.23
397.429	389.52
397.808	394.27
398.186	390.88
398.565	407.38
398.944	396.98
399.323	389.3
399.701	394.72
400.08	412.57
400.458	401.95
400.837	399.01
401.215	412.35
401.594	415.96
401.972	414.38
402.351	401.95
402.729	417.55
403.107	429.3
403.486	425.45
403.864	421.39
404.242	429.07
404.62	445.79
404.999	440.37
405.377	438.79
405.755	439.01
406.133	450.99
406.511	446.92
406.889	478.11
407.267	462.52
407.645	487.6
408.023	458
408.401	483.53
408.779	484.66
409.156	476.75
409.534	503.42
409.912	500.93
410.29	495.96
410.667	490.99
411.045	509.29
411.422	537.99
411.8	532.57
412.178	559.91
412.555	532.34
412.933	539.35
413.31	547.94
413.687	551.78
414.065	564.21
414.442	561.72
414.819	592.68
415.197	590.65
415.574	587.03
415.951	589.52
416.328	608.27
416.705	606.02
417.082	611.89
417.46	632.23
417.837	642.4
418.214	613.02
418.591	616.41
418.967	652.57
419.344	641.27
419.721	673.58
420.098	678.1
420.475	666.8
420.852	678.33
421.228	697.54
421.605	696.41
421.982	715.62
422.358	729.18
422.735	715.39
423.111	731.66
423.488	747.03
423.864	758.1
424.241	769.4
424.617	768.95
424.994	759.01
425.37	780.02
425.746	805.11
426.123	823.86
426.499	796.29
426.875	819.12
427.251	828.38
427.627	843.75
428.003	854.6
428.379	881.71
428.756	864.99
429.132	888.95
429.507	907.7
429.883	919.23
430.259	883.97
430.635	939.79
431.011	946.12
431.387	942.73
431.763	964.88
432.138	986.12
432.514	968.49
432.89	989.28
433.265	1033.35
433.641	1035.83
434.016	1043.74
434.392	1086.45
434.767	1049.17
435.143	1092.56
435.518	1115.15
435.894	1128.71
436.269	1147.02
436.644	1160.8
437.02	1172.1
437.395	1184.76
437.77	1202.61
438.145	1197.41
438.52	1246.68
438.895	1291.42
439.271	1279.44
439.646	1275.6
440.021	1310.18
440.395	1301.14
440.77	1315.83
441.145	1328.03
441.52	1336.84
441.895	1364.19
442.27	1367.13
442.645	1354.47
443.019	1376.62
443.394	1432.43
443.769	1394.24
444.143	1432.43
444.518	1439.44
444.892	1453.22
445.267	1453.68
445.641	1474.24
446.016	1481.47
446.39	1502.94
446.764	1478.08
447.139	1483.73
447.513	1523.05
447.887	1514.24
448.262	1518.99
448.636	1530.06
449.01	1567.12
449.384	1554.24
449.758	1543.62
450.132	1591.53
450.506	1608.47
450.88	1604.18
451.254	1614.35
451.628	1638.3
452.002	1643.5
452.376	1647.34
452.75	1703.84
453.123	1692.54
453.497	1715.82
453.871	1732.99
454.244	1760.34
454.618	1775.48
454.992	1796.94
455.365	1801.24
455.739	1848.02
456.112	1852.31
456.486	1888.02
456.859	1895.02
457.232	1934.12
457.606	1905.64
457.979	1926.43
458.352	1968.01
458.725	1980.67
459.099	2017.28
459.472	2041.91
459.845	2052.53
460.218	2067.45
460.591	2086.88
460.964	2091.85
461.337	2102.92
461.71	2135.92
462.083	2179.31
462.456	2211.62
462.829	2196.71
463.201	2186.99
463.574	2256.14
463.947	2281.9
464.32	2313.54
464.692	2356.7
465.065	2336.82
465.438	2399.64
465.81	2451.62
466.183	2457.27
466.555	2499.07
466.928	2516.7
467.3	2469.69
467.672	2550.82
468.045	2596.7
468.417	2595.79
468.789	2616.36
469.161	2628.33
469.534	2698.16
469.906	2725.73
470.278	2742.46
470.65	2819.74
471.022	2818.84
471.394	2854.32
471.766	2855.9
472.138	2914.2
472.51	2989
472.882	3033.52
473.253	2994.65
473.625	3070.58
473.997	3156.23
474.369	3165.5
474.74	3181.99
475.112	3261.99
475.484	3259.96
475.855	3344.02
476.227	3321.65
476.598	3450.91
476.97	3443.23
477.341	3510.12
477.713	3565.49
478.084	3572.49
478.455	3671.25
478.827	3698.59
479.198	3810.22
479.569	3792.37
479.94	3859.04
480.311	3914.18
480.682	3992.37
481.053	4106.26
481.424	4135.64
481.795	4165.24
482.166	4218.58
482.537	4286.6
482.908	4273.72
483.279	4363.88
483.65	4405.92
484.021	4483.43
484.391	4545.12
484.762	4546.25
485.133	4642.07
485.503	4630.09
485.874	4761.39
486.244	4786.92
486.615	4810.2
486.985	4876.64
487.356	5005.67
487.726	5021.94
488.097	5098.33
488.467	5112.79
488.837	5222.39
489.207	5224.42
489.578	5313.46
489.948	5325.89
490.318	5403.63
490.688	5414.7
491.058	5500.58
491.428	5548.71
491.798	5612.21
492.168	5668.71
492.538	5712.55
492.908	5758.87
493.278	5853.11
493.648	5809.72
494.017	5860.34
494.387	5961.81
494.757	5947.34
495.126	6014.46
495.496	6071.86
495.866	6093.33
496.235	6142.59
496.605	6149.6
496.974	6201.35
497.344	6264.85
497.713	6304.17
498.082	6295.13
498.452	6330.16
498.821	6395.47
499.19	6368.58
499.559	6460.1
499.928	6483.15
500.298	6510.27
500.667	6560.21
501.036	6511.85
501.405	6630.94
501.774	6625.07
502.143	6656.48
502.512	6692.63
502.88	6703.03
503.249	6746.64
503.618	6780.77
503.987	6806.3
504.356	6856.25
504.724	6810.82
505.093	6832.52
505.462	6849.47
505.83	6911.61
506.199	6942.57
506.567	6999.52
506.936	7016.02
507.304	7042.46
507.672	7120.19
508.041	7089.69
508.409	7161.32
508.777	7192.96
509.145	7166.75
509.514	7193.64
509.882	7235.45
510.25	7231.6
510.618	7306.86
510.986	7282.9
511.354	7335.33
511.722	7378.94
512.09	7396.8
512.458	7373.75
512.826	7453.74
513.193	7468.43
513.561	7478.38
513.929	7510.47
514.297	7545.49
514.664	7534.42
515.032	7586.85
515.4	7548.43
515.767	7591.37
516.135	7668.2
516.502	7550.69
516.869	7676.34
517.237	7677.47
517.604	7649.9
517.972	7734.64
518.339	7725.38
518.706	7759.73
519.073	7732.83
519.44	7708.2
519.808	7810.8
520.175	7858.03
520.542	7927.18
520.909	7892.15
521.276	7878.59
521.643	7889.44
522.009	7935.54
522.376	7962.66
522.743	7971.47
523.11	8058.7
523.477	8074.75
523.843	8088.08
524.21	8110.22
524.577	8172.14
524.943	8168.98
525.31	8207.17
525.676	8252.82
526.043	8238.13
526.409	8211.01
526.776	8336.21
527.142	8322.65
527.508	8295.53
527.874	8435.64
528.241	8338.02
528.607	8384.34
528.973	8437.9
529.339	8407.39
529.705	8489.65
530.071	8465.92
530.437	8447.84
530.803	8526.26
531.169	8511.34
531.535	8524.68
531.901	8502.08
532.267	8474.51
532.632	8526.26
532.998	8449.65
533.364	8540.72
533.73	8550.67
534.095	8587.05
534.461	8514.51
534.826	8582.3
535.192	8588.86
535.557	8603.77
535.923	8547.28
536.288	8676.09
536.653	8561.96
537.019	8553.6
537.384	8568.74
537.749	8656.65
538.114	8577.1
538.479	8566.48
538.845	8597.9
539.21	8573.72
539.575	8601.06
539.94	8538.01
540.305	8611.68
540.67	8575.98
541.034	8564.45
541.399	8542.08
541.764	8501.17
542.129	8578.46
542.494	8562.64
542.858	8591.57
543.223	8586.6
543.587	8552.92
543.952	8487.39
544.316	8592.02
544.681	8596.31
545.045	8522.87
545.41	8609.87
545.774	8513.15
546.138	8557.22
546.503	8566.71
546.867	8532.36
547.231	8573.26
547.595	8603.54
547.959	8592.7
548.324	8563.55
548.688	8512.25
549.052	8557.9
549.416	8585.69
549.779	8526.71
550.143	8547.28
550.507	8608.97
550.871	8592.02
551.235	8573.49
551.599	8590.44
551.962	8593.6
552.326	8643.09
552.689	8601.06
553.053	8603.09
553.417	8539.37
553.78	8591.12
554.143	8549.54
554.507	8562.87
554.87	8569.65
555.234	8674.05
555.597	8617.1
555.96	8587.27
556.323	8654.17
556.686	8595.18
557.05	8639.93
557.413	8666.59
557.776	8658.91
558.139	8633.83
558.502	8669.98
558.865	8622.53
559.228	8734.39
559.59	8802.18
559.953	8722.86
560.316	8838.79
560.679	8804.22
561.041	8822.52
561.404	8798.34
561.767	8831.56
562.129	8837.21
562.492	8921.05
562.854	8914.5
563.217	8910.88
563.579	8930.09
563.941	8888.06
564.304	8971.67
564.666	9003.08
565.028	8989.07
565.39	9002.63
565.753	9054.38
566.115	9101.61
566.477	9093.48
566.839	9129.18
567.201	9144.1
567.563	9232.23
567.925	9179.58
568.287	9240.59
568.648	9251.21
569.01	9252.57
569.372	9249.4
569.734	9357.42
570.095	9350.19
570.457	9361.49
570.819	9361.94
571.18	9453.01
571.542	9470.19
571.903	9420.25
572.265	9518.32
572.626	9574.82
572.987	9536.4
573.349	9501.15
573.71	9534.59
574.071	9569.17
574.432	9571.43
574.794	9670.64
575.155	9715.15
575.516	9617.08
575.877	9686
576.238	9676.96
576.599	9740.92
576.96	9743.85
577.32	9732.55
577.681	9769.39
578.042	9778.43
578.403	9817.75
578.763	9825.43
579.124	9870.86
579.485	9898.88
579.845	9904.08
580.206	9918.76
580.566	9905.66
580.927	9959.22
581.287	10045.99
581.648	9953.79
582.008	10022.26
582.368	10033.56
582.728	10023.39
583.089	9989.05
583.449	10048.25
583.809	10022.04
584.169	10040.8
584.529	10130.06
584.889	10173.45
585.249	10037.86
585.609	10093.45
585.969	10243.28
586.329	10155.14
586.688	10182.03
587.048	10194.01
587.408	10138.42
587.768	10193.79
588.127	10199.21
588.487	10195.14
588.846	10270.62
589.206	10168.25
589.565	10205.76
589.925	10248.25
590.284	10292.09
590.643	10260.68
591.003	10300.22
591.362	10292.09
591.721	10231.75
592.08	10288.47
592.44	10306.33
592.799	10316.72
593.158	10359.43
593.517	10328.47
593.876	10370.28
594.235	10291.64
594.593	10317.17
594.952	10331.18
595.311	10365.98
595.67	10394.91
596.029	10440.33
596.387	10418.19
596.746	10427
597.104	10346.32
597.463	10378.41
597.822	10443.95
598.18	10408.47
598.538	10427.68
598.897	10463.61
599.255	10375.48
599.613	10526.88
599.972	10436.94
600.33	10464.74
600.688	10467.22
601.046	10504.74
601.404	10555.81
601.762	10511.74
602.12	10596.03
602.478	10570.72
602.836	10580.44
603.194	10527.56
603.552	10492.99
603.91	10461.12
604.268	10549.71
604.625	10469.03
604.983	10563.04
605.341	10501.12
605.698	10598.97
606.056	10579.99
606.413	10612.76
606.771	10616.6
607.128	10661.12
607.485	10569.14
607.843	10568.01
608.2	10674
608.557	10637.62
608.914	10673.32
609.272	10664.06
609.629	10702.02
609.986	10722.59
610.343	10708.12
610.7	10836.93
611.057	10770.72
611.414	10738.86
611.771	10737.05
612.127	10764.62
612.484	10800.78
612.841	10816.37
613.198	10797.84
613.554	10763.04
613.911	10862.47
614.267	10822.92
614.624	10742.92
614.98	10777.05
615.337	10878.29
615.693	10854.79
616.05	10908.12
616.406	10949.7
616.762	10939.53
617.118	10890.26
617.475	10907.21
617.831	10920.09
618.187	10948.79
618.543	10961.9
618.899	10962.8
619.255	11014.1
619.611	10944.95
619.967	10965.97
620.323	11000.54
620.678	10940.21
621.034	10987.66
621.39	10977.27
621.746	10974.33
622.101	11059.53
622.457	11002.58
622.812	10992.41
623.168	11049.58
623.523	11025.63
623.879	11075.12
624.234	11003.71
624.589	11042.35
624.945	10971.84
625.3	11024.95
625.655	10998.74
626.01	10952.41
626.365	10965.29
626.72	11017.49
627.075	10960.09
627.43	11009.36
627.785	10974.33
628.14	10981.56
628.495	11022.46
628.85	10918.29
629.205	10918.96
629.559	10983.6
629.914	10916.48
630.269	10925.97
630.623	10889.36
630.978	10890.72
631.332	10915.12
631.687	10906.99
632.041	10871.96
632.396	10818.4
632.75	10822.24
633.104	10786.76
633.459	10881.45
633.813	10815.69
634.167	10890.26
634.521	10820.44
634.875	10752.42
635.229	10773.43
635.583	10757.61
635.937	10742.7
636.291	10680.1
636.645	10717.16
636.999	10719.65
637.352	10750.61
637.706	10656.6
638.06	10636.03
638.413	10631.06
638.767	10622.7
639.121	10623.15
639.474	10587.9
639.828	10579.54
640.181	10573.44
640.534	10567.34
640.888	10524.85
641.241	10490.95
641.594	10584.96
641.947	10571.63
642.301	10576.6
642.654	10549.93
643.007	10547.9
643.36	10540.9
643.713	10493.66
644.066	10536.6
644.419	10487.34
644.771	10310.39
645.124	10293.22
645.477	10231.75
645.83	10145.88
646.182	10180.45
646.535	10141.36
646.888	10106.78
647.24	10102.71
647.593	10096.84
647.945	10052.32
648.298	10034.02
648.65	10093.9
649.002	10029.5
649.355	9984.53
649.707	10130.28
650.059	10097.74
650.411	10255.48
650.763	10255.93
651.115	10298.64
651.467	10249.6
651.819	10250.73
652.171	10324.18
652.523	10231.98
652.875	10259.55
653.227	10201.7
653.578	10323.5
653.93	10297.51
654.282	10194.69
654.633	10216.16
654.985	10187.91
655.337	10231.98
655.688	10324.63
656.039	10252.09
656.391	10204.86
656.742	10250.51
657.094	10227.01
657.445	10273.56
657.796	10211.41
658.147	10163.73
658.498	10235.82
658.849	10218.42
659.2	10205.99
659.551	10152.43
659.902	10227.46
660.253	10203.28
660.604	10231.07
660.955	10181.58
661.306	10227.91
661.656	10215.48
662.007	10236.95
662.358	10227.01
662.708	10148.36
663.059	10189.94
663.409	10116.05
663.76	10227.23
664.11	10153.56
664.461	10107.91
664.811	10262.26
665.161	10229.94
665.511	10155.14
665.862	10256.16
666.212	10215.71
666.562	10222.49
666.912	10187.68
667.262	10126.22
667.612	10211.41
667.962	10165.31
668.312	10185.65
668.662	10260.45
669.011	10207.57
669.361	10189.04
669.711	10225.65
670.06	10150.85
670.41	10107.69
670.76	10105.65
671.109	10189.94
671.459	10101.36
671.808	10098.19
672.157	10173
672.507	10123.05
672.856	10111.53
673.205	10100.45
673.554	10168.25
673.904	10092.77
674.253	10145.43
674.602	10105.88
674.951	9900.46
675.3	9883.96
675.649	10036.73
675.998	10032.66
676.346	10044.86
676.695	10072.88
677.044	10003.73
677.393	9970.06
677.741	10067.01
678.09	9938.88
678.438	9979.33
678.787	9909.27
679.135	9969.16
679.484	9863.62
679.832	9916.5
680.181	9832.67
680.529	9914.24
680.877	9864.98
681.225	9821.37
681.573	9880.35
681.922	9838.31
682.27	9781.59
682.618	9837.41
682.966	9733.01
683.314	9793.34
683.661	9743.85
684.009	9663.63
684.357	9699.34
684.705	9636.96
685.053	9680.13
685.4	9652.33
685.748	9643.52
686.095	9578.89
686.443	9542.96
686.79	9533.92
687.138	9582.28
687.485	9619.79
687.832	9550.64
688.18	9500.02
688.527	9497.31
688.874	9443.07
689.221	9461.15
689.568	9414.15
689.915	9401.49
690.262	9368.04
690.609	9322.4
690.956	9328.27
691.303	9290.31
691.65	9246.69
691.997	9213.92
692.344	9176.64
692.69	9204.21
693.037	9223.87
693.383	9060.93
693.73	9118.11
694.077	9039.01
694.423	9119.69
694.769	9022.97
695.116	9023.65
695.462	8968.06
695.808	8943.65
696.155	8945.46
696.501	8851.9
696.847	8862.75
697.193	8789.08
697.539	8794.05
697.885	8747.5
698.231	8737.55
698.577	8761.51
698.923	8685.12
699.269	8655.07
699.614	8575.75
699.96	8538.01
700.306	8565.35
700.651	8490.33
700.997	8497.11
701.342	8532.59
701.688	8509.31
702.033	8526.94
702.379	8462.08
702.724	8467.28
703.069	8399.26
703.415	8292.14
703.76	8326.72
704.105	8335.76
704.45	8309.54
704.795	8224.57
705.14	8175.76
705.485	8247.17
705.83	8135.08
706.175	8150
706.52	8131.92
706.865	8082.88
707.209	8082.65
707.554	8083.33
707.899	8148.87
708.243	8097.57
708.588	8073.39
708.932	7983.45
709.277	7959.72
709.621	7951.13
709.966	7926.73
710.31	7904.58
710.654	7836.11
710.998	7823.68
711.342	7822.32
711.687	7834.75
712.031	7808.09
712.375	7823.23
712.719	7780.74
713.063	7717.47
713.407	7780.74
713.75	7713.85
714.094	7740.52
714.438	7712.72
714.782	7659.16
715.125	7662.55
715.469	7698.03
715.812	7630.24
716.156	7535.32
716.499	7545.27
716.843	7623.01
717.186	7547.3
717.53	7617.36
717.873	7600.86
718.216	7602.89
718.559	7598.15
718.902	7510.01
719.246	7451.71
719.589	7431.6
719.932	7446.29
720.275	7418.49
720.617	7445.61
720.96	7423.24
721.303	7446.29
721.646	7449.45
721.989	7375.1
722.331	7404.71
722.674	7351.15
723.016	7365.16
723.359	7323.8
723.701	7364.26
724.044	7330.13
724.386	7237.48
724.729	7320.87
725.071	7282.45
725.413	7315.67
725.755	7274.99
726.097	7283.81
726.439	7253.3
726.782	7215.11
727.124	7265.28
727.465	7258.27
727.807	7179.4
728.149	7224.82
728.491	7228.89
728.833	7193.86
729.175	7243.13
729.516	7183.92
729.858	7142.11
730.199	7232.28
730.541	7182.79
730.882	7097.37
731.224	7246.97
731.565	7211.04
731.906	7158.84
732.248	7130.36
732.589	7157.71
732.93	7146.63
733.271	7159.06
733.612	7153.87
733.953	7138.05
734.294	7148.22
734.635	7055.34
734.976	7094.21
735.317	7067.99
735.658	7121.55
735.999	7057.14
736.339	7094.66
736.68	7111.61
737.021	7154.54
737.361	7124.26
737.702	7171.04
738.042	7124.71
738.383	7105.96
738.723	7191.15
739.063	7114.32
739.404	7113.64
739.744	7137.14
740.084	7140.76
740.424	7124.94
740.764	7145.05
741.104	7125.17
741.444	7176.46
741.784	7110.93
742.124	7196.8
742.464	7180.98
742.804	7141.89
743.143	7172.17
743.483	7198.61
743.823	7212.62
744.162	7148.44
744.502	7201.55
744.841	7189.8
745.181	7282.45
745.52	7232.51
745.86	7236.8
746.199	7302.34
746.538	7266.4
746.877	7330.58
747.216	7375.55
747.556	7452.84
747.895	7377.59
748.234	7378.27
748.573	7428.89
748.911	7505.04
749.25	7488.09
749.589	7550.47
749.928	7592.72
750.267	7682.44
750.605	7712.72
750.944	7736.45
751.283	7764.25
751.621	7821.19
751.96	7824.81
752.298	7922.43
752.636	7990.23
752.975	7959.95
753.313	8036.55
753.651	8073.62
753.989	8180.73
754.327	8231.58
754.666	8288.3
755.004	8414.62
755.342	8428.41
755.679	8506.15
756.017	8609.19
756.355	8691.9
756.693	8770.55
757.031	8846.93
757.368	8954.5
757.706	9014.61
758.044	9144.32
758.381	9241.04
758.719	9259.57
759.056	9376.18
759.394	9529.62
759.731	9565.1
760.068	9668.6
760.405	9737.3
760.743	9835.15
761.08	9998.76
761.417	10048.03
761.754	10096.39
762.091	10210.51
762.428	10335.93
762.765	10383.39
763.102	10567.56
763.438	10586.77
763.775	10686.43
764.112	10758.74
