Data from hue_190_FLMS001491_00056.txt Node
Date: Tue Feb 07 16:45:29 GMT 2017
User: dcchb
Spectrometer: FLMS00149
Trigger mode: 0
Integration Time (sec): 2.000000E-2
Scans to average: 10
Electric dark correction enabled: true
Nonlinearity correction enabled: false
Boxcar width: 0
XAxis mode: Wavelengths
Number of Pixels in Spectrum: 2048
>>>>>Begin Spectral Data<<<<<
341.393	-24.38
341.776	-24.38
342.16	-24.38
342.543	-60.31
342.927	-53.53
343.31	-69.35
343.693	-68.9
344.077	-60.54
344.46	-51.5
344.843	-47.88
345.226	-64.15
345.61	-15.34
345.993	-1.55
346.376	-2.01
346.759	1.84
347.142	9.75
347.525	44.55
347.908	55.62
348.291	75.96
348.674	95.84
349.057	97.65
349.44	120.03
349.823	147.82
350.206	170.19
350.588	202.51
350.971	195.5
351.354	214.03
351.737	232.34
352.119	239.57
352.502	282.73
352.884	271.43
353.267	281.83
353.65	301.49
354.032	296.07
354.414	311.21
354.797	317.53
355.179	319.12
355.562	322.28
355.944	316.86
356.326	323.18
356.709	345.1
357.091	348.27
357.473	358.89
357.855	323.41
358.238	320.92
358.62	361.83
359.002	350.98
359.384	355.95
359.766	353.47
360.148	335.84
360.53	319.34
360.912	324.99
361.294	344.2
361.676	344.65
362.057	322.51
362.439	343.3
362.821	307.82
363.203	322.51
363.584	316.4
363.966	336.52
364.348	326.57
364.729	329.96
365.111	320.25
365.493	314.37
365.874	324.54
366.256	325.9
366.637	299
367.019	303.52
367.4	329.51
367.781	306.23
368.163	322.05
368.544	318.44
368.925	329.06
369.306	317.76
369.688	318.89
370.069	309.62
370.45	304.88
370.831	330.42
371.212	302.62
371.593	310.08
371.974	302.62
372.355	306.69
372.736	331.32
373.117	300.13
373.498	312.79
373.879	309.62
374.26	320.92
374.641	319.34
375.021	318.21
375.402	319.79
375.783	310.98
376.163	334.48
376.544	331.77
376.925	313.01
377.305	325.67
377.686	336.52
378.066	325.44
378.447	320.92
378.827	324.31
379.208	317.99
379.588	305.33
379.968	325.22
380.349	333.35
380.729	339
381.109	341.26
381.489	349.17
381.87	347.36
382.25	336.29
382.63	338.1
383.01	345.56
383.39	340.36
383.77	344.2
384.15	342.84
384.53	351.21
384.91	343.75
385.29	363.63
385.67	347.36
386.049	364.54
386.429	352.79
386.809	352.79
387.189	356.18
387.568	361.83
387.948	368.15
388.328	330.42
388.707	372.9
389.087	350.53
389.466	366.8
389.846	363.41
390.225	352.34
390.605	348.04
390.984	371.77
391.363	375.16
391.743	365.22
392.122	363.63
392.501	379.68
392.881	381.94
393.26	373.35
393.639	384.65
394.018	379.45
394.397	411.77
394.776	386.01
395.155	370.19
395.534	365.44
395.913	364.31
396.292	408.15
396.671	410.86
397.05	383.97
397.429	399.57
397.808	389.85
398.186	411.32
398.565	391.43
398.944	391.66
399.323	406.57
399.701	409.73
400.08	430.3
400.458	400.02
400.837	416.29
401.215	420.36
401.594	402.05
401.972	407.25
402.351	426.01
402.729	435.72
403.107	449.28
403.486	426.91
403.864	429.17
404.242	445.21
404.62	463.74
404.999	461.26
405.377	467.59
405.755	451.09
406.133	450.41
406.511	464.42
406.889	447.47
407.267	466.91
407.645	467.13
408.023	469.39
408.401	463.07
408.779	475.27
409.156	491.09
409.534	506.68
409.912	506.46
410.29	502.61
410.667	536.74
411.045	520.92
411.422	509.39
411.8	530.64
412.178	557.53
412.555	554.14
412.933	573.8
413.31	564.08
413.687	580.13
414.065	594.36
414.442	581.26
414.819	609.28
415.197	603.4
415.574	632.1
415.951	633.23
416.328	623.06
416.705	648.37
417.082	644.98
417.46	675.26
417.837	652.44
418.214	684.3
418.591	690.41
418.967	669.62
419.344	700.12
419.721	710.52
420.098	723.4
420.475	725.43
420.852	753.45
421.228	742.38
421.605	758.65
421.982	779.44
422.358	783.51
422.735	798.2
423.111	820.12
423.488	818.09
423.864	853.11
424.241	875.94
424.617	865.77
424.994	861.02
425.37	895.37
425.746	873.45
426.123	904.86
426.499	927.01
426.875	919.55
427.251	927.46
427.627	964.07
428.003	971.08
428.379	975.82
428.756	975.82
429.132	992.09
429.507	1019.66
429.883	1016.27
430.259	1051.07
430.635	1050.4
431.011	1055.59
431.387	1090.62
431.763	1080.9
432.138	1117.06
432.514	1125.2
432.89	1149.6
433.265	1163.61
433.641	1190.05
434.016	1201.35
434.392	1214.46
434.767	1251.07
435.143	1250.62
435.518	1268.24
435.894	1322.03
436.269	1322.48
436.644	1370.39
437.02	1376.72
437.395	1403.16
437.77	1402.93
438.145	1440.67
438.52	1464.17
438.895	1474.79
439.271	1490.16
439.646	1510.27
440.021	1539.2
440.395	1567.44
440.77	1547.78
441.145	1590.04
441.52	1624.39
441.895	1617.84
442.27	1655.8
442.645	1665.3
443.019	1687.22
443.394	1711.62
443.769	1731.96
444.143	1701.23
444.518	1754.11
444.892	1742.81
445.267	1789.81
445.641	1778.74
446.016	1833.65
446.39	1868.68
446.764	1823.71
447.139	1853.54
447.513	1890.37
447.887	1883.82
448.262	1875.91
448.636	1923.59
449.01	1933.08
449.384	1976.7
449.758	1975.12
450.132	1984.16
450.506	1988
450.88	2037.26
451.254	2011.95
451.628	2033.2
452.002	2067.54
452.376	2074.1
452.75	2115.68
453.123	2127.43
453.497	2169.91
453.871	2191.38
454.244	2218.73
454.618	2255.56
454.992	2244.71
455.365	2285.17
455.739	2351.15
456.112	2352.51
456.486	2375.33
456.859	2412.39
457.232	2430.25
457.606	2451.49
457.979	2454.65
458.352	2509.34
458.725	2559.51
459.099	2598.6
459.472	2637.92
459.845	2666.62
460.218	2651.71
460.591	2717.92
460.964	2706.62
461.337	2768.54
461.71	2804.02
462.083	2878.82
462.456	2881.76
462.829	2842.21
463.201	2939.61
463.574	2925.6
463.947	3019.38
464.32	3095.77
464.692	3125.14
465.065	3116.1
465.438	3172.37
465.81	3225.93
466.183	3230
466.555	3331.01
466.928	3379.83
467.3	3375.98
467.672	3441.52
468.045	3467.96
468.417	3491.69
468.789	3519.03
469.161	3580.73
469.534	3640.84
469.906	3711.8
470.278	3731.91
470.65	3813.04
471.022	3878.12
471.394	3947.27
471.766	3942.07
472.138	4027.94
472.51	4095.51
472.882	4219.35
473.253	4227.71
473.625	4321.5
473.997	4393.13
474.369	4422.51
474.74	4479.01
475.112	4591.32
475.484	4677.42
475.855	4700.7
476.227	4749.73
476.598	4882.16
476.97	4937.53
477.341	5041.48
477.713	5092.32
478.084	5157.18
478.455	5299.55
478.827	5319.66
479.198	5523.5
479.569	5542.26
479.94	5674.68
480.311	5704.51
480.682	5854.34
481.053	6011.4
481.424	6069.47
481.795	6160.32
482.166	6267.21
482.537	6356.47
482.908	6457.03
483.279	6575.9
483.65	6655.67
484.021	6831.71
484.391	6824.93
484.762	6944.93
485.133	7025.83
485.503	7100.63
485.874	7244.58
486.244	7330.91
486.615	7438.93
486.985	7575.87
487.356	7698.58
487.726	7702.88
488.097	7945.36
488.467	7944.9
488.837	8104.9
489.207	8189.64
489.578	8357.1
489.948	8376.31
490.318	8521.84
490.688	8523.19
491.058	8683.42
491.428	8746.01
491.798	8829.63
492.168	9047.02
492.538	9066
492.908	9178.54
493.278	9252.44
493.648	9243.18
494.017	9405.88
494.387	9493.11
494.757	9533.11
495.126	9687.46
495.496	9674.58
495.866	9702.82
496.235	9790.28
496.605	9878.64
496.974	9944.4
497.344	9968.81
497.713	10110.95
498.082	10112.08
498.452	10201.79
498.821	10145.52
499.19	10193.88
499.559	10339.64
499.928	10312.98
500.298	10375.57
500.667	10409.7
501.036	10458.06
501.405	10566.76
501.774	10545.29
502.143	10693.98
502.512	10626.42
502.88	10646.75
503.249	10706.64
503.618	10747.09
503.987	10843.36
504.356	10799.52
504.724	10828.44
505.093	10929.23
505.462	10897.37
505.83	10971.94
506.199	11021.66
506.567	11149.79
506.936	11088.32
507.304	11184.37
507.672	11219.17
508.041	11184.59
508.409	11296.45
508.777	11353.85
509.145	11398.15
509.514	11288.32
509.882	11367.41
510.25	11354.76
510.618	11465.49
510.986	11460.29
511.354	11514.75
511.722	11574.41
512.09	11498.03
512.458	11468.43
512.826	11550.46
513.193	11670.23
513.561	11533.96
513.929	11640.63
514.297	11678.59
514.664	11723.79
515.032	11738.7
515.4	11747.06
515.767	11698.48
516.135	11797.23
516.502	11649.44
516.869	11893.05
517.237	11704.81
517.604	11787.29
517.972	11852.37
518.339	11921.07
518.706	11854.63
519.073	11818.7
519.44	11888.08
519.808	11954.52
520.175	11892.37
520.542	11944.35
520.909	11958.58
521.276	11900.28
521.643	11911.13
522.009	11964.23
522.376	12052.82
522.743	12003.78
523.11	12029.09
523.477	12086.26
523.843	12099.6
524.21	12141.86
524.577	12171.46
524.943	12145.02
525.31	12021.18
525.676	12212.14
526.043	12168.75
526.409	12118.35
526.776	12200.39
527.142	12130.1
527.508	12264.56
527.874	12178.69
528.241	12179.6
528.607	12148.64
528.973	12147.96
529.339	12157.67
529.705	12180.27
530.071	12127.39
530.437	12194.28
530.803	12114.96
531.169	12084
531.535	12051.24
531.901	11990.67
532.267	11974.18
532.632	11990.9
532.998	12066.83
533.364	11952.71
533.73	11967.17
534.095	11967.85
534.461	11904.35
534.826	11852.82
535.192	11830.9
535.557	11814.63
535.923	11731.7
536.288	11722.43
536.653	11727.4
537.019	11561.31
537.384	11581.42
537.749	11548.2
538.114	11507.3
538.479	11470.46
538.845	11423.68
539.21	11325.38
539.575	11310.69
539.94	11281.54
540.305	11279.28
540.67	11132.62
541.034	11181.88
541.399	11169.68
541.764	11089.23
542.129	11085.39
542.494	11022.56
542.858	11001.32
543.223	10935.79
543.587	10902.11
543.952	10823.25
544.316	10761.78
544.681	10723.36
545.045	10679.97
545.41	10698.5
545.774	10641.33
546.138	10589.35
546.503	10513.88
546.867	10426.65
547.231	10453.76
547.595	10372.86
547.959	10254.45
548.324	10283.15
548.688	10198.63
549.052	10237.73
549.416	10161.34
549.779	10097.84
550.143	10099.42
550.507	10092.64
550.871	9972.42
551.235	9857.85
551.599	9886.1
551.962	9876.38
552.326	9853.33
552.689	9787.12
553.053	9758.87
553.417	9625.54
553.78	9699.43
554.143	9659.66
554.507	9607.69
554.87	9539.66
555.234	9585.76
555.597	9451.53
555.96	9477.29
556.323	9375.37
556.686	9398.88
557.05	9454.69
557.413	9377.63
557.776	9271.2
558.139	9329.95
558.502	9337.64
558.865	9247.02
559.228	9332.89
559.59	9313.23
559.953	9235.72
560.316	9270.29
560.679	9188.04
561.041	9210.18
561.404	9248.15
561.767	9207.47
562.129	9145.32
562.492	9159.34
562.854	9170.63
563.217	9112.78
563.579	9136.74
563.941	9175.83
564.304	9094.7
564.666	9075.72
565.028	9134.25
565.39	9126.12
565.753	9082.95
566.115	9058.32
566.477	9055.84
566.839	9095.16
567.201	9104.2
567.563	9098.55
567.925	9098.55
568.287	9079.79
568.648	9092.67
569.01	9077.08
569.372	9115.72
569.734	9061.94
570.095	9145.78
570.457	9076.17
570.819	9072.56
571.18	9039.79
571.542	9042.95
571.903	9074.82
572.265	9109.85
572.626	9134.7
572.987	9045.21
573.349	9023.29
573.71	9021.26
574.071	9068.72
574.432	9070.75
574.794	9123.4
575.155	9067.59
575.516	9041.37
575.877	9031.88
576.238	9012.22
576.599	9097.64
576.96	9056.74
577.32	9079.34
577.681	9078.66
578.042	9066
578.403	9063.52
578.763	9040.92
579.124	9046.34
579.485	9049.06
579.845	9094.48
580.206	8995.95
580.566	9054.71
580.927	9049.06
581.287	9056.29
581.648	9036.63
582.008	9044.76
582.368	9018.1
582.728	9026.68
583.089	8976.74
583.449	8988.72
583.809	8954.6
584.169	9008.83
584.529	8947.36
584.889	8898.33
585.249	8908.49
585.609	8920.92
585.969	8989.4
586.329	8943.52
586.688	8881.83
587.048	8841.15
587.408	8840.93
587.768	8836.18
588.127	8854.71
588.487	8836.63
588.846	8879.12
589.206	8809.97
589.565	8830.53
589.925	8834.37
590.284	8855.16
590.643	8829.17
591.003	8899.91
591.362	8787.59
591.721	8725
592.08	8724.32
592.44	8781.94
592.799	8804.54
593.158	8740.59
593.517	8730.42
593.876	8782.85
594.235	8739.01
594.593	8701.04
594.952	8712.12
595.311	8682.29
595.67	8699.46
596.029	8718.9
596.387	8695.62
596.746	8734.71
597.104	8550.76
597.463	8651.78
597.822	8634.38
598.18	8630.31
598.538	8611.78
598.897	8707.14
599.255	8651.33
599.613	8712.34
599.972	8662.17
600.33	8640.93
600.688	8619.01
601.046	8560.26
601.404	8645.68
601.762	8681.83
602.12	8658.56
602.478	8675.51
602.836	8674.38
603.194	8611.1
603.552	8653.59
603.91	8580.59
604.268	8631.89
604.625	8634.38
604.983	8606.81
605.341	8582.4
605.698	8583.76
606.056	8700.36
606.413	8618.78
606.771	8619.91
607.128	8599.35
607.485	8622.85
607.843	8553.7
608.2	8632.12
608.557	8646.81
608.914	8669.86
609.272	8658.11
609.629	8641.16
609.986	8676.64
610.343	8652
610.7	8702.4
611.057	8706.24
611.414	8651.78
611.771	8640.93
612.127	8715.28
612.484	8672.57
612.841	8704.43
613.198	8663.08
613.554	8680.48
613.911	8772.23
614.267	8724.09
614.624	8632.12
614.98	8707.82
615.337	8709.86
615.693	8744.43
616.05	8692.46
616.406	8764.54
616.762	8710.31
617.118	8772
617.475	8675.73
617.831	8737.88
618.187	8745.34
618.543	8814.94
618.899	8815.39
619.255	8757.09
619.611	8705.34
619.967	8859.91
620.323	8810.19
620.678	8739.46
621.034	8731.78
621.39	8757.09
621.746	8768.16
622.101	8825.11
622.457	8706.24
622.812	8756.18
623.168	8786.92
623.523	8734.04
623.879	8835.05
624.234	8723.41
624.589	8777.88
624.945	8783.98
625.3	8773.36
625.655	8820.59
626.01	8737.88
626.365	8743.3
626.72	8792.34
627.075	8698.1
627.43	8700.59
627.785	8747.14
628.14	8707.82
628.495	8778.33
628.85	8734.49
629.205	8672.12
629.559	8765.22
629.914	8643.64
630.269	8652.68
630.623	8703.3
630.978	8693.81
631.332	8665.34
631.687	8714.15
632.041	8671.21
632.396	8663.3
632.75	8656.98
633.104	8615.62
633.459	8598.9
633.813	8554.38
634.167	8572.68
634.521	8564.55
634.875	8602.74
635.229	8602.06
635.583	8576.98
635.937	8499.47
636.291	8494.72
636.645	8464.89
636.999	8491.56
637.352	8485.68
637.706	8475.74
638.06	8525.91
638.413	8554.38
638.767	8479.81
639.121	8453.14
639.474	8457.66
639.828	8387.15
640.181	8470.54
640.534	8414.5
640.888	8410.2
641.241	8339.02
641.594	8431.9
641.947	8382.18
642.301	8370.88
642.654	8392.58
643.007	8369.07
643.36	8358.45
643.713	8366.59
644.066	8341.73
644.419	8323.43
644.771	8303.31
645.124	8266.93
645.477	8194.62
645.83	8219.47
646.182	8107.39
646.535	8107.39
646.888	8087.05
647.24	8058.57
647.593	8094.28
647.945	8081.85
648.298	8079.14
648.65	8064.45
649.002	8042.3
649.355	8066.93
649.707	8084.79
650.059	8130.21
650.411	8154.84
650.763	8280.04
651.115	8287.04
651.467	8246.37
651.819	8261.28
652.171	8221.06
652.523	8251.56
652.875	8226.48
653.227	8217.67
653.578	8312.35
653.93	8280.49
654.282	8285.46
654.633	8177.89
654.985	8219.47
655.337	8195.07
655.688	8225.12
656.039	8315.06
656.391	8176.99
656.742	8230.09
657.094	8260.15
657.445	8223.99
657.796	8216.99
658.147	8245.46
658.498	8205.01
658.849	8268.29
659.2	8269.87
659.551	8292.92
659.902	8316.65
660.253	8264.44
660.604	8307.61
660.955	8260.83
661.306	8282.52
661.656	8240.49
662.007	8314.84
662.358	8312.8
662.708	8296.76
663.059	8317.55
663.409	8245.46
663.76	8317.78
664.11	8352.35
664.461	8358.23
664.811	8313.71
665.161	8318.45
665.511	8368.62
665.862	8270.77
666.212	8258.79
666.562	8383.31
666.912	8328.85
667.262	8362.52
667.612	8286.82
667.962	8400.71
668.312	8372.46
668.662	8375.63
669.011	8260.6
669.361	8335.85
669.711	8339.92
670.06	8291.34
670.41	8276.19
670.76	8252.92
671.109	8296.76
671.459	8311.9
671.808	8298.12
672.157	8309.64
672.507	8263.31
672.856	8261.51
673.205	8248.4
673.554	8252.47
673.904	8228.06
674.253	8284.78
674.602	8214.28
674.951	8090.44
675.3	8068.29
675.649	8217.67
675.998	8179.7
676.346	8174.5
676.695	8215.41
677.044	8158.01
677.393	8167.05
677.741	8162.98
678.09	8132.7
678.438	8188.97
678.787	8095.18
679.135	8091.57
679.484	8101.06
679.832	8128.4
680.181	8046.6
680.529	8056.77
680.877	8021.29
681.225	8036.43
681.573	8044.11
681.922	7991.91
682.27	7923.66
682.618	7940.84
682.966	7968.18
683.314	7912.36
683.661	7945.81
684.009	7861.06
684.357	7833.04
684.705	7841.18
685.053	7867.62
685.4	7838.92
685.748	7804.57
686.095	7745.14
686.443	7712.82
686.79	7777.9
687.138	7715.76
687.485	7780.84
687.832	7682.76
688.18	7673.95
688.527	7650.9
688.874	7638.92
689.221	7632.82
689.568	7629.21
689.915	7583.33
690.262	7586.95
690.609	7548.53
690.956	7496.78
691.303	7461.98
691.65	7481.87
691.997	7470.34
692.344	7468.08
692.69	7422.88
693.037	7399.61
693.383	7319.61
693.73	7314.64
694.077	7236
694.423	7275.77
694.769	7253.17
695.116	7214.98
695.462	7210.01
695.808	7166.17
696.155	7197.81
696.501	7146.06
696.847	7107.64
697.193	7060.18
697.539	7057.92
697.885	7076.23
698.231	6993.06
698.577	6962.78
698.923	6928.43
699.269	6945.16
699.614	6928.89
699.96	6879.62
700.306	6863.8
700.651	6802.79
700.997	6803.69
701.342	6803.69
701.688	6789.45
702.033	6722.56
702.379	6694.54
702.724	6676.69
703.069	6692.06
703.415	6630.14
703.76	6630.36
704.105	6635.56
704.45	6609.8
704.795	6526.64
705.14	6500.65
705.485	6552.85
705.83	6457.49
706.175	6460.2
706.52	6470.37
706.865	6463.59
707.209	6441.44
707.554	6363.7
707.899	6435.57
708.243	6276.02
708.588	6369.13
708.932	6333.87
709.277	6239.64
709.621	6291.16
709.966	6208
710.31	6256.36
710.654	6242.8
710.998	6215.68
711.342	6222.46
711.687	6188.79
712.031	6165.29
712.375	6126.65
712.719	6130.26
713.063	6100.66
713.407	6102.92
713.75	6063.37
714.094	6092.75
714.438	6073.31
714.782	6138.85
715.125	6084.84
715.469	6077.61
715.812	6037.84
716.156	6033.77
716.499	6001.23
716.843	6054.33
717.186	5996.03
717.53	6072.41
717.873	6011.17
718.216	5981.79
718.559	5942.47
718.902	5938.86
719.246	5923.71
719.589	5943.6
719.932	5987.67
720.275	5940.44
720.617	5892.3
720.96	5869.93
721.303	5883.72
721.646	5914.22
721.989	5866.31
722.331	5900.44
722.674	5907.9
723.016	5866.31
723.359	5896.14
723.701	5848.01
724.044	5803.27
724.386	5804.85
724.729	5853.21
725.071	5874
725.413	5899.31
725.755	5817.5
726.097	5793.1
726.439	5780.67
726.782	5805.75
727.124	5850.5
727.465	5812.3
727.807	5830.38
728.149	5816.15
728.491	5771.85
728.833	5815.24
729.175	5790.38
729.516	5801.91
729.858	5794.23
730.199	5783.83
730.541	5806.88
730.882	5738.41
731.224	5801.68
731.565	5781.8
731.906	5818.18
732.248	5854.56
732.589	5805.3
732.93	5743.61
733.271	5782.48
733.612	5795.13
733.953	5835.13
734.294	5786.54
734.635	5806.88
734.976	5775.7
735.317	5792.64
735.658	5841.68
735.999	5794.9
736.339	5772.76
736.68	5838.52
737.021	5883.04
737.361	5779.54
737.702	5856.37
738.042	5835.36
738.383	5841
738.723	5886.65
739.063	5856.37
739.404	5867.67
739.744	5881.91
740.084	5876.48
740.424	5861.57
740.764	5866.31
741.104	5939.08
741.444	5922.36
741.784	5947.44
742.124	6010.72
742.464	5957.61
742.804	5966.2
743.143	6013.43
743.483	6047.1
743.823	5995.35
744.162	6063.6
744.502	6096.14
744.841	6108.79
745.181	6121.68
745.52	6195.8
745.86	6217.27
746.199	6229.02
746.538	6289.81
746.877	6317.15
747.216	6370.71
747.556	6390.14
747.895	6473.3
748.234	6494.55
748.573	6535.68
748.911	6554.66
749.25	6629.23
749.589	6696.12
749.928	6784.93
750.267	6830.36
750.605	6902.9
750.944	6969.79
751.283	7019.28
751.621	7114.42
751.96	7207.3
752.298	7315.99
752.636	7405.26
752.975	7375.88
753.313	7542.88
753.651	7718.92
753.989	7692.48
754.327	7903.55
754.666	7953.49
755.004	8119.59
755.342	8172.24
755.679	8395.74
756.017	8437.77
756.355	8630.76
756.693	8732
757.031	8927.25
757.368	8989.4
757.706	9100.35
758.044	9274.59
758.381	9498.54
758.719	9603.39
759.056	9747.12
759.394	9975.13
759.731	10112.08
760.068	10249.48
760.405	10340.55
760.743	10557.49
761.08	10766.3
761.417	10886.75
761.754	11011.26
762.091	11216
762.428	11273.86
762.765	11552.04
763.102	11745.03
763.438	11888.08
763.775	12124.23
764.112	12301.63
764.449	12470.66
764.785	12622.75
765.122	12723.31
765.458	12938.67
765.795	13070.19
766.131	13270.64
766.467	13397.87
766.804	13589.5
