Data from hue_40_FLMS001491_81.txt Node
Date: Mon Feb 06 15:08:40 GMT 2017
User: dcchb
Spectrometer: FLMS00149
Trigger mode: 0
Integration Time (sec): 2.000000E-2
Scans to average: 10
Electric dark correction enabled: true
Nonlinearity correction enabled: false
Boxcar width: 0
XAxis mode: Wavelengths
Number of Pixels in Spectrum: 2048
>>>>>Begin Spectral Data<<<<<
341.393	-23.86
341.776	-23.86
342.16	-23.86
342.543	-78.54
342.927	-67.92
343.31	-75.38
343.693	-97.53
344.077	-75.61
344.46	-46.91
344.843	-48.71
345.226	-34.25
345.61	-14.36
345.993	-18.66
346.376	3.26
346.759	-2.16
347.142	34.45
347.525	63.37
347.908	62.47
348.291	78.51
348.674	75.35
349.057	96.14
349.44	125.29
349.823	161
350.206	166.65
350.588	186.31
350.971	188.34
351.354	229.02
351.737	248.68
352.119	244.84
352.502	241.67
352.884	265.18
353.267	270.15
353.65	294.33
354.032	307.66
354.414	320.99
354.797	312.18
355.179	323.03
355.562	330.94
355.944	324.84
356.326	329.81
356.709	344.5
357.091	323.71
357.473	360.77
357.855	339.52
358.238	347.66
358.62	347.43
359.002	351.5
359.384	330.49
359.766	346.98
360.148	348.79
360.53	334.33
360.912	324.84
361.294	328.23
361.676	347.43
362.057	349.02
362.439	345.17
362.821	339.52
363.203	324.16
363.584	344.27
363.966	347.89
364.348	311.28
364.729	328
365.111	323.93
365.493	336.81
365.874	329.58
366.256	336.14
366.637	293.65
367.019	320.09
367.4	326.42
367.781	318.96
368.163	324.84
368.544	323.03
368.925	342.69
369.306	316.25
369.688	334.1
370.069	334.33
370.45	314.21
370.831	324.16
371.212	314.21
371.593	314.44
371.974	321.22
372.355	336.36
372.736	321.9
373.117	308.11
373.498	324.38
373.879	330.03
374.26	325.06
374.641	324.38
375.021	331.39
375.402	338.4
375.783	331.39
376.163	334.33
376.544	314.67
376.925	329.13
377.305	318.28
377.686	324.38
378.066	347.66
378.447	313.31
378.827	323.71
379.208	346.53
379.588	325.51
379.968	334.1
380.349	314.21
380.729	337.49
381.109	336.81
381.489	340.2
381.87	306.08
382.25	342.46
382.63	362.58
383.01	348.79
383.39	359.19
383.77	353.08
384.15	360.77
384.53	357.15
384.91	357.15
385.29	365.06
385.67	369.35
386.049	363.93
386.429	356.47
386.809	372.29
387.189	363.93
387.568	354.89
387.948	353.76
388.328	368.68
388.707	378.39
389.087	377.49
389.466	401.67
389.846	350.82
390.225	368.45
390.605	368.45
390.984	354.89
391.363	361.67
391.743	367.32
392.122	368.68
392.501	374.78
392.881	380.2
393.26	390.37
393.639	377.49
394.018	388.56
394.397	392.18
394.776	387.21
395.155	390.15
395.534	377.72
395.913	410.03
396.292	376.81
396.671	387.89
397.05	376.81
397.429	377.94
397.808	393.99
398.186	389.92
398.565	400.31
398.944	381.11
399.323	417.04
399.701	393.99
400.08	427.21
400.458	401.44
400.837	389.92
401.215	391.05
401.594	411.16
401.972	411.61
402.351	391.05
402.729	408.9
403.107	410.48
403.486	432.18
403.864	419.3
404.242	399.64
404.62	423.59
404.999	430.82
405.377	411.84
405.755	426.75
406.133	429.47
406.511	442.35
406.889	441.67
407.267	426.3
407.645	453.19
408.023	456.36
408.401	433.76
408.779	440.77
409.156	469.01
409.534	465.85
409.912	439.41
410.29	461.78
410.667	461.33
411.045	455.45
411.422	466.53
411.8	480.31
412.178	463.59
412.555	468.11
412.933	464.95
413.31	470.14
413.687	473.53
414.065	483.48
414.442	493.87
414.819	480.09
415.197	501.1
415.574	499.29
415.951	511.5
416.328	502.23
416.705	516.24
417.082	492.29
417.46	503.81
417.837	531.84
418.214	525.96
418.591	512.85
418.967	533.19
419.344	523.93
419.721	521.22
420.098	540.42
420.475	540.88
420.852	524.38
421.228	535.45
421.605	533.42
421.982	534.55
422.358	552.63
422.735	555.56
423.111	559.63
423.488	545.85
423.864	563.02
424.241	582.23
424.617	568.67
424.994	560.54
425.37	595.79
425.746	582.23
426.123	582.23
426.499	582.68
426.875	601.89
427.251	591.95
427.627	600.76
428.003	600.76
428.379	608.22
428.756	617.03
429.132	602.79
429.507	619.97
429.883	637.37
430.259	659.06
430.635	634.88
431.011	635.79
431.387	650.93
431.763	656.58
432.138	643.25
432.514	654.32
432.89	690.25
433.265	692.06
433.641	685.05
434.016	681.89
434.392	699.52
434.767	703.58
435.143	690.7
435.518	708.78
435.894	718.05
436.269	698.84
436.644	723.92
437.02	725.28
437.395	754.88
437.77	741.1
438.145	751.94
438.52	754.43
438.895	765.05
439.271	769.34
439.646	796.24
440.021	765.95
440.395	782.45
440.77	787.42
441.145	794.2
441.52	780.42
441.895	800.3
442.27	790.59
442.645	801.89
443.019	794.43
443.394	802.79
443.769	810.02
444.143	816.57
444.518	836.91
444.892	836.69
445.267	831.49
445.641	854.99
446.016	849.12
446.39	828.78
446.764	878.95
447.139	852.28
447.513	861.09
447.887	853.41
448.262	853.18
448.636	876.69
449.01	885.05
449.384	909
449.758	912.17
450.132	914.43
450.506	897.48
450.88	917.14
451.254	916.46
451.628	916.01
452.002	921.88
452.376	944.93
452.75	944.71
453.123	959.4
453.497	995.55
453.871	982.9
454.244	1002.56
454.618	985.61
454.992	1000.98
455.365	975.21
455.739	1014.76
456.112	1010.69
456.486	1042.11
456.859	1036
457.232	1063.35
457.606	1053.63
457.979	1115.55
458.352	1085.04
458.725	1106.51
459.099	1122.1
459.472	1138.15
459.845	1124.36
460.218	1154.87
460.591	1135.21
460.964	1166.17
461.337	1193.97
461.71	1197.58
462.083	1209.56
462.456	1230.35
462.829	1212.5
463.201	1268.09
463.574	1264.25
463.947	1285.94
464.32	1282.78
464.692	1304.7
465.065	1322.32
465.438	1350.12
465.81	1377.69
466.183	1380.18
466.555	1399.16
466.928	1405.49
467.3	1433.28
467.672	1421.53
468.045	1466.73
468.417	1472.6
468.789	1498.82
469.161	1538.59
469.534	1507.4
469.906	1579.49
470.278	1595.76
470.65	1609.1
471.022	1654.52
471.394	1696.78
471.766	1706.49
472.138	1718.47
472.51	1773.16
472.882	1802.54
473.253	1853.61
473.625	1892.25
473.997	1926.83
474.369	1914.4
474.74	1934.51
475.112	2005.92
475.484	2020.84
475.855	2085.47
476.227	2091.8
476.598	2178.35
476.97	2236.2
477.341	2260.6
477.713	2286.82
478.084	2325.91
478.455	2411.79
478.827	2434.16
479.198	2550.31
479.569	2564.55
479.94	2674.83
480.311	2709.63
480.682	2836.41
481.053	2882.28
481.424	2948.95
481.795	2988.95
482.166	3061.49
482.537	3136.74
482.908	3215.83
483.279	3268.94
483.65	3379.45
484.021	3491.76
484.391	3578.08
484.762	3555.26
485.133	3687.69
485.503	3809.26
485.874	3861.92
486.244	3953.44
486.615	4084.51
486.985	4164.74
487.356	4251.29
487.726	4318.4
488.097	4417.61
488.467	4477.27
488.837	4616.02
489.207	4718.84
489.578	4866.41
489.948	4898.5
490.318	5074.32
490.688	5136.69
491.058	5232.28
491.428	5330.35
491.798	5470.46
492.168	5634.75
492.538	5653.96
492.908	5784.58
493.278	5923.56
493.648	5950.22
494.017	6082.2
494.387	6221.18
494.757	6240.61
495.126	6414.17
495.496	6424.11
495.866	6529.64
496.235	6639.47
496.605	6746.81
496.974	6941.39
497.344	7022.74
497.713	7038.78
498.082	7188.38
498.452	7322.39
498.821	7358.32
499.19	7413.69
499.559	7518.09
499.928	7613.91
500.298	7739.1
500.667	7799.89
501.036	7852.77
501.405	7956.27
501.774	7983.17
502.143	8189.71
502.512	8144.07
502.88	8304.06
503.249	8372.31
503.618	8461.12
503.987	8523.72
504.356	8585.18
504.724	8736.82
505.093	8721
505.462	8800.09
505.83	8858.4
506.199	8954.89
506.567	9167.99
506.936	9106.07
507.304	9289.8
507.672	9293.64
508.041	9401.89
508.409	9498.83
508.777	9591.71
509.145	9608.43
509.514	9658.6
509.882	9820.86
510.25	9856.56
510.618	9975.88
510.986	9980.63
511.354	10093.62
511.722	10177.46
512.09	10248.19
512.458	10270.34
512.826	10373.39
513.193	10403.44
513.561	10464
513.929	10579.93
514.297	10699.93
514.664	10759.36
515.032	10822.19
515.4	10854.73
515.767	11021.5
516.135	11022.63
516.502	10943.54
516.869	11185.34
517.237	11243.87
517.604	11273.93
517.972	11308.5
518.339	11378.1
518.706	11433.24
519.073	11512.11
519.44	11560.02
519.808	11797.98
520.175	11763.63
520.542	11874.36
520.909	11907.58
521.276	11943.74
521.643	12158.42
522.009	12093.11
522.376	12234.13
522.743	12326.1
523.11	12425.31
523.477	12527.23
523.843	12607
524.21	12709.37
524.577	12779.42
524.943	12891.51
525.31	12884.73
525.676	13046.76
526.043	13103.48
526.409	13140.77
526.776	13357.49
527.142	13358.84
527.508	13393.65
527.874	13455.34
528.241	13559.52
528.607	13603.36
528.973	13770.58
529.339	13762.9
529.705	13953.63
530.071	13975.78
530.437	14042.22
530.803	14126.06
531.169	14306.84
531.535	14227.07
531.901	14288.54
532.267	14359.95
532.632	14515.65
532.998	14560.17
533.364	14630
533.73	14672.71
534.095	14787.73
534.461	14861.63
534.826	14867.96
535.192	14930.55
535.557	14998.12
535.923	15000.83
536.288	15161.06
536.653	15191.79
537.019	15197.44
537.384	15194.5
537.749	15417.32
538.114	15406.02
538.479	15483.76
538.845	15531.44
539.21	15531.44
539.575	15568.73
539.94	15702.74
540.305	15838.33
540.67	15737.54
541.034	15784.77
541.399	15968.94
541.764	16024.08
542.129	16044.42
542.494	16080.58
542.858	16126.91
543.223	16144.53
543.587	16250.75
543.952	16342.04
544.316	16391.76
544.681	16314.25
545.045	16425.66
545.41	16633.56
545.774	16586.1
546.138	16647.8
546.503	16681.02
546.867	16714.24
547.231	16833.1
547.595	16920.11
547.959	16939.09
548.324	17071.51
548.688	17012.08
549.052	17110.16
549.416	17076.94
549.779	17241
550.143	17274.67
550.507	17407.32
550.871	17422.01
551.235	17457.27
551.599	17596.02
551.962	17519.86
552.326	17697.49
552.689	17751.5
553.053	17664.95
553.417	17721.89
553.78	18031.26
554.143	17866.3
554.507	18022
554.87	18037.59
555.234	18271.48
555.597	18121.43
555.96	18206.17
556.323	18296.57
556.686	18315.1
557.05	18477.81
557.413	18578.37
557.776	18558.71
558.139	18760.51
558.502	18715.31
558.865	18805.03
559.228	18862.65
559.59	18988.53
559.953	18920.73
560.316	19152.14
560.679	19193.49
561.041	19274.85
561.404	19268.97
561.767	19373.83
562.129	19412.92
562.492	19513.03
562.854	19635.51
563.217	19562.07
563.579	19583.09
563.941	19793.7
564.304	19890.65
564.666	19972.46
565.028	20069.4
565.39	20086.8
565.753	20136.74
566.115	20315.95
566.477	20213.13
566.839	20427.81
567.201	20572.89
567.563	20521.14
567.925	20626.22
568.287	20686.56
568.648	20720.46
569.01	20898.08
569.372	21054.46
569.734	20962.49
570.095	21132.2
570.457	21202.93
570.819	21268.01
571.18	21266.66
571.542	21412.64
571.903	21522.02
572.265	21554.56
572.626	21718.85
572.987	21819.86
573.349	21823.03
573.71	21929.01
574.071	21945.28
574.432	22118.39
574.794	22281.77
575.155	22308.21
575.516	22238.61
575.877	22509.56
576.238	22416.23
576.599	22678.6
576.96	22777.35
577.32	22934.86
577.681	23071.58
578.042	23083.56
578.403	23312.03
578.763	23414.4
579.124	23348.19
579.485	23684.67
579.845	23707.27
580.206	23889.41
580.566	23870.21
580.927	23973.48
581.287	24292.12
581.648	24312.91
582.008	24563.07
582.368	24663.86
582.728	24807.13
583.089	25038.76
583.449	24992.21
583.809	25292.32
584.169	25422.93
584.529	25467
584.889	25882.81
585.249	25829.48
585.609	25962.81
585.969	26270.59
586.329	26413.42
586.688	26672.39
587.048	26739.73
587.408	26817.47
587.768	27146.73
588.127	27167.29
588.487	27307.4
588.846	27826.94
589.206	27680.95
589.565	27959.59
589.925	28129.08
590.284	28298.11
590.643	28506.92
591.003	28808.83
591.362	29040.24
591.721	29136.96
592.08	29229.39
592.44	29503.05
592.799	29578.98
593.158	29821.24
593.517	29810.61
593.876	30110.27
594.235	30382.8
594.593	30463.7
594.952	30687.88
595.311	30624.6
595.67	31057.36
596.029	31352.72
596.387	31492.83
596.746	31570.12
597.104	31723.11
597.463	31868.41
597.822	32095.07
598.18	32053.95
598.538	32213.72
598.897	32606.93
599.255	32411.68
599.613	33072.45
599.972	32937.09
600.33	33091.88
600.688	33140.24
601.046	33383.63
601.404	33675.15
601.762	33654.81
602.12	33969.83
602.478	34193.78
602.836	34286.43
603.194	34243.49
603.552	34450.72
603.91	34296.37
604.268	34702.24
604.625	34489.59
604.983	34931.16
605.341	34896.58
605.698	35184.71
606.056	35321.43
606.413	35266.29
606.771	35522.78
607.128	35869.44
607.485	35551.03
607.843	35784.47
608.2	36069.88
608.557	36149.88
608.914	36211.8
609.272	36378.8
609.629	36568.18
609.986	36825.12
610.343	36701.51
610.7	37038.67
611.057	36968.62
611.414	37073.93
611.771	37122.96
612.127	37348.5
612.484	37350.76
612.841	37651.99
613.198	37510.3
613.554	37626.45
613.911	37938.08
614.267	37933.79
614.624	37878.65
614.98	37995.94
615.337	38249.26
615.693	38152.99
616.05	38379.2
616.406	38454
616.762	38581.68
617.118	38495.36
617.475	38544.17
617.831	38728.35
618.187	38860.77
618.543	38892.41
618.899	39122.23
619.255	39177.15
619.611	39131.73
619.967	39299.4
620.323	39297.14
620.678	39298.05
621.034	39263.02
621.39	39314.09
621.746	39488.1
622.101	39776.45
622.457	39552.28
622.812	39695.1
623.168	39781.88
623.523	39741.2
623.879	39942.33
624.234	39638.6
624.589	39853.97
624.945	39976.22
625.3	39872.95
625.655	40092.15
626.01	40033.85
626.365	40102.1
626.72	40030.68
627.075	40152.94
627.43	39951.59
627.785	39978.03
628.14	40123.34
628.495	40124.92
628.85	40071.36
629.205	40023
629.559	40235.43
629.914	40124.92
630.269	40302.09
630.623	40040.85
630.978	40118.14
631.332	40151.13
631.687	40382.54
632.041	40209.89
632.396	40131.93
632.75	40147.97
633.104	40195.65
633.459	39915.21
633.813	40032.94
634.167	39983.45
634.521	40034.98
634.875	40162.21
635.229	39941.87
635.583	39905.49
635.937	39902.78
636.291	39821.42
636.645	39844.47
636.999	39798.15
637.352	39921.76
637.706	39679.96
638.06	39861.2
638.413	39659.17
638.767	39700.52
639.121	39802.67
639.474	39438.84
639.828	39715.44
640.181	39753.63
640.534	39573.07
640.888	39618.04
641.241	39370.36
641.594	39461.66
641.947	39778.04
642.301	39471.83
642.654	39625.05
643.007	39523.81
643.36	39429.12
643.713	39459.17
644.066	39515.44
644.419	39298.73
644.771	39072.07
645.124	38755.01
645.477	38582.36
645.83	38465.53
646.182	38387.11
646.535	38211.52
646.888	38286.1
647.24	38080
647.593	38292.2
647.945	38198.42
648.298	37988.03
648.65	37976.5
649.002	37818.54
649.355	37940.34
649.707	37910.74
650.059	38055.6
650.411	38522.93
650.763	38703.26
651.115	38978.51
651.467	38896.93
651.819	38786.42
652.171	38606.99
652.523	38746.2
652.875	38663.94
653.227	38519.09
653.578	38833.2
653.93	38623.49
654.282	38457.84
654.633	38439.99
654.985	38479.09
655.337	38708.69
655.688	38483.83
656.039	38577.62
656.391	38461.01
656.742	38435.7
657.094	38528.8
657.445	38581.23
657.796	38448.35
658.147	38345.98
658.498	38352.54
658.849	38516.83
659.2	38457.84
659.551	38230.73
659.902	38433.66
660.253	38281.58
660.604	38522.7
660.955	38277.06
661.306	38379.65
661.656	38361.12
662.007	38321.35
662.358	38294.91
662.708	38299.2
663.059	38354.12
663.409	38107.35
663.76	38302.59
664.11	38189.6
664.461	38337.17
664.811	38133.11
665.161	38217.17
665.511	38144.41
665.862	38045.65
666.212	38245.65
666.562	38244.07
666.912	38122.03
667.262	38117.97
667.612	38088.36
667.962	38153.45
668.312	38020.12
668.662	38261.69
669.011	38106.44
669.361	38122.94
669.711	37856.5
670.06	38037.97
670.41	37706.9
670.76	37892.89
671.109	38072.54
671.459	38034.81
671.808	37915.71
672.157	37935.37
672.507	37727.24
672.856	37699.22
673.205	37910.51
673.554	37955.26
673.904	37755.72
674.253	38023.05
674.602	37797.3
674.951	37256.97
675.3	37191.89
675.649	37736.51
675.998	37598.21
676.346	37638.88
676.695	37734.47
677.044	37463.97
677.393	37609.51
677.741	37611.77
678.09	37574.25
678.438	37466.68
678.787	37522.28
679.135	37507.81
679.484	37239.35
679.832	37531.32
680.181	37136.75
680.529	37330.42
680.877	37251.77
681.225	37211.32
681.573	37327.25
681.922	37056.98
682.27	37022.4
682.618	36913.48
682.966	36925.46
683.314	36993.02
683.661	36841.84
684.009	36687.72
684.357	36638.23
684.705	36516.43
685.053	36549.87
685.4	36493.15
685.748	36269.2
686.095	36385.36
686.443	36285.02
686.79	36221.75
687.138	36327.51
687.485	36187.4
687.832	36090.22
688.18	36244.12
688.527	35934.97
688.874	35866.5
689.221	35785.6
689.568	35790.57
689.915	35871.92
690.262	35603.68
690.609	35639.16
690.956	35611.59
691.303	35461.77
691.65	35317.36
691.997	35397.81
692.344	35096.35
692.69	35089.12
693.037	35183.58
693.383	34847.77
693.73	34997.37
694.077	34673.99
694.423	34789.92
694.769	34652.97
695.116	34571.62
695.462	34484.84
695.808	34390.61
696.155	34446.65
696.501	34133.66
696.847	34115.81
697.193	33912.88
697.539	34013.89
697.885	33794.01
698.231	33722.38
698.577	33724.18
698.923	33647.8
699.269	33534.81
699.614	33306.12
699.96	33264.76
700.306	33287.13
700.651	33061.6
700.997	32988.84
701.342	33025.9
701.688	32955.62
702.033	32937.31
702.379	32847.37
702.724	32803.76
703.069	32945.45
703.415	32442.64
703.76	32535.29
704.105	32494.39
704.45	32280.15
704.795	32114.73
705.14	32095.3
705.485	32037.9
705.83	32029.99
706.175	32054.17
706.52	31785.48
706.865	31714.75
707.209	31710.68
707.554	31766.5
707.899	31688.53
708.243	31425.94
708.588	31511.13
708.932	31269.56
709.277	31364.25
709.621	31209.45
709.966	31171.03
710.31	31091.03
710.654	30832.51
710.998	30983.69
711.342	30939.62
711.687	30878.16
712.031	30653.3
712.375	30550.71
712.719	30582.12
713.063	30532.86
713.407	30645.17
713.75	30494.44
714.094	30441.33
714.438	30355.01
714.782	30301.45
715.125	30196.59
715.469	30149.59
715.812	29955.7
716.156	30017.61
716.499	29846.77
716.843	29991.17
717.186	29744.85
717.53	29923.61
717.873	29859.2
718.216	29876.6
718.559	29663.05
718.902	29482.49
719.246	29571.07
719.589	29571.52
719.932	29320.01
720.275	29320.23
720.617	29332.66
720.96	29294.02
721.303	29206.79
721.646	29158.2
721.989	29010.18
722.331	29085.21
722.674	29014.03
723.016	29019.9
723.359	28706.91
723.701	28984.87
724.044	28734.03
724.386	28553.47
724.729	28759.57
725.071	28803.64
725.413	28684.32
725.755	28661.49
726.097	28536.3
726.439	28336.53
726.782	28305.12
727.124	28549.4
727.465	28216.76
727.807	28373.82
728.149	28264.67
728.491	28216.76
728.833	28221.96
729.175	28151.45
729.516	28107.16
729.858	28043.88
730.199	28027.61
730.541	28054.05
730.882	28037.55
731.224	28059.02
731.565	27753.04
731.906	27862.87
732.248	27777.45
732.589	27772.7
732.93	27646.38
733.271	27600.05
733.612	27692.93
733.953	27638.24
734.294	27501.3
734.635	27540.84
734.976	27510.11
735.317	27396.21
735.658	27333.84
735.999	27418.36
736.339	27320.28
736.68	27333.17
737.021	27218.82
737.361	27092.49
737.702	27297.23
738.042	27159.61
738.383	27030.57
738.723	27073.29
739.063	26956
739.404	27019.95
739.744	26886.4
740.084	26928.66
740.424	26845.72
740.764	26774.08
741.104	26859.96
741.444	26593.07
741.784	26556.69
742.124	26694.99
742.464	26713.52
742.804	26619.06
743.143	26431.27
743.483	26586.74
743.823	26341.33
744.162	26298.16
744.502	26280.09
744.841	26214.32
745.181	26447.31
745.52	26256.81
745.86	26250.93
746.199	26191.5
746.538	26158.96
746.877	26226.3
747.216	26142.24
747.556	26115.57
747.895	26124.16
748.234	25889.14
748.573	25991.51
748.911	25848.68
749.25	25904.73
749.589	25729.37
749.928	25732.76
750.267	25840.1
750.605	25666.32
750.944	25743.15
751.283	25506.77
751.621	25574.12
751.96	25459.77
752.298	25469.49
752.636	25479.43
752.975	25343.16
753.313	25215.03
753.651	25205.54
753.989	25208.48
754.327	25170.06
754.666	24896.39
755.004	24991.31
755.342	25082.6
755.679	25020.23
756.017	24910.63
756.355	24873.57
756.693	24808.03
757.031	24787.02
757.368	24662.5
