Data from hue_22_FLMS001491_00017.txt Node
Date: Tue Feb 07 17:09:41 GMT 2017
User: dcchb
Spectrometer: FLMS00149
Trigger mode: 0
Integration Time (sec): 2.000000E-2
Scans to average: 10
Electric dark correction enabled: true
Nonlinearity correction enabled: false
Boxcar width: 0
XAxis mode: Wavelengths
Number of Pixels in Spectrum: 2048
>>>>>Begin Spectral Data<<<<<
341.393	7.81
341.776	7.81
342.16	7.81
342.543	-59.31
342.927	-36.48
343.31	-59.08
343.693	-66.31
344.077	-54.56
344.46	-61.34
344.843	-49.59
345.226	-28.12
345.61	-57.5
345.993	-17.95
346.376	-7.56
346.759	6.45
347.142	21.82
347.525	37.64
347.908	71.31
348.291	62.5
348.674	85.55
349.057	116.73
349.44	122.84
349.823	142.27
350.206	183.17
350.588	194.25
350.971	239.89
351.354	247.13
351.737	262.49
352.119	263.4
352.502	276.73
352.884	276.28
353.267	286.67
353.65	301.36
354.032	309.95
354.414	301.14
354.797	307.69
355.179	347.46
355.562	327.8
355.944	321.02
356.326	324.41
356.709	343.17
357.091	343.62
357.473	339.33
357.855	349.27
358.238	316.28
358.62	355.82
359.002	345.88
359.384	359.89
359.766	329.84
360.148	335.94
360.53	346.78
360.912	363.28
361.294	354.24
361.676	338.42
362.057	348.82
362.439	330.74
362.821	330.51
363.203	324.64
363.584	346.33
363.966	341.81
364.348	327.58
364.729	333.23
365.111	326.9
365.493	341.81
365.874	334.58
366.256	333
366.637	338.42
367.019	326.22
367.4	310.4
367.781	311.76
368.163	310.85
368.544	316.95
368.925	331.42
369.306	343.17
369.688	332.55
370.069	317.63
370.45	302.94
370.831	312.44
371.212	308.14
371.593	306.33
371.974	317.18
372.355	321.93
372.736	316.73
373.117	352.66
373.498	321.02
373.879	320.8
374.26	316.05
374.641	325.32
375.021	324.41
375.402	313.57
375.783	336.39
376.163	323.73
376.544	332.32
376.925	335.71
377.305	344.75
377.686	345.2
378.066	329.38
378.447	338.88
378.827	326.9
379.208	331.64
379.588	335.03
379.968	342.49
380.349	337.97
380.729	320.8
381.109	324.19
381.489	342.04
381.87	346.78
382.25	338.65
382.63	357.18
383.01	362.38
383.39	352.66
383.77	343.39
384.15	351.08
384.53	353.79
384.91	339.33
385.29	348.82
385.67	358.76
386.049	338.42
386.429	373.45
386.809	361.25
387.189	357.86
387.568	365.77
387.948	360.12
388.328	388.59
388.707	371.19
389.087	375.48
389.466	376.39
389.846	371.64
390.225	397.18
390.605	382.04
390.984	379.55
391.363	386.78
391.743	395.6
392.122	387.24
392.501	382.04
392.881	367.35
393.26	374.81
393.639	376.16
394.018	387.01
394.397	381.59
394.776	394.47
395.155	397.18
395.534	383.85
395.913	396.5
396.292	401.25
396.671	404.64
397.05	417.74
397.429	399.21
397.808	385.65
398.186	374.35
398.565	391.08
398.944	413.45
399.323	411.64
399.701	407.8
400.08	423.17
400.458	422.71
400.837	416.61
401.215	406.67
401.594	401.7
401.972	423.62
402.351	429.27
402.729	412.32
403.107	427.46
403.486	422.94
403.864	415.03
404.242	427.01
404.62	444.86
404.999	457.97
405.377	432.66
405.755	460.91
406.133	421.36
406.511	443.05
406.889	426.78
407.267	449.61
407.645	454.13
408.023	447.12
408.401	455.93
408.779	460.91
409.156	456.84
409.534	460.45
409.912	457.29
410.29	457.29
410.667	468.82
411.045	462.71
411.422	479.89
411.8	484.18
412.178	497.74
412.555	497.74
412.933	477.18
413.31	502.71
413.687	503.39
414.065	493
414.442	490.51
414.819	505.88
415.197	503.39
415.574	531.41
415.951	522.83
416.328	509.04
416.705	508.59
417.082	513.11
417.46	526.89
417.837	519.44
418.214	523.96
418.591	515.37
418.967	533.22
419.344	545.2
419.721	527.57
420.098	525.31
420.475	533.67
420.852	557.63
421.228	579.32
421.605	550.62
421.982	559.89
422.358	578.64
422.735	542.94
423.111	562.15
423.488	574.58
423.864	579.32
424.241	575.25
424.617	566.21
424.994	566.21
425.37	581.58
425.746	580.22
426.123	589.04
426.499	586.33
426.875	616.38
427.251	595.14
427.627	624.29
428.003	625.65
428.379	618.64
428.756	626.78
429.132	632.65
429.507	632.2
429.883	638.98
430.259	650.51
430.635	658.87
431.011	649.15
431.387	682.14
431.763	671.3
432.138	699.09
432.514	680.34
432.89	704.06
433.265	712.42
433.641	703.39
434.016	736.83
434.392	714.46
434.767	743.38
435.143	737.73
435.518	724.4
435.894	730.5
436.269	753.78
436.644	758.07
437.02	754.23
437.395	749.71
437.77	768.92
438.145	778.41
438.52	801.24
438.895	786.55
439.271	785.42
439.646	802.82
440.021	801.24
440.395	792.2
440.77	801.01
441.145	784.51
441.52	835.59
441.895	832.65
442.27	841.46
442.645	818.41
443.019	843.27
443.394	828.13
443.769	844.4
444.143	851.86
444.518	871.74
444.892	856.38
445.267	847.79
445.641	843.49
446.016	862.03
446.39	890.27
446.764	890.5
447.139	899.54
447.513	898.41
447.887	910.16
448.262	909.26
448.636	914.45
449.01	920.33
449.384	918.52
449.758	933.89
450.132	921.68
450.506	944.74
450.88	923.94
451.254	947.22
451.628	967.56
452.002	968.92
452.376	975.92
452.75	976.15
453.123	973.43
453.497	975.47
453.871	983.38
454.244	1000.1
454.618	1033.77
454.992	1023.83
455.365	1028.35
455.739	1067.22
456.112	1051.17
456.486	1083.26
456.859	1074.68
457.232	1095.92
457.606	1092.3
457.979	1100.66
458.352	1148.12
458.725	1169.81
459.099	1151.74
459.472	1159.19
459.845	1178.63
460.218	1165.97
460.591	1171.4
460.964	1214.11
461.337	1236.7
461.71	1233.09
462.083	1228.12
462.456	1263.82
462.829	1264.27
463.201	1270.83
463.574	1295.23
463.947	1324.84
464.32	1332.75
464.692	1357.15
465.065	1345.85
465.438	1393.08
465.81	1352.41
466.183	1382.01
466.555	1432.18
466.928	1415.01
467.3	1419.75
467.672	1466.08
468.045	1495
468.417	1503.59
468.789	1520.54
469.161	1535.23
469.534	1555.57
469.906	1594.44
470.278	1608.22
470.65	1608.67
471.022	1654.32
471.394	1664.04
471.766	1689.8
472.138	1692.74
472.51	1757.82
472.882	1768.22
473.253	1793.3
473.625	1810.02
473.997	1852.51
474.369	1892.96
474.74	1892.28
475.112	1905.39
475.484	1922.11
475.855	2002.33
476.227	2004.59
476.598	2070.81
476.97	2081.65
477.341	2123.46
477.713	2191.26
478.084	2204.14
478.455	2231.71
478.827	2250.69
479.198	2364.13
479.569	2344.25
479.94	2365.49
480.311	2431.7
480.682	2512.83
481.053	2523.22
481.424	2603.67
481.795	2604.13
482.166	2661.53
482.537	2659.72
482.908	2714.63
483.279	2783.78
483.65	2828.75
484.021	2900.62
484.391	2944.46
484.762	2971.35
485.133	2991.46
485.503	3087.05
485.874	3100.84
486.244	3165.69
486.615	3265.8
486.985	3244.56
487.356	3310.77
487.726	3367.72
488.097	3435.97
488.467	3482.75
488.837	3525.46
489.207	3558.9
489.578	3640.03
489.948	3713.93
490.318	3687.26
490.688	3753.25
491.058	3838.9
491.428	3919.8
491.798	3945.33
492.168	3998.44
492.538	4026.46
492.908	4079.79
493.278	4099
493.648	4153.46
494.017	4226.23
494.387	4231.65
494.757	4284.53
495.126	4348.94
495.496	4367.02
495.866	4429.16
496.235	4423.74
496.605	4501.03
496.974	4503.51
497.344	4602.94
497.713	4578.99
498.082	4646.78
498.452	4689.72
498.821	4692.66
499.19	4721.58
499.559	4810.62
499.928	4837.06
500.298	4830.73
500.667	4898.53
501.036	4890.17
501.405	4951.18
501.774	4920.22
502.143	5065.3
502.512	5029.83
502.88	5025.53
503.249	5124.29
503.618	5103.95
503.987	5138.52
504.356	5154.12
504.724	5211.52
505.093	5258.97
505.462	5245.86
505.83	5272.08
506.199	5347.33
506.567	5397.5
506.936	5413.09
507.304	5441.11
507.672	5414.9
508.041	5475.01
508.409	5551.39
508.777	5552.3
509.145	5583.48
509.514	5571.28
509.882	5598.17
510.25	5592.52
510.618	5654.22
510.986	5708.45
511.354	5722.69
511.722	5770.37
512.09	5846.3
512.458	5834.55
512.826	5844.04
513.193	5888.11
513.561	5917.26
513.929	5923.14
514.297	5952.29
514.664	6010.14
515.032	6011.27
515.4	6086.07
515.767	6063.02
516.135	6057.82
516.502	6100.76
516.869	6150.47
517.237	6206.97
517.604	6212.85
517.972	6219.4
518.339	6267.08
518.706	6258.72
519.073	6283.35
519.44	6324.93
519.808	6384.14
520.175	6368.77
520.542	6463.01
520.909	6503.46
521.276	6512.72
521.643	6511.14
522.009	6558.6
522.376	6547.3
522.743	6646.05
523.11	6630.91
523.477	6772.38
523.843	6763.79
524.21	6738.93
524.577	6827.29
524.943	6902.32
525.31	6835.65
525.676	7017.34
526.043	7047.4
526.409	7044.01
526.776	7147.74
527.142	7117.91
527.508	7094.63
527.874	7182.99
528.241	7214.4
528.607	7247.17
528.973	7273.61
529.339	7302.31
529.705	7393.15
530.071	7475.18
530.437	7468.18
530.803	7470.44
531.169	7513.6
531.535	7560.15
531.901	7503.88
532.267	7626.14
532.632	7616.88
532.998	7683.77
533.364	7789.75
533.73	7832.46
534.095	7842.63
534.461	7833.59
534.826	7843.76
535.192	7961.5
535.557	7981.84
535.923	8016.64
536.288	7930.09
536.653	8067.03
537.019	8053.93
537.384	8109.52
537.749	8128.73
538.114	8159.46
538.479	8189.74
538.845	8163.08
539.21	8149.97
539.575	8282.62
539.94	8348.83
540.305	8379.12
540.67	8400.13
541.034	8456.4
541.399	8431.09
541.764	8478.1
542.129	8462.5
542.494	8474.93
542.858	8578.88
543.223	8535.5
543.587	8681.03
543.952	8664.53
544.316	8704.31
544.681	8706.11
545.045	8755.38
545.41	8799.44
545.774	8837.63
546.138	8805.55
546.503	8842.61
546.867	8937.29
547.231	8937.29
547.595	9012.55
547.959	9003.28
548.324	9054.35
548.688	9028.14
549.052	9076.5
549.416	9151.52
549.779	9097.06
550.143	9170.73
550.507	9171.86
550.871	9289.37
551.235	9283.27
551.599	9307.45
551.962	9341.12
552.326	9341.12
552.689	9463.61
553.053	9398.3
553.417	9421.57
553.78	9557.39
554.143	9513.55
554.507	9547.22
554.87	9563.04
555.234	9674.22
555.597	9636.48
555.96	9720.55
556.323	9702.47
556.686	9763.26
557.05	9827.67
557.413	9816.37
557.776	9843.26
558.139	9924.61
558.502	9916.7
558.865	9955.35
559.228	10037.83
559.59	9999.86
559.953	10054.33
560.316	10096.58
560.679	10233.3
561.041	10141.1
561.404	10227.2
561.767	10316.01
562.129	10304.49
562.492	10378.61
562.854	10332.28
563.217	10377.03
563.579	10446.63
563.941	10529.79
564.304	10509.46
564.666	10607.53
565.028	10650.24
565.39	10729.79
565.753	10630.81
566.115	10690.24
566.477	10717.13
566.839	10767.3
567.201	10847.98
567.563	10908.31
567.925	10895.21
568.287	10978.82
568.648	11004.81
569.01	11066.5
569.372	11104.92
569.734	11075.99
570.095	11111.02
570.457	11198.93
570.819	11232.83
571.18	11321.19
571.542	11342.88
571.903	11461.07
572.265	11453.84
572.626	11499.49
572.987	11557.56
573.349	11607.28
573.71	11705.81
574.071	11735.64
574.432	11675.3
574.794	11816.31
575.155	11890.44
575.516	11856.54
575.877	12030.09
576.238	12028.96
576.599	12206.59
576.96	12177.89
577.32	12185.57
577.681	12343.08
578.042	12433.02
578.403	12447.71
578.763	12578.33
579.124	12688.61
579.485	12895.38
579.845	12986
580.206	13062.61
580.566	13115.94
580.927	13237.07
581.287	13382.15
581.648	13443.62
582.008	13689.71
582.368	13732.42
582.728	13964.28
583.089	14056.93
583.449	14261
583.809	14437.71
584.169	14592.51
584.529	14666.63
584.889	14922.67
585.249	15013.29
585.609	15266.62
585.969	15531.7
586.329	15660.73
586.688	15877.9
587.048	16152.24
587.408	16342.52
587.768	16628.39
588.127	16667.03
588.487	17127.36
588.846	17409.61
589.206	17510.63
589.565	17750.17
589.925	18001.69
590.284	18303.83
590.643	18665.85
591.003	18923.25
591.362	19252.28
591.721	19452.95
592.08	19777.69
592.44	20114.63
592.799	20301.51
593.158	20598.46
593.517	20910.99
593.876	21219.23
594.235	21648.6
594.593	21819.44
594.952	22224.18
595.311	22381.69
595.67	22897.38
596.029	23265.96
596.387	23541.43
596.746	23849.67
597.104	24130.79
597.463	24489.88
597.822	24996.08
598.18	25041.73
598.538	25399.69
598.897	25899.56
599.255	25953.57
599.613	26716.49
599.972	26783.38
600.33	27139.3
600.688	27270.6
601.046	27826.74
601.404	28216.33
601.762	28384.24
602.12	28824.91
602.478	29150.1
602.836	29528.16
603.194	29498.56
603.552	29911.21
603.91	30199.56
604.268	30609.49
604.625	30755.02
604.983	31176.48
605.341	31239.31
605.698	31693.53
606.056	32036.12
606.413	32194.53
606.771	32653.73
607.128	32856.89
607.485	33081.97
607.843	33252.81
608.2	33763.99
608.557	34133.92
608.914	34184.31
609.272	34550.18
609.629	34828.14
609.986	35142.03
610.343	35354.68
610.7	35822.46
611.057	36026.52
611.414	36023.13
611.771	36240.76
612.127	36756.67
612.484	36886.84
612.841	36989.66
613.198	37203.89
613.554	37240.05
613.911	37720.72
614.267	37965.46
614.624	38055.4
614.98	38153.7
615.337	38692.22
615.693	38840.46
616.05	38809.05
616.406	39112.09
616.762	39200.45
617.118	39358.87
617.475	39598.18
617.831	39877.04
618.187	40056.93
618.543	40167.66
618.899	40481.32
619.255	40595.67
619.611	40534.43
619.967	40839.96
620.323	41123.57
620.678	41136.67
621.034	41190.68
621.39	41355.65
621.746	41289.21
622.101	41877.44
622.457	41680.39
622.812	41878.8
623.168	42035.18
623.523	42006.71
623.879	42405.34
624.234	42202.41
624.589	42392.01
624.945	42406.47
625.3	42776.18
625.655	42651.66
626.01	42826.8
626.365	42812.11
626.72	42935.95
627.075	42981.6
627.43	43083.06
627.785	43124.19
628.14	43235.6
628.495	43330.29
628.85	43294.81
629.205	43234.02
629.559	43469.04
629.914	43282.38
630.269	43484.41
630.623	43342.04
630.978	43473.33
631.332	43654.12
631.687	43774.34
632.041	43677.17
632.396	43621.8
632.75	43681.92
633.104	43871.29
633.459	43694.57
633.813	43777.51
634.167	43829.26
634.521	43821.8
634.875	43910.16
635.229	43888.01
635.583	43740.22
635.937	43765.3
636.291	43699.32
636.645	43799.43
636.999	43765.98
637.352	43892.31
637.706	43645.76
638.06	44026.09
638.413	43780.22
638.767	43817.05
639.121	43738.41
639.474	43528.7
639.828	43619.32
640.181	43709.03
640.534	43827.45
640.888	43738.41
641.241	43406.9
641.594	43640.79
641.947	43627.45
642.301	43590.17
642.654	43702.25
643.007	43796.49
643.36	43732.54
643.713	43664.74
644.066	43851.86
644.419	43650.96
644.771	43418.42
645.124	42928.26
645.477	42914.7
645.83	42768.95
646.182	42645.79
646.535	42541.83
646.888	42654.15
647.24	42392.01
647.593	42756.29
647.945	42671.1
648.298	42509.74
648.65	42455.73
649.002	42432.68
649.355	42568.95
649.707	42393.36
650.059	42689.4
650.411	43030.86
650.763	43117.64
651.115	43533.45
651.467	43337.29
651.819	43367.35
652.171	43244.87
652.523	43115.83
652.875	43413.9
653.227	43143.85
653.578	43353.56
653.93	43367.12
654.282	43099.11
654.633	43001.03
654.985	43156.28
655.337	43142.27
655.688	43117.41
656.039	43271.53
656.391	43055.72
656.742	42894.59
657.094	43057.53
657.445	43212.55
657.796	43014.14
658.147	43099.11
658.498	43039.22
658.849	43068.6
659.2	43007.36
659.551	42833.13
659.902	43095.72
660.253	42975.27
660.604	43016.85
660.955	42876.51
661.306	43017.75
661.656	42947.02
662.007	43004.19
662.358	42962.16
662.708	43038.32
663.059	42994.93
663.409	42775.73
663.76	42974.36
664.11	42863.41
664.461	42934.59
664.811	42913.58
665.161	42887.14
665.511	42802.84
665.862	42825.22
666.212	42953.35
666.562	42919.9
666.912	42852.79
667.262	42883.52
667.612	42873.12
667.962	42934.14
668.312	42811.88
668.662	43004.65
669.011	42880.36
669.361	42765.33
669.711	42868.38
670.06	42766.01
670.41	42753.81
670.76	42631.55
671.109	42839
671.459	42780.7
671.808	42725.33
672.157	42813.69
672.507	42634.71
672.856	42547.03
673.205	42591.32
673.554	42734.14
673.904	42493.7
674.253	42747.48
674.602	42627.71
674.951	41966.26
675.3	41888.07
675.649	42634.03
675.998	42449.41
676.346	42633.13
676.695	42611.89
677.044	42260.26
677.393	42458.45
677.741	42617.31
678.09	42354.04
678.438	42303.65
678.787	42375.74
679.135	42384.78
679.484	42127.61
679.832	42277.89
680.181	42080.38
680.529	42113.6
680.877	41977.78
681.225	41925.35
681.573	42351.56
681.922	41884.9
682.27	41705.92
682.618	41811.01
682.966	41779.59
683.314	41857.11
683.661	41779.82
684.009	41503.89
684.357	41250.12
684.705	41383.22
685.053	41447.85
685.4	41298.48
685.748	41191.59
686.095	41007.18
686.443	41037.92
686.79	41076.56
687.138	41097.58
687.485	41149.1
687.832	41044.7
688.18	40961.76
688.527	40791.37
688.874	40815.78
689.221	40759.96
689.568	40578.72
689.915	40483.36
690.262	40495.33
690.609	40308.67
690.956	40251.95
691.303	40271.61
691.65	40037.04
691.997	40152.74
692.344	39854.22
692.69	39750.04
693.037	39813.77
693.383	39485.19
693.73	39608.13
694.077	39306.44
694.423	39226.44
694.769	39374.01
695.116	39162.04
695.462	39156.84
695.808	39115.26
696.155	39027.12
696.501	38675.04
696.847	38938.54
697.193	38617.19
697.539	38713.46
697.885	38447.7
698.231	38277.31
698.577	38340.36
698.923	38339.46
699.269	37982.86
699.614	37880.94
699.96	37909.41
700.306	37792.13
700.651	37732.02
700.997	37692.47
701.342	37614.96
701.688	37377.9
702.033	37383.32
702.379	37329.77
702.724	37267.17
703.069	37337.45
703.415	36928.2
703.76	36958.03
704.105	37006.16
704.45	36890.46
704.795	36662.21
705.14	36721.87
705.485	36598.03
705.83	36331.83
706.175	36440.07
706.52	36379.51
706.865	36168.89
707.209	36132.28
707.554	36051.38
707.899	36149.23
708.243	35833.54
708.588	35813.87
708.932	35666.99
709.277	35548.8
709.621	35655.23
709.966	35498.85
710.31	35517.84
710.654	35215.25
710.998	35363.49
711.342	35344.28
711.687	35156.72
712.031	35046.66
712.375	34824.3
712.719	34935.25
713.063	34822.26
713.407	34898.19
713.75	34711.3
714.094	34785.88
714.438	34600.57
714.782	34596.73
715.125	34570.52
715.469	34513.8
715.812	34370.75
716.156	34192
716.499	34182.28
716.843	34203.52
717.186	33941.83
717.53	34274.48
717.873	34117.87
718.216	33956.07
718.559	33865.68
718.902	33715.85
719.246	33809.18
719.589	33614.61
719.932	33566.02
720.275	33503.88
720.617	33657.77
720.96	33507.72
721.303	33519.92
721.646	33520.38
721.989	33167.84
722.331	33446.25
722.674	33197.22
723.016	33265.69
723.359	33078.13
723.701	33089.65
724.044	32891.69
724.386	32769.89
724.729	32939.6
725.071	32835.87
725.413	32750.23
725.755	32762.43
726.097	32616.9
726.439	32437.47
726.782	32541.19
727.124	32611.47
727.465	32333.51
727.807	32443.79
728.149	32419.84
728.491	32299.39
728.833	32296
729.175	32260.97
729.516	32059.4
729.858	32132.16
730.199	32143.46
730.541	32032.51
730.882	32081.32
731.224	32018.72
731.565	31976.91
731.906	31803.58
732.248	32019.17
732.589	31771.27
732.93	31615.34
733.271	31736.24
733.612	31627.09
733.953	31646.75
734.294	31461.22
734.635	31489.47
734.976	31505.74
735.317	31349.59
735.658	31395.01
735.999	31397.95
736.339	31200.21
736.68	31400.66
737.021	31229.14
737.361	31052.19
737.702	31304.16
738.042	31137.61
738.383	31030.05
738.723	31102.13
739.063	31079.54
739.404	31017.39
739.744	30963.38
740.084	30857.17
740.424	30900.33
740.764	30872.54
741.104	30779.88
741.444	30705.99
741.784	30611.53
742.124	30642.26
742.464	30567.46
742.804	30535.82
743.143	30549.38
743.483	30392.32
743.823	30172.67
744.162	30389.16
744.502	30368.37
744.841	30249.5
745.181	30408.59
745.52	30204.76
745.86	30256.96
746.199	30190.97
746.538	30046.12
746.877	30262.38
747.216	30081.6
747.556	30005.21
747.895	29870.08
748.234	29909.4
748.573	29917.53
748.911	29914.82
749.25	29788.5
749.589	29558.9
749.928	29674.15
750.267	29773.13
750.605	29534.04
750.944	29639.35
751.283	29562.51
751.621	29544.44
751.96	29457.43
752.298	29366.13
752.636	29397.32
752.975	29238.68
753.313	29140.38
753.651	29263.76
753.989	28916.88
754.327	29010.89
754.666	28834.62
755.004	28976.77
755.342	28882.53
755.679	28906.03
756.017	28606.83
756.355	28915.98
756.693	28609.77
757.031	28659.94
757.368	28410.91
757.706	28483.9
758.044	28362.32
758.381	28289.55
758.719	28321.19
759.056	28211.81
759.394	28233.74
