Data from hue_260_FLMS001491_00017.txt Node
Date: Tue Feb 07 15:58:39 GMT 2017
User: dcchb
Spectrometer: FLMS00149
Trigger mode: 0
Integration Time (sec): 2.000000E-2
Scans to average: 10
Electric dark correction enabled: true
Nonlinearity correction enabled: false
Boxcar width: 0
XAxis mode: Wavelengths
Number of Pixels in Spectrum: 2048
>>>>>Begin Spectral Data<<<<<
341.393	4.29
341.776	4.29
342.16	4.29
342.543	-65.76
342.927	-63.73
343.31	-57.17
343.693	-63.28
344.077	-69.6
344.46	-45.42
344.843	-51.3
345.226	-28.93
345.61	-30.06
345.993	-27.34
346.376	-2.49
346.759	16.72
347.142	10.62
347.525	29.15
347.908	49.49
348.291	86.1
348.674	87
349.057	96.49
349.44	99.66
349.823	145.53
350.206	162.03
350.588	201.8
350.971	198.64
351.354	213.1
351.737	219.2
352.119	238.64
352.502	241.12
352.884	264.63
353.267	259.43
353.65	260.11
354.032	270.5
354.414	289.03
354.797	296.04
355.179	318.18
355.562	317.05
355.944	319.77
356.326	326.77
356.709	318.41
357.091	329.71
357.473	331.06
357.855	313.89
358.238	329.03
358.62	341.46
359.002	324.74
359.384	319.09
359.766	325.64
360.148	317.73
360.53	334.45
360.912	338.3
361.294	343.04
361.676	332.42
362.057	321.12
362.439	317.05
362.821	315.92
363.203	310.5
363.584	309.6
363.966	325.64
364.348	305.53
364.729	305.75
365.111	314.79
365.493	309.82
365.874	305.08
366.256	315.7
366.637	306.43
367.019	293.55
367.4	297.62
367.781	308.92
368.163	305.75
368.544	285.19
368.925	321.12
369.306	326.09
369.688	298.07
370.069	294.68
370.45	270.5
370.831	285.64
371.212	315.02
371.593	304.62
371.974	314.12
372.355	318.64
372.736	315.25
373.117	315.02
373.498	312.99
373.879	325.42
374.26	339.88
374.641	295.81
375.021	291.97
375.402	311.4
375.783	300.78
376.163	324.96
376.544	304.85
376.925	305.98
377.305	319.77
377.686	328.35
378.066	328.58
378.447	312.76
378.827	284.51
379.208	304.62
379.588	356.83
379.968	327.22
380.349	324.74
380.729	330.61
381.109	343.04
381.489	341.01
381.87	325.87
382.25	335.81
382.63	329.26
383.01	337.39
383.39	337.84
383.77	341.46
384.15	336.94
384.53	341.91
384.91	335.36
385.29	333.55
385.67	322.25
386.049	346.88
386.429	339.65
386.809	352.08
387.189	356.37
387.568	348.24
387.948	357.5
388.328	366.54
388.707	351.63
389.087	359.54
389.466	347.34
389.846	364.06
390.225	352.53
390.605	367.67
390.984	354.57
391.363	353.44
391.743	360.22
392.122	367.67
392.501	364.06
392.881	365.87
393.26	378.75
393.639	368.35
394.018	375.58
394.397	360.67
394.776	379.2
395.155	396.6
395.534	379.88
395.913	376.26
396.292	381.23
396.671	376.94
397.05	398.18
397.429	395.92
397.808	397.73
398.186	411.74
398.565	398.63
398.944	381.68
399.323	402.48
399.701	388.92
400.08	400.44
400.458	406.54
400.837	382.81
401.215	419.42
401.594	425.3
401.972	419.88
402.351	422.59
402.729	428.69
403.107	406.99
403.486	438.41
403.864	434.34
404.242	422.14
404.62	433.21
404.999	431.18
405.377	437.5
405.755	454.68
406.133	458.07
406.511	426.88
406.889	465.75
407.267	445.64
407.645	458.29
408.023	453.77
408.401	458.29
408.779	486.99
409.156	502.59
409.534	510.95
409.912	498.97
410.29	499.65
410.667	510.04
411.045	533.32
411.422	542.36
411.8	526.31
412.178	534.68
412.555	535.58
412.933	553.21
413.31	541.68
413.687	571.06
414.065	574.9
414.442	577.16
414.819	573.54
415.197	587.56
415.574	608.35
415.951	585.3
416.328	597.05
416.705	620.77
417.082	617.38
417.46	637.95
417.837	643.6
418.214	631.85
418.591	650.83
418.967	664.16
419.344	636.59
419.721	668.01
420.098	684.95
420.475	683.15
420.852	696.25
421.228	687.44
421.605	711.39
421.982	719.53
422.358	750.04
422.735	733.99
423.111	749.81
423.488	773.54
423.864	802.01
424.241	796.59
424.617	786.65
424.994	809.92
425.37	817.83
425.746	833.88
426.123	837.49
426.499	821.9
426.875	850.15
427.251	870.49
427.627	860.09
428.003	915
428.379	900.09
428.756	904.16
429.132	912.97
429.507	933.31
429.883	917.94
430.259	944.61
430.635	974.44
431.011	972.4
431.387	1010.37
431.763	1018.05
432.138	1011.95
432.514	1022.8
432.89	1046.98
433.265	1058.05
433.641	1072.74
434.016	1074.32
434.392	1124.26
434.767	1127.88
435.143	1158.61
435.518	1160.42
435.894	1174.21
436.269	1180.99
436.644	1198.16
437.02	1220.31
437.395	1210.36
437.77	1261.44
438.145	1279.97
438.52	1282.9
438.895	1296.46
439.271	1286.75
439.646	1335.56
440.021	1362.22
440.395	1343.69
440.77	1376.24
441.145	1389.12
441.52	1393.18
441.895	1422.34
442.27	1459.85
442.645	1454.43
443.019	1456.46
443.394	1447.19
443.769	1485.84
444.143	1453.07
444.518	1498.72
444.892	1493.75
445.267	1512.05
445.641	1556.34
446.016	1523.35
446.39	1561.77
446.764	1568.32
447.139	1578.72
447.513	1578.04
447.887	1585.5
448.262	1585.5
448.636	1629.56
449.01	1607.87
449.384	1644.25
449.758	1662.78
450.132	1690.13
450.506	1680.41
450.88	1662.78
451.254	1697.58
451.628	1714.98
452.002	1739.62
452.376	1730.12
452.75	1748.88
453.123	1789.33
453.497	1811.03
453.871	1805.15
454.244	1846.28
454.618	1849.67
454.992	1864.36
455.365	1893.74
455.739	1911.59
456.112	1936.9
456.486	1954.98
456.859	1991.59
457.232	1977.8
457.606	1992.04
457.979	2005.37
458.352	2055.31
458.725	2082.88
459.099	2089.66
459.472	2147.74
459.845	2138.7
460.218	2139.83
460.591	2173.73
460.964	2184.12
461.337	2205.82
461.71	2249.21
462.083	2288.75
462.456	2292.6
462.829	2291.01
463.201	2352.25
463.574	2350.45
463.947	2382.54
464.32	2422.54
464.692	2440.61
465.065	2397.45
465.438	2451.01
465.81	2515.41
466.183	2535.53
466.555	2554.51
466.928	2596.32
467.3	2590.67
467.672	2640.83
468.045	2666.6
468.417	2679.93
468.789	2708.63
469.161	2733.94
469.534	2796.99
469.906	2819.59
470.278	2842.41
470.65	2864.78
471.022	2904.78
471.394	2983.88
471.766	2991.33
472.138	3020.49
472.51	3088.73
472.882	3109.07
473.253	3118.34
473.625	3182.06
473.997	3226.58
474.369	3274.49
474.74	3276.98
475.112	3332.12
475.484	3375.5
475.855	3408.05
476.227	3430.42
476.598	3553.35
476.97	3567.59
477.341	3643.07
477.713	3694.14
478.084	3696.63
478.455	3791.31
478.827	3795.38
479.198	3915.38
479.569	3893.91
479.94	3976.62
480.311	4031.31
480.682	4135.26
481.053	4147.24
481.424	4241.7
481.795	4229.04
482.166	4286.21
482.537	4341.13
482.908	4471.52
483.279	4477.17
483.65	4528.69
484.021	4590.39
484.391	4639.43
484.762	4698.63
485.133	4739.54
485.503	4756.49
485.874	4900.21
486.244	4885.75
486.615	5000.32
486.985	5041.9
487.356	5131.39
487.726	5177.04
488.097	5229.47
488.467	5239.18
488.837	5301.33
489.207	5387.88
489.578	5406.86
489.948	5428.11
490.318	5507.65
490.688	5547.65
491.058	5590.81
491.428	5666.29
491.798	5753.3
492.168	5826.06
492.538	5840.52
492.908	5923.23
493.278	5955.78
493.648	5944.48
494.017	6024.47
494.387	6058.15
494.757	6099.27
495.126	6141.76
495.496	6133.62
495.866	6225.15
496.235	6287.97
496.605	6270.57
496.974	6279.83
497.344	6387.18
497.713	6419.49
498.082	6484.35
498.452	6574.52
498.821	6552.6
499.19	6562.77
499.559	6595.76
499.928	6575.42
500.298	6658.36
500.667	6688.64
501.036	6669.43
501.405	6669.88
501.774	6689.77
502.143	6772.03
502.512	6769.09
502.88	6869.42
503.249	6816.54
503.618	6897.67
503.987	6855.86
504.356	6936.77
504.724	6915.75
505.093	6935.64
505.462	6967.05
505.83	7017.22
506.199	7008.18
506.567	7103.09
506.936	7058.8
507.304	7118.91
507.672	7135.86
508.041	7144.67
508.409	7211.56
508.777	7234.61
509.145	7252.46
509.514	7207.95
509.882	7394.16
510.25	7279.13
510.618	7384.66
510.986	7346.25
511.354	7355.74
511.722	7425.79
512.09	7452.69
512.458	7462.18
512.826	7542.63
513.193	7511.21
513.561	7474.83
513.929	7516.64
514.297	7565.9
514.664	7627.6
515.032	7619.46
515.4	7685
515.767	7634.15
516.135	7666.47
516.502	7585.56
516.869	7728.61
517.237	7679.35
517.604	7698.1
517.972	7769.51
518.339	7765.9
518.706	7728.84
519.073	7712.11
519.44	7741.72
519.808	7835.5
520.175	7799.12
520.542	7891.77
520.909	7866.01
521.276	7901.71
521.643	7974.71
522.009	7973.58
522.376	7969.28
522.743	7987.36
523.11	7995.72
523.477	8103.29
523.843	8083.4
524.21	8101.71
524.577	8081.37
524.943	8087.7
525.31	8136.74
525.676	8299.67
526.043	8196.85
526.409	8224.42
526.776	8256.28
527.142	8260.8
527.508	8190.07
527.874	8331.31
528.241	8324.3
528.607	8314.58
528.973	8407.01
529.339	8388.25
529.705	8397.07
530.071	8401.36
530.437	8395.71
530.803	8486.33
531.169	8446.11
531.535	8397.07
531.901	8405.2
532.267	8448.59
532.632	8450.85
532.998	8469.38
533.364	8523.17
533.73	8460.57
534.095	8462.15
534.461	8480.45
534.826	8504.86
535.192	8516.39
535.557	8537.4
535.923	8495.82
536.288	8538.53
536.653	8505.99
537.019	8491.08
537.384	8470.29
537.749	8521.81
538.114	8509.15
538.479	8461.25
538.845	8550.28
539.21	8475.94
539.575	8512.09
539.94	8534.92
540.305	8544.41
540.67	8451.08
541.034	8501.25
541.399	8517.97
541.764	8505.09
542.129	8497.18
542.494	8489.72
542.858	8482.71
543.223	8524.3
543.587	8506.22
543.952	8483.17
544.316	8464.18
544.681	8451.76
545.045	8472.09
545.41	8482.71
545.774	8573.56
546.138	8422.6
546.503	8472.32
546.867	8388.71
547.231	8496.95
547.595	8503.28
547.959	8429.83
548.324	8432.77
548.688	8433.9
549.052	8445.88
549.416	8438.2
549.779	8369.95
550.143	8375.6
550.507	8429.16
550.871	8468.93
551.235	8388.25
551.599	8406.56
551.962	8421.25
552.326	8361.14
552.689	8436.39
553.053	8396.62
553.417	8324.53
553.78	8470.74
554.143	8407.46
554.507	8428.03
554.87	8436.61
555.234	8431.87
555.597	8426.9
555.96	8446.11
556.323	8399.1
556.686	8425.54
557.05	8434.58
557.413	8437.97
557.776	8477.97
558.139	8462.15
558.502	8489.95
558.865	8512.54
559.228	8571.3
559.59	8495.37
559.953	8455.37
560.316	8540.57
560.679	8563.16
561.041	8588.25
561.404	8560
561.767	8600.23
562.129	8597.06
562.492	8687
562.854	8627.57
563.217	8581.24
563.579	8661.47
563.941	8641.81
564.304	8697.62
564.666	8772.88
565.028	8729.71
565.39	8789.15
565.753	8847.45
566.115	8809.49
566.477	8829.37
566.839	8892.87
567.201	8900.56
567.563	8874.12
567.925	8887
568.287	8906.66
568.648	8956.37
569.01	8980.33
569.372	8948.24
569.734	9000.22
570.095	9078.18
570.457	9077.5
570.819	9043.83
571.18	9056.26
571.542	9108.46
571.903	9146.43
572.265	9141.91
572.626	9104.85
572.987	9150.49
573.349	9232.3
573.71	9243.37
574.071	9233.66
574.432	9262.81
574.794	9312.75
575.155	9356.14
575.516	9349.13
575.877	9329.7
576.238	9395.46
576.599	9369.47
576.96	9433.88
577.32	9379.87
577.681	9474.78
578.042	9500.77
578.403	9514.55
578.763	9435.68
579.124	9507.55
579.485	9598.84
579.845	9535.34
580.206	9566.3
580.566	9533.99
580.927	9626.64
581.287	9648.33
581.648	9632.29
582.008	9727.43
582.368	9679.29
582.728	9692.4
583.089	9688.11
583.449	9705.28
583.809	9776.47
584.169	9748.22
584.529	9707.54
584.889	9858.72
585.249	9760.2
585.609	9779.86
585.969	9868.89
586.329	9841.78
586.688	9860.98
587.048	9911.83
587.408	9812.62
587.768	9882.23
588.127	9900.53
588.487	9839.74
588.846	9952.96
589.206	9901.21
589.565	9904.37
589.925	9978.72
590.284	9977.14
590.643	9959.29
591.003	9949.79
591.362	10048.55
591.721	10043.8
592.08	10053.29
592.44	10082.22
592.799	10071.83
593.158	10051.71
593.517	10009.91
593.876	10061.66
594.235	10049.91
594.593	10114.99
594.952	10156.8
595.311	10108.21
595.67	10075.89
596.029	10173.07
596.387	10233.18
596.746	10195.89
597.104	10146.63
597.463	10151.37
597.822	10227.75
598.18	10170.35
598.538	10222.56
598.897	10214.65
599.255	10157.7
599.613	10312.27
599.972	10212.39
600.33	10237.47
600.688	10192.05
601.046	10238.37
601.404	10264.81
601.762	10342.33
602.12	10244.48
602.478	10339.62
602.836	10311.59
603.194	10275.21
603.552	10330.12
603.91	10276.57
604.268	10325.15
604.625	10258.71
604.983	10347.3
605.341	10305.49
605.698	10338.26
606.056	10320.18
606.413	10341.42
606.771	10360.63
607.128	10389.11
607.485	10288.99
607.843	10338.03
608.2	10351.37
608.557	10461.42
608.914	10402.44
609.272	10423.23
609.629	10447.63
609.986	10481.53
610.343	10426.39
610.7	10437.01
611.057	10502.55
611.414	10522.44
611.771	10450.35
612.127	10474.3
612.484	10458.26
612.841	10566.95
613.198	10513.62
613.554	10500.29
613.911	10576.22
614.267	10587.29
614.624	10567.86
614.98	10541.64
615.337	10623.22
615.693	10676.1
616.05	10626.61
616.406	10679.95
616.762	10673.17
617.118	10677.91
617.475	10624.35
617.831	10682.43
618.187	10666.61
618.543	10673.17
618.899	10635.65
619.255	10715.2
619.611	10679.49
619.967	10753.16
620.323	10714.97
620.678	10718.14
621.034	10730.79
621.39	10601.08
621.746	10638.82
622.101	10758.81
622.457	10724.24
622.812	10765.37
623.168	10862.54
623.523	10810.56
623.879	10826.16
624.234	10715.65
624.589	10766.72
624.945	10689.89
625.3	10726.72
625.655	10690.79
626.01	10722.2
626.365	10732.15
626.72	10660.96
627.075	10695.76
627.43	10674.75
627.785	10643.11
628.14	10671.81
628.495	10674.52
628.85	10689.44
629.205	10601.08
629.559	10704.8
629.914	10633.17
630.269	10675.43
630.623	10595.2
630.978	10601.3
631.332	10661.64
631.687	10625.71
632.041	10606.05
632.396	10592.49
632.75	10551.59
633.104	10527.63
633.459	10489.44
633.813	10549.33
634.167	10441.99
634.521	10447.41
634.875	10488.76
635.229	10391.82
635.583	10507.75
635.937	10380.97
636.291	10425.94
636.645	10417.35
636.999	10348.2
637.352	10417.58
637.706	10347.3
638.06	10378.48
638.413	10385.72
638.767	10315.66
639.121	10385.72
639.474	10232.05
639.828	10301.2
640.181	10312.72
640.534	10268.88
640.888	10227.98
641.241	10230.47
641.594	10201.99
641.947	10279.96
642.301	10234.08
642.654	10303.23
643.007	10282.44
643.36	10207.19
643.713	10191.82
644.066	10207.64
644.419	10159.05
644.771	10073.86
645.124	10033.18
645.477	10004.93
645.83	9968.78
646.182	9935.56
646.535	9887.88
646.888	9807.88
647.24	9797.03
647.593	9873.41
647.945	9827.99
648.298	9770.14
648.65	9742.34
649.002	9768.56
649.355	9787.54
649.707	9906.41
650.059	9867.99
650.411	10040.19
650.763	10010.58
651.115	10083.35
651.467	10127.19
651.819	10030.47
652.171	10059.85
652.523	9991.83
652.875	10045.61
653.227	9984.6
653.578	10059.4
653.93	10093.07
654.282	10001.32
654.633	10038.83
654.985	10058.49
655.337	10052.39
655.688	10034.54
656.039	10114.54
656.391	9896.46
656.742	10014.2
657.094	9940.08
657.445	10053.75
657.796	10015.33
658.147	9990.47
658.498	9949.12
658.849	10062.56
659.2	9992.51
659.551	9933.98
659.902	10033.41
660.253	10083.8
660.604	9995.67
660.955	9921.1
661.306	10052.62
661.656	10030.24
662.007	10013.52
662.358	10019.62
662.708	10012.39
663.059	10048.78
663.409	9946.86
663.76	10096.68
664.11	10046.97
664.461	10023.92
664.811	10170.81
665.161	10066.85
665.511	10070.7
665.862	10035.44
666.212	10079.73
666.562	10045.84
666.912	10062.56
667.262	9997.48
667.612	10013.75
667.962	9997.7
668.312	10019.17
668.662	10032.73
669.011	10024.37
669.361	9949.12
669.711	10010.13
670.06	10009.45
670.41	9969
670.76	9985.5
671.109	10015.78
671.459	9978.04
671.808	9964.71
672.157	10004.26
672.507	9897.82
672.856	9875.67
673.205	9909.8
673.554	9889.01
673.904	9940.53
674.253	9943.02
674.602	9934.43
674.951	9767.65
675.3	9756.35
675.649	9823.02
675.998	9776.69
676.346	9800.65
676.695	9900.98
677.044	9805.17
677.393	9856.69
677.741	9835.9
678.09	9834.54
678.438	9786.86
678.787	9760.87
679.135	9789.35
679.484	9722.91
679.832	9740.76
680.181	9762.91
680.529	9722
680.877	9658.28
681.225	9700.99
681.573	9755.68
681.922	9612.4
682.27	9588
682.618	9631.84
682.966	9585.96
683.314	9636.81
683.661	9559.75
684.009	9500.09
684.357	9454.21
684.705	9431.39
685.053	9464.84
685.4	9514.55
685.748	9433.65
686.095	9391.84
686.443	9378.06
686.79	9358.62
687.138	9345.29
687.485	9410.83
687.832	9351.62
688.18	9266.87
688.527	9304.61
688.874	9293.09
689.221	9174.9
689.568	9211.51
689.915	9178.74
690.262	9215.8
690.609	9116.6
690.956	9157.95
691.303	9106.65
691.65	8988.46
691.997	9113.66
692.344	8997.05
692.69	8971.29
693.037	8995.02
693.383	8914.34
693.73	8914.12
694.077	8859.2
694.423	8869.6
694.769	8848.35
695.116	8817.85
695.462	8762.71
695.808	8649.72
696.155	8729.94
696.501	8685.42
696.847	8610.85
697.193	8559.1
697.539	8619.66
697.885	8526.78
698.231	8462.83
698.577	8482.71
698.923	8518.65
699.269	8393.9
699.614	8395.94
699.96	8392.55
700.306	8336.28
700.651	8292.66
700.997	8249.95
701.342	8280.46
701.688	8248.82
702.033	8227.35
702.379	8219.44
702.724	8173.34
703.069	8196.39
703.415	8099.22
703.76	8071.2
704.105	8079.11
704.45	8041.14
704.795	8018.55
705.14	8020.58
705.485	8045.21
705.83	7895.16
706.175	7942.16
706.52	7868.49
706.865	7825.33
707.209	7849.06
707.554	7806.57
707.899	7808.16
708.243	7797.76
708.588	7719.12
708.932	7723.64
709.277	7685
709.621	7750.08
709.966	7681.83
710.31	7668.27
710.654	7593.02
710.998	7604.55
711.342	7607.71
711.687	7581.27
712.031	7593.02
712.375	7513.02
712.719	7542.85
713.063	7477.54
713.407	7526.36
713.75	7444.32
714.094	7521.84
714.438	7439.8
714.782	7436.41
715.125	7393.03
715.469	7457.21
715.812	7405.91
716.156	7309.19
716.499	7309.86
716.843	7343.54
717.186	7332.69
717.53	7353.48
717.873	7338.79
718.216	7332.24
718.559	7309.86
718.902	7241.17
719.246	7295.85
719.589	7243.2
719.932	7183.99
720.275	7192.81
720.617	7315.51
720.96	7173.14
721.303	7155.29
721.646	7226.7
721.989	7121.17
722.331	7169.53
722.674	7190.55
723.016	7188.51
723.359	7132.92
723.701	7154.16
724.044	7132.24
724.386	7089.31
724.729	7191.9
725.071	7089.98
725.413	7096.76
725.755	7024.22
726.097	7038.01
726.439	7045.92
726.782	7043.88
727.124	7104.9
727.465	7024.9
727.807	7024.67
728.149	7037.33
728.491	7048.63
728.833	7074.39
729.175	6976.54
729.516	7003.43
729.858	7017.67
730.199	7035.52
730.541	7020.61
730.882	6998.01
731.224	7036.2
731.565	6980.16
731.906	6928.18
732.248	7027.61
732.589	6948.97
732.93	6977.9
733.271	6999.36
733.612	6998.46
733.953	6968.4
734.294	6924.56
734.635	6959.59
734.976	6967.95
735.317	6908.29
735.658	6913.26
735.999	6932.7
736.339	6944.22
736.68	6993.26
737.021	6924.79
737.361	6943.55
737.702	6935.86
738.042	6887.73
738.383	6958.01
738.723	7009.99
739.063	6958.01
739.404	6985.13
739.744	7001.17
740.084	6972.7
740.424	6996.2
740.764	7066.03
741.104	7038.91
741.444	7032.81
741.784	7009.08
742.124	7007.5
742.464	7034.62
742.804	7014.28
743.143	7069.19
743.483	7074.39
743.823	7039.81
744.162	7099.25
744.502	7091.34
744.841	7127.95
745.181	7141.28
745.52	7182.41
745.86	7221.73
746.199	7186.03
746.538	7229.64
746.877	7205.91
747.216	7361.16
747.556	7308.28
747.895	7381.05
748.234	7418.11
748.573	7413.14
748.911	7456.75
749.25	7556.19
749.589	7556.41
749.928	7599.57
750.267	7692
750.605	7726.8
750.944	7796.18
751.283	7810.87
751.621	7913.01
751.96	7941.03
752.298	8030.3
752.636	8101.26
752.975	8144.42
753.313	8226.68
753.651	8363.4
753.989	8352.32
754.327	8433.9
754.666	8493.34
755.004	8608.36
755.342	8728.36
755.679	8837.96
756.017	8885.42
756.355	9030.72
756.693	9152.75
757.031	9243.37
757.368	9270.94
757.706	9448.79
758.044	9507.77
758.381	9714.32
758.719	9811.49
759.056	9904.15
759.394	9980.75
759.731	10025.05
760.068	10174.65
760.405	10238.15
760.743	10365.83
761.08	10569.44
761.417	10715.42
761.754	10726.95
762.091	10938.02
762.428	11014.85
762.765	11176.2
763.102	11347.95
763.438	11432.69
763.775	11433.15
764.112	11588.4
764.449	11829.52
764.785	11892.12
765.122	11987.71
765.458	12080.36
