Data from hue_170_FLMS001491_00038.txt Node
Date: Tue Feb 07 16:48:37 GMT 2017
User: dcchb
Spectrometer: FLMS00149
Trigger mode: 0
Integration Time (sec): 2.000000E-2
Scans to average: 10
Electric dark correction enabled: true
Nonlinearity correction enabled: false
Boxcar width: 0
XAxis mode: Wavelengths
Number of Pixels in Spectrum: 2048
>>>>>Begin Spectral Data<<<<<
341.393	-38.43
341.776	-38.43
342.16	-38.43
342.543	-68.26
342.927	-49.05
343.31	-70.97
343.693	-58.32
344.077	-61.26
344.46	-66
344.843	-44.98
345.226	-33.46
345.61	-28.26
345.993	-29.84
346.376	-3.86
346.759	10.16
347.142	25.07
347.525	57.61
347.908	40.21
348.291	65.29
348.674	99.64
349.057	98.97
349.44	133.99
349.823	130.15
350.206	154.56
350.588	192.3
350.971	214.9
351.354	218.29
351.737	236.36
352.119	255.12
352.502	258.74
352.884	269.58
353.267	286.98
353.65	305.51
354.032	303.25
354.414	283.37
354.797	312.29
355.179	321.11
355.562	315.01
355.944	326.08
356.326	330.37
356.709	345.06
357.091	339.19
357.473	333.31
357.855	317.04
358.238	345.29
358.62	345.06
359.002	360.43
359.384	308.23
359.766	365.85
360.148	320.43
360.53	341.9
360.912	324.05
361.294	340.32
361.676	329.92
362.057	320.88
362.439	315.46
362.821	323.82
363.203	327.43
363.584	321.33
363.966	315.68
364.348	321.33
364.729	348.9
365.111	318.17
365.493	319.3
365.874	301.9
366.256	322.92
366.637	300.54
367.019	317.04
367.4	313.42
367.781	334.21
368.163	304.38
368.544	306.42
368.925	312.29
369.306	309.58
369.688	293.09
370.069	295.12
370.45	292.18
370.831	327.43
371.212	296.93
371.593	294.67
371.974	306.19
372.355	307.55
372.736	305.97
373.117	340.09
373.498	299.64
373.879	321.79
374.26	312.07
374.641	300.54
375.021	309.58
375.402	298.28
375.783	308.9
376.163	328.11
376.544	317.49
376.925	323.14
377.305	313.2
377.686	335.34
378.066	324.05
378.447	337.83
378.827	327.21
379.208	327.43
379.588	341.9
379.968	325.4
380.349	341.45
380.729	327.21
381.109	322.46
381.489	325.63
381.87	324.05
382.25	332.86
382.63	353.65
383.01	359.98
383.39	338.28
383.77	352.97
384.15	338.96
384.53	337.83
384.91	360.2
385.29	334.44
385.67	344.16
386.049	345.29
386.429	335.57
386.809	361.56
387.189	350.49
387.568	347.1
387.948	346.87
388.328	334.21
388.707	343.71
389.087	359.75
389.466	341.22
389.846	388
390.225	347.77
390.605	352.74
390.984	359.07
391.363	352.97
391.743	375.34
392.122	373.31
392.501	371.5
392.881	371.28
393.26	380.31
393.639	392.97
394.018	357.72
394.397	380.31
394.776	354.78
395.155	391.39
395.534	392.29
395.913	362.46
396.292	372.41
396.671	372.63
397.05	377.38
397.429	396.36
397.808	386.87
398.186	383.03
398.565	385.51
398.944	390.94
399.323	408.34
399.701	406.3
400.08	414.21
400.458	404.04
400.837	380.77
401.215	421.9
401.594	407.21
401.972	407.66
402.351	415.12
402.729	412.86
403.107	428
403.486	398.17
403.864	413.53
404.242	424.61
404.62	427.32
404.999	418.96
405.377	419.18
405.755	428.68
406.133	442.46
406.511	442.46
406.889	443.14
407.267	445.4
407.645	453.08
408.023	469.35
408.401	439.3
408.779	462.35
409.156	467.32
409.534	458.5
409.912	477.49
410.29	465.51
410.667	481.1
411.045	503.93
411.422	499.63
411.8	481.78
412.178	493.08
412.555	493.98
412.933	500.31
413.31	507.32
413.687	496.47
414.065	513.64
414.442	525.85
414.819	522.01
415.197	516.81
415.574	546.86
415.951	536.92
416.328	549.35
416.705	545.06
417.082	573.98
417.46	574.43
417.837	569.01
418.214	575.79
418.591	585.51
418.967	583.7
419.344	585.73
419.721	601.1
420.098	595.68
420.475	612.17
420.852	594.77
421.228	593.64
421.605	638.16
421.982	618.73
422.358	630.93
422.735	638.39
423.111	652.62
423.488	656.92
423.864	671.15
424.241	658.73
424.617	686.3
424.994	698.05
425.37	683.13
425.746	690.59
426.123	716.58
426.499	718.39
426.875	718.16
427.251	747.08
427.627	734.66
428.003	725.84
428.379	745.28
428.756	756.58
429.132	772.17
429.507	771.49
429.883	768.78
430.259	782.11
430.635	781.43
431.011	804.48
431.387	828.21
431.763	819.4
432.138	827.53
432.514	825.73
432.89	830.02
433.265	877.25
433.641	873.41
434.016	893.97
434.392	893.75
434.767	910.02
435.143	916.8
435.518	939.62
435.894	911.83
436.269	925.39
436.644	958.83
437.02	981.2
437.395	976.23
437.77	1002.67
438.145	1018.94
438.52	1012.61
438.895	1023.46
439.271	1022.11
439.646	1035.21
440.021	1047.87
440.395	1051.94
440.77	1049
441.145	1073.86
441.52	1107.98
441.895	1071.6
442.27	1126.28
442.645	1112.27
443.019	1123.35
443.394	1151.59
443.769	1138.94
444.143	1135.55
444.518	1168.99
444.892	1151.14
445.267	1170.58
445.641	1218.94
446.016	1202.44
446.39	1228.43
446.764	1208.09
447.139	1225.94
447.513	1220.07
447.887	1238.6
448.262	1255.77
448.636	1253.96
449.01	1267.75
449.384	1269.56
449.758	1298.71
450.132	1333.06
450.506	1307.3
450.88	1337.8
451.254	1335.54
451.628	1353.85
452.002	1387.29
452.376	1385.03
452.75	1386.62
453.123	1415.32
453.497	1409.67
453.871	1415.54
454.244	1453.51
454.618	1465.48
454.992	1503.9
455.365	1484.92
455.739	1515.88
456.112	1514.07
456.486	1548.65
456.859	1597.46
457.232	1595.88
457.606	1575.54
457.979	1633.16
458.352	1643.33
458.725	1687.17
459.099	1693.05
459.472	1737.79
459.845	1730.34
460.218	1767.62
460.591	1789.77
460.964	1795.19
461.337	1810.79
461.71	1845.81
462.083	1861.41
462.456	1880.16
462.829	1912.25
463.201	1918.13
463.574	1938.47
463.947	1987.73
464.32	2043.32
464.692	2059.37
465.065	2069.54
465.438	2087.39
465.81	2130.55
466.183	2163.32
466.555	2196.76
466.928	2201.28
467.3	2255.75
467.672	2287.61
468.045	2361.05
468.417	2330.55
468.789	2360.83
469.161	2397.66
469.534	2498.9
469.906	2509.52
470.278	2530.99
470.65	2588.39
471.022	2600.82
471.394	2684.66
471.766	2745.45
472.138	2763.08
472.51	2838.1
472.882	2865.45
473.253	2930.76
473.625	3010.53
473.997	3054.37
474.369	3114.93
474.74	3135.95
475.112	3213.91
475.484	3289.39
475.855	3373.23
476.227	3418.65
476.598	3551.08
476.97	3549.05
477.341	3658.42
477.713	3750.4
478.084	3784.97
478.455	3909.26
478.827	3981.12
479.198	4082.82
479.569	4169.14
479.94	4257.95
480.311	4310.16
480.682	4437.38
481.053	4563.03
481.424	4697.49
481.795	4741.56
482.166	4868.78
482.537	4912.4
482.908	5084.15
483.279	5176.12
483.65	5303.58
484.021	5425.15
484.391	5505.6
484.762	5615.88
485.133	5686.39
485.503	5815.43
485.874	5991.92
486.244	6015.42
486.615	6202.99
486.985	6274.62
487.356	6483.66
487.726	6569.08
488.097	6749.64
488.467	6782.86
488.837	7000.03
489.207	7109.63
489.578	7240.7
489.948	7313.47
490.318	7490.41
490.688	7528.83
491.058	7645.21
491.428	7866.22
491.798	7951.87
492.168	8153.9
492.538	8193.44
492.908	8283.38
493.278	8452.87
493.648	8549.82
494.017	8696.48
494.387	8778.74
494.757	8897.83
495.126	9036.58
495.496	9099.18
495.866	9148.45
496.235	9289.46
496.605	9417.37
496.974	9438.83
497.344	9592.05
497.713	9674.08
498.082	9765.15
498.452	9854.64
498.821	9945.04
499.19	9989.1
499.559	10082.43
499.928	10143.22
500.298	10255.54
500.667	10411.24
501.036	10347.74
501.405	10466.15
501.774	10481.97
502.143	10617.79
502.512	10697.78
502.88	10716.77
503.249	10778.01
503.618	10854.62
503.987	10896.42
504.356	10923.54
504.724	11059.81
505.093	10987.27
505.462	11095.74
505.83	11195.4
506.199	11258.22
506.567	11363.53
506.936	11360.14
507.304	11457.31
507.672	11517.2
508.041	11542.28
508.409	11591.55
508.777	11699.57
509.145	11746.57
509.514	11745.44
509.882	11881.26
510.25	11826.57
510.618	11897.53
510.986	11915.15
511.354	12057.07
511.722	12036.96
512.09	12137.07
512.458	12050.97
512.826	12184.3
513.193	12222.26
513.561	12313.11
513.929	12248.48
514.297	12386.1
514.664	12431.3
515.032	12436.27
515.4	12530.28
515.767	12505.19
516.135	12519.66
516.502	12372.77
516.869	12620.67
517.237	12535.02
517.604	12590.84
517.972	12716.71
518.339	12688.24
518.706	12662.25
519.073	12769.14
519.44	12740.22
519.808	12814.56
520.175	12788.58
520.542	12879.2
520.909	12922.36
521.276	12885.07
521.643	12977.05
522.009	12994.22
522.376	12961.9
522.743	13014.33
523.11	13082.13
523.477	13129.81
523.843	13099.75
524.21	13235.8
524.577	13225.4
524.943	13247.55
525.31	13292.52
525.676	13362.35
526.043	13339.75
526.409	13463.81
526.776	13416.36
527.142	13412.74
527.508	13391.05
527.874	13463.36
528.241	13438.95
528.607	13391.72
528.973	13477.6
529.339	13442.34
529.705	13512.85
530.071	13546.52
530.437	13506.3
530.803	13465.85
531.169	13525.05
531.535	13514.66
531.901	13461.1
532.267	13470.59
532.632	13484.83
532.998	13485.51
533.364	13508.78
533.73	13365.74
534.095	13447.99
534.461	13484.6
534.826	13375
535.192	13415.68
535.557	13417.71
535.923	13377.04
536.288	13317.83
536.653	13431.95
537.019	13243.93
537.384	13182.46
537.749	13179.53
538.114	13191.96
538.479	13193.31
538.845	13165.97
539.21	13008.46
539.575	13030.6
539.94	13020.66
540.305	13056.82
540.67	12956.71
541.034	12967.1
541.399	12972.75
541.764	12905.86
542.129	12871.29
542.494	12811.4
542.858	12905.41
543.223	12749.03
543.587	12725.3
543.952	12693.89
544.316	12697.05
544.681	12588.13
545.045	12653.66
545.41	12677.17
545.774	12575.02
546.138	12516.49
546.503	12496.15
546.867	12394.01
547.231	12419.77
547.595	12480.79
547.959	12386.55
548.324	12292.77
548.688	12297.06
549.052	12198.08
549.416	12231.75
549.779	12215.26
550.143	12173.45
550.507	12158.08
550.871	12134.58
551.235	12079.67
551.599	12071.98
551.962	12077.63
552.326	11960.12
552.689	11982.5
553.053	11939.33
553.417	11893.68
553.78	11999.44
554.143	11897.07
554.507	11796.74
554.87	11803.07
555.234	11964.64
555.597	11764.87
555.96	11838.77
556.323	11815.49
556.686	11701.83
557.05	11822.73
557.413	11729.17
557.776	11704.31
558.139	11705.89
558.502	11732.78
558.865	11648.95
559.228	11689.17
559.59	11646.23
559.953	11646.91
560.316	11718.1
560.679	11591.77
561.041	11684.88
561.404	11664.54
561.767	11684.2
562.129	11655.72
562.492	11702.28
562.854	11703.63
563.217	11628.15
563.579	11647.14
563.941	11646.01
564.304	11745.44
564.666	11707.7
565.028	11703.63
565.39	11768.94
565.753	11715.38
566.115	11691.43
566.477	11778.43
566.839	11664.76
567.201	11748.15
567.563	11694.14
567.925	11815.27
568.287	11718.77
568.648	11796.74
569.01	11871.99
569.372	11802.16
569.734	11780.92
570.095	11854.59
570.457	11851.88
570.819	11834.93
571.18	11744.54
571.542	11779.79
571.903	11754.25
572.265	11837.87
572.626	11839
572.987	11907.47
573.349	11856.17
573.71	11895.49
574.071	11907.7
574.432	11855.72
574.794	11966
575.155	11879.9
575.516	11904.76
575.877	11891.42
576.238	11954.7
576.599	11900.46
576.96	11887.58
577.32	11826.57
577.681	11949.28
578.042	11902.05
578.403	11886.45
578.763	11999.67
579.124	11939.11
579.485	12015.04
579.845	11944.53
580.206	11897.07
580.566	12021.14
580.927	11962.84
581.287	11933.68
581.648	11927.13
582.008	11904.31
582.368	11855.72
582.728	11848.94
583.089	11834.25
583.449	11877.19
583.809	11864.31
584.169	11893.01
584.529	11828.83
584.889	11972.1
585.249	11849.62
585.609	11833.12
585.969	11831.31
586.329	11772.78
586.688	11823.4
587.048	11792.44
587.408	11725.33
587.768	11749.96
588.127	11743.63
588.487	11712.67
588.846	11796.74
589.206	11740.02
589.565	11646.91
589.925	11806.68
590.284	11708.6
590.643	11753.12
591.003	11712.45
591.362	11783.63
591.721	11720.13
592.08	11710.64
592.44	11698.89
592.799	11711.32
593.158	11665.44
593.517	11644.88
593.876	11646.23
594.235	11607.14
594.593	11539.12
594.952	11533.47
595.311	11611.66
595.67	11583.86
596.029	11615.27
596.387	11674.93
596.746	11728.49
597.104	11639.23
597.463	11606.91
597.822	11578.21
598.18	11593.35
598.538	11667.25
598.897	11601.94
599.255	11582.28
599.613	11642.39
599.972	11575.95
600.33	11599.23
600.688	11559.91
601.046	11605.78
601.404	11691.43
601.762	11533.47
602.12	11615.73
602.478	11587.25
602.836	11640.36
603.194	11551.09
603.552	11575.5
603.91	11460.7
604.268	11565.11
604.625	11497.31
604.983	11533.47
605.341	11471.32
605.698	11488.05
606.056	11544.99
606.413	11527.37
606.771	11583.86
607.128	11537.76
607.485	11526.24
607.843	11537.76
608.2	11675.61
608.557	11595.61
608.914	11570.08
609.272	11662.28
609.629	11681.03
609.986	11679.9
610.343	11606.46
610.7	11747.02
611.057	11667.25
611.414	11719.23
611.771	11634.48
612.127	11632
612.484	11633.8
612.841	11739.11
613.198	11603.75
613.554	11669.28
613.911	11805.78
614.267	11766.68
614.624	11650.08
614.98	11796.06
615.337	11818.43
615.693	11726.46
616.05	11773.91
616.406	11809.84
616.762	11771.43
617.118	11853.23
617.475	11829.51
617.831	11786.57
618.187	11760.58
618.543	11844.87
618.899	11840.8
619.255	11795.83
619.611	11872.44
619.967	11934.36
620.323	11888.71
620.678	11906.11
621.034	11864.08
621.39	11831.99
621.746	11865.44
622.101	12002.83
622.457	11855.49
622.812	11882.61
623.168	11877.19
623.523	11813.23
623.879	11852.56
624.234	11933.91
624.589	11854.14
624.945	11860.01
625.3	11851.43
625.655	11848.26
626.01	11822.27
626.365	11925.32
626.72	11815.95
627.075	11884.65
627.43	11804.65
627.785	11831.31
628.14	11801.26
628.495	11829.28
628.85	11722.16
629.205	11746.57
629.559	11801.94
629.914	11715.61
630.269	11804.2
630.623	11751.77
630.978	11713.35
631.332	11795.38
631.687	11794.93
632.041	11695.95
632.396	11752.9
632.75	11696.4
633.104	11718.55
633.459	11660.92
633.813	11700.02
634.167	11687.81
634.521	11668.38
634.875	11588.61
635.229	11589.51
635.583	11555.16
635.937	11505.22
636.291	11600.13
636.645	11610.98
636.999	11537.08
637.352	11518.78
637.706	11475.39
638.06	11575.73
638.413	11461.61
638.767	11421.83
639.121	11488.95
639.474	11419.8
639.828	11438.78
640.181	11386.58
640.534	11517.65
640.888	11421.38
641.241	11362.4
641.594	11334.6
641.947	11462.06
642.301	11356.98
642.654	11328.95
643.007	11323.08
643.36	11326.69
643.713	11318.56
644.066	11330.76
644.419	11294.6
644.771	11213.25
645.124	11151.11
645.477	11160.6
645.83	11090.32
646.182	11007.15
646.535	10987.27
646.888	11076.98
647.24	10980.49
647.593	11009.87
647.945	11010.32
648.298	10972.8
648.65	10960.15
649.002	10908.63
649.355	11019.58
649.707	10977.55
650.059	10976.65
650.411	11112.46
650.763	11186.58
651.115	11342.74
651.467	11158.34
651.819	11161.5
652.171	11157.43
652.523	11201.27
652.875	11195.17
653.227	11097.55
653.578	11192.23
653.93	11211.44
654.282	11097.55
654.633	11200.6
654.985	11109.07
655.337	11170.54
655.688	11192.01
656.039	11196.75
656.391	11159.24
656.742	11158.79
657.094	11213.7
657.445	11206.92
657.796	11177.09
658.147	11139.58
658.498	11188.39
658.849	11185
659.2	11211.89
659.551	11101.61
659.902	11245.57
660.253	11162.86
660.604	11206.47
660.955	11176.19
661.306	11240.14
661.656	11224.78
662.007	11196.75
662.358	11202.86
662.708	11298.67
663.059	11272.01
663.409	11197.66
663.76	11310.2
664.11	11314.26
664.461	11289.18
664.811	11344.77
665.161	11331.21
665.511	11276.53
665.862	11253.7
666.212	11252.8
666.562	11295.06
666.912	11314.72
667.262	11295.73
667.612	11363.08
667.962	11248.5
668.312	11315.62
668.662	11319.91
669.011	11300.71
669.361	11314.94
669.711	11234.94
670.06	11225.45
670.41	11333.93
670.76	11205.11
671.109	11246.7
671.459	11275.62
671.808	11217.32
672.157	11207.37
672.507	11168.05
672.856	11178.45
673.205	11166.47
673.554	11186.58
673.904	11130.54
674.253	11203.08
674.602	11159.24
674.951	10951.79
675.3	10895.07
675.649	11104.78
675.998	11120.82
676.346	10979.58
676.695	11135.96
677.044	11073.59
677.393	11070.66
677.741	11052.8
678.09	10973.48
678.438	11004.22
678.787	11036.31
679.135	11035.85
679.484	10925.57
679.832	10876.76
680.181	10905.69
680.529	10941.39
680.877	10905.46
681.225	10893.48
681.573	10910.66
681.922	10892.13
682.27	10838.12
682.618	10808.29
682.966	10780.72
683.314	10824.11
683.661	10756.99
684.009	10692.81
684.357	10690.55
684.705	10725.58
685.053	10548.86
685.4	10636.77
685.748	10638.8
686.095	10579.82
686.443	10594.06
686.79	10589.76
687.138	10502.99
687.485	10557.67
687.832	10449.2
688.18	10488.07
688.527	10396.55
688.874	10374.18
689.221	10356.1
689.568	10378.02
689.915	10332.37
690.262	10368.53
690.609	10293.5
690.956	10236.78
691.303	10192.26
691.65	10138.02
691.997	10176.44
692.344	10073.39
692.69	10015.99
693.037	10029.33
693.383	9951.59
693.73	9980.74
694.077	9881.31
694.423	9924.24
694.769	9914.08
695.116	9940.52
695.462	9777.58
695.808	9740.52
696.155	9786.85
696.501	9691.26
696.847	9747.3
697.193	9578.72
697.539	9685.15
697.885	9602.9
698.231	9528.1
698.577	9536.46
698.923	9521.32
699.269	9436.35
699.614	9415.33
699.96	9347.76
700.306	9383.47
700.651	9295.11
700.997	9251.72
701.342	9227.54
701.688	9211.5
702.033	9189.8
702.379	9140.99
702.724	9138.95
703.069	9124.72
703.415	9013.31
703.76	9066.64
704.105	8996.13
704.45	8991.16
704.795	8935.8
705.14	8956.13
705.485	8915.91
705.83	8834.33
706.175	8869.13
706.52	8809.25
706.865	8769.7
707.209	8748
707.554	8751.17
707.899	8765.18
708.243	8717.27
708.588	8653.32
708.932	8617.39
709.277	8621
709.621	8609.7
709.966	8520.44
710.31	8523.6
710.654	8463.27
710.998	8458.97
711.342	8485.41
711.687	8393.44
712.031	8401.35
712.375	8347.34
712.719	8418.3
713.063	8385.75
713.407	8362.7
713.75	8277.73
714.094	8340.33
714.438	8281.58
714.782	8250.84
715.125	8251.97
715.469	8324.96
715.812	8246.77
716.156	8144.4
716.499	8159.09
716.843	8177.17
717.186	8096.04
717.53	8154.8
717.873	8135.37
718.216	8080
718.559	8103.05
718.902	8101.02
719.246	8079.32
719.589	8067.57
719.932	8030.06
720.275	8117.96
720.617	8019.66
720.96	7981.92
721.303	8041.58
721.646	8041.36
721.989	8004.3
722.331	7956.84
722.674	7971.3
723.016	7986.89
723.359	7941.7
723.701	8051.98
724.044	7912.32
724.386	7908.25
724.729	7974.24
725.071	8004.75
725.413	7979.89
725.755	7957.29
726.097	7865.09
726.439	7859.44
726.782	7913
727.124	8005.2
727.465	7875.71
727.807	7837.52
728.149	7868.03
728.491	7830.74
728.833	7813.34
729.175	7806.11
729.516	7863.28
729.858	7828.03
730.199	7853.11
730.541	7822.61
730.882	7785.54
731.224	7802.27
731.565	7799.33
731.906	7814.7
732.248	7806.11
732.589	7810.85
732.93	7769.73
733.271	7780.57
733.612	7789.84
733.953	7842.94
734.294	7777.63
734.635	7758.2
734.976	7836.84
735.317	7760.01
735.658	7784.64
735.999	7801.81
736.339	7824.41
736.68	7858.99
737.021	7863.96
737.361	7797.29
737.702	7879.78
738.042	7875.71
738.383	7797.07
738.723	7848.82
739.063	7820.35
739.404	7917.07
739.744	7940.57
740.084	7855.15
740.424	7905.31
740.764	7895.37
741.104	7987.12
741.444	7924.52
741.784	7962.26
742.124	7962.49
742.464	7990.28
742.804	7974.24
743.143	7988.02
743.483	8049.94
743.823	8066.21
744.162	8093.78
744.502	8115.48
744.841	8140.11
745.181	8244.51
745.52	8153.22
745.86	8223.95
746.199	8236.61
746.538	8278.19
746.877	8297.62
747.216	8375.58
747.556	8456.49
747.895	8482.7
748.234	8506.2
748.573	8543.26
748.911	8616.71
749.25	8675.24
749.589	8720.21
749.928	8774.44
750.267	8880.66
750.605	8871.62
750.944	9012.4
751.283	9044.72
751.621	9213.98
751.96	9257.37
752.298	9318.16
752.636	9440.19
752.975	9488.55
753.313	9609.68
753.651	9715.89
753.989	9848.31
754.327	9900.06
754.666	9956.79
755.004	10146.61
755.342	10276.33
755.679	10326.27
756.017	10421.63
756.355	10626.15
756.693	10750.21
757.031	10918.57
757.368	10988.85
757.706	11135.06
758.044	11317.88
758.381	11473.58
758.719	11540.25
759.056	11772.78
