Data from hue_110_FLMS001491_00093.txt Node
Date: Tue Feb 07 17:02:04 GMT 2017
User: dcchb
Spectrometer: FLMS00149
Trigger mode: 0
Integration Time (sec): 2.000000E-2
Scans to average: 10
Electric dark correction enabled: true
Nonlinearity correction enabled: false
Boxcar width: 0
XAxis mode: Wavelengths
Number of Pixels in Spectrum: 2048
>>>>>Begin Spectral Data<<<<<
341.393	-15.23
341.776	-15.23
342.16	-15.23
342.543	-54.32
342.927	-71.5
343.31	-68.56
343.693	-71.95
344.077	-60.65
344.46	-67.65
344.843	-50.48
345.226	-41.89
345.61	-13.19
345.993	-32.4
346.376	1.5
346.759	13.7
347.142	38.33
347.525	52.8
347.908	59.57
348.291	56.41
348.674	84.88
349.057	99.57
349.44	114.94
349.823	149.52
350.206	161.27
350.588	199.68
350.971	205.33
351.354	218.21
351.737	233.36
352.119	252.56
352.502	265.67
352.884	282.39
353.267	268.16
353.65	281.72
354.032	296.63
354.414	306.35
354.797	319.91
355.179	316.97
355.562	299.34
355.944	327.36
356.326	319.68
356.709	326.23
357.091	326.69
357.473	334.14
357.855	326.01
358.238	340.25
358.62	336.86
359.002	345.44
359.384	342.28
359.766	335.27
360.148	351.77
360.53	343.64
360.912	346.57
361.294	344.09
361.676	326.91
362.057	314.26
362.439	332.34
362.821	326.01
363.203	340.02
363.584	310.87
363.966	311.55
364.348	321.94
364.729	327.14
365.111	348.15
365.493	322.84
365.874	312.68
366.256	337.76
366.637	309.96
367.019	313.13
367.4	325.33
367.781	316.07
368.163	302.96
368.544	326.69
368.925	299.12
369.306	289.63
369.688	314.03
370.069	324.43
370.45	310.64
370.831	296.86
371.212	318.55
371.593	321.71
371.974	346.35
372.355	321.26
372.736	326.69
373.117	322.62
373.498	326.69
373.879	316.74
374.26	330.3
374.641	312.22
375.021	331.43
375.402	338.44
375.783	332.79
376.163	349.06
376.544	331.88
376.925	334.37
377.305	325.1
377.686	325.1
378.066	335.73
378.447	329.4
378.827	335.5
379.208	334.82
379.588	334.82
379.968	327.36
380.349	324.65
380.729	338.44
381.109	342.96
381.489	339.12
381.87	349.74
382.25	347.02
382.63	352.45
383.01	336.63
383.39	351.32
383.77	357.87
384.15	346.8
384.53	345.22
384.91	373.01
385.29	362.62
385.67	350.19
386.049	351.54
386.429	356.06
386.809	349.06
387.189	353.35
387.568	359.23
387.948	364.65
388.328	346.57
388.707	363.52
389.087	367.36
389.466	392.45
389.846	356.06
390.225	359.68
390.605	362.39
390.984	373.92
391.363	378.21
391.743	388.38
392.122	391.77
392.501	382.05
392.881	377.98
393.26	377.98
393.639	381.83
394.018	366.01
394.397	367.14
394.776	399.68
395.155	389.28
395.534	364.2
395.913	386.8
396.292	404.65
396.671	399
397.05	415.5
397.429	399.45
397.808	381.15
398.186	376.18
398.565	397.64
398.944	401.03
399.323	400.13
399.701	420.24
400.08	390.19
400.458	421.83
400.837	443.97
401.215	430.64
401.594	420.92
401.972	436.74
402.351	428.15
402.729	418.89
403.107	415.95
403.486	404.2
403.864	439
404.242	420.02
404.62	456.85
404.999	424.31
405.377	446.68
405.755	417.76
406.133	442.16
406.511	434.25
406.889	435.61
407.267	429.28
407.645	445.1
408.023	441.49
408.401	450.07
408.779	458.66
409.156	461.15
409.534	472.9
409.912	486.23
410.29	464.99
410.667	490.52
411.045	480.13
411.422	479.9
411.8	474.48
412.178	502.27
412.555	504.31
412.933	495.5
413.31	509.05
413.687	509.28
414.065	514.03
414.442	529.39
414.819	495.5
415.197	499.56
415.574	492.33
415.951	534.59
416.328	528.26
416.705	519.68
417.082	528.26
417.46	533.01
417.837	537.08
418.214	541.82
418.591	536.62
418.967	550.86
419.344	542.5
419.721	548.6
420.098	571.43
420.475	544.99
420.852	584.31
421.228	548.38
421.605	573.91
421.982	584.76
422.358	567.58
422.735	551.77
423.111	580.01
423.488	582.5
423.864	594.7
424.241	616.17
424.617	601.26
424.994	605.78
425.37	612.33
425.746	611.65
426.123	627.02
426.499	645.32
426.875	629.05
427.251	617.53
427.627	639.22
428.003	636.51
428.379	650.97
428.756	666.34
429.132	657.07
429.507	649.39
429.883	671.54
430.259	669.28
430.635	678.09
431.011	683.74
431.387	679.9
431.763	709.95
432.138	709.05
432.514	707.24
432.89	734.59
433.265	724.64
433.641	708.82
434.016	726.68
434.392	739.33
434.767	738.43
435.143	747.24
435.518	771.87
435.894	758.99
436.269	762.16
436.644	806.22
437.02	804.87
437.395	768.93
437.77	791.98
438.145	806.9
438.52	827.46
438.895	822.72
439.271	823.4
439.646	850.29
440.021	843.06
440.395	851.42
440.77	848.48
441.145	838.09
441.52	832.21
441.895	861.59
442.27	873.79
442.645	878.31
443.019	870.17
443.394	879.21
443.769	889.38
444.143	870.17
444.518	886.22
444.892	897.52
445.267	914.92
445.641	899.78
446.016	918.54
446.39	927.57
446.764	913.11
447.139	944.52
447.513	933.45
447.887	963.73
448.262	964.41
448.636	963.05
449.01	958.99
449.384	971.19
449.758	958.31
450.132	1002.83
450.506	1019.55
450.88	997.4
451.254	1001.92
451.628	1016.39
452.002	1009.83
452.376	1030.4
452.75	1036.05
453.123	1052.09
453.497	1073.79
453.871	1058.42
454.244	1077.63
454.618	1110.85
454.992	1106.1
455.365	1107
455.739	1158.3
456.112	1157.85
456.486	1142.03
456.859	1171.64
457.232	1196.49
457.606	1190.39
457.979	1210.05
458.352	1249.15
458.725	1228.36
459.099	1238.98
459.472	1283.95
459.845	1287.11
460.218	1262.03
460.591	1301.58
460.964	1300.9
461.337	1356.49
461.71	1376.15
462.083	1397.17
462.456	1394.91
462.829	1416.83
463.201	1426.54
463.574	1446.66
463.947	1454.79
464.32	1500.67
464.692	1498.41
465.065	1497.95
465.438	1536.82
465.81	1555.13
466.183	1579.08
466.555	1596.94
466.928	1621.57
467.3	1643.26
467.672	1663.6
468.045	1677.61
468.417	1733.65
468.789	1715.12
469.161	1762.81
469.534	1796.03
469.906	1848.91
470.278	1840.32
470.65	1880.54
471.022	1941.11
471.394	1966.42
471.766	1981.56
472.138	1999.86
472.51	2095.68
472.882	2135.23
473.253	2120.76
473.625	2177.94
473.997	2242.34
474.369	2284.37
474.74	2314.43
475.112	2373.19
475.484	2461.32
475.855	2483.24
476.227	2506.52
476.598	2636.68
476.97	2642.56
477.341	2734.53
477.713	2810.69
478.084	2836
478.455	2970.91
478.827	2990.57
479.198	3108.99
479.569	3167.29
479.94	3257.46
480.311	3301.52
480.682	3454.29
481.053	3570.89
481.424	3588.3
481.795	3689.76
482.166	3782.41
482.537	3900.83
482.908	3973.6
483.279	4114.38
483.65	4235.51
484.021	4337.2
484.391	4416.52
484.762	4506.01
485.133	4624.65
485.503	4735.38
485.874	4862.16
486.244	4983.29
486.615	5110.29
486.985	5258.08
487.356	5411.3
487.726	5486.1
488.097	5698.52
488.467	5762.48
488.837	5926.54
489.207	6088.12
489.578	6188.91
489.948	6284.95
490.318	6497.37
490.688	6544.6
491.058	6741.43
491.428	6896.23
491.798	6981.2
492.168	7176
492.538	7298.48
492.908	7480.17
493.278	7608.3
493.648	7642.43
494.017	7844.68
494.387	7969.2
494.757	8121.96
495.126	8293.48
495.496	8392.46
495.866	8447.38
496.235	8645.79
496.605	8745.9
496.974	8817.54
497.344	8997.19
497.713	9131.65
498.082	9211.42
498.452	9379.33
498.821	9482.6
499.19	9568.03
499.559	9709.72
499.928	9845.98
500.298	9908.58
500.667	10024.06
501.036	10048.01
501.405	10216.37
501.774	10291.17
502.143	10374.56
502.512	10499.3
502.88	10589.47
503.249	10663.14
503.618	10779.52
503.987	10782
504.356	10983.36
504.724	11024.71
505.093	11116.01
505.462	11214.31
505.83	11265.83
506.199	11403.68
506.567	11513.96
506.936	11507.18
507.304	11675.09
507.672	11736.1
508.041	11846.38
508.409	11947.85
508.777	12050.9
509.145	12169.99
509.514	12073.72
509.882	12167.28
510.25	12241.63
510.618	12338.12
510.986	12414.5
511.354	12398.46
511.722	12494.5
512.09	12678
512.458	12602.3
512.826	12831.44
513.193	12850.2
513.561	12824.89
513.929	12895.17
514.297	13000.93
514.664	12992.12
515.032	13090.19
515.4	13181.26
515.767	13218.32
516.135	13309.62
516.502	13230.08
516.869	13461.93
517.237	13444.53
517.604	13376.06
517.972	13564.53
518.339	13568.6
518.706	13541.71
519.073	13559.78
519.44	13646.11
519.808	13728.37
520.175	13793.45
520.542	13943.5
520.909	13911.64
521.276	13908.7
521.643	14008.36
522.009	14047.91
522.376	14152.54
522.743	14174.01
523.11	14190.5
523.477	14312.31
523.843	14209.49
524.21	14408.8
524.577	14431.63
524.943	14561.79
525.31	14541.68
525.676	14611.06
526.043	14725.4
526.409	14719.3
526.776	14761.79
527.142	14714.78
527.508	14825.51
527.874	14868.68
528.241	14780.09
528.607	14870.48
528.973	14929.92
529.339	14966.75
529.705	14905.51
530.071	14989.58
530.437	15015.79
530.803	15045.62
531.169	15047.43
531.535	15016.24
531.901	15002.23
532.267	15030.93
532.632	15016.92
532.998	14990.48
533.364	15093.76
533.73	15029.58
534.095	15125.85
534.461	15068.45
534.826	15153.19
535.192	15116.58
535.557	15173.75
535.923	15115.68
536.288	15033.42
536.653	15127.43
537.019	15073.64
537.384	15011.95
537.749	15069.12
538.114	15025.51
538.479	15008.56
538.845	15039.52
539.21	14837.94
539.575	14992.52
539.94	14918.39
540.305	14988.22
540.67	14918.17
541.034	14880.88
541.399	14860.99
541.764	14861.9
542.129	14921.78
542.494	14875
542.858	14772.18
543.223	14782.58
543.587	14800.43
543.952	14636.82
544.316	14703.71
544.681	14605.41
545.045	14658.96
545.41	14724.27
545.774	14618.29
546.138	14518.63
546.503	14562.47
546.867	14636.59
547.231	14655.35
547.595	14646.08
547.959	14585.75
548.324	14517.73
548.688	14413.77
549.052	14471.4
549.416	14480.21
549.779	14423.26
550.143	14343.27
550.507	14466.43
550.871	14461.23
551.235	14287.9
551.599	14419.42
551.962	14323.38
552.326	14347.33
552.689	14344.62
553.053	14245.42
553.417	14185.53
553.78	14358.18
554.143	14199.54
554.507	14211.97
554.87	14232.54
555.234	14326.54
555.597	14176.72
555.96	14256.94
556.323	14213.1
556.686	14276.15
557.05	14260.33
557.413	14245.42
557.776	14131.97
558.139	14218.52
558.502	14132.2
558.865	14164.06
559.228	14282.7
559.59	14271.18
559.953	14151.41
560.316	14376.71
560.679	14252.42
561.041	14192.76
561.404	14255.36
561.767	14357.5
562.129	14320.22
562.492	14424.17
562.854	14268.47
563.217	14327.67
563.579	14353.44
563.941	14387.33
564.304	14414.9
564.666	14354.34
565.028	14336.94
565.39	14376.26
565.753	14512.08
566.115	14483.38
566.477	14503.26
566.839	14540.55
567.201	14549.14
567.563	14533.54
567.925	14613.32
568.287	14662.13
568.648	14551.17
569.01	14585.07
569.372	14706.65
569.734	14656.03
570.095	14708.23
570.457	14655.58
570.819	14805.85
571.18	14719.3
571.542	14756.36
571.903	14760.21
572.265	14777.38
572.626	14809.02
572.987	14764.95
573.349	14869.81
573.71	14872.74
574.071	14886.76
574.432	14919.3
574.794	14900.31
575.155	14955.68
575.516	14942.8
575.877	14923.36
576.238	14998.84
576.599	14988
576.96	14935.34
577.32	14995.45
577.681	14953.19
578.042	15030.71
578.403	14987.54
578.763	15047.88
579.124	15017.6
579.485	15152.51
579.845	14998.84
580.206	15043.81
580.566	15035.68
580.927	15037.94
581.287	15124.26
581.648	14947.32
582.008	15116.58
582.368	15063.25
582.728	15115
583.089	15082.68
583.449	15055.79
583.809	15096.02
584.169	15051.04
584.529	14988
584.889	15164.49
585.249	15022.12
585.609	14969.01
585.969	15123.13
586.329	15002.23
586.688	15049.24
587.048	14955
587.408	14865.06
587.768	14894.21
588.127	14979.86
588.487	14956.58
588.846	14948.45
589.206	14821.67
589.565	14886.08
589.925	14926.98
590.284	14854.67
590.643	14789.58
591.003	14839.3
591.362	14888.79
591.721	14883.14
592.08	14804.95
592.44	14945.06
592.799	14938.51
593.158	14750.26
593.517	14812.63
593.876	14794.33
594.235	14834.33
594.593	14819.19
594.952	14773.31
595.311	14764.05
595.67	14777.38
596.029	14823.48
596.387	14843.14
596.746	14873.2
597.104	14894.44
597.463	14740.32
597.822	14784.84
598.18	14756.14
598.538	14705.29
598.897	14816.25
599.255	14745.06
599.613	14880.43
599.972	14765.18
600.33	14792.97
600.688	14739.19
601.046	14851.95
601.404	14715.46
601.762	14830.26
602.12	14821.22
602.478	14831.39
602.836	14880.2
603.194	14769.92
603.552	14789.36
603.91	14767.44
604.268	14806.31
604.625	14777.83
604.983	14852.86
605.341	14738.74
605.698	14856.25
606.056	14838.4
606.413	14828.68
606.771	14791.62
607.128	14828.23
607.485	14876.59
607.843	14853.76
608.2	14863.71
608.557	14974.66
608.914	14843.82
609.272	14852.18
609.629	14969.69
609.986	15050.37
610.343	14950.71
610.7	15146.86
611.057	14954.78
611.414	15011.5
611.771	14947.54
612.127	14986.87
612.484	15027.54
612.841	15091.04
613.198	15013.98
613.554	14993.19
613.911	15076.13
614.267	15084.72
614.624	15026.41
614.98	15118.39
615.337	15137.14
615.693	15142.79
616.05	15100.31
616.406	15248.33
616.762	15167.88
617.118	15140.53
617.475	15142.57
617.831	15110.93
618.187	15167.88
618.543	15215.79
618.899	15259.4
619.255	15165.39
619.611	15240.19
619.967	15311.15
620.323	15342.56
620.678	15320.87
621.034	15220.31
621.39	15218.5
621.746	15201.78
622.101	15389.12
622.457	15322.68
622.812	15363.35
623.168	15334.2
623.523	15266.18
623.879	15356.35
624.234	15240.19
624.589	15316.8
624.945	15371.71
625.3	15254.66
625.655	15260.53
626.01	15245.39
626.365	15386.18
626.72	15349.79
627.075	15268.89
627.43	15283.58
627.785	15273.41
628.14	15261.89
628.495	15286.07
628.85	15285.84
629.205	15148.67
629.559	15368.78
629.914	15225.5
630.269	15274.32
630.623	15227.76
630.978	15140.53
631.332	15206.3
631.687	15147.77
632.041	15091.5
632.396	15136.24
632.75	15084.72
633.104	15067.99
633.459	15005.4
633.813	15143.7
634.167	15004.72
634.521	14982.8
634.875	15066.19
635.229	15019.63
635.583	14980.31
635.937	14979.63
636.291	14968.34
636.645	14950.71
636.999	14931.73
637.352	14954.1
637.706	14860.32
638.06	14993.42
638.413	14915.23
638.767	14847.43
639.121	14902.35
639.474	14820.77
639.828	14808.79
640.181	14781.45
640.534	14895.12
640.888	14786.42
641.241	14706.2
641.594	14683.14
641.947	14668.91
642.301	14785.97
642.654	14701.22
643.007	14690.15
643.36	14777.15
643.713	14647.44
644.066	14716.59
644.419	14644.73
644.771	14559.08
645.124	14498.29
645.477	14419.88
645.83	14350.95
646.182	14235.47
646.535	14208.58
646.888	14229.82
647.24	14228.69
647.593	14236.15
647.945	14309.37
648.298	14158.41
648.65	14088.36
649.002	14109.15
649.355	14256.72
649.707	14187.11
650.059	14207.68
650.411	14334
650.763	14371.97
651.115	14571.96
651.467	14565.41
651.819	14506.43
652.171	14513.43
652.523	14446.77
652.875	14407.67
653.227	14406.54
653.578	14435.02
653.93	14464.39
654.282	14413.77
654.633	14413.1
654.985	14388.69
655.337	14463.72
655.688	14468.69
656.039	14437.73
656.391	14426.2
656.742	14425.75
657.094	14376.71
657.445	14520.89
657.796	14488.57
658.147	14425.3
658.498	14429.82
658.849	14503.94
659.2	14522.47
659.551	14463.49
659.902	14500.1
660.253	14476.14
660.604	14513.66
660.955	14374
661.306	14474.11
661.656	14496.48
662.007	14503.94
662.358	14449.03
662.708	14483.83
663.059	14554.79
663.409	14490.83
663.76	14518.63
664.11	14544.17
664.461	14481.34
664.811	14475.01
665.161	14500.55
665.511	14463.26
665.862	14571.96
666.212	14507.78
666.562	14510.72
666.912	14552.3
667.262	14566.54
667.612	14564.73
667.962	14520.89
668.312	14536.48
668.662	14575.35
669.011	14582.81
669.361	14496.26
669.711	14487.44
670.06	14543.04
670.41	14491.29
670.76	14430.04
671.109	14421.46
671.459	14451.96
671.808	14466.2
672.157	14499.87
672.507	14339.2
672.856	14299.43
673.205	14406.32
673.554	14450.38
673.904	14424.85
674.253	14414
674.602	14410.16
674.951	14187.11
675.3	14071.64
675.649	14356.37
675.998	14389.37
676.346	14292.19
676.695	14343.04
677.044	14183.5
677.393	14259.2
677.741	14340.78
678.09	14205.19
678.438	14188.02
678.787	14234.12
679.135	14204.74
679.484	14080
679.832	14173.33
680.181	14087.45
680.529	14056.49
680.877	14053.78
681.225	14099.88
681.573	14160.67
681.922	13905.09
682.27	13934.46
682.618	13980.11
682.966	13998.42
683.314	13931.75
683.661	13968.14
684.009	13709.84
684.357	13809.04
684.705	13700.12
685.053	13798.87
685.4	13703.06
685.748	13704.41
686.095	13678.43
686.443	13565.66
686.79	13588.71
687.138	13585.55
687.485	13590.29
687.832	13545.1
688.18	13556.17
688.527	13468.71
688.874	13400.92
689.221	13337.64
689.568	13330.19
689.915	13371.77
690.262	13322.28
690.609	13299.68
690.956	13288.61
691.303	13230.08
691.65	13117.08
691.997	13060.59
692.344	13019.69
692.69	13074.83
693.037	13092.68
693.383	12906.92
693.73	12972.46
694.077	12921.61
694.423	12869.18
694.769	12823.76
695.116	12803.87
695.462	12789.86
695.808	12729.52
696.155	12668.96
696.501	12569.98
696.847	12635.74
697.193	12456.76
697.539	12539.02
697.885	12583.09
698.231	12412.02
698.577	12419.48
698.923	12443.43
699.269	12257.67
699.614	12261.06
699.96	12192.81
700.306	12153.04
700.651	12111.24
700.997	12066.26
701.342	12101.07
701.688	12006.15
702.033	11956.89
702.379	11920.96
702.724	11846.16
703.069	11898.59
703.415	11758.93
703.76	11759.83
704.105	11687.97
704.45	11647.29
704.795	11609.78
705.14	11567.75
705.485	11619.27
705.83	11489.33
706.175	11490.91
706.52	11450.91
706.865	11405.94
707.209	11386.06
707.554	11386.06
707.899	11318.26
708.243	11297.02
708.588	11266.51
708.932	11158.49
709.277	11206.63
709.621	11157.59
709.966	11122.11
710.31	11126.85
710.654	11034.2
710.998	11068.32
711.342	11044.14
711.687	11040.98
712.031	10972.28
712.375	10922.11
712.719	10972.73
713.063	10903.13
713.407	10889.35
713.75	10838.95
714.094	10872.17
714.438	10768.67
714.782	10812.29
715.125	10704.94
715.469	10753.08
715.812	10733.19
716.156	10615
716.499	10665.62
716.843	10575.91
717.186	10610.26
717.53	10657.94
717.873	10618.17
718.216	10622.46
718.559	10576.81
718.902	10537.94
719.246	10520.32
719.589	10494.78
719.932	10478.74
720.275	10492.75
720.617	10517.6
720.96	10472.63
721.303	10445.29
721.646	10440.54
721.989	10402.35
722.331	10450.71
722.674	10391.51
723.016	10442.8
723.359	10431.73
723.701	10358.51
724.044	10287.78
724.386	10300.66
724.729	10408
725.071	10364.39
725.413	10337.04
725.755	10255.92
726.097	10209.59
726.439	10216.37
726.782	10240.1
727.124	10259.31
727.465	10189.93
727.807	10317.38
728.149	10219.53
728.491	10160.78
728.833	10216.14
729.175	10123.26
729.516	10152.64
729.858	10204.84
730.199	10187.44
730.541	10141.8
730.882	10124.39
731.224	10240.55
731.565	10067
731.906	10181.34
732.248	10170.27
732.589	10102.47
732.93	10137.73
733.271	10108.8
733.612	10111.51
733.953	10156.94
734.294	10092.31
734.635	10096.37
734.976	10114.68
735.317	10051.63
735.658	10070.61
735.999	10076.26
736.339	9982.93
736.68	10196.71
737.021	10098.63
737.361	10125.75
737.702	10118.97
738.042	10135.69
738.383	10128.01
738.723	10153.09
739.063	10099.76
739.404	10157.84
739.744	10150.38
740.084	10129.14
740.424	10141.8
740.764	10172.76
741.104	10241
741.444	10125.52
741.784	10243.94
742.124	10237.16
742.464	10190.61
742.804	10280.77
743.143	10262.7
743.483	10241.91
743.823	10301.11
744.162	10257.27
744.502	10378.17
744.841	10338.17
745.181	10395.12
745.52	10419.08
745.86	10469.24
746.199	10459.53
746.538	10452.3
746.877	10595.34
747.216	10561.9
747.556	10694.32
747.895	10730.25
748.234	10738.84
748.573	10773.64
748.911	10917.14
749.25	10898.84
749.589	10916.92
749.928	11018.83
750.267	11133.41
750.605	11177.7
750.944	11295.21
751.283	11323.46
751.621	11416.11
751.96	11414.98
752.298	11532.27
752.636	11635.77
752.975	11737.23
753.313	11754.18
753.651	11972.26
753.989	11941.52
754.327	12079.6
754.666	12173.38
755.004	12275.98
755.342	12501.51
755.679	12567.49
756.017	12666.93
756.355	12828.73
756.693	12903.98
