Data from hue_120_FLMS001491_00092.txt Node
Date: Tue Feb 07 17:00:16 GMT 2017
User: dcchb
Spectrometer: FLMS00149
Trigger mode: 0
Integration Time (sec): 2.000000E-2
Scans to average: 10
Electric dark correction enabled: true
Nonlinearity correction enabled: false
Boxcar width: 0
XAxis mode: Wavelengths
Number of Pixels in Spectrum: 2048
>>>>>Begin Spectral Data<<<<<
341.393	-18.9
341.776	-18.9
342.16	-18.9
342.543	-68.39
342.927	-62.51
343.31	-76.75
343.693	-67.48
344.077	-45.11
344.46	-59.35
344.843	-57.77
345.226	-47.15
345.61	-41.27
345.993	-8.95
346.376	-5.56
346.759	-1.5
347.142	40.31
347.525	21.78
347.908	60.42
348.291	70.37
348.674	109.91
349.057	108.1
349.44	117.6
349.823	162.57
350.206	170.93
350.588	193.98
350.971	209.57
351.354	226.52
351.737	215.22
352.119	253.19
352.502	255.22
352.884	297.25
353.267	274.65
353.65	296.35
354.032	292.51
354.414	302
354.797	299.29
355.179	323.24
355.562	325.95
355.944	331.15
356.326	333.18
356.709	318.04
357.091	348.1
357.473	329.79
357.855	362.79
358.238	353.3
358.62	353.97
359.002	352.17
359.384	341.77
359.766	341.32
360.148	346.29
360.53	338.38
360.912	340.64
361.294	317.59
361.676	335.22
362.057	328.66
362.439	332.05
362.821	308.55
363.203	330.25
363.584	318.72
363.966	337.25
364.348	324.37
364.729	330.02
365.111	309
365.493	309.46
365.874	327.08
366.256	313.75
366.637	311.26
367.019	327.99
367.4	290.47
367.781	346.52
368.163	323.69
368.544	311.94
368.925	295.9
369.306	319.4
369.688	294.99
370.069	304.26
370.45	320.3
370.831	318.72
371.212	318.27
371.593	304.03
371.974	312.17
372.355	317.59
372.736	339.51
373.117	303.81
373.498	317.14
373.879	316.01
374.26	304.48
374.641	304.94
375.021	318.72
375.402	327.31
375.783	337.48
376.163	334.99
376.544	335.22
376.925	327.99
377.305	335.44
377.686	328.44
378.066	341.09
378.447	333.86
378.827	335.9
379.208	334.77
379.588	331.38
379.968	332.28
380.349	340.64
380.729	325.27
381.109	354.2
381.489	342.9
381.87	336.8
382.25	342.22
382.63	340.64
383.01	338.61
383.39	343.58
383.77	342.9
384.15	357.59
384.53	334.99
384.91	346.06
385.29	337.25
385.67	366.63
386.049	345.84
386.429	374.76
386.809	333.41
387.189	378.15
387.568	363.01
387.948	353.75
388.328	353.52
388.707	348.55
389.087	350.13
389.466	357.36
389.846	359.4
390.225	357.82
390.605	375.89
390.984	372.96
391.363	373.41
391.743	363.47
392.122	379.28
392.501	351.71
392.881	353.97
393.26	388.32
393.639	382.9
394.018	371.15
394.397	380.87
394.776	400.98
395.155	389
395.534	385.84
395.913	380.19
396.292	409.11
396.671	384.48
397.05	374.76
397.429	396.46
397.808	381.77
398.186	392.84
398.565	386.52
398.944	402.33
399.323	407.76
399.701	383.13
400.08	399.4
400.458	403.24
400.837	407.31
401.215	408.66
401.594	432.62
401.972	409.57
402.351	407.31
402.729	417.93
403.107	418.6
403.486	431.94
403.864	415.44
404.242	414.99
404.62	443.69
404.999	413.63
405.377	413.63
405.755	413.18
406.133	426.29
406.511	436.68
406.889	447.98
407.267	448.66
407.645	436.23
408.023	452.28
408.401	460.41
408.779	452.5
409.156	468.1
409.534	461.77
409.912	475.55
410.29	457.47
410.667	425.38
411.045	463.12
411.422	478.72
411.8	463.58
412.178	490.24
412.555	466.51
412.933	485.95
413.31	492.73
413.687	490.92
414.065	469.45
414.442	469.68
414.819	508.09
415.197	512.61
415.574	493.41
415.951	529.79
416.328	503.35
416.705	498.15
417.082	513.07
417.46	511.26
417.837	521.2
418.214	521.2
418.591	518.72
418.967	530.92
419.344	514.65
419.721	531.6
420.098	522.78
420.475	540.64
420.852	531.6
421.228	537.7
421.605	551.26
421.982	547.41
422.358	569.34
422.735	578.6
423.111	563.23
423.488	587.41
423.864	581.54
424.241	578.15
424.617	580.18
424.994	591.03
425.37	574.08
425.746	576.11
426.123	584.48
426.499	594.87
426.875	598.26
427.251	619.96
427.627	627.19
428.003	628.54
428.379	636
428.756	631.25
429.132	610.69
429.507	635.55
429.883	633.51
430.259	650.92
430.635	628.32
431.011	658.37
431.387	670.35
431.763	666.73
432.138	678.26
432.514	685.26
432.89	680.29
433.265	677.58
433.641	696.11
434.016	683.91
434.392	723.46
434.767	711.48
435.143	727.75
435.518	737.92
435.894	737.01
436.269	744.47
436.644	734.75
437.02	758.03
437.395	745.6
437.77	763.91
438.145	765.26
438.52	786.5
438.895	786.96
439.271	757.58
439.646	807.3
440.021	782.44
440.395	835.32
440.77	807.75
441.145	804.13
441.52	818.82
441.895	822.66
442.27	823.57
442.645	832.38
443.019	863.34
443.394	849.33
443.769	868.31
444.143	847.75
444.518	864.69
444.892	862.43
445.267	881.19
445.641	893.39
446.016	867.63
446.39	871.93
446.764	898.37
447.139	877.35
447.513	863.79
447.887	911.7
448.262	893.62
448.636	903.11
449.01	899.04
449.384	945.14
449.758	934.07
450.132	928.42
450.506	937.46
450.88	979.49
451.254	940.62
451.628	971.36
452.002	980.17
452.376	968.87
452.75	988.53
453.123	999.38
453.497	1010.68
453.871	1022.2
454.244	1039.38
454.618	1050.23
454.992	1084.8
455.365	1062.43
455.739	1081.19
456.112	1095.42
456.486	1088.42
456.859	1102.88
457.232	1126.83
457.606	1131.35
457.979	1141.98
458.352	1177.91
458.725	1173.84
459.099	1171.81
459.472	1219.04
459.845	1233.95
460.218	1221.07
460.591	1271.69
460.964	1236.66
461.337	1272.14
461.71	1298.81
462.083	1289.77
462.456	1318.69
462.829	1303.78
463.201	1335.87
463.574	1374.51
463.947	1394.17
464.32	1378.35
464.692	1401.86
465.065	1451.8
465.438	1471.91
465.81	1494.73
466.183	1495.86
466.555	1547.61
466.928	1549.42
467.3	1541.74
467.672	1562.53
468.045	1642.53
468.417	1634.84
468.789	1626.03
469.161	1699.93
469.534	1706.71
469.906	1727.95
470.278	1779.7
470.65	1785.35
471.022	1815.63
471.394	1892.46
471.766	1907.15
472.138	1970.65
472.51	1970.65
472.882	2046.81
473.253	2047.71
473.625	2090.43
473.997	2158.45
474.369	2205
474.74	2218.56
475.112	2285.67
475.484	2339.23
475.855	2379.68
476.227	2396.86
476.598	2476.4
476.97	2513.69
477.341	2626.91
477.713	2690.64
478.084	2708.94
478.455	2832.78
478.827	2867.35
479.198	2976.73
479.569	3041.13
479.94	3112.55
480.311	3185.09
480.682	3279.09
481.053	3376.27
481.424	3485.87
481.795	3531.74
482.166	3613.1
482.537	3725.64
482.908	3798.18
483.279	3906.2
483.65	4045.18
484.021	4195.45
484.391	4239.07
484.762	4333.76
485.133	4451.72
485.503	4517.48
485.874	4701.43
486.244	4829.34
486.615	5011.7
486.985	5044.47
487.356	5185.71
487.726	5262.77
488.097	5455.53
488.467	5553.84
488.837	5696.43
489.207	5807.16
489.578	5968.06
489.948	6087.61
490.318	6229.07
490.688	6272.69
491.058	6508.16
491.428	6622.06
491.798	6757.42
492.168	6986.12
492.538	7029.73
492.908	7229.95
493.278	7388.37
493.648	7475.14
494.017	7626.32
494.387	7709.94
494.757	7821.12
495.126	8055.01
495.496	8065.18
495.866	8251.39
496.235	8368.9
496.605	8433.54
496.974	8577.26
497.344	8671.95
497.713	8782.45
498.082	8920.3
498.452	9052.73
498.821	9235.55
499.19	9299.95
499.559	9362.78
499.928	9554.86
500.298	9608.19
500.667	9696.1
501.036	9798.92
501.405	9982.65
501.774	9925.02
502.143	10118.24
502.512	10129.31
502.88	10323.66
503.249	10291.57
503.618	10539.92
503.987	10500.6
504.356	10611.11
504.724	10714.83
505.093	10760.93
505.462	10857.88
505.83	10937.65
506.199	11080.92
506.567	11105.56
506.936	11156.18
507.304	11340.8
507.672	11339
508.041	11404.76
508.409	11463.29
508.777	11562.49
509.145	11654.92
509.514	11642.49
509.882	11844.52
510.25	11793
510.618	11854.01
510.986	11936.95
511.354	12057.39
511.722	12127.9
512.09	12207.9
512.458	12143.04
512.826	12252.42
513.193	12360.44
513.561	12394.79
513.929	12411.06
514.297	12595.91
514.664	12554.33
515.032	12586.19
515.4	12694.44
515.767	12718.62
516.135	12799.3
516.502	12649.7
516.869	12895.34
517.237	12862.8
517.604	12822.57
517.972	12899.63
518.339	12997.03
518.706	12953.87
519.073	12956.35
519.44	13136.01
519.808	13158.61
520.175	13140.3
520.542	13301.66
520.909	13265.05
521.276	13279.06
521.643	13331.71
522.009	13382.78
522.376	13345.27
522.743	13487.19
523.11	13534.42
523.477	13638.14
523.843	13650.57
524.21	13740.51
524.577	13848.76
524.943	13754.75
525.31	13815.54
525.676	13945.71
526.043	13885.6
526.409	13973.05
526.776	14004.91
527.142	13912.26
527.508	13944.8
527.874	14048.98
528.241	14048.08
528.607	14036.55
528.973	14056.44
529.339	14080.62
529.705	14134.18
530.071	14166.27
530.437	14167.17
530.803	14106.38
531.169	14228.64
531.535	14165.59
531.901	14199.26
532.267	14233.83
532.632	14174.63
532.998	14237.22
533.364	14193.61
533.73	14264.79
534.095	14222.31
534.461	14227.28
534.826	14269.99
535.192	14212.14
535.557	14218.24
535.923	14124.69
536.288	14079.04
536.653	14166.04
537.019	14154.06
537.384	14041.75
537.749	14159.71
538.114	14085.59
538.479	13975.54
538.845	14028.42
539.21	13986.61
539.575	13927.18
539.94	13812.83
540.305	13942.99
540.67	13908.42
541.034	13864.13
541.399	13910.23
541.764	13870.23
542.129	13813.51
542.494	13773.96
542.858	13805.6
543.223	13726.5
543.587	13833.39
543.952	13652.83
544.316	13727.41
544.681	13650.57
545.045	13638.14
545.41	13586.85
545.774	13653.06
546.138	13610.8
546.503	13622.1
546.867	13580.07
547.231	13590.69
547.595	13492.61
547.959	13489
548.324	13356.8
548.688	13346.85
549.052	13315.67
549.416	13310.24
549.779	13284.93
550.143	13227.76
550.507	13300.75
550.871	13273.41
551.235	13209.91
551.599	13307.98
551.962	13201.09
552.326	13224.14
552.689	13211.71
553.053	13112.28
553.417	13130.59
553.78	13148.89
554.143	13077.93
554.507	13139.63
554.87	13090.59
555.234	13108.67
555.597	13050.36
555.96	13100.98
556.323	13086.97
556.686	13007.43
557.05	13081.55
557.413	13035.22
557.776	13050.59
558.139	13038.61
558.502	13051.94
558.865	12983.47
559.228	13006.97
559.59	13016.24
559.953	13044.71
560.316	13057.14
560.679	13069.57
561.041	13083.36
561.404	13069.12
561.767	13055.56
562.129	13051.49
562.492	13100.76
562.854	13098.95
563.217	13012.62
563.579	13103.7
563.941	13128.78
564.304	13145.05
564.666	13155.9
565.028	13176.69
565.39	13134.88
565.753	13193.18
566.115	13266.18
566.477	13270.24
566.839	13227.99
567.201	13278.38
567.563	13289.68
567.925	13248.78
568.287	13296.46
568.648	13267.98
569.01	13267.76
569.372	13373.07
569.734	13342.11
570.095	13383.46
570.457	13339.85
570.819	13439.28
571.18	13334.88
571.542	13386.17
571.903	13425.27
572.265	13420.75
572.626	13431.82
572.987	13420.75
573.349	13425.49
573.71	13463.01
574.071	13545.49
574.432	13550.24
574.794	13625.04
575.155	13544.14
575.516	13585.72
575.877	13589.33
576.238	13618.26
576.599	13586.17
576.96	13688.76
577.32	13599.5
577.681	13628.65
578.042	13653.06
578.403	13602.21
578.763	13569.45
579.124	13656
579.485	13702.1
579.845	13657.13
580.206	13658.93
580.566	13641.31
580.927	13573.51
581.287	13629.33
581.648	13603.34
582.008	13662.1
582.368	13555.89
582.728	13609.44
583.089	13611.48
583.449	13525.83
583.809	13613.74
584.169	13618.26
584.529	13591.59
584.889	13690.12
585.249	13528.54
585.609	13477.7
585.969	13511.14
586.329	13550.46
586.688	13540.07
587.048	13555.21
587.408	13411.26
587.768	13489.45
588.127	13510.01
588.487	13494.19
588.846	13561.76
589.206	13469.79
589.565	13451.03
589.925	13467.3
590.284	13422.78
590.643	13516.79
591.003	13489.9
591.362	13494.65
591.721	13460.3
592.08	13413.07
592.44	13485.61
592.799	13387.3
593.158	13438.15
593.517	13401.77
593.876	13371.48
594.235	13443.57
594.593	13371.94
594.952	13408.77
595.311	13360.19
595.67	13391.82
596.029	13416.23
596.387	13468.43
596.746	13431.14
597.104	13386.85
597.463	13281.77
597.822	13444.7
598.18	13302.33
598.538	13295.33
598.897	13365.61
599.255	13271.15
599.613	13413.97
599.972	13373.74
600.33	13394.53
600.688	13314.31
601.046	13359.06
601.404	13369.45
601.762	13364.71
602.12	13445.15
602.478	13413.07
602.836	13388.43
603.194	13284.48
603.552	13343.01
603.91	13373.97
604.268	13325.61
604.625	13277.48
604.983	13337.14
605.341	13227.76
605.698	13375.55
606.056	13411.26
606.413	13327.19
606.771	13372.84
607.128	13427.53
607.485	13333.75
607.843	13364.25
608.2	13382.78
608.557	13493.74
608.914	13458.04
609.272	13527.19
609.629	13454.42
609.986	13424.14
610.343	13447.64
610.7	13549.33
611.057	13489.67
611.414	13549.11
611.771	13488.54
612.127	13554.53
612.484	13498.49
612.841	13521.76
613.198	13476.57
613.554	13501.2
613.911	13598.37
614.267	13648.99
614.624	13640.86
614.98	13540.52
615.337	13733.28
615.693	13597.02
616.05	13586.17
616.406	13731.25
616.762	13670.91
617.118	13667.75
617.475	13677.01
617.831	13684.7
618.187	13707.29
618.543	13662.1
618.899	13801.76
619.255	13757.69
619.611	13661.87
619.967	13822.77
620.323	13810.34
620.678	13809.67
621.034	13777.58
621.39	13736.22
621.746	13717.01
622.101	13871.58
622.457	13735.77
622.812	13792.26
623.168	13752.72
623.523	13781.87
623.879	13781.87
624.234	13641.53
624.589	13806.5
624.945	13777.12
625.3	13824.35
625.655	13799.72
626.01	13708.42
626.365	13755.2
626.72	13827.97
627.075	13722.89
627.43	13731.02
627.785	13757.69
628.14	13714.75
628.495	13782.32
628.85	13769.67
629.205	13758.37
629.559	13731.25
629.914	13647.18
630.269	13751.59
630.623	13634.75
630.978	13673.85
631.332	13711.36
631.687	13700.97
632.041	13611.93
632.396	13679.05
632.75	13576
633.104	13692.15
633.459	13557.24
633.813	13531.93
634.167	13508.88
634.521	13590.46
634.875	13553.63
635.229	13611.7
635.583	13545.72
635.937	13506.62
636.291	13447.19
636.645	13414.2
636.999	13427.3
637.352	13381.88
637.706	13379.62
638.06	13418.49
638.413	13293.97
638.767	13380.52
639.121	13369.22
639.474	13288.1
639.828	13267.08
640.181	13269.11
640.534	13245.16
640.888	13262.33
641.241	13253.3
641.594	13238.83
641.947	13204.03
642.301	13273.63
642.654	13230.47
643.007	13273.63
643.36	13251.71
643.713	13138.27
644.066	13234.99
644.419	13216.01
644.771	13082
645.124	12960.42
645.477	12973.98
645.83	12895.34
646.182	12810.82
646.535	12818.28
646.888	12828.22
647.24	12744.16
647.593	12777.15
647.945	12773.76
648.298	12748.68
648.65	12687.89
649.002	12650.6
649.355	12780.31
649.707	12724.72
650.059	12786.19
650.411	12948.22
650.763	12914.55
651.115	13045.84
651.467	12979.63
651.819	13034.54
652.171	12984.6
652.523	12923.36
652.875	13032.28
653.227	12938.28
653.578	12986.86
653.93	13038.84
654.282	12895.34
654.633	12880.42
654.985	12973.08
655.337	12971.95
655.688	12997.94
656.039	13075.45
656.391	12958.61
656.742	12911.61
657.094	12948.9
657.445	12973.08
657.796	12972.85
658.147	12993.87
658.498	12983.25
658.849	13022.34
659.2	13026.86
659.551	12972.63
659.902	13027.31
660.253	13030.02
660.604	12990.93
660.955	12959.97
661.306	13053.53
661.656	13043.58
662.007	13030.7
662.358	13077.48
662.708	13030.48
663.059	12969.01
663.409	12943.47
663.76	13030.93
664.11	12999.29
664.461	13009.01
664.811	13090.36
665.161	13092.17
665.511	13044.04
665.862	13029.12
666.212	13077.03
666.562	13123.13
666.912	13028.44
667.262	13097.82
667.612	13131.49
667.962	13045.17
668.312	13040.42
668.662	13086.75
669.011	13058.27
669.361	12984.38
669.711	12945.06
670.06	12928.56
670.41	13009.01
670.76	12903.93
671.109	12954.55
671.459	12950.25
671.808	12908.22
672.157	12926.3
672.507	12873.19
672.856	12919.29
673.205	12861.89
673.554	12970.82
673.904	12912.97
674.253	12986.86
674.602	12991.16
674.951	12621.22
675.3	12711.39
675.649	12919.97
675.998	12835.45
676.346	12822.8
676.695	12846.75
677.044	12754.55
677.393	12780.54
677.741	12845.4
678.09	12772.86
678.438	12707.55
678.787	12791.39
679.135	12747.32
679.484	12675.68
679.832	12717.72
680.181	12658.06
680.529	12662.12
680.877	12641.79
681.225	12554.33
681.573	12634.78
681.922	12536.93
682.27	12534.44
682.618	12539.64
682.966	12504.39
683.314	12466.42
683.661	12508.68
684.009	12399.98
684.357	12353.21
684.705	12374
685.053	12407.67
685.4	12349.59
685.748	12281.57
686.095	12228.69
686.443	12251.74
686.79	12232.76
687.138	12250.84
687.485	12239.31
687.832	12153.66
688.18	12182.36
688.527	12099.65
688.874	12090.39
689.221	12034.8
689.568	11946.44
689.915	11955.48
690.262	11968.36
690.609	11893.11
690.956	11835.48
691.303	11830.96
691.65	11774.69
691.997	11868.47
692.344	11666.22
692.69	11684.75
693.037	11668.93
693.383	11637.97
693.73	11629.61
694.077	11533.11
694.423	11494.47
694.769	11536.96
695.116	11430.07
695.462	11429.39
695.808	11411.54
696.155	11437.98
696.501	11203.86
696.847	11284.08
697.193	11244.53
697.539	11207.25
697.885	11190.75
698.231	11111.66
698.577	11039.12
698.923	11122.5
699.269	11050.19
699.614	10995.95
699.96	10913.47
700.306	10960.25
700.651	10838.44
700.997	10825.79
701.342	10741.95
701.688	10715.06
702.033	10767.03
702.379	10725.23
702.724	10592.35
703.069	10661.95
703.415	10490.88
703.76	10431.22
704.105	10480.71
704.45	10473.93
704.795	10424.22
705.14	10287.5
705.485	10380.15
705.83	10299.47
706.175	10243.43
706.52	10245.24
706.865	10214.96
707.209	10164.56
707.554	10196.65
707.899	10136.77
708.243	10109.88
708.588	10090.21
708.932	10059.48
709.277	10024.68
709.621	9981.29
709.966	9922.99
710.31	9970.22
710.654	9809.32
710.998	9881.18
711.342	9877.11
711.687	9926.15
712.031	9755.99
712.375	9709.43
712.719	9763.22
713.063	9778.58
713.407	9787.4
713.75	9694.52
714.094	9726.16
714.438	9688.42
714.782	9672.82
715.125	9657.01
715.469	9641.87
715.812	9624.69
716.156	9578.36
716.499	9551.02
716.843	9557.12
717.186	9486.84
717.53	9579.04
717.873	9627.63
718.216	9464.02
718.559	9445.49
718.902	9355.32
719.246	9474.86
719.589	9418.59
719.932	9393.28
720.275	9375.88
720.617	9384.7
720.96	9398.03
721.303	9403.23
721.646	9376.56
721.989	9283.91
722.331	9330.01
722.674	9324.59
723.016	9307.86
723.359	9352.38
723.701	9283
724.044	9259.95
724.386	9211.37
724.729	9289.11
725.071	9273.97
725.413	9273.06
725.755	9212.72
726.097	9240.75
726.439	9193.29
726.782	9176.79
727.124	9216.34
727.465	9207.98
727.807	9201.2
728.149	9189.9
728.491	9166.17
728.833	9134.99
729.175	9142.44
729.516	9102.44
729.858	9182.22
730.199	9085.5
730.541	9113.52
730.882	9044.14
731.224	9122.56
731.565	9056.12
731.906	9079.17
732.248	9123.23
732.589	9043.91
732.93	9036.01
733.271	9072.39
733.612	9106.51
733.953	9088.43
734.294	9067.64
734.635	9094.08
734.976	9044.59
735.317	9057.47
735.658	9040.07
735.999	9046.4
736.339	9044.14
736.68	9053.41
737.021	9102.22
737.361	9093.86
737.702	9124.36
738.042	9047.3
738.383	9036.01
738.723	9105.38
739.063	9165.04
739.404	9188.32
739.744	9097.02
740.084	9209.33
740.424	9192.39
740.764	9177.47
741.104	9191.93
741.444	9184.02
741.784	9221.31
742.124	9297.69
742.464	9217.47
742.804	9203.68
743.143	9198.71
743.483	9264.47
743.823	9211.82
744.162	9339.27
744.502	9306.73
744.841	9295.21
745.181	9418.59
745.52	9478.03
745.86	9398.26
746.199	9439.84
746.538	9479.38
746.877	9462.89
747.216	9558.03
747.556	9674.41
747.895	9641.87
748.234	9750.34
748.573	9721.64
748.911	9891.12
749.25	9852.48
749.589	9883.67
749.928	9980.39
750.267	10102.42
750.605	10067.62
750.944	10195.52
751.283	10212.7
751.621	10313.49
751.96	10416.31
752.298	10484.55
752.636	10633.7
752.975	10653.36
753.313	10708.96
753.651	10947.59
753.989	11002.28
754.327	10988.27
754.666	11142.16
755.004	11308.49
755.342	11395.94
755.679	11494.25
756.017	11555.26
756.355	11811.53
756.693	11853.33
757.031	11970.17
757.368	12131.97
757.706	12213.1
758.044	12388.01
758.381	12599.08
758.719	12710.71
