Data from hue_100_FLMS001491_00046.txt Node
Date: Tue Feb 07 17:03:14 GMT 2017
User: dcchb
Spectrometer: FLMS00149
Trigger mode: 0
Integration Time (sec): 2.000000E-2
Scans to average: 10
Electric dark correction enabled: true
Nonlinearity correction enabled: false
Boxcar width: 0
XAxis mode: Wavelengths
Number of Pixels in Spectrum: 2048
>>>>>Begin Spectral Data<<<<<
341.393	-12.39
341.776	-12.39
342.16	-12.39
342.543	-63.23
342.927	-67.07
343.31	-52.16
343.693	-81.76
344.077	-57.58
344.46	-68.43
344.843	-50.35
345.226	-44.7
345.61	-21.43
345.993	-30.69
346.376	-15.1
346.759	20.61
347.142	37.56
347.525	32.13
347.908	61.28
348.291	64.67
348.674	92.02
349.057	113.94
349.44	113.49
349.823	147.61
350.206	169.76
350.588	207.27
350.971	194.84
351.354	237.32
351.737	253.82
352.119	260.6
352.502	257.89
352.884	289.07
353.267	275.29
353.65	279.36
354.032	301.73
354.414	317.77
354.797	320.03
355.179	317.1
355.562	312.58
355.944	354.84
356.326	336.53
356.709	324.33
357.091	337.66
357.473	354.38
357.855	340.15
358.238	357.32
358.62	339.02
359.002	331.33
359.384	343.99
359.766	336.76
360.148	339.69
360.53	362.07
360.912	342.18
361.294	322.97
361.676	353.48
362.057	335.85
362.439	341.05
362.821	330.66
363.203	340.15
363.584	338.79
363.966	329.07
364.348	343.76
364.729	316.19
365.111	330.66
365.493	303.09
365.874	321.39
366.256	322.52
366.637	343.54
367.019	286.81
367.4	323.65
367.781	329.07
368.163	315.74
368.544	322.29
368.925	305.35
369.306	328.85
369.688	304.89
370.069	326.14
370.45	317.1
370.831	318.45
371.212	330.88
371.593	320.49
371.974	323.88
372.355	313.71
372.736	318
373.117	340.15
373.498	330.88
373.879	303.09
374.26	305.57
374.641	333.82
375.021	321.39
375.402	344.89
375.783	318.23
376.163	317.1
376.544	330.66
376.925	336.08
377.305	335.4
377.686	316.64
378.066	332.69
378.447	327.94
378.827	360.94
379.208	331.56
379.588	333.59
379.968	332.69
380.349	340.15
380.729	348.28
381.109	342.18
381.489	362.29
381.87	350.54
382.25	333.37
382.63	337.66
383.01	365.23
383.39	353.48
383.77	376.76
384.15	355.74
384.53	347.15
384.91	357.55
385.29	355.29
385.67	357.55
386.049	346.47
386.429	365.23
386.809	369.75
387.189	349.64
387.568	370.65
387.948	382.41
388.328	379.69
388.707	385.34
389.087	378.34
389.466	378.56
389.846	369.98
390.225	390.77
390.605	390.54
390.984	372.91
391.363	385.12
391.743	371.56
392.122	404.55
392.501	379.92
392.881	375.4
393.26	400.94
393.639	365.91
394.018	398
394.397	386.92
394.776	401.61
395.155	396.19
395.534	386.7
395.913	384.44
396.292	394.38
396.671	415.4
397.05	425.34
397.429	403.42
397.808	411.78
398.186	418.79
398.565	402.29
398.944	402.74
399.323	419.92
399.701	409.52
400.08	428.73
400.458	411.56
400.837	440.26
401.215	440.26
401.594	424.21
401.972	419.69
402.351	431.9
402.729	438.67
403.107	442.74
403.486	456.3
403.864	455.62
404.242	458.11
404.62	440.03
404.999	459.69
405.377	447.49
405.755	463.08
406.133	454.49
406.511	442.52
406.889	490.42
407.267	478.9
407.645	465.57
408.023	481.61
408.401	496.75
408.779	470.09
409.156	468.96
409.534	493.14
409.912	484.32
410.29	499.92
410.667	485
411.045	499.69
411.422	526.36
411.8	499.69
412.178	504.89
412.555	543.98
412.933	541.27
413.31	525
413.687	518.45
414.065	517.32
414.442	512.57
414.819	558.9
415.197	556.86
415.574	574.26
415.951	575.17
416.328	574.49
416.705	565.9
417.082	574.26
417.46	554.38
417.837	574.26
418.214	564.55
418.591	575.39
418.967	568.39
419.344	591.89
419.721	590.31
420.098	601.61
420.475	588.05
420.852	584.21
421.228	604.55
421.605	605.68
421.982	610.65
422.358	637.09
422.735	616.07
423.111	629.63
423.488	628.73
423.864	644.55
424.241	654.26
424.617	666.92
424.994	652.23
425.37	660.14
425.746	649.97
426.123	668.95
426.499	679.35
426.875	671.21
427.251	685.9
427.627	696.52
428.003	691.32
428.379	721.83
428.756	699.23
429.132	703.75
429.507	727.71
429.883	717.54
430.259	727.25
430.635	731.1
431.011	720.7
431.387	740.59
431.763	739.46
432.138	758.67
432.514	734.94
432.89	761.15
433.265	802.96
433.641	790.76
434.016	811.32
434.392	824.2
434.767	833.47
435.143	798.89
435.518	814.94
435.894	836.4
436.269	829.4
436.644	845.67
437.02	856.29
437.395	848.38
437.77	879.79
438.145	898.1
438.52	897.42
438.895	910.3
439.271	913.24
439.646	905.33
440.021	896.29
440.395	922.73
440.77	913.92
441.145	941.71
441.52	953.46
441.895	953.69
442.27	943.07
442.645	978.32
443.019	994.82
443.394	970.41
443.769	1000.24
444.143	1006.57
444.518	1000.69
444.892	976.51
445.267	983.75
445.641	1029.39
446.016	1010.19
446.39	1015.61
446.764	1037.76
447.139	1040.92
447.513	1037.76
447.887	1054.03
448.262	1051.09
448.636	1082.73
449.01	1064.65
449.384	1090.18
449.758	1080.47
450.132	1111.2
450.506	1099
450.88	1122.5
451.254	1120.24
451.628	1150.75
452.002	1160.24
452.376	1158.2
452.75	1178.99
453.123	1196.4
453.497	1190.97
453.871	1182.38
454.244	1213.12
454.618	1217.19
454.992	1262.38
455.365	1250.86
455.739	1257.64
456.112	1264.42
456.486	1297.18
456.859	1337.41
457.232	1329.72
457.606	1317.52
457.979	1377.41
458.352	1377.86
458.725	1392.1
459.099	1424.86
459.472	1417.63
459.845	1409.72
460.218	1456.73
460.591	1450.63
460.964	1489.72
461.337	1518.42
461.71	1511.42
462.083	1549.38
462.456	1564.97
462.829	1591.19
463.201	1594.35
463.574	1595.93
463.947	1621.24
464.32	1644.74
464.692	1694.91
465.065	1691.3
465.438	1737.4
465.81	1748.92
466.183	1774.46
466.555	1801.12
466.928	1833.89
467.3	1877.28
467.672	1869.6
468.045	1924.74
468.417	1940.33
468.789	1954.12
469.161	1967.67
469.534	2031.18
469.906	2093.09
470.278	2105.07
470.65	2135.35
471.022	2184.84
471.394	2238.18
471.766	2247.21
472.138	2310.94
472.51	2338.51
472.882	2381.22
473.253	2432.29
473.625	2477.49
473.997	2517.94
474.369	2539.41
474.74	2601.78
475.112	2670.93
475.484	2748.44
475.855	2792.29
476.227	2882.45
476.598	2972.62
476.97	2997.25
477.341	3091.26
477.713	3176.23
478.084	3215.33
478.455	3326.73
478.827	3390.69
479.198	3503.91
479.569	3601.76
479.94	3694.86
480.311	3719.94
480.682	3874.97
481.053	4006.72
481.424	4072.7
481.795	4169.42
482.166	4283.32
482.537	4357.22
482.908	4520.83
483.279	4562.63
483.65	4676.53
484.021	4920.14
484.391	5000.81
484.762	5068.16
485.133	5209.4
485.503	5328.94
485.874	5474.7
486.244	5622.49
486.615	5817.06
486.985	5892.77
487.356	6032.88
487.726	6181.12
488.097	6290.27
488.467	6481.91
488.837	6676.48
489.207	6822.24
489.578	6952.18
489.948	7127.99
490.318	7237.14
490.688	7395.1
491.058	7533.4
491.428	7712.61
491.798	7837.12
492.168	8150.34
492.538	8185.59
492.908	8376.77
493.278	8538.8
493.648	8637.78
494.017	8769.53
494.387	8939.69
494.757	9118.67
495.126	9239.8
495.496	9385.78
495.866	9508.49
496.235	9684.31
496.605	9814.02
496.974	9960.23
497.344	10089.95
497.713	10196.84
498.082	10315.93
498.452	10501.69
498.821	10607.9
499.19	10676.15
499.559	10868.68
499.928	10988.91
500.298	11102.35
500.667	11240.88
501.036	11336.02
501.405	11502.11
501.774	11564.48
502.143	11689
502.512	11812.39
502.88	11862.1
503.249	11973.06
503.618	12051.48
503.987	12133.06
504.356	12297.57
504.724	12391.58
505.093	12446.72
505.462	12528.53
505.83	12598.36
506.199	12817.11
506.567	13070.66
506.936	12975.97
507.304	13174.16
507.672	13228.85
508.041	13341.39
508.409	13396.07
508.777	13500.25
509.145	13544.77
509.514	13645.79
509.882	13749.96
510.25	13721.94
510.618	13860.02
510.986	13888.49
511.354	14043.97
511.722	14091.2
512.09	14315.15
512.458	14211.42
512.826	14408.25
513.193	14420.68
513.561	14389.04
513.929	14518.98
514.297	14624.29
514.664	14655.02
515.032	14688.47
515.4	14784.06
515.767	14798.98
516.135	14885.53
516.502	14831.52
516.869	15048.69
517.237	15119.42
517.604	15076.26
517.972	15231.28
518.339	15295.69
518.706	15288.45
519.073	15333.88
519.44	15348.34
519.808	15450.03
520.175	15474.66
520.542	15680.53
520.909	15721.21
521.276	15666.98
521.643	15812.73
522.009	15787.88
522.376	15882.56
522.743	15889.79
523.11	16054.99
523.477	16124.36
523.843	16142.44
524.21	16245.72
524.577	16287.3
524.943	16290.24
525.31	16391.48
525.676	16578.14
526.043	16506.5
526.409	16554.41
526.776	16731.35
527.142	16693.61
527.508	16760.28
527.874	16811.35
528.241	16791.47
528.607	16788.98
528.973	16899.26
529.339	16828.53
529.705	16905.81
530.071	16901.29
530.437	16903.33
530.803	17038.24
531.169	17035.3
531.535	17077.33
531.901	16960.27
532.267	17016.32
532.632	17083.43
532.998	17119.82
533.364	17156.65
533.73	17061.74
534.095	17226.26
534.461	17064
534.826	17066.03
535.192	17141.06
535.557	17270.1
535.923	17171.79
536.288	17035.98
536.653	17100.16
537.019	17063.1
537.384	17135.19
537.749	17092.47
538.114	17030.1
538.479	17035.53
538.845	17056.09
539.21	16955.08
539.575	16916.43
539.94	16886.38
540.305	16941.74
540.67	16965.02
541.034	16939.03
541.399	16941.07
541.764	16893.38
542.129	16959.6
542.494	16842.31
542.858	16893.61
543.223	16837.11
543.587	16832.37
543.952	16762.31
544.316	16786.95
544.681	16659.72
545.045	16755.31
545.41	16739.49
545.774	16638.47
546.138	16656.55
546.503	16636.44
546.867	16638.7
547.231	16711.69
547.595	16524.35
547.959	16616.55
548.324	16485.48
548.688	16500.85
549.052	16453.4
549.416	16445.26
549.779	16435.77
550.143	16347.18
550.507	16484.58
550.871	16434.41
551.235	16265.15
551.599	16416.11
551.962	16280.74
552.326	16296.79
552.689	16389.89
553.053	16338.6
553.417	16235.32
553.78	16313.96
554.143	16257.24
554.507	16224.47
554.87	16367.97
555.234	16343.34
555.597	16133.63
555.96	16271.48
556.323	16246.85
556.686	16209.56
557.05	16216.34
557.413	16254.3
557.776	16236.23
558.139	16334.3
558.502	16194.64
558.865	16284.13
559.228	16329.1
559.59	16270.8
559.953	16330.69
560.316	16370.46
560.679	16328.43
561.041	16369.56
561.404	16434.64
561.767	16438.71
562.129	16278.71
562.492	16416.11
562.854	16473.28
563.217	16358.03
563.579	16426.05
563.941	16495.43
564.304	16552.38
564.666	16613.62
565.028	16528.65
565.39	16601.19
565.753	16654.75
566.115	16620.85
566.477	16667.85
566.839	16753.73
567.201	16814.06
567.563	16747.62
567.925	16886.15
568.287	16764.35
568.648	16865.59
569.01	16814.74
569.372	16883.44
569.734	16764.12
570.095	16893.38
570.457	16958.01
570.819	16945.59
571.18	17007.5
571.542	16996.88
571.903	16989.2
572.265	17090.44
572.626	17077.79
572.987	17083.43
573.349	16972.93
573.71	17147.84
574.071	17213.83
574.432	17142.64
574.794	17278.46
575.155	17214.5
575.516	17195.52
575.877	17171.79
576.238	17199.36
576.599	17252.24
576.96	17223.32
577.32	17273.26
577.681	17360.04
578.042	17304.67
578.403	17293.82
578.763	17258.35
579.124	17297.21
579.485	17358
579.845	17462.18
580.206	17356.87
580.566	17305.12
580.927	17266.03
581.287	17356.65
581.648	17363.43
582.008	17433.71
582.368	17309.42
582.728	17275.29
583.089	17288.63
583.449	17417.21
583.809	17278.01
584.169	17277.33
584.529	17279.59
584.889	17473.26
585.249	17308.97
585.609	17247.95
585.969	17295.18
586.329	17260.61
586.688	17257.67
587.048	17258.35
587.408	17176.77
587.768	17165.47
588.127	17172.25
588.487	17151.91
588.846	17254.05
589.206	17107.39
589.565	17223.32
589.925	17208.4
590.284	17165.24
590.643	17167.27
591.003	17097.22
591.362	17207.27
591.721	17129.76
592.08	17135.64
592.44	17173.83
592.799	17139.7
593.158	17165.01
593.517	17136.99
593.876	17064.23
594.235	17095.41
594.593	17136.77
594.952	17082.08
595.311	17050.89
595.67	17022.65
596.029	17084.34
596.387	17176.31
596.746	17149.2
597.104	17085.24
597.463	16988.3
597.822	17095.41
598.18	16989.65
598.538	16975.64
598.897	17022.19
599.255	16941.74
599.613	17225.13
599.972	17114.39
600.33	17155.52
600.688	17027.17
601.046	17078.24
601.404	17185.58
601.762	17047.5
602.12	17191.23
602.478	17189.65
602.836	17262.41
603.194	17032.36
603.552	17141.29
603.91	17126.6
604.268	17169.76
604.625	17087.73
604.983	17138.8
605.341	17172.7
605.698	17164.11
606.056	17194.62
606.413	17076.43
606.771	17202.53
607.128	17137.9
607.485	17132.02
607.843	17056.09
608.2	17203.88
608.557	17251.34
608.914	17291.11
609.272	17250.21
609.629	17278.91
609.986	17404.1
610.343	17259.48
610.7	17482.52
611.057	17340.15
611.414	17372.01
611.771	17361.85
612.127	17444.78
612.484	17408.85
612.841	17518.45
613.198	17394.84
613.554	17415.4
613.911	17514.16
614.267	17442.52
614.624	17424.89
614.98	17427.83
615.337	17502.63
615.693	17575.4
616.05	17493.59
616.406	17575.4
616.762	17571.33
617.118	17551.22
617.475	17489.98
617.831	17605.23
618.187	17614.04
618.543	17637.09
618.899	17698.56
619.255	17624.66
619.611	17655.85
619.967	17733.81
620.323	17698.11
620.678	17762.74
621.034	17611.33
621.39	17632.57
621.746	17738.78
622.101	17723.42
622.457	17660.37
622.812	17713.25
623.168	17686.58
623.523	17649.07
623.879	17706.24
624.234	17748.95
624.589	17707.37
624.945	17677.77
625.3	17712.35
625.655	17701.05
626.01	17710.09
626.365	17652.01
626.72	17786.24
627.075	17698.56
627.43	17697.66
627.785	17567.26
628.14	17624.44
628.495	17732.01
628.85	17649.97
629.205	17607.94
629.559	17730.42
629.914	17539.24
630.269	17646.58
630.623	17602.74
630.978	17644.32
631.332	17575.4
631.687	17586.92
632.041	17498.11
632.396	17541.5
632.75	17454.72
633.104	17440.71
633.459	17488.17
633.813	17399.36
634.167	17468.51
634.521	17500.6
634.875	17507.38
635.229	17435.74
635.583	17319.81
635.937	17367.5
636.291	17231.45
636.645	17314.62
636.999	17305.35
637.352	17275.97
637.706	17168.63
638.06	17304.45
638.413	17118.69
638.767	17200.04
639.121	17254.73
639.474	17006.37
639.828	17056.32
640.181	17153.26
640.534	17086.15
640.888	17056.09
641.241	17044.34
641.594	16942.87
641.947	17030.1
642.301	16967.73
642.654	17035.75
643.007	17079.82
643.36	17029.88
643.713	16929.77
644.066	16990.1
644.419	16993.04
644.771	16869.66
645.124	16716.89
645.477	16661.53
645.83	16515.09
646.182	16415.2
646.535	16428.08
646.888	16376.33
647.24	16383.79
647.593	16410.68
647.945	16365.71
648.298	16325.04
648.65	16319.61
649.002	16204.14
649.355	16312.61
649.707	16343.12
650.059	16516.22
650.411	16678.47
650.763	16637.12
651.115	16752.14
651.467	16695.65
651.819	16753.95
652.171	16726.83
652.523	16654.75
652.875	16732.26
653.227	16629.21
653.578	16757.57
653.93	16645.93
654.282	16637.8
654.633	16596.44
654.985	16639.15
655.337	16628.31
655.688	16733.16
656.039	16658.81
656.391	16626.5
656.742	16735.42
657.094	16685.25
657.445	16701.3
657.796	16625.59
658.147	16691.58
658.498	16621.07
658.849	16769.09
659.2	16611.36
659.551	16673.5
659.902	16692.26
660.253	16699.72
660.604	16683.67
660.955	16550.79
661.306	16635.09
661.656	16747.4
662.007	16689.55
662.358	16768.42
662.708	16647.06
663.059	16647.97
663.409	16633.28
663.76	16687.06
664.11	16716.21
664.461	16684.12
664.811	16765.7
665.161	16731.81
665.511	16737
665.862	16733.84
666.212	16772.93
666.562	16741.3
666.912	16685.71
667.262	16810.67
667.612	16831.46
667.962	16745.82
668.312	16737.23
668.662	16819.71
669.011	16729.32
669.361	16642.99
669.711	16626.72
670.06	16732.48
670.41	16643.9
670.76	16633.05
671.109	16648.87
671.459	16731.81
671.808	16638.93
672.157	16676.21
672.507	16488.42
672.856	16517.12
673.205	16525.03
673.554	16658.14
673.904	16511.02
674.253	16652.71
674.602	16547.86
674.951	16324.58
675.3	16305.6
675.649	16529.55
675.998	16426.73
676.346	16478.93
676.695	16532.49
677.044	16414.98
677.393	16382.21
677.741	16436.9
678.09	16407.97
678.438	16363.23
678.787	16324.81
679.135	16339.95
679.484	16200.97
679.832	16241.42
680.181	16097.25
680.529	16239.62
680.877	16193.51
681.225	16117.58
681.573	16215.21
681.922	16077.36
682.27	16031.49
682.618	16062.9
682.966	16072.16
683.314	16066.51
683.661	16008.89
684.009	15912.84
684.357	15902
684.705	15777.03
685.053	15886.86
685.4	15769.12
685.748	15783.13
686.095	15747.65
686.443	15647.31
686.79	15621.33
687.138	15774.77
687.485	15662.46
687.832	15687.99
688.18	15592.4
688.527	15600.31
688.874	15510.37
689.221	15446.19
689.568	15457.94
689.915	15389.92
690.262	15463.36
690.609	15313.09
690.956	15224.5
691.303	15212.75
691.65	15160.77
691.997	15126.65
692.344	15029.03
692.69	15049.59
693.037	14983.83
693.383	14847.11
693.73	14951.29
694.077	14803.72
694.423	14764.63
694.769	14666.1
695.116	14738.19
695.462	14619.32
695.808	14670.84
696.155	14718.3
696.501	14518.3
696.847	14473.33
697.193	14334.35
697.539	14356.73
697.885	14318.08
698.231	14308.37
698.577	14214.58
698.923	14204.41
699.269	14102.5
699.614	14078.77
699.96	14110.86
700.306	13922.61
700.651	13937.98
700.997	13856.85
701.342	13824.31
701.688	13847.36
702.033	13810.3
702.379	13674.94
702.724	13616.63
703.069	13621.38
703.415	13630.87
703.76	13576.41
704.105	13510.65
704.45	13531.66
704.795	13473.59
705.14	13323.99
705.485	13279.24
705.83	13259.81
706.175	13283.31
706.52	13176.19
706.865	13215.51
707.209	13219.13
707.554	13092.35
707.899	13164.22
708.243	13002.64
708.588	12977.55
708.932	12911.34
709.277	12862.98
709.621	12922.41
709.966	12792.47
710.31	12786.6
710.654	12664.79
710.998	12704.34
711.342	12724
711.687	12701.86
712.031	12599.03
712.375	12593.16
712.719	12601.52
713.063	12549.32
713.407	12606.49
713.75	12490.79
714.094	12507.51
714.438	12408.53
714.782	12418.92
715.125	12386.61
715.469	12431.81
715.812	12341.19
716.156	12314.97
716.499	12284.47
716.843	12301.41
717.186	12243.56
717.53	12248.53
717.873	12246.73
718.216	12233.62
718.559	12176.67
718.902	12073.4
719.246	12059.16
719.589	12086.73
719.932	12100.97
720.275	12098.03
720.617	12020.74
720.96	12025.49
721.303	12016.22
721.646	12079.27
721.989	11874.76
722.331	11989.56
722.674	11966.28
723.016	11979.84
723.359	11992.27
723.701	11973.06
724.044	11901.88
724.386	11741.88
724.729	11886.96
725.071	11818.04
725.413	11835.89
725.755	11783.01
726.097	11739.62
726.439	11755.67
726.782	11676.35
727.124	11759.06
727.465	11641.54
727.807	11761.32
728.149	11711.6
728.491	11665.95
728.833	11721.09
729.175	11645.84
729.516	11536.01
729.858	11649.68
730.199	11680.87
730.541	11544.6
730.882	11680.41
731.224	11687.19
731.565	11579.4
731.906	11678.15
732.248	11613.3
732.589	11519.74
732.93	11552.51
733.271	11646.97
733.612	11625.05
733.953	11596.57
734.294	11578.72
734.635	11597.7
734.976	11610.58
735.317	11567.42
735.658	11574.65
735.999	11550.7
736.339	11606.74
736.68	11651.71
737.021	11580.3
737.361	11571.94
737.702	11568.1
738.042	11520.42
738.383	11593.64
738.723	11600.87
739.063	11556.12
739.404	11622.56
739.744	11620.98
740.084	11555.67
740.424	11625.73
740.764	11611.04
741.104	11667.31
741.444	11593.86
741.784	11621.21
742.124	11723.12
742.464	11642.45
742.804	11692.62
743.143	11725.16
743.483	11782.33
743.823	11718.83
744.162	11727.64
744.502	11812.16
744.841	11768.09
745.181	11876.57
745.52	11828.43
745.86	11901.42
746.199	11995.66
746.538	11983.68
746.877	12105.71
747.216	12141.19
747.556	12185.71
747.895	12183
748.234	12138.71
748.573	12227.74
748.911	12291.24
749.25	12418.25
749.589	12458.92
749.928	12506.83
750.267	12552.71
750.605	12655.08
750.944	12755.87
751.283	12783.21
751.621	12915.86
751.96	12939.59
752.298	12970.77
752.636	13184.33
752.975	13244.21
753.313	13313.82
753.651	13344.32
753.989	13535.05
754.327	13613.02
754.666	13655.5
755.004	13899.56
755.342	13982.27
755.679	14161.48
