Data from hue_340_FLMS001491_42.txt Node
Date: Mon Feb 06 15:43:09 GMT 2017
User: dcchb
Spectrometer: FLMS00149
Trigger mode: 0
Integration Time (sec): 2.000000E-2
Scans to average: 10
Electric dark correction enabled: true
Nonlinearity correction enabled: false
Boxcar width: 0
XAxis mode: Wavelengths
Number of Pixels in Spectrum: 2048
>>>>>Begin Spectral Data<<<<<
341.393	-26.57
341.776	-26.57
342.16	-26.57
342.543	-85.55
342.927	-69.96
343.31	-51.43
343.693	-78.54
344.077	-66.57
344.46	-68.37
344.843	-46.68
345.226	-37.19
345.61	-47.13
345.993	-24.76
346.376	-0.13
346.759	8.69
347.142	24.73
347.525	46.88
347.908	66.09
348.291	78.51
348.674	82.36
349.057	113.54
349.44	124.62
349.823	145.41
350.206	150.6
350.588	182.69
350.971	184.95
351.354	204.16
351.737	243.03
352.119	245.06
352.502	268.57
352.884	271.73
353.267	273.09
353.65	273.31
354.032	280.54
354.414	296.14
354.797	309.92
355.179	305.63
355.562	302.46
355.944	297.27
356.326	319.86
356.709	324.84
357.091	324.16
357.473	332.97
357.855	321.67
358.238	347.66
358.62	318.51
359.002	319.64
359.384	324.61
359.766	320.54
360.148	314.67
360.53	322.12
360.912	314.67
361.294	325.06
361.676	328
362.057	333.65
362.439	322.35
362.821	323.48
363.203	299.98
363.584	297.49
363.966	304.05
364.348	309.02
364.729	339.98
365.111	314.67
365.493	302.01
365.874	299.07
366.256	301.33
366.637	288.68
367.019	307.21
367.4	320.09
367.781	299.07
368.163	300.2
368.544	299.98
368.925	306.53
369.306	313.54
369.688	297.72
370.069	276.02
370.45	312.18
370.831	313.54
371.212	275.12
371.593	289.36
371.974	309.02
372.355	295.91
372.736	276.48
373.117	304.5
373.498	297.04
373.879	295.23
374.26	296.14
374.641	310.6
375.021	332.75
375.402	316.7
375.783	343.59
376.163	308.11
376.544	294.78
376.925	315.57
377.305	311.5
377.686	286.65
378.066	303.14
378.447	315.12
378.827	323.03
379.208	327.1
379.588	329.36
379.968	322.8
380.349	319.86
380.729	318.96
381.109	327.77
381.489	306.31
381.87	312.86
382.25	337.72
382.63	323.25
383.01	337.04
383.39	321.22
383.77	312.41
384.15	320.32
384.53	322.35
384.91	322.8
385.29	326.19
385.67	289.81
386.049	329.36
386.429	330.03
386.809	343.37
387.189	323.71
387.568	338.85
387.948	327.32
388.328	363.03
388.707	336.59
389.087	334.33
389.466	341.11
389.846	322.12
390.225	358.06
390.605	340.2
390.984	339.98
391.363	362.12
391.743	338.17
392.122	333.42
392.501	320.32
392.881	356.7
393.26	354.21
393.639	375.91
394.018	372.29
394.397	348.11
394.776	359.86
395.155	355.34
395.534	346.3
395.913	345.85
396.292	354.89
396.671	366.42
397.05	377.72
397.429	358.51
397.808	357.6
398.186	382.24
398.565	369.35
398.944	365.96
399.323	359.86
399.701	374.55
400.08	381.11
400.458	361.22
400.837	380.2
401.215	365.96
401.594	355.57
401.972	389.02
402.351	365.29
402.729	369.81
403.107	377.94
403.486	392.4
403.864	389.92
404.242	378.17
404.62	376.36
404.999	384.27
405.377	405.51
405.755	413.42
406.133	394.21
406.511	385.4
406.889	423.36
407.267	422.23
407.645	410.94
408.023	390.15
408.401	402.8
408.779	408
409.156	404.16
409.534	434.44
409.912	429.92
410.29	438.05
410.667	426.3
411.045	442.12
411.422	422.69
411.8	440.09
412.178	443.48
412.555	432.18
412.933	448.9
413.31	471.5
413.687	464.27
414.065	473.98
414.442	483.48
414.819	459.75
415.197	488.9
415.574	469.47
415.951	475.11
416.328	491.39
416.705	487.54
417.082	495.45
417.46	496.13
417.837	496.58
418.214	504.94
418.591	514.66
418.967	515.57
419.344	511.5
419.721	508.79
420.098	544.27
420.475	537.26
420.852	542.68
421.228	516.24
421.605	551.72
421.982	549.46
422.358	548.33
422.735	541.55
423.111	559.86
423.488	556.24
423.864	573.42
424.241	572.06
424.617	581.78
424.994	571.16
425.37	603.25
425.746	584.04
426.123	610.48
426.499	576.58
426.875	587.88
427.251	597.82
427.627	622.46
428.003	607.77
428.379	622.91
428.756	618.61
429.132	622.23
429.507	626.75
429.883	638.5
430.259	672.4
430.635	643.47
431.011	661.32
431.387	679.63
431.763	701.1
432.138	674.43
432.514	694.09
432.89	717.82
433.265	712.62
433.641	709.91
434.016	710.81
434.392	743.36
434.767	734.32
435.143	745.39
435.518	740.19
435.894	751.72
436.269	753.75
436.644	763.47
437.02	743.13
437.395	751.94
437.77	803.69
438.145	807.54
438.52	771.83
438.895	797.14
439.271	776.58
439.646	804.82
440.021	821.77
440.395	808.89
440.77	809.34
441.145	832.85
441.52	817.7
441.895	803.92
442.27	831.26
442.645	853.18
443.019	866.74
443.394	862.45
443.769	860.42
444.143	836.69
444.518	862.45
444.892	841.66
445.267	882.56
445.641	896.57
446.016	851.38
446.39	886.86
446.764	887.99
447.139	922.56
447.513	879.62
447.887	899.74
448.262	898.61
448.636	899.96
449.01	913.3
449.384	896.35
449.758	923.01
450.132	916.01
450.506	927.53
450.88	919.85
451.254	930.92
451.628	940.87
452.002	943.58
452.376	960.07
452.75	960.75
453.123	948.32
453.497	943.35
453.871	961.43
454.244	964.59
454.618	993.97
454.992	1017.25
455.365	963.24
455.739	997.81
456.112	1009.11
456.486	1003.69
456.859	1042.11
457.232	1051.6
457.606	1033.07
457.979	1049.34
458.352	1047.08
458.725	1076
459.099	1066.51
459.472	1079.62
459.845	1115.1
460.218	1089.79
460.591	1119.62
460.964	1118.49
461.337	1145.83
461.71	1153.29
462.083	1159.39
462.456	1188.54
462.829	1157.81
463.201	1203.68
463.574	1172.27
463.947	1198.26
464.32	1214.3
464.692	1234.42
465.065	1244.13
465.438	1239.16
465.81	1255.89
466.183	1284.81
466.555	1274.42
466.928	1283.45
467.3	1300.18
467.672	1302.44
468.045	1316.67
468.417	1318.93
468.789	1357.8
469.161	1337.46
469.534	1367.07
469.906	1393.06
470.278	1422.89
470.65	1424.24
471.022	1420.4
471.394	1451.59
471.766	1462.89
472.138	1464.47
472.51	1507.4
472.882	1508.31
473.253	1531.36
473.625	1538.82
473.997	1578.81
474.369	1608.87
474.74	1611.13
475.112	1656.78
475.484	1649.1
475.855	1687.06
476.227	1707.17
476.598	1729.77
476.97	1739.71
477.341	1773.39
477.713	1793.05
478.084	1815.42
478.455	1867.39
478.827	1875.3
479.198	1894.74
479.569	1916.43
479.94	1963.89
480.311	1980.16
480.682	2018.58
481.053	2045.69
481.424	2036.43
481.795	2094.96
482.166	2129.53
482.537	2125.69
482.908	2181.51
483.279	2197.56
483.65	2260.15
484.021	2267.38
484.391	2297.89
484.762	2311.45
485.133	2304.22
485.503	2396.42
485.874	2402.07
486.244	2441.16
486.615	2462.63
486.985	2509.64
487.356	2562.29
487.726	2562.74
488.097	2593.25
488.467	2596.41
488.837	2626.24
489.207	2713.02
489.578	2713.25
489.948	2730.2
490.318	2767.94
490.688	2790.99
491.058	2829.4
491.428	2861.04
491.798	2877.76
492.168	2933.13
492.538	2960.25
492.908	2975.84
493.278	3038.21
493.648	3049.74
494.017	3084.31
494.387	3080.47
494.757	3104.2
495.126	3097.64
495.496	3141.03
495.866	3162.5
496.235	3173.57
496.605	3269.17
496.974	3233.91
497.344	3237.3
497.713	3262.39
498.082	3352.55
498.452	3339.22
498.821	3352.55
499.19	3363.17
499.559	3420.35
499.928	3425.32
500.298	3424.64
500.667	3427.35
501.036	3432.55
501.405	3499.67
501.774	3465.09
502.143	3501.25
502.512	3538.08
502.88	3529.5
503.249	3551.19
503.618	3555.03
503.987	3574.47
504.356	3586.67
504.724	3615.37
505.093	3609.72
505.462	3630.96
505.83	3653.56
506.199	3690.85
506.567	3717.97
506.936	3720.68
507.304	3745.09
507.672	3755.03
508.041	3762.94
508.409	3794.12
508.777	3806.1
509.145	3796.38
509.514	3795.48
509.882	3844.07
510.25	3839.32
510.618	3857.85
510.986	3856.27
511.354	3873.9
511.722	3898.3
512.09	3891.97
512.458	3895.59
512.826	3957.96
513.193	3952.31
513.561	3952.76
513.929	4028.92
514.297	4016.72
514.664	4026.21
515.032	4035.7
515.4	3998.41
515.767	4046.77
516.135	4044.74
516.502	4053.78
516.869	4052.65
517.237	4110.5
517.604	4069.82
517.972	4137.17
518.339	4137.62
518.706	4144.85
519.073	4113.66
519.44	4186.66
519.808	4170.84
520.175	4187.33
520.542	4235.69
520.909	4275.47
521.276	4246.31
521.643	4242.7
522.009	4307.56
522.376	4263.04
522.743	4240.89
523.11	4382.13
523.477	4355.24
523.843	4368.35
524.21	4377.16
524.577	4420.77
524.943	4428.23
525.31	4401.79
525.676	4497.61
526.043	4491.51
526.409	4515.46
526.776	4527.21
527.142	4562.92
527.508	4599.3
527.874	4593.88
528.241	4601.79
528.607	4630.49
528.973	4658.51
529.339	4604.27
529.705	4699.18
530.071	4727.88
530.437	4726.08
530.803	4766.3
531.169	4825.51
531.535	4764.95
531.901	4792.06
532.267	4811.5
532.632	4870.71
532.998	4858.73
533.364	4936.47
533.73	4908.22
534.095	4964.26
534.461	4951.38
534.826	4996.58
535.192	5006.75
535.557	5021.44
535.923	5025.96
536.288	5062.79
536.653	5073.19
537.019	5111.15
537.384	5112.73
537.749	5109.34
538.114	5114.54
538.479	5137.59
538.845	5165.16
539.21	5173.97
539.575	5182.11
539.94	5218.72
540.305	5241.32
540.67	5258.04
541.034	5319.73
541.399	5313.41
541.764	5340.3
542.129	5375.32
542.494	5325.38
542.858	5414.19
543.223	5405.38
543.587	5437.02
543.952	5425.27
544.316	5487.64
544.681	5516.34
545.045	5548.43
545.41	5549.33
545.774	5581.65
546.138	5598.6
546.503	5591.14
546.867	5585.94
547.231	5633.85
547.595	5681.31
547.959	5728.31
548.324	5730.34
548.688	5696.9
549.052	5726.05
549.416	5828.65
549.779	5820.74
550.143	5813.96
550.507	5825.93
550.871	5889.21
551.235	5808.76
551.599	5893.5
551.962	5902.32
552.326	5911.58
552.689	5938.02
553.053	5915.42
553.417	5906.84
553.78	6020.28
554.143	6011.92
554.507	6048.75
554.87	6068.64
555.234	6091.92
555.597	6001.75
555.96	6109.09
556.323	6125.14
556.686	6128.3
557.05	6152.93
557.413	6167.62
557.776	6172.82
558.139	6218.24
558.502	6214.4
558.865	6240.84
559.228	6267.5
559.59	6222.31
559.953	6347.73
560.316	6300.5
560.679	6372.36
561.041	6369.87
561.404	6384.56
561.767	6402.42
562.129	6423.88
562.492	6451.68
562.854	6423.66
563.217	6470.21
563.579	6463.88
563.941	6485.35
564.304	6554.5
564.666	6549.76
565.028	6545.69
565.39	6531.23
565.753	6614.16
566.115	6651.22
566.477	6683.76
566.839	6726.25
567.201	6762.18
567.563	6734.39
567.925	6785.01
568.287	6754.95
568.648	6801.5
569.01	6853.48
569.372	6899.58
569.734	6894.83
570.095	6894.83
570.457	6912.01
570.819	6978.67
571.18	6992.01
571.542	6983.19
571.903	7078.78
572.265	7136.63
572.626	7124.21
572.987	7190.42
573.349	7213.02
573.71	7275.39
574.071	7351.77
574.432	7394.71
574.794	7378.66
575.155	7424.08
575.516	7460.47
575.877	7595.15
576.238	7603.29
576.599	7667.69
576.96	7751.31
577.32	7795.83
577.681	7859.33
578.042	7900
578.403	8042.83
578.763	8116.04
579.124	8188.58
579.485	8271.52
579.845	8423.38
580.206	8413.66
580.566	8573.21
580.927	8711.51
581.287	8850.26
581.648	8808.91
582.008	9035.12
582.368	9157.6
582.728	9254.09
583.089	9478.95
583.449	9539.28
583.809	9698.6
584.169	9877.35
584.529	10056.33
584.889	10300.84
585.249	10459.71
585.609	10512.59
585.969	10830.32
586.329	10872.13
586.688	11124.1
587.048	11388.27
587.408	11532.23
587.768	11686.8
588.127	11885.66
588.487	12089.72
588.846	12427.79
589.206	12592.99
589.565	12821
589.925	13063.48
590.284	13345.51
590.643	13547.09
591.003	13734.2
591.362	14038.6
591.721	14314.3
592.08	14533.05
592.44	14912.48
592.799	15130.55
593.158	15340.26
593.517	15610.99
593.876	15926.01
594.235	16226.56
594.593	16474.02
594.952	16775.7
595.311	16949.26
595.67	17331.85
596.029	17817.48
596.387	17984.26
596.746	18184.48
597.104	18440.97
597.463	18737.46
597.822	19081.18
598.18	19344
598.538	19562.07
598.897	19978.1
599.255	20037.09
599.613	20561.37
599.972	20729.95
600.33	21005.2
600.688	21325.87
601.046	21609.25
601.404	21982.8
601.762	22194.09
602.12	22546.62
602.478	22706.39
602.836	22921.76
603.194	23199.71
603.552	23399.48
603.91	23637.67
604.268	23894.84
604.625	24094.38
604.983	24458.66
605.341	24530.08
605.698	24895.94
606.056	25181.58
606.413	25358.98
606.771	25655.02
607.128	25875.12
607.485	26060.66
607.843	26210.94
608.2	26478.72
608.557	26780.41
608.914	26925.04
609.272	27235.77
609.629	27415.65
609.986	27769.54
610.343	27656.09
610.7	28056.08
611.057	28180.37
611.414	28430.54
611.771	28581.72
612.127	28901.26
612.484	29183.51
612.841	29329.95
613.198	29382.83
613.554	29468.7
613.911	29742.59
614.267	29985.53
614.624	30128.57
614.98	30322.92
615.337	30534.44
615.693	30496.7
616.05	30571.5
616.406	30978.27
616.762	31051.26
617.118	31053.07
617.475	31309.11
617.831	31388.2
618.187	31588.65
618.543	31792.03
618.899	32033.38
619.255	32168.74
619.611	32116.54
619.967	32357.89
620.323	32518.34
620.678	32470.21
621.034	32529.87
621.39	32704.55
621.746	32771.44
622.101	33244.87
622.457	32951.32
622.812	33255.95
623.168	33357.87
623.523	33503.85
623.879	33514.47
624.234	33457.52
624.589	33643.73
624.945	33810.74
625.3	33897.74
625.655	33998.75
626.01	33970.96
626.365	34150.16
626.72	34214.34
627.075	34139.77
627.43	34214.57
627.785	34109.71
628.14	34321
628.495	34300.67
628.85	34372.53
629.205	34379.53
629.559	34626.99
629.914	34600.55
630.269	34494.79
630.623	34556.7
630.978	34568
631.332	34643.26
631.687	34841.89
632.041	34637.38
632.396	34924.38
632.75	34640.09
633.104	34726.64
633.459	34615.69
633.813	34773.42
634.167	34788.79
634.521	34644.84
634.875	34791.05
635.229	34866.07
635.583	34678.51
635.937	34747.89
636.291	34778.85
636.645	34772.07
636.999	34840.31
637.352	34757.83
637.706	34623.37
638.06	35002.79
638.413	34850.26
638.767	34735.68
639.121	34887.32
639.474	34642.13
639.828	34605.74
640.181	34834.21
640.534	34777.04
640.888	34697.04
641.241	34614.1
641.594	34681.9
641.947	34830.82
642.301	34798.73
642.654	34669.7
643.007	34779.98
643.36	34824.49
643.713	34673.99
644.066	34872.63
644.419	34597.83
644.771	34401
645.124	34142.03
645.477	34010.73
645.83	33949.04
646.182	33794.92
646.535	33682.38
646.888	33779.55
647.24	33581.14
647.593	33780.91
647.945	33647.58
648.298	33574.36
648.65	33560.12
649.002	33455.72
649.355	33603.28
649.707	33616.62
650.059	33681.47
650.411	34166.21
650.763	34159.65
651.115	34516.48
651.467	34344.96
651.819	34368.69
652.171	34341.34
652.523	34342.47
652.875	34289.82
653.227	34051.86
653.578	34313.09
653.93	34285.98
654.282	34161.46
654.633	34126.43
654.985	34270.61
655.337	34230.84
655.688	34161.69
656.039	34299.08
656.391	33974.35
656.742	34072.88
657.094	34107.9
657.445	34187
657.796	34099.54
658.147	34057.06
658.498	34080.56
658.849	34100.45
659.2	33930.05
659.551	33944.52
659.902	34106.32
660.253	34030.39
660.604	34117.17
660.955	33993.78
661.306	34055.93
661.656	33876.27
662.007	34096.83
662.358	33942.03
662.708	33973.67
663.059	33911.07
663.409	33788.81
663.76	34011.18
664.11	34114.46
664.461	34066.1
664.811	33988.13
665.161	33960.79
665.511	34001.24
665.862	34020.9
666.212	34010.05
666.562	34080.33
666.912	33978.19
667.262	33919.88
667.612	33941.13
667.962	33922.6
668.312	34009.37
668.662	33972.76
669.011	33919.21
669.361	33971.41
669.711	33923.95
670.06	33909.49
670.41	33810.74
670.76	33706.11
671.109	33909.04
671.459	33800.57
671.808	33754.01
672.157	33849.6
672.507	33655.94
672.856	33797.4
673.205	33671.08
673.554	33847.34
673.904	33781.13
674.253	33788.36
674.602	33727.57
674.951	33263.86
675.3	33105.44
675.649	33678.08
675.998	33513.12
676.346	33589.95
676.695	33763.73
677.044	33448.94
677.393	33595.37
677.741	33643.96
678.09	33399.45
678.438	33401.48
678.787	33559.67
679.135	33461.37
679.484	33272.22
679.832	33424.76
680.181	33216.17
680.529	33311.99
680.877	33144.76
681.225	33241.71
681.573	33589.05
681.922	33079.91
682.27	33033.13
682.618	32977.76
682.966	32901.15
683.314	33000.36
683.661	32967.37
684.009	32796.3
684.357	32738.67
684.705	32723.08
685.053	32600.6
685.4	32662.06
685.748	32511.79
686.095	32527.38
686.443	32453.93
686.79	32389.53
687.138	32423.43
687.485	32510.43
687.832	32310.66
688.18	32125.13
688.527	31957.22
688.874	32228.4
689.221	32102.98
689.568	31942.76
689.915	31999.71
690.262	31958.13
690.609	31930.11
690.956	31725.82
691.303	31746.38
691.65	31599.95
691.997	31620.74
692.344	31384.58
692.69	31312.5
693.037	31385.49
693.383	31057.81
693.73	31224.36
694.077	31033.86
694.423	31115.66
694.769	30992.5
695.116	30917.93
695.462	30900.98
695.808	30832.06
696.155	30744.38
696.501	30615.57
696.847	30651.72
697.193	30418.96
697.539	30436.13
697.885	30223.94
698.231	30229.59
698.577	30194.79
698.923	30158.4
699.269	30005.64
699.614	29769.26
699.96	29804.51
700.306	29778.98
700.651	29748.92
700.997	29585.54
701.342	29700.33
701.688	29583.73
702.033	29352.32
702.379	29320.23
702.724	29183.96
703.069	29341.47
703.415	28900.36
703.76	28983.52
704.105	29019.9
704.45	28956.85
704.795	28901.71
705.14	28723.64
705.485	28678.21
705.83	28604.32
706.175	28621.04
706.52	28559.12
706.865	28455.85
707.209	28322.07
707.554	28318.22
707.899	28412.01
708.243	28271.67
708.588	28186.93
708.932	28049.76
709.277	27964.56
709.621	27958.91
709.966	27808.86
710.31	27865.13
710.654	27622.2
710.998	27812.02
711.342	27717.34
711.687	27629.65
712.031	27489.32
712.375	27441.41
712.719	27523.89
713.063	27386.5
713.407	27528.64
713.75	27327.06
714.094	27330.91
714.438	27215.2
714.782	27204.81
715.125	27021.99
715.469	27049.11
715.812	26974.3
716.156	26877.13
716.499	26916
716.843	26952.16
717.186	26693.18
717.53	26874.19
717.873	26719.17
718.216	26712.39
718.559	26675.33
718.902	26423.13
719.246	26494.32
719.589	26403.25
719.932	26163.93
720.275	26273.53
720.617	26334.77
720.96	26209.81
721.303	26248.45
721.646	26189.01
721.989	26048.68
722.331	25990.83
722.674	25975.01
723.016	26045.97
723.359	25927.78
723.701	26046.87
724.044	25677.16
724.386	25738.86
724.729	25776.37
725.071	25820.89
725.413	25656.83
725.755	25673.55
726.097	25598.3
726.439	25485.76
726.782	25471.97
727.124	25559.88
727.465	25420.45
727.807	25372.99
728.149	25327.79
728.491	25374.8
728.833	25270.39
729.175	25193.56
729.516	25145.2
729.858	25112.88
730.199	25263.16
730.541	25160.79
730.882	25057.07
731.224	25142.26
731.565	24994.92
731.906	24870.63
732.248	24949.05
732.589	24866.56
732.93	24780.01
733.271	24785.89
733.612	24846.45
733.953	24886.22
734.294	24742.73
734.635	24653.69
734.976	24754.7
735.317	24502.73
735.658	24628.6
735.999	24554.71
736.339	24527.14
736.68	24574.59
737.021	24452.56
737.361	24364.66
737.702	24515.84
738.042	24370.98
738.383	24332.57
738.723	24416.18
739.063	24225.22
739.404	24227.71
739.744	24253.47
740.084	24235.62
740.424	24077.21
740.764	24034.5
741.104	24116.07
741.444	24046.25
741.784	23893.26
742.124	23892.8
742.464	23919.7
742.804	23814.84
743.143	23872.47
743.483	23924.89
743.823	23662.08
744.162	23765.8
744.502	23773.26
744.841	23693.49
745.181	23600.16
745.52	23622.08
745.86	23628.63
746.199	23574.62
746.538	23496.43
746.877	23551.8
747.216	23537.79
747.556	23483.55
747.895	23503.44
748.234	23394.29
748.573	23209.88
748.911	23376.21
749.25	23181.86
749.589	23193.84
749.928	23173.5
750.267	23202.65
750.605	23107.97
750.944	23063
751.283	22921.3
751.621	23147.29
751.96	22847.86
752.298	22945.03
752.636	22797.69
752.975	22811.7
753.313	22791.82
753.651	22828.88
753.989	22602.22
754.327	22644.7
754.666	22450.58
755.004	22476.8
755.342	22477.93
755.679	22458.27
756.017	22355.22
756.355	22480.41
756.693	22250.14
757.031	22362.9
757.368	22267.99
757.706	22159.29
758.044	22134.88
758.381	22091.27
758.719	21985.51
759.056	21938.28
759.394	21885.4
759.731	21742.8
760.068	21707.1
760.405	21658.96
760.743	21619.64
761.08	21635.01
