Data from hue_200_FLMS001491_00053.txt Node
Date: Tue Feb 07 16:43:37 GMT 2017
User: dcchb
Spectrometer: FLMS00149
Trigger mode: 0
Integration Time (sec): 2.000000E-2
Scans to average: 10
Electric dark correction enabled: true
Nonlinearity correction enabled: false
Boxcar width: 0
XAxis mode: Wavelengths
Number of Pixels in Spectrum: 2048
>>>>>Begin Spectral Data<<<<<
341.393	-3.95
341.776	-3.95
342.16	-3.95
342.543	-44.18
342.927	-60.45
343.31	-81.24
343.693	-66.1
344.077	-61.81
344.46	-80.56
344.843	-32.43
345.226	-42.15
345.61	-55.93
345.993	-34.01
346.376	-5.08
346.759	11.19
347.142	37.85
347.525	41.47
347.908	75.82
348.291	69.04
348.674	109.49
349.057	114.46
349.44	118.53
349.823	140.45
350.206	153.56
350.588	207.11
350.971	209.37
351.354	216.38
351.737	227.45
352.119	240.33
352.502	257.28
352.884	246.21
353.267	292.76
353.65	292.76
354.032	297.28
354.414	290.5
354.797	312.87
355.179	305.42
355.562	329.6
355.944	330.5
356.326	328.24
356.709	343.15
357.091	338.86
357.473	338.86
357.855	336.15
358.238	342.93
358.62	332.99
359.002	317.84
359.384	327.11
359.766	346.32
360.148	324.62
360.53	322.59
360.912	343.38
361.294	316.71
361.676	322.82
362.057	343.38
362.439	329.6
362.821	339.09
363.203	334.34
363.584	320.56
363.966	328.47
364.348	319.65
364.729	328.01
365.111	308.35
365.493	319.43
365.874	295.47
366.256	309.48
366.637	314.23
367.019	307.9
367.4	323.95
367.781	309.71
368.163	293.66
368.544	323.72
368.925	300.67
369.306	296.38
369.688	315.36
370.069	299.54
370.45	299.77
370.831	309.48
371.212	318.3
371.593	307.9
371.974	324.17
372.355	275.13
372.736	323.04
373.117	311.29
373.498	334.79
373.879	320.78
374.26	314.23
374.641	306.77
375.021	332.53
375.402	322.59
375.783	308.81
376.163	325.53
376.544	341.57
376.925	324.85
377.305	333.66
377.686	333.21
378.066	323.95
378.447	335.25
378.827	328.47
379.208	325.53
379.588	314
379.968	339.99
380.349	314.46
380.729	331.63
381.109	333.89
381.489	329.82
381.87	334.12
382.25	321.46
382.63	317.62
383.01	312.42
383.39	319.2
383.77	339.31
384.15	355.58
384.53	348.35
384.91	339.54
385.29	334.34
385.67	362.14
386.049	343.38
386.429	334.57
386.809	336.15
387.189	353.32
387.568	377.28
387.948	363.95
388.328	371.85
388.707	357.39
389.087	374.34
389.466	344.74
389.846	350.84
390.225	351.97
390.605	370.05
390.984	366.66
391.363	349.48
391.743	372.53
392.122	377.05
392.501	382.7
392.881	376.37
393.26	377.73
393.639	377.05
394.018	373.66
394.397	358.3
394.776	370.5
395.155	378.18
395.534	388.35
395.913	379.54
396.292	413.44
396.671	396.94
397.05	417.73
397.429	391.52
397.808	382.02
398.186	402.14
398.565	428.35
398.944	405.07
399.323	387
399.701	402.59
400.08	416.15
400.458	408.69
400.837	431.97
401.215	428.8
401.594	417.96
401.972	418.86
402.351	417.73
402.729	445.3
403.107	422.93
403.486	456.15
403.864	427.45
404.242	430.84
404.62	457.5
404.999	446.2
405.377	455.02
405.755	456.37
406.133	454.79
406.511	478.07
406.889	458.63
407.267	470.16
407.645	508.35
408.023	485.07
408.401	510.16
408.779	498.63
409.156	500.89
409.534	514
409.912	507.44
410.29	542.47
410.667	543.6
411.045	548.12
411.422	550.16
411.8	558.74
412.178	572.53
412.555	544.96
412.933	589.02
413.31	600.55
413.687	610.04
414.065	604.16
414.442	622.47
414.819	621.57
415.197	630.15
415.574	659.53
415.951	659.98
416.328	671.96
416.705	648.46
417.082	683.26
417.46	710.6
417.837	699.98
418.214	722.13
418.591	710.6
418.967	718.51
419.344	736.82
419.721	759.87
420.098	754.67
420.475	800.54
420.852	784.95
421.228	787.89
421.605	820.43
421.982	815.01
422.358	867.66
422.735	850.03
423.111	845.51
423.488	860.88
423.864	910.37
424.241	888.68
424.617	920.99
424.994	918.73
425.37	955.34
425.746	943.59
426.123	975
426.499	990.37
426.875	997.6
427.251	1027.43
427.627	1027.2
428.003	1044.61
428.379	1059.97
428.756	1078.5
429.132	1069.69
429.507	1095.45
429.883	1126.41
430.259	1106.75
430.635	1154.66
431.011	1152.85
431.387	1192.62
431.763	1181.55
432.138	1192.17
432.514	1220.65
432.89	1245.73
433.265	1271.72
433.641	1277.59
434.016	1317.59
434.392	1315.11
434.767	1368.44
435.143	1370.7
435.518	1400.75
435.894	1417.25
436.269	1451.83
436.644	1462.22
437.02	1506.29
437.395	1506.29
437.77	1529.79
438.145	1617.25
438.52	1629.45
438.895	1631.26
439.271	1648.66
439.646	1690.92
440.021	1709.22
440.395	1733.85
440.77	1746.06
441.145	1756.45
441.52	1818.37
441.895	1820.18
442.27	1882.1
442.645	1832.38
443.019	1877.58
443.394	1899.5
443.769	1895.88
444.143	1929.55
444.518	1972.72
444.892	1977.91
445.267	1982.89
445.641	2031.47
446.016	1983.56
446.39	2068.53
446.764	2092.94
447.139	2075.31
447.513	2089.32
447.887	2127.51
448.262	2138.14
448.636	2111.92
449.01	2169.55
449.384	2232.6
449.758	2198.47
450.132	2245.03
450.506	2228.3
450.88	2301.97
451.254	2275.76
451.628	2298.13
452.002	2335.19
452.376	2339.49
452.75	2361.63
453.123	2422.87
453.497	2408.19
453.871	2428.52
454.244	2511.01
454.618	2505.58
454.992	2511.23
455.365	2538.8
455.739	2629.2
456.112	2628.52
456.486	2655.41
456.859	2664
457.232	2746.26
457.606	2719.14
457.979	2735.63
458.352	2814.5
458.725	2853.6
459.099	2883.65
459.472	2900.38
459.845	2936.31
460.218	2955.74
460.591	3009.3
460.964	3036.64
461.337	3059.92
461.71	3084.33
462.083	3143.08
462.456	3153.02
462.829	3202.06
463.201	3236.19
463.574	3258.56
463.947	3300.59
464.32	3391.89
464.692	3411.1
465.065	3405.22
465.438	3450.19
465.81	3519.12
466.183	3528.83
466.555	3648.83
466.928	3647.7
467.3	3657.19
467.672	3696.29
468.045	3772.67
468.417	3814.93
468.789	3884.3
469.161	3891.99
469.534	3927.02
469.906	3998.2
470.278	4020.57
470.65	4075.03
471.022	4156.61
471.394	4245.43
471.766	4253.79
472.138	4317.74
472.51	4366.78
472.882	4401.58
473.253	4483.38
473.625	4566.32
473.997	4622.36
474.369	4653.32
474.74	4722.02
475.112	4779.87
475.484	4859.65
475.855	4978.51
476.227	4969.25
476.598	5077.95
476.97	5138.51
477.341	5248.79
477.713	5294.89
478.084	5295.79
478.455	5492.17
478.827	5526.97
479.198	5602.9
479.569	5652.62
479.94	5781.43
480.311	5814.88
480.682	5937.81
481.053	6013.51
481.424	6142.55
481.795	6145.26
482.166	6288.54
482.537	6353.84
482.908	6487.85
483.279	6575.99
483.65	6625.25
484.021	6759.94
484.391	6841.06
484.762	6863.21
485.133	6966.26
485.503	7010.32
485.874	7162.41
486.244	7225.69
486.615	7274.27
486.985	7385
487.356	7477.66
487.726	7511.78
488.097	7702.06
488.467	7665
488.837	7850.3
489.207	7861.38
489.578	8046
489.948	8079.9
490.318	8196.28
490.688	8243.29
491.058	8340.23
491.428	8394.92
491.798	8466.56
492.168	8667
492.538	8649.15
492.908	8702.94
493.278	8858.41
493.648	8766.66
494.017	8959.88
494.387	9005.07
494.757	9035.36
495.126	9088.46
495.496	9126.43
495.866	9202.81
496.235	9256.14
496.605	9331.17
496.974	9363.93
497.344	9448.68
497.713	9462.92
498.082	9512.18
498.452	9556.92
498.821	9611.39
499.19	9572.29
499.559	9662.91
499.928	9707.88
500.298	9757.6
500.667	9797.14
501.036	9839.85
501.405	9886.18
501.774	9810.48
502.143	9892.96
502.512	9925.95
502.88	10047.53
503.249	10044.37
503.618	9984.26
503.987	10067.42
504.356	10107.87
504.724	10111.49
505.093	10141.09
505.462	10214.99
505.83	10223.8
506.199	10288.2
506.567	10361.65
506.936	10352.61
507.304	10389.44
507.672	10428.99
508.041	10459.27
508.409	10431.03
508.777	10514.64
509.145	10539.95
509.514	10540.17
509.882	10590.34
510.25	10526.62
510.618	10621.3
510.986	10656.78
511.354	10667.86
511.722	10764.12
512.09	10788.53
512.458	10708.76
512.826	10732.26
513.193	10732.49
513.561	10770.9
513.929	10792.82
514.297	10848.87
514.664	10862.43
515.032	10858.58
515.4	10874.4
515.767	10930.45
516.135	10944.01
516.502	10792.15
516.869	11000.28
517.237	10949.2
517.604	10934.74
517.972	11009.32
518.339	10984
518.706	10984
519.073	10998.24
519.44	10966.83
519.808	11061.52
520.175	11028.3
520.542	11042.31
520.909	11092.93
521.276	11117.56
521.643	11076.66
522.009	11112.59
522.376	11149.88
522.743	11097.45
523.11	11181.51
523.477	11233.04
523.843	11200.5
524.21	11266.71
524.577	11263.09
524.943	11288.18
525.31	11275.07
525.676	11263.32
526.043	11286.6
526.409	11296.99
526.776	11315.52
527.142	11211.8
527.508	11305.58
527.874	11274.62
528.241	11293.6
528.607	11243.66
528.973	11322.08
529.339	11317.1
529.705	11317.33
530.071	11250.66
530.437	11285.01
530.803	11265.35
531.169	11285.47
531.535	11175.86
531.901	11178.58
532.267	11208.18
532.632	11208.18
532.998	11245.47
533.364	11188.75
533.73	11117.79
534.095	11153.04
534.461	11166.15
534.826	11072.59
535.192	11049.54
535.557	11130.22
535.923	10988.52
536.288	10984.23
536.653	10982.42
537.019	10867.17
537.384	10857.68
537.749	10882.09
538.114	10779.94
538.479	10825.59
538.845	10756.89
539.21	10702.66
539.575	10690.23
539.94	10597.8
540.305	10592.38
540.67	10581.3
541.034	10511.48
541.399	10544.92
541.764	10440.52
542.129	10450.69
542.494	10414.75
542.858	10392.61
543.223	10316.23
543.587	10339.95
543.952	10266.96
544.316	10218.83
544.681	10109.68
545.045	10166.85
545.41	10111.94
545.774	10091.15
546.138	10011.15
546.503	9963.69
546.867	9932.06
547.231	9963.24
547.595	9895.22
547.959	9824.49
548.324	9833.07
548.688	9773.87
549.052	9750.82
549.416	9721.89
549.779	9656.58
550.143	9610.48
550.507	9622.01
550.871	9584.04
551.235	9550.82
551.599	9491.61
551.962	9529.35
552.326	9474.89
552.689	9440.99
553.053	9366.42
553.417	9304.05
553.78	9397.83
554.143	9301.34
554.507	9280.32
554.87	9216.14
555.234	9299.3
555.597	9242.58
555.96	9269.93
556.323	9167.78
556.686	9083.94
557.05	9145.18
557.413	9081.91
557.776	9114.22
558.139	9065.41
558.502	9107.22
558.865	9008.46
559.228	9017.73
559.59	9050.5
559.953	8909.26
560.316	9046.2
560.679	9017.28
561.041	9018.41
561.404	9036.26
561.767	9007.56
562.129	8975.24
562.492	8992.64
562.854	8996.94
563.217	8868.35
563.579	8907.22
563.941	8962.59
564.304	8977.05
564.666	8986.54
565.028	8991.51
565.39	8930.05
565.753	8893.44
566.115	8917.17
566.477	8964.4
566.839	8933.21
567.201	8968.69
567.563	8929.37
567.925	8969.14
568.287	8939.09
568.648	8975.47
569.01	9004.85
569.372	9056.15
569.734	8950.16
570.095	8986.32
570.457	9005.3
570.819	8977.73
571.18	8970.05
571.542	9010.5
571.903	8999.65
572.265	9012.98
572.626	9070.38
572.987	9080.1
573.349	9048.01
573.71	9073.77
574.071	9018.41
574.432	9027.67
574.794	9043.49
575.155	9020.44
575.516	9037.84
575.877	9072.64
576.238	9143.15
576.599	9077.84
576.96	9063.38
577.32	9045.75
577.681	9083.72
578.042	9062.02
578.403	9072.19
578.763	9038.07
579.124	9074.68
579.485	9098.4
579.845	9130.04
580.206	9089.14
580.566	9086.65
580.927	9094.56
581.287	9119.65
581.648	9121
582.008	9122.36
582.368	9065.64
582.728	9059.76
583.089	9026.54
583.449	9027.45
583.809	9060.44
584.169	9026.54
584.529	9063.15
584.889	9050.04
585.249	9053.66
585.609	9059.76
585.969	9099.53
586.329	8993.55
586.688	8977.5
587.048	8987.9
587.408	8937.28
587.768	8991.74
588.127	8962.59
588.487	8899.77
588.846	9107.9
589.206	8991.74
589.565	8965.3
589.925	8958.3
590.284	8962.36
590.643	9011.63
591.003	8916.04
591.362	9054.56
591.721	9028.8
592.08	8981.57
592.44	8947.67
592.799	8991.97
593.158	8926.88
593.517	8920.78
593.876	8944.74
594.235	8864.51
594.593	8945.41
594.952	8937.73
595.311	8871.07
595.67	8953.78
596.029	8942.7
596.387	8950.39
596.746	8909.71
597.104	8864.74
597.463	8925.98
597.822	8885.76
598.18	8836.49
598.538	8857.06
598.897	8909.03
599.255	8832.42
599.613	8922.82
599.972	8822.93
600.33	8864.29
600.688	8877.85
601.046	8878.98
601.404	8926.66
601.762	8836.72
602.12	8917.39
602.478	8930.73
602.836	8864.29
603.194	8834.91
603.552	8861.12
603.91	8852.76
604.268	8829.03
604.625	8864.29
604.983	8884.63
605.341	8784.06
605.698	8868.13
606.056	8896.38
606.413	8869.26
606.771	8828.13
607.128	8891.18
607.485	8861.57
607.843	8881.91
608.2	8898.64
608.557	8961.01
608.914	8849.15
609.272	8911.97
609.629	8911.07
609.986	8955.36
610.343	8886.66
610.7	8935.02
611.057	8948.35
611.414	8873.1
611.771	8953.78
612.127	8947.67
612.484	8952.65
612.841	8968.24
613.198	9002.59
613.554	9006.2
613.911	8983.83
614.267	8945.64
614.624	8947.9
614.98	8970.95
615.337	8945.87
615.693	8995.58
616.05	8976.37
616.406	8986.54
616.762	8984.06
617.118	8996.26
617.475	9010.72
617.831	9056.6
618.187	9015.47
618.543	9022.25
618.899	9135.47
619.255	9038.52
619.611	9065.86
619.967	9042.81
620.323	9053.43
620.678	9108.12
621.034	9053.21
621.39	8999.88
621.746	9069.48
622.101	9118.97
622.457	9071.96
622.812	9018.86
623.168	9114.22
623.523	9036.03
623.879	9158.74
624.234	9019.99
624.589	9110.16
624.945	9051.63
625.3	9044.62
625.655	9056.37
626.01	9111.51
626.365	9003.04
626.72	9028.8
627.075	9053.89
627.43	9039.65
627.785	9010.95
628.14	9068.8
628.495	9041.01
628.85	9013.66
629.205	8981.35
629.559	8995.81
629.914	8933.89
630.269	8998.52
630.623	8935.92
630.978	8963.27
631.332	8947
631.687	8996.26
632.041	8947.45
632.396	8919.65
632.75	8884.85
633.104	8974.57
633.459	8902.03
633.813	8836.26
634.167	8869.03
634.521	8832.88
634.875	8845.76
635.229	8834.23
635.583	8864.74
635.937	8817.96
636.291	8823.84
636.645	8839.2
636.999	8730.5
637.352	8831.97
637.706	8751.75
638.06	8829.71
638.413	8797.85
638.767	8765.98
639.121	8749.71
639.474	8738.64
639.828	8726.66
640.181	8726.89
640.534	8733.67
640.888	8700.9
641.241	8682.37
641.594	8702.94
641.947	8714.23
642.301	8693.67
642.654	8657.06
643.007	8701.35
643.36	8666.33
643.713	8623.84
644.066	8635.37
644.419	8575.48
644.771	8547.01
645.124	8501.58
645.477	8497.29
645.83	8439.89
646.182	8405.99
646.535	8357.63
646.888	8392.21
647.24	8304.08
647.593	8314.02
647.945	8254.59
648.298	8337.52
648.65	8296.39
649.002	8349.05
649.355	8317.18
649.707	8265.88
650.059	8361.93
650.411	8453
650.763	8474.24
651.115	8523.05
651.467	8485.54
651.819	8543.62
652.171	8518.76
652.523	8499.78
652.875	8467.23
653.227	8494.8
653.578	8489.38
653.93	8520.79
654.282	8442.83
654.633	8457.97
654.985	8503.62
655.337	8494.13
655.688	8462.94
656.039	8568.02
656.391	8450.51
656.742	8494.35
657.094	8515.6
657.445	8509.95
657.796	8483.28
658.147	8458.42
658.498	8537.29
658.849	8514.01
659.2	8488.48
659.551	8461.59
659.902	8531.19
660.253	8547.46
660.604	8605.54
660.955	8534.58
661.306	8515.6
661.656	8484.64
662.007	8537.74
662.358	8518.99
662.708	8525.99
663.059	8565.99
663.409	8467.69
663.76	8604.86
664.11	8525.76
664.461	8509.95
664.811	8560.79
665.161	8565.54
665.511	8551.07
665.862	8517.18
666.212	8557.85
666.562	8590.17
666.912	8538.87
667.262	8524.41
667.612	8571.64
667.962	8515.37
668.312	8561.47
668.662	8544.3
669.011	8498.65
669.361	8565.99
669.711	8525.54
670.06	8517.18
670.41	8544.3
670.76	8431.3
671.109	8509.95
671.459	8555.14
671.808	8418.87
672.157	8521.24
672.507	8447.57
672.856	8426.11
673.205	8489.38
673.554	8469.27
673.904	8461.81
674.253	8532.54
674.602	8419.33
674.951	8339.33
675.3	8271.99
675.649	8446.9
675.998	8410.29
676.346	8354.47
676.695	8439.21
677.044	8380.46
677.393	8389.72
677.741	8362.83
678.09	8403.51
678.438	8358.99
678.787	8399.44
679.135	8356.5
679.484	8266.34
679.832	8311.76
680.181	8233.12
680.529	8254.81
680.877	8231.53
681.225	8234.92
681.573	8298.65
681.922	8218.43
682.27	8160.58
682.618	8224.08
682.966	8137.53
683.314	8173.91
683.661	8139.56
684.009	8107.24
684.357	8084.87
684.705	8137.75
685.053	8098.43
685.4	8123.29
685.748	8092.56
686.095	7963.29
686.443	8069.51
686.79	7984.08
687.138	7991.32
687.485	8012.11
687.832	7984.99
688.18	7913.35
688.527	7899.34
688.874	7860.7
689.221	7830.42
689.568	7815.5
689.915	7761.94
690.262	7849.4
690.609	7756.75
690.956	7726.24
691.303	7721.49
691.65	7681.27
691.997	7720.14
692.344	7662.28
692.69	7643.98
693.037	7575.06
693.383	7512.23
693.73	7562.4
694.077	7489.18
694.423	7514.49
694.769	7431.78
695.116	7413.7
695.462	7401.95
695.808	7356.53
696.155	7334.38
696.501	7339.58
696.847	7351.11
697.193	7255.74
697.539	7293.71
697.885	7281.28
698.231	7245.57
698.577	7150.21
698.923	7179.13
699.269	7113.15
699.614	7059.59
699.96	7031.79
700.306	7071.79
700.651	6993.38
700.997	6998.35
701.342	7015.3
701.688	7021.85
702.033	6897.56
702.379	6941.4
702.724	6915.19
703.069	6937.33
703.415	6834.51
703.76	6801.97
704.105	6844.68
704.45	6827.96
704.795	6779.6
705.14	6740.5
705.485	6708.41
705.83	6629.77
706.175	6646.94
706.52	6682.88
706.865	6646.72
707.209	6656.44
707.554	6652.14
707.899	6603.1
708.243	6534.4
708.588	6508.87
708.932	6543.22
709.277	6523.78
709.621	6534.63
709.966	6468.42
710.31	6437.01
710.654	6367.4
710.998	6419.15
711.342	6413.73
711.687	6394.52
712.031	6362.66
712.375	6338.7
712.719	6306.61
713.063	6363.56
713.407	6340.51
713.75	6299.61
714.094	6383.9
714.438	6273.17
714.782	6318.59
715.125	6269.33
715.469	6263.23
715.812	6187.07
716.156	6211.48
716.499	6164.7
716.843	6192.72
717.186	6216.9
717.53	6233.4
717.873	6202.44
718.216	6184.36
718.559	6152.27
718.902	6187.75
719.246	6136.45
719.589	6097.58
719.932	6105.26
720.275	6070.69
720.617	6073.17
720.96	6085.83
721.303	6044.93
721.646	6093.06
721.989	6065.49
722.331	6101.2
722.674	6039.95
723.016	6096.68
723.359	6022.55
723.701	6065.94
724.044	6027.98
724.386	5959.96
724.729	6003.57
725.071	5966.51
725.413	6014.19
725.755	5962.44
726.097	5969.9
726.439	5970.35
726.782	5967.41
727.124	6031.14
727.465	5963.12
727.807	5980.75
728.149	5947.98
728.491	5921.31
728.833	6003.57
729.175	5929
729.516	5943.01
729.858	5923.35
730.199	5919.73
730.541	5911.82
730.882	5989.11
731.224	6012.84
731.565	5953.85
731.906	5941.88
732.248	5967.41
732.589	5947.98
732.93	5940.75
733.271	5946.62
733.612	5958.6
733.953	5953.85
734.294	6014.42
734.635	5974.87
734.976	5913.18
735.317	5981.65
735.658	5909.11
735.999	5972.16
736.339	5934.65
736.68	5949.34
737.021	5950.69
737.361	5922.44
737.702	5981.2
738.042	5950.69
738.383	5994.76
738.723	6012.61
739.063	5966.96
739.404	6001.99
739.744	6001.99
740.084	5973.74
740.424	6018.26
740.764	6082.66
741.104	6086.96
741.444	6070.91
741.784	6095.77
742.124	6054.19
742.464	6086.73
742.804	6142.1
743.143	6162.89
743.483	6117.24
743.823	6091.25
744.162	6196.56
744.502	6198.14
744.841	6247.18
745.181	6236.11
745.52	6254.86
745.86	6311.36
746.199	6338.25
746.538	6338.48
746.877	6453.73
747.216	6432.71
747.556	6474.52
747.895	6512.94
748.234	6546.16
748.573	6593.61
748.911	6623.89
749.25	6702.31
749.589	6751.35
749.928	6789.99
750.267	6884.23
750.605	6984.11
750.944	6974.17
751.283	7058.23
751.621	7131
751.96	7226.14
752.298	7307.49
752.636	7366.47
752.975	7460.03
753.313	7576.86
753.651	7647.82
753.989	7776.63
754.327	7787.93
754.666	7931.2
755.004	8092.1
755.342	8180.24
755.679	8330.29
756.017	8384.3
756.355	8608.47
756.693	8660.45
757.031	8850.05
757.368	8933.89
757.706	9124.17
758.044	9177.72
758.381	9370.94
758.719	9537.04
759.056	9653.19
759.394	9822.45
759.731	9983.81
760.068	10137.25
760.405	10291.59
760.743	10437.8
761.08	10606.16
761.417	10744.01
761.754	10943.55
762.091	11117.11
762.428	11243.21
762.765	11369.76
763.102	11581.73
763.438	11761.39
763.775	11864.43
764.112	12085.9
764.449	12304.65
764.785	12420.13
765.122	12523.17
765.458	12667.8
765.795	12881.13
766.131	13029.6
766.467	13165.87
766.804	13419.87
767.14	13531.73
