Data from hue_170_FLMS001491_00091.txt Node
Date: Tue Feb 07 16:49:30 GMT 2017
User: dcchb
Spectrometer: FLMS00149
Trigger mode: 0
Integration Time (sec): 2.000000E-2
Scans to average: 10
Electric dark correction enabled: true
Nonlinearity correction enabled: false
Boxcar width: 0
XAxis mode: Wavelengths
Number of Pixels in Spectrum: 2048
>>>>>Begin Spectral Data<<<<<
341.393	-19.01
341.776	-19.01
342.16	-19.01
342.543	-45.68
342.927	-70.99
343.31	-58.11
343.693	-83.87
344.077	-83.19
344.46	-61.72
344.843	-44.77
345.226	-26.02
345.61	-17.43
345.993	-14.49
346.376	-13.14
346.759	8.33
347.142	35.23
347.525	55.34
347.908	56.02
348.291	61.44
348.674	87.88
349.057	98.5
349.44	121.78
349.823	143.92
350.206	155.9
350.588	204.94
350.971	200.87
351.354	222.56
351.737	237.48
352.119	246.29
352.502	248.33
352.884	274.99
353.267	263.92
353.65	289.68
354.032	297.14
354.414	305.73
354.797	315.44
355.179	298.04
355.562	312.51
355.944	327.65
356.326	330.36
356.709	322.45
357.091	318.83
357.473	358.61
357.855	328.1
358.238	340.08
358.62	351.37
359.002	334.65
359.384	315.22
359.766	300.98
360.148	312.51
360.53	332.62
360.912	328.78
361.294	326.52
361.676	337.36
362.057	318.16
362.439	330.58
362.821	331.26
363.203	335.1
363.584	315.22
363.966	323.35
364.348	322.45
364.729	324.93
365.111	325.61
365.493	335.33
365.874	315.44
366.256	315.9
366.637	301.21
367.019	303.01
367.4	299.17
367.781	303.92
368.163	296.46
368.544	319.74
368.925	302.34
369.306	297.37
369.688	297.59
370.069	295.11
370.45	304.6
370.831	304.37
371.212	313.18
371.593	323.58
371.974	331.94
372.355	310.92
372.736	305.27
373.117	310.02
373.498	312.51
373.879	322.22
374.26	308.44
374.641	303.69
375.021	308.21
375.402	313.64
375.783	325.61
376.163	317.03
376.544	332.62
376.925	325.39
377.305	317.25
377.686	312.96
378.066	325.61
378.447	321.09
378.827	299.85
379.208	327.87
379.588	328.78
379.968	314.31
380.349	316.57
380.729	327.42
381.109	342.11
381.489	318.16
381.87	336.23
382.25	334.88
382.63	351.15
383.01	341.66
383.39	341.43
383.77	329.45
384.15	337.14
384.53	330.81
384.91	338.72
385.29	345.73
385.67	333.52
386.049	348.89
386.429	335.78
386.809	343.01
387.189	339.17
387.568	335.56
387.948	351.83
388.328	329.68
388.707	361.77
389.087	333.75
389.466	347.99
389.846	350.25
390.225	369.23
390.605	333.75
390.984	369
391.363	360.41
391.743	376.01
392.122	359.96
392.501	373.97
392.881	381.88
393.26	357.02
393.639	364.48
394.018	359.96
394.397	357.48
394.776	374.88
395.155	363.13
395.534	370.13
395.913	380.53
396.292	392.73
396.671	369
397.05	417.36
397.429	369.91
397.808	365.16
398.186	384.59
398.565	374.2
398.944	401.77
399.323	396.8
399.701	371.94
400.08	397.7
400.458	393.41
400.837	411.94
401.215	393.41
401.594	413.97
401.972	401.54
402.351	404.93
402.729	402.45
403.107	408.32
403.486	409.68
403.864	423.69
404.242	422.56
404.62	425.72
404.999	402.22
405.377	423.46
405.755	420.75
406.133	413.07
406.511	440.64
406.889	440.64
407.267	425.95
407.645	445.38
408.023	428.21
408.401	435.44
408.779	465.04
409.156	433.86
409.534	442.9
409.912	465.5
410.29	477.93
410.667	476.8
411.045	480.86
411.422	480.19
411.8	494.42
412.178	463.91
412.555	488.09
412.933	494.42
413.31	509.79
413.687	529
414.065	529.45
414.442	511.82
414.819	552.5
415.197	529
415.574	527.87
415.951	540.07
416.328	557.25
416.705	531.71
417.082	550.92
417.46	550.92
417.837	561.31
418.214	576
418.591	551.82
418.967	567.87
419.344	571.48
419.721	590.92
420.098	589.56
420.475	594.76
420.852	609.22
421.228	612.61
421.605	647.19
421.982	631.82
422.358	631.82
422.735	628.2
423.111	613.97
423.488	652.38
423.864	651.25
424.241	662.1
424.617	653.06
424.994	676.11
425.37	678.6
425.746	684.02
426.123	700.52
426.499	699.61
426.875	698.48
427.251	713.63
427.627	741.42
428.003	738.03
428.379	736
428.756	705.04
429.132	739.84
429.507	757.69
429.883	787.97
430.259	772.15
430.635	792.72
431.011	786.62
431.387	794.98
431.763	818.03
432.138	822.32
432.514	831.59
432.89	820.74
433.265	831.81
433.641	847.86
434.016	841.08
434.392	873.4
434.767	868.2
435.143	909.55
435.518	906.84
435.894	934.18
436.269	949.1
436.644	939.61
437.02	950.46
437.395	959.72
437.77	980.06
438.145	1010.11
438.52	992.04
438.895	996.1
439.271	1013.96
439.646	1002.88
440.021	1029.78
440.395	1037.01
440.77	1033.39
441.145	1046.95
441.52	1063.22
441.895	1090.79
442.27	1079.94
442.645	1088.98
443.019	1085.82
443.394	1086.04
443.769	1113.84
444.143	1117
444.518	1123.56
444.892	1141.64
445.267	1159.04
445.641	1165.59
446.016	1163.33
446.39	1189.77
446.764	1160.17
447.139	1194.52
447.513	1187.74
447.887	1195.19
448.262	1206.27
448.636	1221.41
449.01	1240.62
449.384	1282.88
449.758	1241.3
450.132	1229.09
450.506	1300.05
450.88	1281.52
451.254	1264.8
451.628	1326.04
452.002	1318.13
452.376	1334.4
452.75	1359.26
453.123	1358.13
453.497	1342.08
453.871	1378.24
454.244	1417.56
454.618	1419.37
454.992	1444.23
455.365	1460.5
455.739	1484.23
456.112	1514.06
456.486	1492.59
456.859	1516.32
457.232	1526.71
457.606	1540.72
457.979	1584.34
458.352	1608.97
458.725	1639.02
459.099	1607.39
459.472	1654.84
459.845	1692.58
460.218	1715.41
460.591	1724.45
460.964	1725.58
461.337	1768.06
461.71	1808.96
462.083	1826.59
462.456	1848.06
462.829	1860.04
463.201	1907.04
463.574	1911.11
463.947	1895.52
464.32	1959.24
464.692	1972.58
465.065	2015.51
465.438	2032.69
465.81	2093.02
466.183	2106.13
466.555	2145.23
466.928	2162.63
467.3	2165.11
467.672	2170.76
468.045	2279.69
468.417	2298.89
468.789	2330.08
469.161	2333.7
469.534	2395.39
469.906	2430.87
470.278	2498.44
470.65	2490.08
471.022	2586.34
471.394	2626.12
471.766	2629.51
472.138	2682.39
472.51	2756.96
472.882	2832.21
473.253	2827.02
473.625	2912.89
473.997	2969.39
474.369	2992.89
474.74	3067.24
475.112	3135.93
475.484	3210.73
475.855	3280.34
476.227	3314.46
476.598	3434.68
476.97	3493.67
477.341	3608.92
477.713	3660.44
478.084	3714.45
478.455	3834
478.827	3892.75
479.198	3986.99
479.569	4064.05
479.94	4172.52
480.311	4293.19
480.682	4390.82
481.053	4542.23
481.424	4609.79
481.795	4673.97
482.166	4779.06
482.537	4831.71
482.908	4995.09
483.279	5059.27
483.65	5162.1
484.021	5317.35
484.391	5459.04
484.762	5532.48
485.133	5594.63
485.503	5733.61
485.874	5896.31
486.244	5983.54
486.615	6129.75
486.985	6268.51
487.356	6366.13
487.726	6466.02
488.097	6660.81
488.467	6679.57
488.837	6884.54
489.207	6992.56
489.578	7146.9
489.948	7191.2
490.318	7398.42
490.688	7467.57
491.058	7625.53
491.428	7717.51
491.798	7854.91
492.168	8017.16
492.538	8152.98
492.908	8269.58
493.278	8433.2
493.648	8468.45
494.017	8567.2
494.387	8673.64
494.757	8746.41
495.126	8906.4
495.496	8977.36
495.866	8986.18
496.235	9222.55
496.605	9305.94
496.974	9354.98
497.344	9477.46
497.713	9581.87
498.082	9644.46
498.452	9789.32
498.821	9833.39
499.19	9938.02
499.559	9986.83
499.928	10064.11
500.298	10162.42
500.667	10269.08
501.036	10268.63
501.405	10322.41
501.774	10393.14
502.143	10438.57
502.512	10504.78
502.88	10678.34
503.249	10683.53
503.618	10774.15
503.987	10795.62
504.356	10807.82
504.724	10898.44
505.093	11021.38
505.462	11026.35
505.83	11097.53
506.199	11146.8
506.567	11283.97
506.936	11309.5
507.304	11426.11
507.672	11406
508.041	11473.57
508.409	11557.18
508.777	11682.83
509.145	11707.23
509.514	11642.38
509.882	11707.69
510.25	11667.24
510.618	11743.39
510.986	11760.34
511.354	11857.06
511.722	12014.8
512.09	12057.06
512.458	11978.64
512.826	12087.11
513.193	12045.3
513.561	12132.53
513.929	12161.91
514.297	12250.05
514.664	12284.62
515.032	12325.3
515.4	12331.62
515.767	12440.1
516.135	12453.2
516.502	12375.92
516.869	12509.02
517.237	12500.66
517.604	12449.81
517.972	12587.89
518.339	12480.1
518.706	12519.42
519.073	12581.79
519.44	12563.03
519.808	12677.6
520.175	12587.21
520.542	12742.01
520.909	12757.83
521.276	12691.39
521.643	12829.46
522.009	12870.14
522.376	12941.33
522.743	12975
523.11	12980.87
523.477	13032.85
523.843	13028.1
524.21	13072.4
524.577	13153.3
524.943	13173.41
525.31	13063.81
525.676	13183.35
526.043	13192.39
526.409	13139.06
526.776	13297.93
527.142	13238.04
527.508	13290.47
527.874	13308.77
528.241	13364.37
528.607	13308.32
528.973	13371.37
529.339	13266.06
529.705	13301.77
530.071	13313.52
530.437	13396
530.803	13334.08
531.169	13384.25
531.535	13264.71
531.901	13233.52
532.267	13219.96
532.632	13318.94
532.998	13213.64
533.364	13268.55
533.73	13287.76
534.095	13333.63
534.461	13260.64
534.826	13275.55
535.192	13202.11
535.557	13266.29
535.923	13159.17
536.288	13124.15
536.653	13201.43
537.019	12975
537.384	13015.67
537.749	13059.97
538.114	12951.27
538.479	12982.68
538.845	12928.45
539.21	12876.92
539.575	12779.75
539.94	12861.55
540.305	12891.38
540.67	12783.59
541.034	12796.7
541.399	12757.15
541.764	12710.37
542.129	12683.93
542.494	12610.71
542.858	12588.34
543.223	12540.43
543.587	12520.77
543.952	12484.16
544.316	12509.47
544.681	12413.2
545.045	12404.62
545.41	12340.66
545.774	12354.22
546.138	12263.6
546.503	12200.55
546.867	12261.57
547.231	12293.43
547.595	12146.77
547.959	12157.17
548.324	12058.64
548.688	12033.55
549.052	12055.7
549.416	11956.95
549.779	11928.02
550.143	11913.33
550.507	11873.78
550.871	11877.4
551.235	11803.05
551.599	11786.55
551.962	11789.94
552.326	11743.84
552.689	11723.73
553.053	11648.71
553.417	11548.59
553.78	11711.3
554.143	11566.9
554.507	11587.24
554.87	11556.5
555.234	11682.6
555.597	11470.63
555.96	11515.38
556.323	11524.19
556.686	11470.4
557.05	11476.28
557.413	11453.91
557.776	11398.54
558.139	11454.81
558.502	11481.03
558.865	11396.06
559.228	11371.65
559.59	11345.44
559.953	11337.98
560.316	11416.85
560.679	11365.77
561.041	11448.26
561.404	11390.63
561.767	11372.78
562.129	11344.53
562.492	11351.09
562.854	11299.11
563.217	11346.34
563.579	11321.03
563.941	11359.9
564.304	11376.85
564.666	11440.12
565.028	11473.12
565.39	11423.4
565.753	11421.37
566.115	11373.23
566.477	11417.3
566.839	11413.91
567.201	11467.47
567.563	11412.33
567.925	11513.34
568.287	11452.1
568.648	11420.01
569.01	11530.74
569.372	11478.31
569.734	11460.91
570.095	11465.43
570.457	11412.1
570.819	11496.39
571.18	11471.53
571.542	11537.75
571.903	11521.93
572.265	11500.23
572.626	11488.03
572.987	11551.31
573.349	11507.24
573.71	11553.11
574.071	11561.48
574.432	11598.76
574.794	11646.67
575.155	11609.16
575.516	11457.98
575.877	11606.67
576.238	11606.22
576.599	11556.05
576.96	11496.17
577.32	11611.19
577.681	11585.2
578.042	11611.42
578.403	11536.84
578.763	11620.91
579.124	11597.86
579.485	11609.38
579.845	11590.18
580.206	11524.19
580.566	11572.77
580.927	11598.08
581.287	11560.8
581.648	11491.42
582.008	11596.5
582.368	11587.92
582.728	11574.58
583.089	11536.84
583.449	11501.14
583.809	11596.5
584.169	11539.1
584.529	11521.7
584.889	11552.21
585.249	11494.58
585.609	11485.32
585.969	11555.15
586.329	11438.77
586.688	11494.58
587.048	11515.38
587.408	11484.87
587.768	11413.23
588.127	11405.1
588.487	11334.59
588.846	11422.04
589.206	11362.16
589.565	11330.97
589.925	11365.1
590.284	11250.52
590.643	11378.88
591.003	11415.94
591.362	11400.58
591.721	11359.22
592.08	11290.75
592.44	11377.75
592.799	11322.84
593.158	11338.88
593.517	11262.95
593.876	11306.79
594.235	11317.19
594.593	11230.86
594.952	11276.29
595.311	11267.7
595.67	11302.5
596.029	11311.09
596.387	11263.86
596.746	11381.37
597.104	11283.97
597.463	11218.89
597.822	11327.81
598.18	11158.32
598.538	11195.84
598.897	11256.62
599.255	11122.62
599.613	11226.8
599.972	11223.86
600.33	11208.26
600.688	11154.93
601.046	11237.64
601.404	11233.35
601.762	11205.1
602.12	11251.43
602.478	11180.02
602.836	11260.24
603.194	11165.78
603.552	11226.8
603.91	11100.47
604.268	11201.03
604.625	11194.71
604.983	11142.5
605.341	11085.33
605.698	11178.89
606.056	11343.18
606.413	11181.37
606.771	11246.68
607.128	11167.36
607.485	11189.73
607.843	11194.71
608.2	11294.59
608.557	11239.22
608.914	11174.37
609.272	11248.94
609.629	11246.91
609.986	11294.14
610.343	11216.63
610.7	11282.16
611.057	11260.69
611.414	11240.81
611.771	11311.31
612.127	11339.56
612.484	11293.91
612.841	11298.43
613.198	11299.79
613.554	11246.91
613.911	11320.58
614.267	11320.8
614.624	11296.17
614.98	11367.58
615.337	11342.05
615.693	11320.13
616.05	11320.8
616.406	11442.83
616.762	11323.29
617.118	11437.64
617.475	11375.27
617.831	11403.74
618.187	11397.64
618.543	11342.27
618.899	11408.26
619.255	11397.19
619.611	11428.37
619.967	11427.92
620.323	11530.06
620.678	11435.15
621.034	11441.7
621.39	11386.57
621.746	11447.13
622.101	11425.21
622.457	11426.34
622.812	11446.68
623.168	11451.2
623.523	11518.09
623.879	11527.8
624.234	11434.02
624.589	11466.56
624.945	11446
625.3	11454.59
625.655	11430.86
626.01	11459.11
626.365	11476.96
626.72	11448.94
627.075	11389.28
627.43	11378.66
627.785	11367.81
628.14	11431.76
628.495	11441.7
628.85	11423.4
629.205	11393.57
629.559	11381.37
629.914	11396.28
630.269	11374.36
630.623	11280.35
630.978	11341.14
631.332	11370.29
631.687	11301.37
632.041	11300.24
632.396	11287.13
632.75	11342.27
633.104	11287.81
633.459	11285.78
633.813	11303.4
634.167	11299.56
634.521	11272.22
634.875	11259.79
635.229	11298.66
635.583	11154.48
635.937	11091.43
636.291	11199.68
636.645	11214.82
636.999	11121.49
637.352	11137.31
637.706	11105.44
638.06	11091.66
638.413	11135.05
638.767	11057.99
639.121	11008.72
639.474	10982.73
639.828	10999
640.181	11035.39
640.534	11069.96
640.888	10994.94
641.241	10919.68
641.594	10976.63
641.947	11012.79
642.301	10982.96
642.654	10896.41
643.007	10874.04
643.36	10944.32
643.713	10894.6
644.066	10952.68
644.419	10895.5
644.771	10848.5
645.124	10711.33
645.477	10734.38
645.83	10559.02
646.182	10664.78
646.535	10653.93
646.888	10646.47
647.24	10533.71
647.593	10566.47
647.945	10535.51
648.298	10528.73
648.65	10613.7
649.002	10505.68
649.355	10549.3
649.707	10561.5
650.059	10614.16
650.411	10743.64
650.763	10803.53
651.115	10880.59
651.467	10817.99
651.819	10841.04
652.171	10809.41
652.523	10775.51
652.875	10724.89
653.227	10703.87
653.578	10852.12
653.93	10831.1
654.282	10780.03
654.633	10792
654.985	10855.96
655.337	10846.24
655.688	10844.88
656.039	10801.27
656.391	10763.98
656.742	10821.61
657.094	10769.86
657.445	10840.36
657.796	10776.86
658.147	10874.49
658.498	10857.99
658.849	10868.39
659.2	10868.39
659.551	10936.41
659.902	10918.1
660.253	10804.89
660.604	10894.37
660.955	10818.22
661.306	10904.09
661.656	10869.52
662.007	10843.98
662.358	10872.68
662.708	10954.03
663.059	10899.12
663.409	10861.83
663.76	10914.71
664.11	10887.14
664.461	10847.6
664.811	10974.15
665.161	10873.58
665.511	10899.8
665.862	10929.4
666.212	10995.61
666.562	10969.17
666.912	10967.37
667.262	10923.53
667.612	10938.67
667.962	10901.38
668.312	10858.22
668.662	10950.42
669.011	10971.89
669.361	10963.07
669.711	10864.09
670.06	10913.13
670.41	10850.53
670.76	10838.33
671.109	10879.91
671.459	10850.53
671.808	10916.29
672.157	10859.8
672.507	10815.96
672.856	10772.34
673.205	10803.76
673.554	10847.82
673.904	10856.41
674.253	10859.8
674.602	10784.55
674.951	10703.87
675.3	10662.74
675.649	10798.56
675.998	10831.33
676.346	10755.62
676.695	10812.57
677.044	10710.42
677.393	10740.25
677.741	10714.94
678.09	10716.3
678.438	10714.94
678.787	10644.21
679.135	10704.55
679.484	10596.76
679.832	10605.34
680.181	10583.65
680.529	10586.36
680.877	10637.21
681.225	10538.9
681.573	10501.62
681.922	10522.41
682.27	10511.56
682.618	10556.98
682.966	10417.55
683.314	10537.77
683.661	10436.53
684.009	10471.11
684.357	10410.77
684.705	10386.14
685.053	10387.27
685.4	10308.63
685.748	10282.41
686.095	10260.72
686.443	10225.24
686.79	10213.26
687.138	10274.96
687.485	10213.26
687.832	10248.74
688.18	10128.74
688.527	10140.27
688.874	10075.41
689.221	10035.41
689.568	10083.55
689.915	9972.59
690.262	10015.98
690.609	9886.04
690.956	9933.5
691.303	9918.81
691.65	9835.65
691.997	9867.96
692.344	9757
692.69	9737.57
693.037	9685.37
693.383	9595.65
693.73	9736.44
694.077	9591.58
694.423	9605.37
694.769	9566.73
695.116	9528.76
695.462	9550
695.808	9512.49
696.155	9507.52
696.501	9465.49
696.847	9382.32
697.193	9330.8
697.539	9293.29
697.885	9268.2
698.231	9264.59
698.577	9287.86
698.923	9280.86
699.269	9132.84
699.614	9067.98
699.96	9116.34
700.306	9080.64
700.651	9030.02
700.997	8940.08
701.342	8943.47
701.688	8900.53
702.033	8896.46
702.379	8835.9
702.724	8832.51
703.069	8847.2
703.415	8776.46
703.76	8712.74
704.105	8776.46
704.45	8695.11
704.795	8678.39
705.14	8619.63
705.485	8636.58
705.83	8598.62
706.175	8510.26
706.52	8558.16
706.865	8501.9
707.209	8451.73
707.554	8409.47
707.899	8419.64
708.243	8475
708.588	8351.62
708.932	8346.87
709.277	8347.32
709.621	8306.19
709.966	8258.51
710.31	8331.05
710.654	8245.4
710.998	8223.48
711.342	8242.69
711.687	8167.89
712.031	8064.62
712.375	8087.67
712.719	8092.64
713.063	8054.45
713.407	8115.46
713.75	8037.05
714.094	8078.4
714.438	7966.54
714.782	8008.8
715.125	7999.99
715.469	8017.61
715.812	7937.39
716.156	7894.23
716.499	7880.22
716.843	7963.15
717.186	7860.56
717.53	7948.24
717.873	7901.01
718.216	7861.01
718.559	7862.36
718.902	7870.95
719.246	7834.34
719.589	7828.92
719.932	7771.29
720.275	7790.5
720.617	7756.15
720.96	7752.54
721.303	7755.02
721.646	7727
721.989	7718.64
722.331	7705.53
722.674	7739.88
723.016	7737.85
723.359	7684.06
723.701	7693.1
724.044	7606.33
724.386	7571.52
724.729	7641.35
725.071	7643.61
725.413	7626.89
725.755	7717.96
726.097	7607.23
726.439	7558.19
726.782	7477.52
727.124	7710.28
727.465	7611.97
727.807	7622.14
728.149	7596.38
728.491	7618.75
728.833	7589.83
729.175	7602.48
729.516	7605.87
729.858	7568.59
730.199	7592.99
730.541	7542.37
730.882	7587.57
731.224	7562.26
731.565	7508.25
731.906	7581.02
732.248	7576.72
732.589	7595.25
732.93	7534.24
733.271	7550.96
733.612	7575.82
733.953	7563.84
734.294	7546.21
734.635	7527.23
734.976	7535.37
735.317	7469.83
735.658	7501.47
735.999	7532.66
736.339	7578.53
736.68	7614.69
737.021	7616.04
737.361	7538.98
737.702	7605.42
738.042	7613.78
738.383	7597.74
738.723	7664.18
739.063	7614.23
739.404	7629.15
739.744	7675.93
740.084	7665.76
740.424	7692.42
740.764	7719.32
741.104	7722.03
741.444	7707.34
741.784	7708.7
742.124	7795.02
742.464	7721.58
742.804	7786.66
743.143	7794.8
743.483	7795.25
743.823	7819.43
744.162	7851.97
744.502	7920.22
744.841	7877.73
745.181	7974.45
745.52	7964.28
745.86	7988.24
746.199	8056.03
746.538	8109.36
746.877	8126.31
747.216	8192.98
747.556	8262.58
747.895	8272.52
748.234	8290.15
748.573	8402.91
748.911	8471.39
749.25	8539.86
749.589	8525.85
749.928	8580.99
750.267	8679.07
750.605	8744.15
750.944	8820.3
751.283	8910.92
751.621	9032.05
751.96	9036.57
752.298	9205.38
752.636	9279.05
752.975	9332.61
753.313	9381.87
753.651	9561.3
753.989	9688.08
754.327	9703.67
754.666	9798.36
755.004	9937.11
755.342	10062.08
755.679	10168.52
756.017	10269.98
756.355	10486.25
756.693	10536.64
757.031	10704.1
757.368	10863.41
757.706	10954.03
758.044	11161.94
758.381	11281.93
758.719	11484.19
759.056	11670.85
759.394	11714.92
759.731	11836.95
