Data from hue_24_FLMS001491_00034.txt Node
Date: Tue Feb 07 17:12:11 GMT 2017
User: dcchb
Spectrometer: FLMS00149
Trigger mode: 0
Integration Time (sec): 2.000000E-2
Scans to average: 10
Electric dark correction enabled: true
Nonlinearity correction enabled: false
Boxcar width: 0
XAxis mode: Wavelengths
Number of Pixels in Spectrum: 2048
>>>>>Begin Spectral Data<<<<<
341.393	1.37
341.776	1.37
342.16	1.37
342.543	-63.94
342.927	-51.96
343.31	-57.16
343.693	-81.34
344.077	-58.06
344.46	-65.97
344.843	-55.8
345.226	-48.8
345.61	-48.12
345.993	-26.88
346.376	-21.23
346.759	2.27
347.142	26.91
347.525	66.23
347.908	67.58
348.291	97.64
348.674	89.73
349.057	113.01
349.44	130.86
349.823	148.03
350.206	181.93
350.588	194.81
350.971	190.07
351.354	256.73
351.737	247.92
352.119	250.18
352.502	246.56
352.884	276.84
353.267	311.64
353.65	304.41
354.032	306.67
354.414	305.54
354.797	317.75
355.179	320.68
355.562	320.91
355.944	332.43
356.326	337.41
356.709	347.8
357.091	322.72
357.473	352.32
357.855	345.09
358.238	333.56
358.62	348.71
359.002	341.47
359.384	347.58
359.766	322.94
360.148	336.05
360.53	347.12
360.912	335.15
361.294	329.05
361.676	320.46
362.057	320.01
362.439	334.92
362.821	333.34
363.203	327.46
363.584	323.62
363.966	344.41
364.348	342.38
364.729	324.53
365.111	325.2
365.493	329.72
365.874	323.17
366.256	315.49
366.637	341.7
367.019	306.9
367.4	311.42
367.781	312.32
368.163	328.14
368.544	327.24
368.925	302.38
369.306	320.01
369.688	313
370.069	321.36
370.45	336.05
370.831	316.39
371.212	331.53
371.593	322.49
371.974	318.65
372.355	331.98
372.736	312.77
373.117	334.92
373.498	314.81
373.879	317.75
374.26	329.05
374.641	327.92
375.021	336.5
375.402	346.22
375.783	333.11
376.163	343.06
376.544	324.53
376.925	349.84
377.305	338.99
377.686	343.06
378.066	324.75
378.447	329.5
378.827	345.54
379.208	334.69
379.588	324.75
379.968	347.12
380.349	341.25
380.729	334.92
381.109	360.46
381.489	343.51
381.87	361.13
382.25	361.59
382.63	357.52
383.01	334.92
383.39	366.78
383.77	381.92
384.15	350.97
384.53	352.77
384.91	365.65
385.29	343.96
385.67	371.53
386.049	357.52
386.429	374.92
386.809	348.48
387.189	366.33
387.568	366.56
387.948	363.62
388.328	374.47
388.707	378.99
389.087	359.55
389.466	370.85
389.846	358.87
390.225	368.37
390.605	381.25
390.984	368.82
391.363	378.31
391.743	379.44
392.122	379.21
392.501	377.18
392.881	389.16
393.26	385.09
393.639	388.93
394.018	403.39
394.397	392.77
394.776	376.28
395.155	385.99
395.534	393.9
395.913	384.41
396.292	399.78
396.671	406.78
397.05	398.87
397.429	420.79
397.808	398.2
398.186	407.01
398.565	402.04
398.944	412.66
399.323	398.65
399.701	410.85
400.08	404.07
400.458	420.34
400.837	422.38
401.215	395.71
401.594	437.06
401.972	428.48
402.351	423.28
402.729	426.67
403.107	430.74
403.486	432.77
403.864	435.48
404.242	437.06
404.62	430.06
404.999	433.22
405.377	456.5
405.755	429.61
406.133	444.75
406.511	425.77
406.889	450.85
407.267	452.88
407.645	444.07
408.023	457.63
408.401	462.83
408.779	455.6
409.156	456.27
409.534	476.16
409.912	478.19
410.29	448.14
410.667	479.55
411.045	481.81
411.422	493.56
411.8	497.63
412.178	484.75
412.555	495.82
412.933	484.97
413.31	505.31
413.687	515.71
414.065	508.48
414.442	506.89
414.819	503.96
415.197	522.94
415.574	505.31
415.951	518.19
416.328	509.38
416.705	536.05
417.082	539.89
417.46	517.97
417.837	519.1
418.214	544.63
418.591	535.14
418.967	535.82
419.344	525.65
419.721	555.71
420.098	535.59
420.475	556.16
420.852	562.71
421.228	552.77
421.605	551.64
421.982	588.02
422.358	582.6
422.735	564.75
423.111	593.44
423.488	574.46
423.864	564.75
424.241	586.44
424.617	613.33
424.994	583.95
425.37	592.09
425.746	605.2
426.123	583.28
426.499	590.06
426.875	603.39
427.251	595.25
427.627	592.54
428.003	626.21
428.379	628.02
428.756	637.06
429.132	631.18
429.507	638.64
429.883	654.46
430.259	656.27
430.635	675.7
431.011	653.56
431.387	675.25
431.763	696.04
432.138	688.36
432.514	702.14
432.89	706.44
433.265	698.07
433.641	710.73
434.016	706.89
434.392	727.9
434.767	742.37
435.143	752.99
435.518	747.34
435.894	739.66
436.269	754.12
436.644	774.91
437.02	767.68
437.395	750.28
437.77	784.4
438.145	761.8
438.52	785.76
438.895	783.72
439.271	787.79
439.646	817.62
440.021	809.48
440.395	820.78
440.77	811.52
441.145	820.78
441.52	842.7
441.895	837.96
442.27	832.08
442.645	855.58
443.019	849.26
443.394	833.44
443.769	875.47
444.143	867.79
444.518	864.85
444.892	865.53
445.267	857.39
445.641	874.34
446.016	867.79
446.39	877.73
446.764	895.13
447.139	886.09
447.513	912.76
447.887	892.42
448.262	931.52
448.636	911.63
449.01	925.41
449.384	950.95
449.758	944.85
450.132	949.82
450.506	944.62
450.88	964.28
451.254	965.86
451.628	968.58
452.002	984.4
452.376	995.24
452.75	984.62
453.123	997.95
453.497	1005.64
453.871	1020.1
454.244	1014.22
454.618	1051.29
454.992	1077.95
455.365	1061
455.739	1084.51
456.112	1066.2
456.486	1092.64
456.859	1118.4
457.232	1113.21
457.606	1132.19
457.979	1146.42
458.352	1148.91
458.725	1155.24
459.099	1164.28
459.472	1192.98
459.845	1222.13
460.218	1190.27
460.591	1231.62
460.964	1225.52
461.337	1240.66
461.71	1265.97
462.083	1273.43
462.456	1294.44
462.829	1311.62
463.201	1308
463.574	1306.87
463.947	1362.01
464.32	1364.5
464.692	1378.06
465.065	1375.8
465.438	1378.06
465.81	1398.17
466.183	1448.11
466.555	1475.23
466.928	1504.61
467.3	1478.62
467.672	1481.78
468.045	1512.74
468.417	1527.43
468.789	1539.18
469.161	1561.33
469.534	1600.2
469.906	1622.12
470.278	1640.2
470.65	1637.94
471.022	1698.95
471.394	1709.12
471.766	1707.77
472.138	1744.83
472.51	1773.98
472.882	1800.42
473.253	1829.8
473.625	1902.34
473.997	1909.79
474.369	1943.92
474.74	1941.66
475.112	1994.76
475.484	2009.23
475.855	2046.29
476.227	2057.81
476.598	2149.11
476.97	2151.82
477.341	2159.28
477.713	2225.04
478.084	2235.66
478.455	2334.19
478.827	2338.26
479.198	2418.03
479.569	2415.09
479.94	2456.22
480.311	2518.59
480.682	2559.72
481.053	2634.52
481.424	2672.03
481.795	2682.43
482.166	2774.18
482.537	2798.36
482.908	2857.34
483.279	2920.62
483.65	2929.88
484.021	2993.61
484.391	3020.27
484.762	3074.96
485.133	3139.14
485.503	3196.09
485.874	3286.26
486.244	3288.29
486.615	3341.85
486.985	3402.64
487.356	3502.07
487.726	3541.62
488.097	3622.52
488.467	3625.46
488.837	3703.87
489.207	3787.26
489.578	3843.75
489.948	3829.29
490.318	3942.51
490.688	3996.52
491.058	4026.57
491.428	4066.35
491.798	4127.36
492.168	4149.28
492.538	4253.24
492.908	4255.27
493.278	4335.72
493.648	4362.84
494.017	4418.2
494.387	4497.07
494.757	4492.33
495.126	4578.2
495.496	4543.62
495.866	4608.71
496.235	4682.6
496.605	4722.15
496.974	4761.92
497.344	4806.44
497.713	4843.73
498.082	4883.73
498.452	4925.31
498.821	4979.77
499.19	4985.87
499.559	5038.53
499.928	5096.6
500.298	5134.12
500.667	5153.1
501.036	5165.98
501.405	5229.48
501.774	5222.7
502.143	5317.16
502.512	5328.69
502.88	5398.52
503.249	5367.56
503.618	5352.19
503.987	5414.79
504.356	5457.95
504.724	5444.39
505.093	5556.03
505.462	5591.28
505.83	5569.13
506.199	5650.26
506.567	5664.5
506.936	5673.09
507.304	5783.36
507.672	5759.18
508.041	5819.3
508.409	5872.4
508.777	5849.13
509.145	5940.87
509.514	5905.85
509.882	5965.96
510.25	5973.42
510.618	5917.82
510.986	6020.19
511.354	6046.18
511.722	6107.88
512.09	6159.85
512.458	6156.69
512.826	6179.74
513.193	6183.58
513.561	6233.52
513.929	6295.89
514.297	6325.05
514.664	6332.5
515.032	6388.09
515.4	6419.51
515.767	6429.45
516.135	6486.4
516.502	6436.91
516.869	6585.6
517.237	6508.32
517.604	6468.09
517.972	6574.98
518.339	6619.05
518.706	6630.57
519.073	6728.88
519.44	6730.68
519.808	6735.88
520.175	6769.1
520.542	6801.87
520.909	6883.9
521.276	6828.08
521.643	6900.17
522.009	6881.64
522.376	7019.04
522.743	7053.84
523.11	7072.82
523.477	7155.08
523.843	7176.55
524.21	7225.36
524.577	7233.04
524.943	7296.32
525.31	7256.55
525.676	7340.84
526.043	7437.78
526.409	7394.17
526.776	7534.51
527.142	7541.74
527.508	7506.26
527.874	7609.31
528.241	7663.54
528.607	7691.79
528.973	7802.52
529.339	7752.35
529.705	7778.57
530.071	7868.73
530.437	7937.21
530.803	7946.02
531.169	7974.49
531.535	7955.06
531.901	8062.4
532.267	8094.04
532.632	8098.56
532.998	8146.24
533.364	8186.47
533.73	8254.94
534.095	8255.62
534.461	8242.28
534.826	8384.2
535.192	8337.87
535.557	8440.02
535.923	8440.24
536.288	8460.13
536.653	8502.62
537.019	8529.73
537.384	8546.46
537.749	8597.75
538.114	8582.16
538.479	8624.42
538.845	8681.59
539.21	8750.52
539.575	8729.95
539.94	8816.28
540.305	8822.61
540.67	8842.49
541.034	8900.8
541.399	8917.97
541.764	8971.53
542.129	9028.03
542.494	9004.75
542.858	9104.86
543.223	9069.61
543.587	9133.11
543.952	9151.86
544.316	9153.45
544.681	9160.68
545.045	9281.58
545.41	9324.97
545.774	9350.95
546.138	9305.53
546.503	9375.81
546.867	9383.04
547.231	9547.11
547.595	9524.96
547.959	9516.15
548.324	9578.29
548.688	9574
549.052	9605.19
549.416	9733.54
549.779	9682.25
550.143	9659.65
550.507	9794.11
550.871	9805.41
551.235	9731.28
551.599	9883.6
551.962	9875.46
552.326	9849.02
552.689	9963.14
553.053	9858.29
553.417	9944.39
553.78	10006.53
554.143	9977.6
554.507	10137.37
554.87	10133.53
555.234	10216.47
555.597	10153.87
555.96	10147.32
556.323	10310.25
556.686	10211.95
557.05	10376.24
557.413	10345.28
557.776	10348.89
558.139	10397.71
558.502	10451.72
558.865	10549.12
559.228	10605.61
559.59	10610.81
559.953	10612.16
560.316	10701.88
560.679	10687.64
561.041	10754.53
561.404	10848.54
561.767	10856.68
562.129	10839.5
562.492	10991.82
562.854	10927.18
563.217	10930.12
563.579	10940.97
563.941	11025.94
564.304	11077.01
564.666	11154.75
565.028	11192.71
565.39	11278.59
565.753	11233.17
566.115	11241.07
566.477	11311.13
566.839	11396.32
567.201	11429.32
567.563	11390.9
567.925	11517.23
568.287	11521.52
568.648	11536.89
569.01	11646.26
569.372	11745.47
569.734	11631.35
570.095	11804
570.457	11774.17
570.819	11803.09
571.18	11842.64
571.542	11891.45
571.903	11935.29
572.265	12027.27
572.626	12094.16
572.987	12123.54
573.349	12138
573.71	12290.54
574.071	12296.19
574.432	12396.52
574.794	12495.96
575.155	12452.34
575.516	12540.02
575.877	12634.03
576.238	12680.81
576.599	12794.71
576.96	12844.65
577.32	12907.47
577.681	13051.87
578.042	13107.01
578.403	13200.8
578.763	13295.03
579.124	13422.71
579.485	13471.98
579.845	13618.87
580.206	13718.75
580.566	13800.56
580.927	13941.12
581.287	14031.74
581.648	14130.94
582.008	14374.33
582.368	14469.69
582.728	14681.44
583.089	14704.94
583.449	14883.92
583.809	15051.6
584.169	15292.95
584.529	15348.54
584.889	15690.9
585.249	15762.09
585.609	15976.54
585.969	16200.04
586.329	16409.98
586.688	16637.77
587.048	16727.94
587.408	17111.88
587.768	17264.87
588.127	17445.88
588.487	17786.21
588.846	18060.56
589.206	18224.39
589.565	18547.32
589.925	18801.1
590.284	19041.32
590.643	19368.09
591.003	19734.86
591.362	19993.39
591.721	20236.77
592.08	20471.34
592.44	20868.62
592.799	21033.81
593.158	21316.52
593.517	21609.16
593.876	22023.16
594.235	22207.57
594.593	22481.68
594.952	23016.81
595.311	23158.28
595.67	23383.58
596.029	23902.89
596.387	24303.1
596.746	24497.68
597.104	24687.05
597.463	25115.29
597.822	25428.72
598.18	25643.86
598.538	25979.44
598.897	26338.76
599.255	26397.29
599.613	27282.01
599.972	27169.24
600.33	27602.68
600.688	27727.87
601.046	28244.7
601.404	28549.55
601.762	28870.67
602.12	29262.3
602.478	29443.53
602.836	29683.98
603.194	30019.79
603.552	30223.63
603.91	30413.45
604.268	30796.94
604.625	31123.72
604.983	31458.17
605.341	31547.21
605.698	31921.89
606.056	32257.7
606.413	32377.92
606.771	32771.36
607.128	32973.16
607.485	33139.03
607.843	33399.14
608.2	33767.26
608.557	34027.82
608.914	34209.96
609.272	34535.6
609.629	34879.32
609.986	35150.95
610.343	35273.21
610.7	35646.76
611.057	35811.05
611.414	35960.65
611.771	36191.6
612.127	36502.33
612.484	36535.32
612.841	36901.42
613.198	36985.71
613.554	37144.8
613.911	37613.04
614.267	37728.74
614.624	37856.42
614.98	37927.6
615.337	38248.5
615.693	38453.24
616.05	38526.46
616.406	38891.42
616.762	38881.25
617.118	39019.55
617.475	39252.77
617.831	39546.09
618.187	39617.96
618.543	39685.75
618.899	39896.59
619.255	40060.88
619.611	40127.09
619.967	40486.86
620.323	40631.49
620.678	40591.26
621.034	40766.63
621.39	40850.69
621.746	40880.07
622.101	41533.84
622.457	41205.94
622.812	41375.65
623.168	41563.22
623.523	41565.7
623.879	41692.03
624.234	41661.52
624.589	41782.42
624.945	41867.39
625.3	42062.41
625.655	42112.81
626.01	42166.14
626.365	42262.41
626.72	42212.46
627.075	42321.16
627.43	42358.45
627.785	42392.12
628.14	42632.34
628.495	42627.59
628.85	42642.06
629.205	42599.12
629.559	42927.7
629.914	42687.93
630.269	42803.86
630.623	42816.29
630.978	42780.81
631.332	42933.12
631.687	42937.19
632.041	42927.47
632.396	43190.97
632.75	43080.92
633.104	43103.97
633.459	42970.18
633.813	43089.95
634.167	43058.99
634.521	43085.66
634.875	43204.75
635.229	43096.96
635.583	42848.83
635.937	43047.7
636.291	43104.64
636.645	43054.25
636.999	42973.57
637.352	43204.3
637.706	42994.82
638.06	43376.95
638.413	43093.8
638.767	43131.31
639.121	43145.55
639.474	43043.18
639.828	43078.88
640.181	43117.75
640.534	42990.97
640.888	42862.39
641.241	42814.93
641.594	43075.94
641.947	43146.68
642.301	43056.74
642.654	42940.81
643.007	42995.04
643.36	43007.24
643.713	42883.63
644.066	43051.99
644.419	42817.65
644.771	42539.91
645.124	42340.82
645.477	42334.49
645.83	42118.91
646.182	42014.05
646.535	41699.26
646.888	41978.12
647.24	41692.93
647.593	42017.44
647.945	41783.55
648.298	41708.07
648.65	41503.56
649.002	41423.56
649.355	41702.87
649.707	41581.75
650.059	41746.71
650.411	42327.94
650.763	42185.8
651.115	42681.15
651.467	42533.36
651.819	42709.4
652.171	42470.99
652.523	42366.58
652.875	42469.18
653.227	42396.64
653.578	42575.39
653.93	42562.51
654.282	42298.79
654.633	42278
654.985	42452.91
655.337	42334.72
655.688	42433.02
656.039	42575.84
656.391	42199.13
656.742	42320.94
657.094	42285.23
657.445	42470.76
657.796	42392.12
658.147	42209.07
658.498	42230.54
658.849	42269.86
659.2	42299.69
659.551	42099.02
659.902	42403.87
660.253	42143.99
660.604	42318.68
660.955	42126.59
661.306	42273.25
661.656	42270.32
662.007	42201.16
662.358	42119.13
662.708	42209.75
663.059	42230.09
663.409	42007.95
663.76	42160.71
664.11	42187.83
664.461	42149.87
664.811	42204.55
665.161	42369.07
665.511	42179.47
665.862	42109.42
666.212	42166.82
666.562	42280.71
666.912	42098.12
667.262	42004.79
667.612	42069.64
667.962	42198.9
668.312	42040.49
668.662	42201.62
669.011	42093.37
669.361	42003.43
669.711	42030.1
670.06	41972.7
670.41	41913.94
670.76	41881.4
671.109	42115.06
671.459	41880.72
671.808	41920.95
672.157	41894.51
672.507	41746.71
672.856	41835.75
673.205	41910.55
673.554	42068.29
673.904	41741.06
674.253	42200.94
674.602	41953.26
674.951	41318.02
675.3	41035.77
675.649	41791.01
675.998	41732.25
676.346	41857.9
676.695	41908.29
677.044	41682.53
677.393	41749.2
677.741	41717.34
678.09	41636.89
678.438	41477.34
678.787	41524.35
679.135	41520.5
679.484	41237.12
679.832	41315.99
680.181	41168.88
680.529	41337.91
680.877	41153.06
681.225	41178.37
681.573	41443.67
681.922	41110.57
682.27	41007.52
682.618	41061.53
682.966	40962.55
683.314	40964.81
683.661	40747.19
684.009	40598.72
684.357	40791.48
684.705	40769.11
685.053	40828.09
685.4	40653.18
685.748	40455.9
686.095	40537.93
686.443	40442.79
686.79	40244.61
687.138	40368.44
687.485	40415.67
687.832	40154.44
688.18	40323.02
688.527	40114.44
688.874	40023.37
689.221	40042.35
689.568	39731.4
689.915	39740.89
690.262	39849.14
690.609	39618.63
690.956	39520.56
691.303	39356.49
691.65	39352.65
691.997	39220.9
692.344	39071.76
692.69	39055.48
693.037	38964.87
693.383	38746.11
693.73	38909.27
694.077	38682.16
694.423	38551.09
694.769	38451.43
695.116	38441.94
695.462	38393.81
695.808	38186.35
696.155	38452.11
696.501	38036.53
696.847	38044.66
697.193	37818
697.539	37853.93
697.885	37762.86
698.231	37749.3
698.577	37585.69
698.923	37539.37
699.269	37358.35
699.614	37159.72
699.96	37209.88
700.306	37262.54
700.651	37086.72
700.997	36951.13
701.342	36867.97
701.688	36836.79
702.033	36774.87
702.379	36634.53
702.724	36575.55
703.069	36603.8
703.415	36201.32
703.76	36195.45
704.105	36182.79
704.45	36146.63
704.795	36016.24
705.14	35759.53
705.485	35808.11
705.83	35688.57
706.175	35803.59
706.52	35668.45
706.865	35614.44
707.209	35637.72
707.554	35312.53
707.899	35630.72
708.243	35252.19
708.588	35170.84
708.932	35062.14
709.277	34946.89
709.621	34982.6
709.966	34795.71
710.31	34853.33
710.654	34482.95
710.998	34582.83
711.342	34563.63
711.687	34589.61
712.031	34412.67
712.375	34148.95
712.719	34275.05
713.063	34088.61
713.407	34277.98
713.75	34093.35
714.094	34046.58
714.438	33972
714.782	33969.29
715.125	33768.39
715.469	33863.08
715.812	33662.86
716.156	33491.34
716.499	33481.17
716.843	33645.91
717.186	33254.51
717.53	33466.03
717.873	33496.99
718.216	33320.95
718.559	33238.91
718.902	33021.52
719.246	33138.58
719.589	33021.74
719.932	32820.17
720.275	32890.45
720.617	32822.65
720.96	32729.78
721.303	32748.98
721.646	32816.33
721.989	32553.73
722.331	32495.66
722.674	32465.38
723.016	32593.51
723.359	32476.45
723.701	32491.36
724.044	32327.3
724.386	32086.18
724.729	32409.56
725.071	32280.97
725.413	32139.51
725.755	32175.89
726.097	32059.06
726.439	31970.25
726.782	31937.48
727.124	31873.75
727.465	31797.37
727.807	31794.43
728.149	31635.11
728.491	31680.09
728.833	31685.96
729.175	31571.61
729.516	31629.24
729.858	31520.77
730.199	31550.15
730.541	31496.59
730.882	31387.89
731.224	31400.54
731.565	31299.53
731.906	31160.1
732.248	31185.18
732.589	31082.81
732.93	31047.33
733.271	31161.23
733.612	31120.1
733.953	30999.2
734.294	30928.69
734.635	30914.46
734.976	31026.32
735.317	30693.22
735.658	30791.97
735.999	30689.6
736.339	30674.01
736.68	30783.16
737.021	30676.95
737.361	30498.42
737.702	30713.56
738.042	30475.82
738.383	30468.37
738.723	30485.54
739.063	30297.97
739.404	30261.82
739.744	30337.97
740.084	30300.46
740.424	30314.02
740.764	30293.91
741.104	30228.6
741.444	30144.53
741.784	30030.64
742.124	30057.08
742.464	30168.26
742.804	29986.12
743.143	29806.24
743.483	29859.57
743.823	29763.07
744.162	29806.91
744.502	29864.09
744.841	29619.8
745.181	29723.98
745.52	29650.31
745.86	29652.79
746.199	29620.25
746.538	29603.08
746.877	29530.99
747.216	29672.23
747.556	29472.01
747.895	29441.27
748.234	29377.09
748.573	29223.2
748.911	29189.3
749.25	29312.46
749.589	29157.89
749.928	29202.18
750.267	29017.78
750.605	29093.94
750.944	29034.28
751.283	28976.2
751.621	29069.76
751.96	28905.92
752.298	28886.03
752.636	28846.94
752.975	28806.49
753.313	28623.89
753.651	28808.52
753.989	28660.73
754.327	28580.28
754.666	28369.44
755.004	28237.01
755.342	28504.8
755.679	28366.27
756.017	28318.14
756.355	28443.33
756.693	28225.26
757.031	28186.17
757.368	28155.43
757.706	27977.58
758.044	27847.64
758.381	27932.61
758.719	27879.06
759.056	27947.53
