Data from hue_130_FLMS001491_00039.txt Node
Date: Tue Feb 07 16:57:32 GMT 2017
User: dcchb
Spectrometer: FLMS00149
Trigger mode: 0
Integration Time (sec): 2.000000E-2
Scans to average: 10
Electric dark correction enabled: true
Nonlinearity correction enabled: false
Boxcar width: 0
XAxis mode: Wavelengths
Number of Pixels in Spectrum: 2048
>>>>>Begin Spectral Data<<<<<
341.393	-12.61
341.776	-12.61
342.16	-12.61
342.543	-46.74
342.927	-54.19
343.31	-64.14
343.693	-68.66
344.077	-57.13
344.46	-52.61
344.843	-70.46
345.226	-48.09
345.61	-48.77
345.993	-4.03
346.376	-3.35
346.759	23.77
347.142	35.3
347.525	38.23
347.908	58.12
348.291	72.81
348.674	89.53
349.057	99.47
349.44	151
349.823	148.51
350.206	135.41
350.588	211.56
350.971	209.53
351.354	195.74
351.737	221.96
352.119	246.59
352.502	284.55
352.884	262.86
353.267	271.22
353.65	305.57
354.032	294.05
354.414	289.3
354.797	303.76
355.179	319.36
355.562	311.45
355.944	324.55
356.326	339.02
356.709	336.3
357.091	340.6
357.473	329.3
357.855	339.92
358.238	320.71
358.62	337.43
359.002	328.17
359.384	355.74
359.766	324.33
360.148	325.01
360.53	329.07
360.912	325.68
361.294	343.31
361.676	328.85
362.057	322.97
362.439	321.84
362.821	329.53
363.203	339.02
363.584	327.27
363.966	322.29
364.348	311.45
364.729	317.55
365.111	346.7
365.493	299.92
365.874	315.74
366.256	308.73
366.637	314.61
367.019	302.41
367.4	324.1
367.781	314.38
368.163	292.46
368.544	309.19
368.925	292.01
369.306	322.75
369.688	307.15
370.069	296.31
370.45	291.56
370.831	303.09
371.212	322.97
371.593	299.47
371.974	315.51
372.355	316.87
372.736	328.62
373.117	322.07
373.498	328.17
373.879	318.9
374.26	301.05
374.641	307.83
375.021	294.05
375.402	323.88
375.783	319.58
376.163	320.71
376.544	331.79
376.925	336.76
377.305	326.14
377.686	337.66
378.066	320.71
378.447	308.96
378.827	321.84
379.208	296.98
379.588	344.44
379.968	338.34
380.349	334.27
380.729	340.15
381.109	329.3
381.489	335.17
381.87	323.65
382.25	319.36
382.63	322.07
383.01	337.21
383.39	333.59
383.77	353.25
384.15	334.95
384.53	356.64
384.91	355.97
385.29	357.1
385.67	350.77
386.049	363.42
386.429	339.69
386.809	342.63
387.189	359.35
387.568	341.05
387.948	363.65
388.328	357.77
388.707	359.13
389.087	363.2
389.466	374.72
389.846	367.04
390.225	351.9
390.605	362.52
390.984	361.61
391.363	356.64
391.743	356.87
392.122	354.38
392.501	372.91
392.881	408.62
393.26	383.31
393.639	378.34
394.018	376.53
394.397	386.25
394.776	381.73
395.155	381.5
395.534	378.34
395.913	366.59
396.292	383.99
396.671	377.66
397.05	398.68
397.429	386.47
397.808	393.93
398.186	374.95
398.565	389.64
398.944	400.48
399.323	395.06
399.701	411.11
400.08	379.02
400.458	386.02
400.837	407.72
401.215	398.45
401.594	414.95
401.972	390.54
402.351	397.77
402.729	407.94
403.107	414.27
403.486	384.67
403.864	412.91
404.242	412.01
404.62	427.83
404.999	424.21
405.377	412.23
405.755	429.64
406.133	411.78
406.511	407.04
406.889	427.6
407.267	435.51
407.645	430.09
408.023	443.65
408.401	430.09
408.779	465.57
409.156	437.32
409.534	456.53
409.912	446.13
410.29	467.37
410.667	475.74
411.045	460.82
411.422	477.54
411.8	445.68
412.178	453.36
412.555	460.14
412.933	477.09
413.31	466.92
413.687	458.56
414.065	500.37
414.442	493.81
414.819	475.74
415.197	497.88
415.574	500.14
415.951	525.68
416.328	487.49
416.705	489.52
417.082	491.55
417.46	493.14
417.837	512.8
418.214	510.76
418.591	526.81
418.967	540.37
419.344	536.3
419.721	536.75
420.098	524.55
420.475	522.74
420.852	542.18
421.228	546.69
421.605	521.61
421.982	550.31
422.358	571.55
422.735	538.56
423.111	559.12
423.488	557.99
423.864	554.15
424.241	595.51
424.617	561.84
424.994	562.97
425.37	571.1
425.746	587.37
426.123	606.81
426.499	597.31
426.875	585.56
427.251	620.59
427.627	614.04
428.003	625.11
428.379	617.88
428.756	622.85
429.132	612.91
429.507	612.46
429.883	628.95
430.259	642.29
430.635	632.34
431.011	632.57
431.387	634.83
431.763	666.24
432.138	652
432.514	670.99
432.89	671.44
433.265	674.15
433.641	692.45
434.016	712.57
434.392	714.15
434.767	719.12
435.143	708.27
435.518	727.93
435.894	710.53
436.269	724.77
436.644	738.55
437.02	737.88
437.395	766.12
437.77	759.8
438.145	782.17
438.52	774.71
438.895	787.37
439.271	770.64
439.646	813.35
440.021	795.05
440.395	782.39
440.77	804.09
441.145	814.71
441.52	802.73
441.895	812.45
442.27	821.72
442.645	829.63
443.019	814.03
443.394	819.68
443.769	850.87
444.143	848.38
444.518	843.18
444.892	872.56
445.267	861.26
445.641	848.61
446.016	874.6
446.39	894.93
446.764	885.89
447.139	875.05
447.513	872.56
447.887	915.05
448.262	888.15
448.636	906.23
449.01	939
449.384	909.62
449.758	939.23
450.132	955.27
450.506	947.59
450.88	942.16
451.254	945.78
451.628	958.44
452.002	978.1
452.376	962.28
452.75	958.21
453.123	1024.65
453.497	994.14
453.871	1035.5
454.244	1038.89
454.618	1048.83
454.992	1053.8
455.365	1074.82
455.739	1067.81
456.112	1096.28
456.486	1060.81
456.859	1119.33
457.232	1100.58
457.606	1137.87
457.979	1130.41
458.352	1175.6
458.725	1163.4
459.099	1155.94
459.472	1209.5
459.845	1212.21
460.218	1240.91
460.591	1221.48
460.964	1243.17
461.337	1256.96
461.71	1276.17
462.083	1312.1
462.456	1329.05
462.829	1316.17
463.201	1379.22
463.574	1338.54
463.947	1374.02
464.32	1394.81
464.692	1442.72
465.065	1428.25
465.438	1461.47
465.81	1492.66
466.183	1508.03
466.555	1546.67
466.928	1548.7
467.3	1558.65
467.672	1553
468.045	1610.85
468.417	1632.99
468.789	1638.64
469.161	1649.94
469.534	1731.3
469.906	1729.71
470.278	1765.65
470.65	1809.94
471.022	1822.14
471.394	1889.03
471.766	1889.71
472.138	1939.43
472.51	1981.23
472.882	2029.59
473.253	2040.21
473.625	2107.78
473.997	2143.94
474.369	2181
474.74	2222.13
475.112	2267.55
475.484	2323.6
475.855	2369.25
476.227	2415.57
476.598	2515.46
476.97	2593.19
477.341	2637.49
477.713	2676.36
478.084	2726.07
478.455	2822.12
478.827	2869.57
479.198	2966.97
479.569	3023.69
479.94	3156.8
480.311	3212.39
480.682	3302.1
481.053	3427.97
481.424	3472.04
481.795	3580.51
482.166	3654.64
482.537	3744.8
482.908	3884.23
483.279	3960.39
483.65	4064.79
484.021	4191.8
484.391	4266.37
484.762	4381.62
485.133	4461.62
485.503	4591.11
485.874	4708.17
486.244	4812.57
486.615	4964.21
486.985	5045.11
487.356	5236.06
487.726	5307.02
488.097	5510.63
488.467	5566
488.837	5692.55
489.207	5875.59
489.578	5993.78
489.948	6158.52
490.318	6280.78
490.688	6368.01
491.058	6537.72
491.428	6662.69
491.798	6835.57
492.168	7027.88
492.538	7081.89
492.908	7254.99
493.278	7334.09
493.648	7451.37
494.017	7635.32
494.387	7737.01
494.757	7891.13
495.126	8024.92
495.496	8109.66
495.866	8173.16
496.235	8320.28
496.605	8524.11
496.974	8596.43
497.344	8760.72
497.713	8815.86
498.082	8953.48
498.452	9084.78
498.821	9223.3
499.19	9328.16
499.559	9461.49
499.928	9555.27
500.298	9644.76
500.667	9741.03
501.036	9809.05
501.405	9908.26
501.774	10077.74
502.143	10086.33
502.512	10194.8
502.88	10286.33
503.249	10370.39
503.618	10522.03
503.987	10568.8
504.356	10717.73
504.724	10763.15
505.093	10751.62
505.462	10831.62
505.83	11018.74
506.199	11052.86
506.567	11180.31
506.936	11228
507.304	11420.76
507.672	11415.11
508.041	11483.81
508.409	11513.64
508.777	11607.19
509.145	11679.06
509.514	11760.64
509.882	11864.59
510.25	11859.39
510.618	11942.78
510.986	11942.55
511.354	12152.72
511.722	12116.33
512.09	12278.14
512.458	12222.32
512.826	12317.68
513.193	12455.08
513.561	12451.24
513.929	12469.09
514.297	12606.49
514.664	12670.22
515.032	12583.67
515.4	12788.41
515.767	12703.66
516.135	12788.41
516.502	12846.94
516.869	13005.35
517.237	12973.26
517.604	12901.17
517.972	13064.78
518.339	13042.41
518.706	13002.64
519.073	13122.18
519.44	13119.7
519.808	13331.22
520.175	13222.07
520.542	13363.31
520.909	13353.14
521.276	13350.43
521.643	13470.65
522.009	13469.07
522.376	13478.11
522.743	13646.92
523.11	13688.5
523.477	13728.27
523.843	13741.6
524.21	13849.17
524.577	13872.9
524.943	13890.52
525.31	13943.63
525.676	13873.58
526.043	13980.01
526.409	14035.83
526.776	14024.76
527.142	14083.29
527.508	14108.6
527.874	14164.64
528.241	14239.67
528.607	14188.6
528.973	14181.59
529.339	14260.01
529.705	14242.61
530.071	14327.12
530.437	14277.41
530.803	14317.86
531.169	14332.55
531.535	14231.31
531.901	14265.66
532.267	14354.24
532.632	14340.46
532.998	14318.08
533.364	14318.76
533.73	14294.58
534.095	14356.73
534.461	14270.4
534.826	14289.61
535.192	14323.96
535.557	14301.14
535.923	14287.8
536.288	14349.5
536.653	14265.88
537.019	14223.17
537.384	14201.7
537.749	14178.43
538.114	14135.26
538.479	14060.01
538.845	14243.96
539.21	13986.12
539.575	14091.88
539.94	14074.02
540.305	14138.43
540.67	13969.17
541.034	14049.84
541.399	14050.97
541.764	14016.17
542.129	13937.53
542.494	13895.72
542.858	13957.64
543.223	13858.89
543.587	13848.27
543.952	13823.86
544.316	13796.52
544.681	13673.81
545.045	13761.04
545.41	13815.72
545.774	13727.37
546.138	13695.28
546.503	13670.87
546.867	13555.84
547.231	13691.43
547.595	13548.39
547.959	13597.42
548.324	13521.95
548.688	13472.46
549.052	13481.5
549.416	13382.52
549.779	13399.92
550.143	13321.95
550.507	13392.91
550.871	13342.29
551.235	13272.46
551.599	13343.42
551.962	13384.1
552.326	13294.61
552.689	13320.82
553.053	13149.98
553.417	13165.12
553.78	13274.5
554.143	13231.11
554.507	13170.54
554.87	13100.94
555.234	13243.76
555.597	13112.01
555.96	13050.09
556.323	13121.05
556.686	13109.75
557.05	13079.7
557.413	13085.57
557.776	13067.04
558.139	13076.76
558.502	13093.03
558.865	13043.99
559.228	13077.44
559.59	13026.37
559.953	13060.26
560.316	13194.27
560.679	13098.46
561.041	13107.04
561.404	13122.18
561.767	13217.55
562.129	13009.64
562.492	13149.08
562.854	13110.21
563.217	13072.24
563.579	13096.42
563.941	13179.58
564.304	13211.22
564.666	13100.26
565.028	13261.84
565.39	13195.4
565.753	13136.19
566.115	13285.34
566.477	13298
566.839	13229.53
567.201	13301.61
567.563	13346.81
567.925	13411.22
568.287	13388.84
568.648	13301.16
569.01	13340.03
569.372	13330.54
569.734	13269.52
570.095	13392.46
570.457	13401.95
570.819	13487.82
571.18	13353.59
571.542	13451.21
571.903	13502.74
572.265	13486.92
572.626	13531.66
572.987	13519.69
573.349	13511.1
573.71	13544.32
574.071	13594.71
574.432	13565.34
574.794	13598.1
575.155	13569.86
575.516	13612.34
575.877	13622.28
576.238	13573.92
576.599	13599.23
576.96	13535.73
577.32	13703.18
577.681	13671.55
578.042	13712.68
578.403	13587.93
578.763	13653.02
579.124	13574.37
579.485	13649.4
579.845	13684.65
580.206	13563.98
580.566	13581.61
580.927	13671.32
581.287	13691.66
581.648	13629.97
582.008	13628.61
582.368	13604.66
582.728	13709.96
583.089	13624.09
583.449	13615.05
583.809	13659.12
584.169	13585.67
584.529	13566.24
584.889	13681.26
585.249	13656.18
585.609	13599.68
585.969	13583.19
586.329	13508.84
586.688	13554.49
587.048	13545.9
587.408	13543.19
587.768	13471.78
588.127	13488.05
588.487	13436.07
588.846	13578.22
589.206	13467.03
589.565	13448.28
589.925	13524.43
590.284	13431.33
590.643	13462.29
591.003	13476.3
591.362	13489.41
591.721	13512.68
592.08	13473.13
592.44	13488.95
592.799	13467.71
593.158	13417.99
593.517	13456.86
593.876	13417.54
594.235	13375.96
594.593	13375.06
594.952	13415.51
595.311	13355.62
595.67	13425.68
596.029	13434.72
596.387	13441.5
596.746	13441.27
597.104	13354.49
597.463	13378.22
597.822	13386.81
598.18	13281.5
598.538	13341.16
598.897	13344.55
599.255	13237.43
599.613	13412.35
599.972	13335.28
600.33	13378.22
600.688	13282.63
601.046	13322.63
601.404	13387.26
601.762	13290.99
602.12	13368.28
602.478	13307.26
602.836	13393.36
603.194	13267.94
603.552	13363.31
603.91	13310.65
604.268	13367.83
604.625	13250.54
604.983	13370.31
605.341	13253.48
605.698	13357.21
606.056	13404.66
606.413	13336.19
606.771	13347.26
607.128	13397.88
607.485	13316.08
607.843	13404.21
608.2	13442.17
608.557	13452.8
608.914	13438.33
609.272	13463.64
609.629	13481.5
609.986	13500.25
610.343	13428.39
610.7	13542.06
611.057	13450.54
611.414	13485.79
611.771	13507.48
612.127	13499.8
612.484	13458.9
612.841	13598.33
613.198	13526.47
613.554	13564.88
613.911	13675.61
614.267	13579.35
614.624	13611.89
614.98	13585.22
615.337	13662.73
615.693	13601.94
616.05	13606.01
616.406	13700.7
616.762	13631.1
617.118	13649.18
617.475	13656.41
617.831	13704.09
618.187	13766.46
618.543	13736.63
618.899	13726.24
619.255	13762.84
619.611	13728.27
619.967	13763.3
620.323	13801.94
620.678	13697.76
621.034	13667.93
621.39	13740.02
621.746	13706.8
622.101	13821.6
622.457	13756.52
622.812	13729.4
623.168	13727.82
623.523	13728.49
623.879	13789.51
624.234	13713.13
624.589	13765.78
624.945	13752.68
625.3	13841.03
625.655	13782.96
626.01	13810.07
626.365	13742.73
626.72	13737.99
627.075	13758.32
627.43	13688.5
627.785	13687.82
628.14	13766.69
628.495	13749.06
628.85	13735.73
629.205	13603.3
629.559	13749.74
629.914	13703.64
630.269	13675.84
630.623	13632.68
630.978	13764.88
631.332	13761.49
631.687	13732.56
632.041	13630.19
632.396	13651.43
632.75	13654.15
633.104	13644.88
633.459	13522.4
633.813	13540.93
634.167	13524.88
634.521	13524.43
634.875	13588.16
635.229	13549.06
635.583	13448.28
635.937	13410.54
636.291	13469.97
636.645	13436.07
636.999	13383.42
637.352	13506.35
637.706	13373.7
638.06	13359.92
638.413	13286.92
638.767	13327.83
639.121	13308.84
639.474	13214.16
639.828	13267.04
640.181	13263.65
640.534	13179.58
640.888	13245.57
641.241	13156.98
641.594	13242.86
641.947	13215.74
642.301	13171.45
642.654	13199.92
643.007	13251.9
643.36	13242.86
643.713	13185.68
644.066	13156.76
644.419	13159.02
644.771	13155.85
645.124	13030.43
645.477	12952.47
645.83	12909.99
646.182	12914.73
646.535	12787.28
646.888	12854.85
647.24	12664.12
647.593	12765.58
647.945	12738.24
648.298	12722.19
648.65	12709.54
649.002	12666.38
649.355	12779.82
649.707	12803.77
650.059	12861.17
650.411	12914.96
650.763	12951.11
651.115	13079.92
651.467	13064.33
651.819	13043.54
652.171	12977.1
652.523	12966.48
652.875	12949.08
653.227	12972.36
653.578	12962.41
653.93	12967.39
654.282	12937.33
654.633	12845.81
654.985	12993.83
655.337	12952.47
655.688	12944.33
656.039	13010.1
656.391	12911.34
656.742	12900.04
657.094	12920.61
657.445	13039.02
657.796	12937.56
658.147	12994.95
658.498	12956.09
658.849	13022.52
659.2	12959.93
659.551	12952.24
659.902	13040.38
660.253	13020.04
660.604	13060.49
660.955	12897.56
661.306	13063.65
661.656	12987.5
662.007	13000.6
662.358	13007.61
662.708	12959.93
663.059	13031.34
663.409	12904.11
663.76	12981.4
664.11	13019.36
664.461	13035.63
664.811	12962.41
665.161	13012.36
665.511	13014.84
665.862	13057.1
666.212	13132.13
666.562	13063.2
666.912	13042.64
667.262	12963.54
667.612	13032.24
667.962	13115.63
668.312	13123.99
668.662	13166.25
669.011	12974.84
669.361	12977.1
669.711	12963.77
670.06	12985.01
670.41	13065.46
670.76	12971.45
671.109	13026.59
671.459	13028.17
671.808	13033.15
672.157	13027.04
672.507	12912.25
672.856	12902.08
673.205	12932.13
673.554	13001.51
673.904	12874.73
674.253	13022.52
674.602	12897.78
674.951	12785.24
675.3	12633.16
675.649	12832.02
675.998	12893.71
676.346	12794.51
676.695	12843.77
677.044	12734.17
677.393	12819.59
677.741	12837.44
678.09	12814.85
678.438	12760.84
678.787	12801.06
679.135	12762.42
679.484	12714.06
679.832	12691.69
680.181	12676.55
680.529	12651.01
680.877	12696.21
681.225	12649.43
681.573	12757.45
681.922	12589.99
682.27	12581.63
682.618	12580.05
682.966	12541.41
683.314	12473.16
683.661	12456.66
684.009	12482.43
684.357	12343.67
684.705	12341.86
685.053	12414.41
685.4	12353.16
685.748	12372.82
686.095	12287.18
686.443	12227.74
686.79	12271.81
687.138	12232.26
687.485	12256.44
687.832	12180.51
688.18	12176.67
688.527	12079.27
688.874	12051.7
689.221	12040.18
689.568	12013.74
689.915	11970.8
690.262	11958.82
690.609	11994.53
690.956	11870.92
691.303	11830.24
691.65	11801.99
691.997	11827.75
692.344	11738.04
692.69	11662.79
693.037	11698.27
693.383	11627.08
693.73	11574.2
694.077	11503.69
694.423	11578.72
694.769	11461.21
695.116	11439.52
695.462	11453.75
695.808	11436.13
696.155	11323.13
696.501	11230.48
696.847	11268.45
697.193	11155.91
697.539	11242.23
697.885	11106.64
698.231	11072.07
698.577	11041.56
698.923	11092.41
699.269	11034.78
699.614	10862.81
699.96	10963.82
700.306	10955.23
700.651	10810.83
700.997	10791.85
701.342	10731.96
701.688	10709.14
702.033	10637.95
702.379	10714.79
702.724	10602.7
703.069	10682.93
703.415	10477.28
703.76	10525.19
704.105	10591.4
704.45	10492.42
704.795	10430.5
705.14	10380.79
705.485	10415.14
705.83	10308.25
706.175	10313.9
706.52	10291.52
706.865	10217.85
707.209	10155.03
707.554	10222.37
707.899	10172.88
708.243	10150.74
708.588	10135.14
708.932	9978.54
709.277	10059.44
709.621	10052.43
709.966	9959.1
710.31	10008.59
710.654	9903.28
710.998	9927.69
711.342	9853.12
711.687	9797.98
712.031	9817.86
712.375	9769.95
712.719	9844.3
713.063	9809.5
713.407	9826.45
713.75	9714.14
714.094	9686.79
714.438	9717.75
714.782	9730.18
715.125	9679.79
715.469	9624.87
715.812	9656.51
716.156	9585.78
716.499	9583.52
716.843	9543.29
717.186	9538.32
717.53	9576.29
717.873	9580.13
718.216	9555.05
718.559	9444.99
718.902	9455.61
719.246	9456.97
719.589	9399.57
719.932	9387.37
720.275	9369.06
720.617	9394.82
720.96	9367.48
721.303	9407.25
721.646	9394.37
721.989	9271.44
722.331	9379.46
722.674	9247.03
723.016	9345.11
723.359	9328.61
723.701	9266.69
724.044	9233.47
724.386	9172
724.729	9198.44
725.071	9250.87
725.413	9277.31
725.755	9222.4
726.097	9144.89
726.439	9149.41
726.782	9177.65
727.124	9188.73
727.465	9130.2
727.807	9179.69
728.149	9184.21
728.491	9060.14
728.833	9195.51
729.175	9126.13
729.516	9132.68
729.858	9101.5
730.199	9099.92
730.541	9040.26
730.882	9102.4
731.224	9128.62
731.565	9078.22
731.906	9120.03
732.248	9088.62
732.589	9073.02
732.93	9073.25
733.271	9124.32
733.612	9096.07
733.953	9060.6
734.294	9075.51
734.635	9085
734.976	9094.27
735.317	9074.38
735.658	9052.46
735.999	9083.65
736.339	9084.55
736.68	9075.74
737.021	9039.58
737.361	9054.27
737.702	9101.27
738.042	9069.86
738.383	9047.94
738.723	9079.35
739.063	9039.8
739.404	9160.93
739.744	9095.62
740.084	9032.35
740.424	9127.26
740.764	9200.7
741.104	9206.58
741.444	9128.39
741.784	9135.62
742.124	9158.9
742.464	9134.04
742.804	9148.5
743.143	9220.59
743.483	9243.87
743.823	9178.33
744.162	9276.86
744.502	9301.27
744.841	9345.33
745.181	9390.3
745.52	9387.82
745.86	9485.44
746.199	9505.56
746.538	9494.71
746.877	9583.07
747.216	9635.95
747.556	9630.75
747.895	9646.12
748.234	9720.69
748.573	9695.38
748.911	9750.97
749.25	9916.62
749.589	9938.99
749.928	9998.65
750.267	10037.97
750.605	10192.99
750.944	10177.4
751.283	10264.63
751.621	10347.57
751.96	10355.93
752.298	10412.2
752.636	10660.55
752.975	10640.89
753.313	10755.47
753.651	10853.99
753.989	10955.91
754.327	11010.83
754.666	11063.48
755.004	11223.25
755.342	11365.39
755.679	11489.23
756.017	11568.55
756.355	11816.68
756.693	11844.93
757.031	12064.36
757.368	12140.74
757.706	12219.61
758.044	12397.46
758.381	12575.3
758.719	12624.57
