Data from hue_190_FLMS001491_00037.txt Node
Date: Tue Feb 07 16:45:12 GMT 2017
User: dcchb
Spectrometer: FLMS00149
Trigger mode: 0
Integration Time (sec): 2.000000E-2
Scans to average: 10
Electric dark correction enabled: true
Nonlinearity correction enabled: false
Boxcar width: 0
XAxis mode: Wavelengths
Number of Pixels in Spectrum: 2048
>>>>>Begin Spectral Data<<<<<
341.393	-4.89
341.776	-4.89
342.16	-4.89
342.543	-42.63
342.927	-69.97
343.31	-57.54
343.693	-66.13
344.077	-61.38
344.46	-75.17
344.843	-54.15
345.226	-30.65
345.61	-51.67
345.993	-10.76
346.376	-24.55
346.759	7.09
347.142	22.23
347.525	33.98
347.908	58.61
348.291	89.8
348.674	94.77
349.057	125.51
349.44	113.75
349.823	139.52
350.206	169.8
350.588	188.33
350.971	192.85
351.354	210.93
351.737	219.97
352.119	243.69
352.502	261.32
352.884	273.07
353.267	279.17
353.65	310.59
354.032	306.97
354.414	305.61
354.797	309
355.179	320.53
355.562	324.6
355.944	348.32
356.326	342.22
356.709	333.41
357.091	318.95
357.473	329.12
357.855	328.21
358.238	342.67
358.62	356.69
359.002	347.65
359.384	337.7
359.766	320.98
360.148	326.86
360.53	335.22
360.912	312.62
361.294	333.41
361.676	328.44
362.057	326.86
362.439	315.1
362.821	315.78
363.203	333.41
363.584	317.82
363.966	297.03
364.348	312.84
364.729	307.42
365.111	322.56
365.493	330.02
365.874	309.23
366.256	303.58
366.637	327.99
367.019	317.82
367.4	303.81
367.781	304.71
368.163	311.94
368.544	314.65
368.925	314.43
369.306	326.18
369.688	318.04
370.069	311.04
370.45	307.2
370.831	303.13
371.212	307.42
371.593	300.87
371.974	324.14
372.355	308.1
372.736	309.46
373.117	306.52
373.498	304.48
373.879	312.84
374.26	301.09
374.641	327.76
375.021	317.59
375.402	335.9
375.783	327.08
376.163	308.1
376.544	291.15
376.925	320.08
377.305	316.69
377.686	322.11
378.066	323.01
378.447	330.25
378.827	314.65
379.208	328.66
379.588	325.5
379.968	333.18
380.349	306.74
380.729	315.33
381.109	325.05
381.489	328.21
381.87	339.51
382.25	337.03
382.63	327.31
383.01	333.41
383.39	327.99
383.77	326.86
384.15	347.87
384.53	341.77
384.91	335.44
385.29	346.06
385.67	361.21
386.049	355.1
386.429	333.86
386.809	339.51
387.189	340.64
387.568	326.18
387.948	343.8
388.328	357.59
388.707	344.26
389.087	356.01
389.466	364.82
389.846	332.05
390.225	366.4
390.605	371.37
390.984	360.75
391.363	373.63
391.743	361.66
392.122	374.31
392.501	371.6
392.881	389.45
393.26	376.57
393.639	384.71
394.018	373.41
394.397	376.35
394.776	369.34
395.155	380.64
395.534	382
395.913	382.9
396.292	388.55
396.671	365.05
397.05	412.28
397.429	358.04
397.808	404.59
398.186	363.01
398.565	401.43
398.944	382.67
399.323	387.65
399.701	379.74
400.08	395.78
400.458	393.75
400.837	398.94
401.215	386.74
401.594	410.02
401.972	415.89
402.351	414.31
402.729	417.47
403.107	419.96
403.486	430.36
403.864	408.44
404.242	419.06
404.62	431.03
404.999	424.25
405.377	429
405.755	443.24
406.133	418.83
406.511	436.23
406.889	448.43
407.267	467.64
407.645	454.99
408.023	458.38
408.401	463.35
408.779	492.5
409.156	486.17
409.534	482.78
409.912	494.99
410.29	518.26
410.667	503.57
411.045	501.09
411.422	524.36
411.8	534.53
412.178	520.75
412.555	533.4
412.933	534.99
413.31	564.59
413.687	549.67
414.065	573.63
414.442	566.4
414.819	582.22
415.197	568.88
415.574	603.01
415.951	594.19
416.328	610.24
416.705	617.7
417.082	616.57
417.46	631.25
417.837	640.97
418.214	659.28
418.591	656.34
418.967	683.91
419.344	663.8
419.721	668.32
420.098	687.3
420.475	704.02
420.852	698.82
421.228	721.87
421.605	717.35
421.982	735.43
422.358	739.73
422.735	773.4
423.111	781.53
423.488	803.91
423.864	803.23
424.241	802.55
424.617	846.84
424.994	841.42
425.37	838.25
425.746	843.23
426.123	883.9
426.499	888.87
426.875	887.07
427.251	913.96
427.627	925.71
428.003	946.73
428.379	951.7
428.756	955.54
429.132	970.68
429.507	968.87
429.883	999.15
430.259	1027.4
430.635	1010
431.011	1017.01
431.387	1037.35
431.763	1069.89
432.138	1077.57
432.514	1094.97
432.89	1094.75
433.265	1100.85
433.641	1138.13
434.016	1153.95
434.392	1167.96
434.767	1177.91
435.143	1217.68
435.518	1227.85
435.894	1246.83
436.269	1266.94
436.644	1271.24
437.02	1315.3
437.395	1321.63
437.77	1318.92
438.145	1361.63
438.52	1378.35
438.895	1412.03
439.271	1439.82
439.646	1452.7
440.021	1458.8
440.395	1465.81
440.77	1487.73
441.145	1507.39
441.52	1556.88
441.895	1554.62
442.27	1584.68
442.645	1601.17
443.019	1618.12
443.394	1589.2
443.769	1660.83
444.143	1630.55
444.518	1687.27
444.892	1698.57
445.267	1687.05
445.641	1722.98
446.016	1737.21
446.39	1773.37
446.764	1764.78
447.139	1760.49
447.513	1770.43
447.887	1803.65
448.262	1814.5
448.636	1805.91
449.01	1833.48
449.384	1859.7
449.758	1906.7
450.132	1906.48
450.506	1930.43
450.88	1925.91
451.254	1964.1
451.628	1931.33
452.002	1986.47
452.376	1993.93
452.75	2021.73
453.123	2070.31
453.497	2062.4
453.871	2088.17
454.244	2144.44
454.618	2165
454.992	2209.07
455.365	2181.04
455.739	2214.94
456.112	2224.21
456.486	2253.81
456.859	2310.76
457.232	2338.1
457.606	2309.63
457.979	2357.99
458.352	2414.71
458.725	2412
459.099	2456.29
459.472	2486.57
459.845	2526.12
460.218	2509.85
460.591	2575.38
460.964	2573.12
461.337	2652.9
461.71	2686.79
462.083	2736.74
462.456	2765.21
462.829	2769.73
463.201	2798.88
463.574	2814.47
463.947	2878.88
464.32	2934.02
464.692	2917.07
465.065	2959.1
465.438	3010.63
465.81	3015.82
466.183	3064.64
466.555	3184.41
466.928	3197.51
467.3	3185.31
467.672	3232.54
468.045	3314.12
468.417	3327.23
468.789	3390.96
469.161	3402.03
469.534	3466.43
469.906	3538.3
470.278	3544.4
470.65	3644.96
471.022	3730.38
471.394	3770.61
471.766	3812.87
472.138	3841.11
472.51	3897.38
472.882	3957.95
473.253	3970.38
473.625	4086.08
473.997	4130.37
474.369	4171.05
474.74	4249.69
475.112	4315
475.484	4418.05
475.855	4425.51
476.227	4522
476.598	4677.93
476.97	4682.22
477.341	4763.12
477.713	4852.39
478.084	4881.76
478.455	5033.17
478.827	5070.23
479.198	5285.37
479.569	5276.1
479.94	5366.95
480.311	5477.45
480.682	5575.76
481.053	5700.73
481.424	5730.1
481.795	5816.2
482.166	5949.08
482.537	5994.5
482.908	6168.51
483.279	6216.64
483.65	6306.13
484.021	6456.41
484.391	6510.65
484.762	6618.67
485.133	6634.49
485.503	6766.23
485.874	6909.28
486.244	6958.32
486.615	7121.48
486.985	7212.55
487.356	7283.96
487.726	7326.22
488.097	7484.86
488.467	7512.2
488.837	7692.54
489.207	7732.99
489.578	7933.89
489.948	7962.81
490.318	8106.76
490.688	8052.75
491.058	8213.88
491.428	8312.18
491.798	8405.06
492.168	8568
492.538	8531.16
492.908	8630.59
493.278	8742.45
493.648	8771.61
494.017	8873.52
494.387	8953.75
494.757	9014.54
495.126	9088.21
495.496	9069.9
495.866	9163.69
496.235	9280.52
496.605	9348.09
496.974	9379.5
497.344	9524.35
497.713	9514.41
498.082	9591.24
498.452	9642.32
498.821	9673.95
499.19	9675.54
499.559	9823.33
499.928	9753.27
500.298	9822.88
500.667	9897.9
501.036	9910.78
501.405	9990.78
501.774	9923.44
502.143	10010.89
502.512	10071.46
502.88	10084.11
503.249	10119.59
503.618	10229.42
503.987	10165.69
504.356	10259.48
504.724	10260.83
505.093	10304.22
505.462	10323.2
505.83	10379.92
506.199	10406.36
506.567	10458.57
506.936	10462.18
507.304	10548.28
507.672	10552.35
508.041	10577.21
508.409	10630.77
508.777	10729.29
509.145	10723.19
509.514	10645
509.882	10673.02
510.25	10698.79
510.618	10739.46
510.986	10762.97
511.354	10861.04
511.722	10888.61
512.09	10884.54
512.458	10884.54
512.826	10884.54
513.193	10940.14
513.561	10965.67
513.929	10950.98
514.297	11018.55
514.664	11034.14
515.032	10915.96
515.4	11029.4
515.767	11006.58
516.135	11002.06
516.502	10992.56
516.869	11110.98
517.237	11088.15
517.604	10991.21
517.972	11116.85
518.339	11147.81
518.706	11154.59
519.073	11097.65
519.44	11135.16
519.808	11180.81
520.175	11086.8
520.542	11226.46
520.909	11172.22
521.276	11211.99
521.643	11176.97
522.009	11227.81
522.376	11211.32
522.743	11192.33
523.11	11244.76
523.477	11277.98
523.843	11316.85
524.21	11362.72
524.577	11268.26
524.943	11296.06
525.31	11261.48
525.676	11389.16
526.043	11292.9
526.409	11290.18
526.776	11439.11
527.142	11279.11
527.508	11287.47
527.874	11381.03
528.241	11390.52
528.607	11278.43
528.973	11320.47
529.339	11235.95
529.705	11294.93
530.071	11293.35
530.437	11261.03
530.803	11287.47
531.169	11229.85
531.535	11209.06
531.901	11147.14
532.267	11145.1
532.632	11171.09
532.998	11084.54
533.364	11059.23
533.73	11074.37
534.095	11021.72
534.461	10969.97
534.826	11008.83
535.192	10924.77
535.557	10902.85
535.923	10794.6
536.288	10762.51
536.653	10779.01
537.019	10736.07
537.384	10661.05
537.749	10680.26
538.114	10676.87
538.479	10523.88
538.845	10531.11
539.21	10440.71
539.575	10425.57
539.94	10413.6
540.305	10350.32
540.67	10317.1
541.034	10255.86
541.399	10287.27
541.764	10151.68
542.129	10195.97
542.494	10086.37
542.858	10025.58
543.223	9996.43
543.587	9968.86
543.952	9932.93
544.316	9880.95
544.681	9792.37
545.045	9773.61
545.41	9802.99
545.774	9760.51
546.138	9594.41
546.503	9512.38
546.867	9614.75
547.231	9431.02
547.595	9440.97
547.959	9426.73
548.324	9370.23
548.688	9278.03
549.052	9261.31
549.416	9177.02
549.779	9195.78
550.143	9117.36
550.507	9174.31
550.871	9064.25
551.235	9006.63
551.599	9000.98
551.962	8977.02
552.326	8908.1
552.689	8837.59
553.053	8796.01
553.417	8785.62
553.78	8804.15
554.143	8773.87
554.507	8691.83
554.87	8624.26
555.234	8676.69
555.597	8537.26
555.96	8572.51
556.323	8501.78
556.686	8429.02
557.05	8500.2
557.413	8465.17
557.776	8455.91
558.139	8445.29
558.502	8340.2
558.865	8275.12
559.228	8384.5
559.59	8328.23
559.953	8285.97
560.316	8345.18
560.679	8274.9
561.041	8313.76
561.404	8257.04
561.767	8313.54
562.129	8238.06
562.492	8220.66
562.854	8256.59
563.217	8129.14
563.579	8172.98
563.941	8150.6
564.304	8158.97
564.666	8154.22
565.028	8124.62
565.39	8176.14
565.753	8111.74
566.115	8069.7
566.477	8173.66
566.839	8125.97
567.201	8151.06
567.563	8044.39
567.925	8138.63
568.287	8128.68
568.648	8074
569.01	8108.12
569.372	8133.66
569.734	8030.38
570.095	8103.15
570.457	8149.25
570.819	8082.13
571.18	8077.61
571.542	8109.93
571.903	8080.55
572.265	8131.85
572.626	8071.06
572.987	8121.23
573.349	8073.09
573.71	8089.82
574.071	8111.28
574.432	8128.91
574.794	8081
575.155	8069.93
575.516	8099.76
575.877	8072.64
576.238	8083.26
576.599	8090.95
576.96	8059.76
577.32	8014.79
577.681	8096.82
578.042	8064.51
578.403	8068.8
578.763	7984.28
579.124	8042.59
579.485	8001.23
579.845	8009.59
580.206	8026.99
580.566	8044.17
580.927	8064.05
581.287	8067.67
581.648	8011.85
582.008	8123.26
582.368	7967.56
582.728	8001
583.089	8001
583.449	7940.44
583.809	7991.97
584.169	7953.1
584.529	7889.37
584.889	7973.89
585.249	7914.68
585.609	7920.33
585.969	7935.02
586.329	7853.66
586.688	7913.55
587.048	7867.22
587.408	7899.31
587.768	7854.34
588.127	7842.36
588.487	7839.43
588.846	7882.59
589.206	7814.12
589.565	7869.48
589.925	7845.3
590.284	7841.46
590.643	7820.9
591.003	7874.45
591.362	7851.63
591.721	7847.11
592.08	7796.04
592.44	7812.31
592.799	7778.41
593.158	7734.57
593.517	7735.7
593.876	7758.52
594.235	7694.35
594.593	7721.01
594.952	7702.93
595.311	7670.39
595.67	7752.65
596.029	7722.82
596.387	7708.13
596.746	7771.86
597.104	7690.96
597.463	7718.98
597.822	7726.66
598.18	7613.22
598.538	7646.66
598.897	7645.31
599.255	7597.4
599.613	7724.63
599.972	7683.27
600.33	7670.39
600.688	7604.86
601.046	7653.22
601.404	7669.26
601.762	7539.77
602.12	7685.31
602.478	7681.46
602.836	7622.94
603.194	7583.61
603.552	7612.54
603.91	7551.98
604.268	7570.73
604.625	7538.19
604.983	7589.26
605.341	7549.26
605.698	7622.48
606.056	7607.57
606.413	7616.16
606.771	7659.54
607.128	7660.9
607.485	7644.86
607.843	7593.56
608.2	7653.89
608.557	7639.21
608.914	7590.62
609.272	7671.97
609.629	7628.36
609.986	7616.16
610.343	7670.84
610.7	7716.04
611.057	7654.57
611.414	7648.02
611.771	7655.93
612.127	7683.27
612.484	7678.3
612.841	7708.13
613.198	7597.85
613.554	7658.41
613.911	7679.66
614.267	7720.11
614.624	7647.79
614.98	7723.27
615.337	7696.38
615.693	7744.06
616.05	7659.32
616.406	7662.48
616.762	7718.53
617.118	7695.7
617.475	7715.59
617.831	7783.16
618.187	7742.03
618.543	7766.21
618.899	7783.38
619.255	7750.16
619.611	7720.56
619.967	7750.62
620.323	7763.04
620.678	7784.06
621.034	7737.28
621.39	7765.76
621.746	7711.97
622.101	7815.25
622.457	7768.69
622.812	7761.91
623.168	7768.24
623.523	7795.59
623.879	7747.9
624.234	7668.58
624.589	7770.5
624.945	7722.59
625.3	7735.7
625.655	7701.58
626.01	7751.52
626.365	7749.03
626.72	7713.55
627.075	7715.59
627.43	7699.77
627.785	7707.68
628.14	7705.87
628.495	7736.6
628.85	7690.96
629.205	7743.61
629.559	7746.1
629.914	7747
630.269	7690.5
630.623	7649.83
630.978	7586.33
631.332	7677.85
631.687	7707.45
632.041	7696.38
632.396	7693.67
632.75	7618.42
633.104	7615.03
633.459	7607.79
633.813	7564.63
634.167	7598.3
634.521	7640.79
634.875	7638.08
635.229	7580.45
635.583	7518.98
635.937	7564.41
636.291	7471.3
636.645	7498.19
636.999	7574.8
637.352	7499.1
637.706	7467.01
638.06	7483.5
638.413	7485.54
638.767	7446.89
639.121	7558.76
639.474	7410.74
639.828	7448.7
640.181	7464.3
640.534	7475.14
640.888	7467.91
641.241	7375.71
641.594	7420.91
641.947	7440.79
642.301	7443.05
642.654	7456.39
643.007	7404.86
643.36	7378.65
643.713	7369.83
644.066	7408.93
644.419	7350.85
644.771	7258.65
645.124	7238.99
645.477	7245.09
645.83	7223.85
646.182	7168.26
646.535	7134.59
646.888	7176.17
647.24	7104.76
647.593	7168.71
647.945	7117.19
648.298	7078.99
648.65	7091.65
649.002	7069.73
649.355	7164.64
649.707	7068.37
650.059	7151.54
650.411	7220.91
650.763	7199.67
651.115	7338.87
651.467	7328.93
651.819	7274.02
652.171	7361.93
652.523	7315.6
652.875	7247.35
653.227	7238.76
653.578	7298.88
653.93	7275.6
654.282	7295.03
654.633	7264.75
654.985	7320.34
655.337	7233.11
655.688	7340.68
656.039	7356.28
656.391	7243.06
656.742	7293.9
657.094	7279.67
657.445	7295.49
657.796	7335.94
658.147	7293.23
658.498	7264.75
658.849	7337.52
659.2	7316.5
659.551	7272.44
659.902	7301.59
660.253	7271.53
660.604	7356.73
660.955	7332.55
661.306	7377.97
661.656	7334.81
662.007	7332.55
662.358	7357.86
662.708	7325.99
663.059	7370.74
663.409	7346.78
663.76	7358.76
664.11	7363.05
664.461	7394.47
664.811	7351.08
665.161	7383.85
665.511	7380.23
665.862	7343.17
666.212	7373
666.562	7397.18
666.912	7358.31
667.262	7378.42
667.612	7355.15
667.962	7367.8
668.312	7312.66
668.662	7401.25
669.011	7381.36
669.361	7338.87
669.711	7308.82
670.06	7403.51
670.41	7364.18
670.76	7318.54
671.109	7289.61
671.459	7339.33
671.808	7363.51
672.157	7370.96
672.507	7300.23
672.856	7289.84
673.205	7326.22
673.554	7303.17
673.904	7253.68
674.253	7327.12
674.602	7327.58
674.951	7210.29
675.3	7147.47
675.649	7269.05
675.998	7306.33
676.346	7248.71
676.695	7321.93
677.044	7177.3
677.393	7228.6
677.741	7246.9
678.09	7224.75
678.438	7170.74
678.787	7230.18
679.135	7228.37
679.484	7133.68
679.832	7181.36
680.181	7147.69
680.529	7109.05
680.877	7045.78
681.225	7057.3
681.573	7175.94
681.922	7045.32
682.27	7068.37
682.618	7085.1
682.966	7047.36
683.314	7038.77
683.661	7063.18
684.009	7036.28
684.357	6995.16
684.705	6975.49
685.053	6960.13
685.4	6894.37
685.748	6911.54
686.095	6851.43
686.443	6896.63
686.79	6862.28
687.138	6891.65
687.485	6921.48
687.832	6814.59
688.18	6863.41
688.527	6803.07
688.874	6774.14
689.221	6757.42
689.568	6710.42
689.915	6766.69
690.262	6666.12
690.609	6703.86
690.956	6638.78
691.303	6642.4
691.65	6655.05
691.997	6541.16
692.344	6587.93
692.69	6599.91
693.037	6536.41
693.383	6488.73
693.73	6500.93
694.077	6417.54
694.423	6431.55
694.769	6418.45
695.116	6399.01
695.462	6401.95
695.808	6334.61
696.155	6392.23
696.501	6328.73
696.847	6298.45
697.193	6282.86
697.539	6239.69
697.885	6237.21
698.231	6211.22
698.577	6201.5
698.923	6182.75
699.269	6157.21
699.614	6113.37
699.96	6091.45
700.306	6083.99
700.651	6076.99
700.997	6021.85
701.342	6013.03
701.688	5958.35
702.033	5960.83
702.379	5952.7
702.724	5928.52
703.069	5950.89
703.415	5837.45
703.76	5852.13
704.105	5859.82
704.45	5804.68
704.795	5826.37
705.14	5841.74
705.485	5701.86
705.83	5759.71
706.175	5754.74
706.52	5721.29
706.865	5703.66
707.209	5706.15
707.554	5702.08
707.899	5667.28
708.243	5699.6
708.588	5587.28
708.932	5627.96
709.277	5598.36
709.621	5588.64
709.966	5541.86
710.31	5562.42
710.654	5514.97
710.998	5536.21
711.342	5524.01
711.687	5524.23
712.031	5450.11
712.375	5444.01
712.719	5491.92
713.063	5475.42
713.407	5470.45
713.75	5359.27
714.094	5418.25
714.438	5401.52
714.782	5385.93
715.125	5410.79
715.469	5378.7
715.812	5337.57
716.156	5308.42
716.499	5308.87
716.843	5335.09
717.186	5352.26
717.53	5300.06
717.873	5310.45
718.216	5325.14
718.559	5299.15
718.902	5269.1
719.246	5257.57
719.589	5280.17
719.932	5265.03
720.275	5249.44
720.617	5249.21
720.96	5217.35
721.303	5263.45
721.646	5260.74
721.989	5242.21
722.331	5255.09
722.674	5222.77
723.016	5201.08
723.359	5223
723.701	5221.87
724.044	5207.41
724.386	5193.85
724.729	5228.42
725.071	5187.97
725.413	5181.19
725.755	5173.73
726.097	5117.69
726.439	5154.07
726.782	5156.79
727.124	5184.13
727.465	5125.37
727.807	5185.49
728.149	5145.49
728.491	5150.91
728.833	5143
729.175	5125.6
729.516	5142.1
729.858	5114.75
730.199	5150.68
730.541	5113.17
730.882	5181.87
731.224	5183.23
731.565	5151.59
731.906	5168.99
732.248	5156.33
732.589	5137.12
732.93	5135.77
733.271	5149.33
733.612	5143.68
733.953	5195.43
734.294	5155.88
734.635	5142.1
734.976	5120.63
735.317	5124.7
735.658	5185.71
735.999	5169.89
736.339	5203.56
736.68	5192.72
737.021	5197.01
737.361	5150.91
737.702	5195.65
738.042	5196.33
738.383	5203.34
738.723	5233.39
739.063	5202.66
739.404	5257.12
739.744	5225.03
740.084	5242.88
740.424	5221.87
740.764	5258.48
741.104	5310
741.444	5273.17
741.784	5346.16
742.124	5329.44
742.464	5309.1
742.804	5365.37
743.143	5350.68
743.483	5385.25
743.823	5390.45
744.162	5392.71
744.502	5487.4
744.841	5474.97
745.181	5480.84
745.52	5524.23
745.86	5545.25
746.199	5596.1
746.538	5591.8
746.877	5633.83
747.216	5696.88
747.556	5723.78
747.895	5760.84
748.234	5847.16
748.573	5887.16
748.911	5896.65
749.25	6001.28
749.589	6023.88
749.928	6088.29
750.267	6155.18
750.605	6162.63
750.944	6282.18
751.283	6293.48
751.621	6400.82
751.96	6526.47
752.298	6596.97
752.636	6603.75
752.975	6699.8
753.313	6773.01
753.651	6890.3
753.989	7008.49
754.327	7087.36
754.666	7228.37
755.004	7349.5
755.342	7464.75
755.679	7585.2
756.017	7689.15
756.355	7796.72
756.693	7989.48
757.031	8110.38
757.368	8212.75
757.706	8386.53
758.044	8568.9
758.381	8715.34
758.719	8833.75
759.056	8990.58
759.394	9091.6
759.731	9243.01
760.068	9451.59
760.405	9584.24
760.743	9698.59
761.08	9944.68
761.417	10007.96
761.754	10180.38
762.091	10389.87
762.428	10638.22
762.765	10713.93
763.102	10875.96
763.438	11103.75
763.775	11221.26
764.112	11421.03
764.449	11527.92
764.785	11795.25
765.122	11889.26
765.458	12024.85
765.795	12231.63
766.131	12348.46
766.467	12500.55
766.804	12591.62
767.14	12766.53
767.476	12979.63
