Data from hue_40_FLMS001491_38.txt Node
Date: Mon Feb 06 15:07:49 GMT 2017
User: dcchb
Spectrometer: FLMS00149
Trigger mode: 0
Integration Time (sec): 2.000000E-2
Scans to average: 10
Electric dark correction enabled: true
Nonlinearity correction enabled: false
Boxcar width: 0
XAxis mode: Wavelengths
Number of Pixels in Spectrum: 2048
>>>>>Begin Spectral Data<<<<<
341.393	-16.71
341.776	-16.71
342.16	-16.71
342.543	-72.3
342.927	-72.3
343.31	-65.07
343.693	-73.2
344.077	-77.72
344.46	-47.89
344.843	-59.65
345.226	-38.85
345.61	-43.6
345.993	-28.01
346.376	-15.13
346.759	19.9
347.142	31.65
347.525	59
347.908	50.86
348.291	72.78
348.674	96.51
349.057	118.43
349.44	136.28
349.823	151.42
350.206	160.91
350.588	196.39
350.971	209.05
351.354	236.84
351.737	237.97
352.119	251.08
352.502	246.56
352.884	253.79
353.267	279.1
353.65	274.58
354.032	302.83
354.414	295.83
354.797	305.09
355.179	326.33
355.562	330.63
355.944	313.9
356.326	329.05
356.709	327.92
357.091	334.69
357.473	363.39
357.855	334.47
358.238	334.92
358.62	345.09
359.002	337.86
359.384	337.63
359.766	337.41
360.148	350.97
360.53	342.38
360.912	320.91
361.294	336.5
361.676	318.42
362.057	331.53
362.439	329.05
362.821	318.42
363.203	320.91
363.584	332.89
363.966	308.93
364.348	320.91
364.729	350.97
365.111	308.03
365.493	319.78
365.874	313.45
366.256	325.43
366.637	329.95
367.019	311.87
367.4	297.41
367.781	310.29
368.163	300.8
368.544	317.97
368.925	311.87
369.306	313.68
369.688	323.85
370.069	299.89
370.45	340.8
370.831	318.65
371.212	322.04
371.593	325.43
371.974	281.59
372.355	307.58
372.736	298.54
373.117	320.68
373.498	308.93
373.879	303.73
374.26	334.24
374.641	310.06
375.021	320.46
375.402	324.98
375.783	320.68
376.163	310.97
376.544	312.32
376.925	334.92
377.305	335.82
377.686	313.68
378.066	306.67
378.447	325.43
378.827	324.3
379.208	336.28
379.588	331.98
379.968	330.17
380.349	336.95
380.729	355.49
381.109	340.8
381.489	332.66
381.87	324.3
382.25	334.02
382.63	341.02
383.01	335.37
383.39	340.12
383.77	324.98
384.15	336.73
384.53	360
384.91	340.57
385.29	346.22
385.67	355.94
386.049	331.98
386.429	345.77
386.809	334.24
387.189	332.66
387.568	347.58
387.948	336.28
388.328	366.33
388.707	361.13
389.087	347.8
389.466	358.87
389.846	350.74
390.225	361.36
390.605	355.94
390.984	348.93
391.363	358.42
391.743	379.67
392.122	353
392.501	359.1
392.881	368.59
393.26	349.38
393.639	351.87
394.018	358.65
394.397	362.26
394.776	364.07
395.155	383.51
395.534	366.11
395.913	368.14
396.292	385.09
396.671	348.93
397.05	385.77
397.429	379.67
397.808	401.36
398.186	379.44
398.565	374.47
398.944	376.95
399.323	356.39
399.701	368.37
400.08	367.01
400.458	394.35
400.837	376.05
401.215	375.6
401.594	381.7
401.972	388.48
402.351	382.15
402.729	375.15
403.107	396.16
403.486	398.87
403.864	406.33
404.242	382.15
404.62	410.85
404.999	391.19
405.377	413.79
405.755	411.08
406.133	399.33
406.511	410.62
406.889	406.78
407.267	421.47
407.645	409.72
408.023	416.27
408.401	417.4
408.779	428.25
409.156	398.87
409.534	418.76
409.912	411.98
410.29	430.74
410.667	417.63
411.045	451.98
411.422	432.77
411.8	441.81
412.178	425.09
412.555	439.55
412.933	459.66
413.31	441.13
413.687	455.82
414.065	454.24
414.442	463.05
414.819	463.96
415.197	458.31
415.574	471.64
415.951	487.01
416.328	443.62
416.705	442.71
417.082	454.92
417.46	460.57
417.837	460.34
418.214	481.13
418.591	482.26
418.967	477.74
419.344	507.12
419.721	482.26
420.098	473.67
420.475	486.78
420.852	485.2
421.228	504.86
421.605	485.43
421.982	475.26
422.358	494.24
422.735	522.49
423.111	521.81
423.488	513.67
423.864	509.61
424.241	510.06
424.617	523.39
424.994	502.37
425.37	540.79
425.746	528.81
426.123	530.4
426.499	563.84
426.875	544.86
427.251	546.44
427.627	552.77
428.003	537.18
428.379	554.8
428.756	530.85
429.132	550.51
429.507	549.38
429.883	555.71
430.259	570.17
430.635	572.65
431.011	585.08
431.387	590.06
431.763	601.81
432.138	585.31
432.514	609.94
432.89	594.8
433.265	596.38
433.641	622.14
434.016	629.83
434.392	594.57
434.767	607.68
435.143	605.65
435.518	614.69
435.894	622.82
436.269	642.94
436.644	657.17
437.02	637.74
437.395	641.81
437.77	630.28
438.145	680.45
438.52	656.27
438.895	672.99
439.271	645.19
439.646	668.7
440.021	684.29
440.395	692.43
440.77	666.89
441.145	683.39
441.52	697.85
441.895	694.01
442.27	708.7
442.645	692.65
443.019	703.05
443.394	717.74
443.769	700.56
444.143	696.04
444.518	690.62
444.892	715.7
445.267	741.46
445.641	724.97
446.016	727.23
446.39	751.63
446.764	711.18
447.139	736.27
447.513	762.71
447.887	750.28
448.262	764.51
448.636	733.55
449.01	766.77
449.384	759.54
449.758	736.49
450.132	762.71
450.506	772.65
450.88	764.74
451.254	768.58
451.628	785.76
452.002	794.57
452.376	787.79
452.75	799.77
453.123	796.38
453.497	813.1
453.871	833.21
454.244	834.79
454.618	854.23
454.992	840.22
455.365	848.58
455.739	862.36
456.112	855.58
456.486	885.41
456.859	889.93
457.232	884.51
457.606	884.28
457.979	915.7
458.352	921.35
458.725	941.23
459.099	939.65
459.472	927.22
459.845	955.7
460.218	948.01
460.591	980.33
460.964	985.52
461.337	1008.12
461.71	968.8
462.083	994.56
462.456	1009.03
462.829	1034.34
463.201	1049.48
463.574	1050.38
463.947	1051.96
464.32	1035.69
464.692	1118.63
465.065	1077.73
465.438	1122.92
465.81	1112.3
466.183	1138.29
466.555	1162.02
466.928	1144.16
467.3	1151.85
467.672	1195.24
468.045	1206.99
468.417	1231.62
468.789	1226.2
469.161	1263.94
469.534	1277.95
469.906	1283.6
470.278	1314.1
470.65	1338.96
471.022	1349.36
471.394	1368.57
471.766	1411.95
472.138	1430.26
472.51	1471.16
472.882	1494.44
473.253	1480.43
473.625	1517.49
473.997	1572.18
474.369	1602.91
474.74	1612.18
475.112	1664.6
475.484	1668.44
475.855	1698.5
476.227	1712.29
476.598	1789.8
476.97	1851.26
477.341	1869.12
477.713	1929.91
478.084	1938.72
478.455	1998.38
478.827	2044.03
479.198	2115.66
479.569	2160.41
479.94	2220.07
480.311	2275.43
480.682	2335.55
481.053	2436.56
481.424	2477.01
481.795	2517.01
482.166	2569.66
482.537	2668.64
482.908	2724.46
483.279	2810.34
483.65	2872.03
484.021	2906.38
484.391	3014.17
484.762	3099.59
485.133	3100.72
485.503	3187.95
485.874	3294.16
486.244	3369.87
486.615	3496.65
486.985	3537.1
487.356	3648.73
487.726	3708.84
488.097	3801.95
488.467	3895.96
488.837	4010.76
489.207	4068.83
489.578	4207.59
489.948	4292.33
490.318	4364.65
490.688	4496.39
491.058	4581.36
491.428	4646.22
491.798	4725.54
492.168	4829.72
492.538	4960.11
492.908	5018.64
493.278	5147.68
493.648	5220.22
494.017	5342.7
494.387	5406.43
494.757	5486.2
495.126	5586.76
495.496	5706.3
495.866	5735.46
496.235	5878.5
496.605	5963.02
496.974	6019.97
497.344	6102.45
497.713	6193.75
498.082	6299.28
498.452	6443.69
498.821	6478.71
499.19	6565.72
499.559	6699.27
499.928	6727.75
500.298	6810.68
500.667	6923.67
501.036	6935.42
501.405	7066.04
501.774	7049.32
502.143	7230.78
502.512	7215.64
502.88	7302.42
503.249	7399.82
503.618	7478.24
503.987	7534.28
504.356	7583.09
504.724	7671
505.093	7784.22
505.462	7821.73
505.83	7893.14
506.199	8014.49
506.567	8122.51
506.936	8149.4
507.304	8258.33
507.672	8322.06
508.041	8394.6
508.409	8478.21
508.777	8521.82
509.145	8609.05
509.514	8671.2
509.882	8740.8
510.25	8742.84
510.618	8887.24
510.986	8830.74
511.354	8991.19
511.722	9051.3
512.09	9172.43
512.458	9213.78
512.826	9273.44
513.193	9303.05
513.561	9350.95
513.929	9436.15
514.297	9500.33
514.664	9556.82
515.032	9609.93
515.4	9707.33
515.767	9726.31
516.135	9800.89
516.502	9804.05
516.869	9954.33
517.237	10025.06
517.604	10062.8
517.972	10063.48
518.339	10189.8
518.706	10217.82
519.073	10256.69
519.44	10334.66
519.808	10418.5
520.175	10449.68
520.542	10566.52
520.909	10606.29
521.276	10722.67
521.643	10722.9
522.009	10827.53
522.376	10853.06
522.743	10967.41
523.11	10985.04
523.477	11146.61
523.843	11123.11
524.21	11254.41
524.577	11334.18
524.943	11383.22
525.31	11507.73
525.676	11629.99
526.043	11632.7
526.409	11726.26
526.776	11804.22
527.142	11860.04
527.508	11974.39
527.874	12017.1
528.241	12036.08
528.607	12207.38
528.973	12232.01
529.339	12324.44
529.705	12358.79
530.071	12424.55
530.437	12424.09
530.803	12569.4
531.169	12613.92
531.535	12688.04
531.901	12716.52
532.267	12754.71
532.632	12865.44
532.998	12873.35
533.364	13008.49
533.73	13009.84
534.095	13135.26
534.461	13196.05
534.826	13288.7
535.192	13250.97
535.557	13395.59
535.923	13415.93
536.288	13450.06
536.653	13504.29
537.019	13535.93
537.384	13600.79
537.749	13622.48
538.114	13751.29
538.479	13756.04
538.845	13827.67
539.21	13764.4
539.575	13927.56
539.94	13922.36
540.305	13953.55
540.67	14042.58
541.034	14149.02
541.399	14146.53
541.764	14201.67
542.129	14315.57
542.494	14335.68
542.858	14422.91
543.223	14360.99
543.587	14460.65
543.952	14496.36
544.316	14444.83
544.681	14538.39
545.045	14667.2
545.41	14772.06
545.774	14746.29
546.138	14758.95
546.503	14884.59
546.867	14889.34
547.231	15038.04
547.595	15051.37
547.959	15080.75
548.324	15085.27
548.688	15127.75
549.052	15178.37
549.416	15234.64
549.779	15285.71
550.143	15404.35
550.507	15391.7
550.871	15468.53
551.235	15535.88
551.599	15607.74
551.962	15695.87
552.326	15654.29
552.689	15789.66
553.053	15739.49
553.417	15790.56
553.78	15960.05
554.143	15847.51
554.507	15977.67
554.87	16029.88
555.234	16205.24
555.597	16069.42
555.96	16161.85
556.323	16251.34
556.686	16398
557.05	16455.4
557.413	16546.47
557.776	16488.62
558.139	16656.98
558.502	16648.62
558.865	16680.71
559.228	16802.96
559.59	16886.12
559.953	16839.12
560.316	17048.38
560.679	17037.31
561.041	17137.64
561.404	17178.32
561.767	17274.81
562.129	17369.27
562.492	17526.11
562.854	17471.19
563.217	17486.56
563.579	17563.17
563.941	17738.08
564.304	17757.06
564.666	17809.04
565.028	17790.73
565.39	17950.05
565.753	18029.82
566.115	18119.54
566.477	18169.25
566.839	18222.59
567.201	18361.34
567.563	18352.07
567.925	18469.58
568.287	18454.9
568.648	18507.1
569.01	18577.15
569.372	18691.5
569.734	18688.79
570.095	18840.65
570.457	18849.24
570.819	18959.06
571.18	18950.93
571.542	19140.08
571.903	19118.61
572.265	19149.79
572.626	19327.19
572.987	19314.76
573.349	19397.7
573.71	19488.32
574.071	19537.58
574.432	19659.84
574.794	19806.05
575.155	19860.06
575.516	19897.34
575.877	19975.99
576.238	20150.22
576.599	20194.96
576.96	20246.94
577.32	20414.84
577.681	20488.74
578.042	20701.16
578.403	20795.63
578.763	20731.45
579.124	20970.08
579.485	21120.81
579.845	21221.83
580.206	21271.09
580.566	21385.44
580.927	21464.99
581.287	21712.89
581.648	21714.25
582.008	21974.35
582.368	22016.84
582.728	22307.9
583.089	22386.77
583.449	22480.78
583.809	22624.73
584.169	22867.44
584.529	22897.04
584.889	23189.46
585.249	23164.6
585.609	23350.13
585.969	23639.39
586.329	23698.37
586.688	23922.32
587.048	24026.73
587.408	24096.1
587.768	24399.6
588.127	24527.96
588.487	24640.27
588.846	24963.65
589.206	24902.41
589.565	25146.47
589.925	25500.59
590.284	25557.31
590.643	25792.78
591.003	26107.8
591.362	26272.77
591.721	26252.66
592.08	26526.77
592.44	26751.63
592.799	26880.21
593.158	26991.39
593.517	27278.84
593.876	27433.87
594.235	27562
594.593	27720.19
594.952	27943.46
595.311	28195.2
595.67	28279.72
596.029	28442.43
596.387	28914.73
596.746	29063.88
597.104	29117.89
597.463	29153.37
597.822	29545.68
598.18	29327.38
598.538	29449.41
598.897	30028.6
599.255	29842.62
599.613	30405.54
599.972	30343.4
600.33	30707.91
600.688	30538.87
601.046	30723.95
601.404	30943.38
601.762	31015.02
602.12	31401.22
602.478	31402.58
602.836	31531.39
603.194	31683.47
603.552	31772.51
603.91	31809.57
604.268	32062.22
604.625	32146.74
604.983	32409.11
605.341	32335.21
605.698	32649.78
606.056	32692.04
606.413	32786.27
606.771	32916.21
607.128	33132.48
607.485	33250.67
607.843	33342.87
608.2	33492.01
608.557	33609.3
608.914	33598.9
609.272	33851.55
609.629	33994.15
609.986	34166.35
610.343	34014.71
610.7	34467.36
611.057	34476.85
611.414	34518.88
611.771	34647.24
612.127	34926.78
612.484	34886.1
612.841	35099.2
613.198	35047
613.554	34942.15
613.911	35301.91
614.267	35381
614.624	35410.61
614.98	35531.28
615.337	35797.04
615.693	35775.12
616.05	35788
616.406	36125.17
616.762	35928.56
617.118	35977.37
617.475	36106.18
617.831	36289.68
618.187	36481.54
618.543	36487.42
618.899	36661.88
619.255	36595.21
619.611	36744.58
619.967	36818.48
620.323	36841.53
620.678	36797.01
621.034	36830.46
621.39	36795.2
621.746	36849.21
622.101	37286.49
622.457	37031.36
622.812	37225.25
623.168	37198.13
623.523	37380.27
623.879	37434.28
624.234	37216.44
624.589	37490.1
624.945	37364.68
625.3	37607.84
625.655	37549.54
626.01	37623.88
626.365	37548.41
626.72	37612.13
627.075	37720.15
627.43	37756.54
627.785	37652.81
628.14	37787.27
628.495	37671.11
628.85	37829.53
629.205	37749.98
629.559	37974.16
629.914	37887.15
630.269	37854.84
630.623	37776.87
630.978	37772.58
631.332	37930.99
631.687	37981.84
632.041	37651
632.396	37864.56
632.75	37851.45
633.104	37804.9
633.459	37767.16
633.813	37738.23
634.167	37722.41
634.521	37822.3
634.875	37759.7
635.229	37780.72
635.583	37600.61
635.937	37586.82
636.291	37665.24
636.645	37663.88
636.999	37565.13
637.352	37668.18
637.706	37479.71
638.06	37578.46
638.413	37486.94
638.767	37407.84
639.121	37440.84
639.474	37277.23
639.828	37260.73
640.181	37491.23
640.534	37399.26
640.888	37274.06
641.241	37260.05
641.594	37320.61
641.947	37350.44
642.301	37253.5
642.654	37248.75
643.007	37194.74
643.36	37223.44
643.713	37303.44
644.066	37337.34
644.419	37103.9
644.771	36859.38
645.124	36469.11
645.477	36593.85
645.83	36236.8
646.182	36141.66
646.535	35999.29
646.888	36115.22
647.24	35931.5
647.593	36179.4
647.945	36083.13
648.298	35850.6
648.65	35820.99
649.002	35903.25
649.355	36052.17
649.707	35861.44
650.059	35942.57
650.411	36359.51
650.763	36363.8
651.115	36790.01
651.467	36782.55
651.819	36747.97
652.171	36725.83
652.523	36640.86
652.875	36557.02
653.227	36460.07
653.578	36833.85
653.93	36593.85
654.282	36470.02
654.633	36297.59
654.985	36380.3
655.337	36517.02
655.688	36581.43
656.039	36578.71
656.391	36279.96
656.742	36247.42
657.094	36367.65
657.445	36394.09
657.796	36481.09
658.147	36429.56
658.498	36329.45
658.849	36445.84
659.2	36327.87
659.551	36279.06
659.902	36297.14
660.253	36264.37
660.604	36359.28
660.955	36328.78
661.306	36294.88
661.656	36174.88
662.007	36277.25
662.358	36146.86
662.708	36231.83
663.059	36118.61
663.409	35852.86
663.76	36216.24
664.11	36211.94
664.461	36169.68
664.811	36210.81
665.161	36134.21
665.511	36009.24
665.862	36127.2
666.212	36120.87
666.562	36265.95
666.912	36119.97
667.262	35981.89
667.612	36147.99
667.962	36273.41
668.312	36139.63
668.662	36241.55
669.011	36046.52
669.361	36005.62
669.711	35973.53
670.06	36119.29
670.41	35938.73
670.76	35959.97
671.109	36084.94
671.459	35961.1
671.808	35967.43
672.157	35963.14
672.507	35744.84
672.856	35694.67
673.205	35871.84
673.554	35882.69
673.904	35819.19
674.253	35947.77
674.602	35955
674.951	35390.72
675.3	35152.31
675.649	35834.1
675.998	35753.42
676.346	35666.65
676.695	35811.73
677.044	35595.46
677.393	35753.42
677.741	35658.96
678.09	35629.13
678.438	35461
678.787	35596.59
679.135	35646.99
679.484	35375.36
679.832	35482.02
680.181	35360.44
680.529	35337.39
680.877	35387.33
681.225	35319.99
681.573	35448.12
681.922	35363.83
682.27	35120.22
682.618	35062.37
682.966	35097.62
683.314	35130.39
683.661	35016.04
684.009	34955.71
684.357	34790.51
684.705	34800
685.053	34659.67
685.4	34720.23
685.748	34617.41
686.095	34491.08
686.443	34447.24
686.79	34277.08
687.138	34515.72
687.485	34395.04
687.832	34267.36
688.18	34207.25
688.527	34186.69
688.874	34191.66
689.221	34044.99
689.568	33882.29
689.915	33963.64
690.262	33918.22
690.609	33797.77
690.956	33652.01
691.303	33578.79
691.65	33476.42
691.997	33603.88
692.344	33336.31
692.69	33371.57
693.037	33266.94
693.383	33071.01
693.73	33216.09
694.077	33026.26
694.423	32957.57
694.769	32771.58
695.116	32799.6
695.462	32730.45
695.808	32602.55
696.155	32673.28
696.501	32425.83
696.847	32540.85
697.193	32184.93
697.539	32384.7
697.885	32110.81
698.231	31994.88
698.577	32091.83
698.923	32011.15
699.269	31908.55
699.614	31694.1
699.96	31633.53
700.306	31629.69
700.651	31523.25
700.997	31440.77
701.342	31377.95
701.688	31309.93
702.033	31157.84
702.379	31135.47
702.724	31122.81
703.069	31132.75
703.415	30880.78
703.76	30714.23
704.105	30818.86
704.45	30762.14
704.795	30513.56
705.14	30409.84
705.485	30577.74
705.83	30255.94
706.175	30368.71
706.52	30148.83
706.865	30212.78
707.209	30169.84
707.554	30092.78
707.899	30137.3
708.243	29974.59
708.588	29878.1
708.932	29722.4
709.277	29537.54
709.621	29712.91
709.966	29496.19
710.31	29541.16
710.654	29423.87
710.998	29436.53
711.342	29368.51
711.687	29229.53
712.031	29207.38
712.375	29069.31
712.719	29124.45
713.063	29012.36
713.407	29039.93
713.75	28955.86
714.094	28966.71
714.438	28815.08
714.782	28778.69
715.125	28700.95
715.469	28668.41
715.812	28479.49
716.156	28395.88
716.499	28524.69
716.843	28438.36
717.186	28320.17
717.53	28401.53
717.873	28356.1
718.216	28287.18
718.559	28234.07
718.902	27956.57
719.246	28084.47
719.589	28091.7
719.932	27902.33
720.275	27850.58
720.617	27916.57
720.96	27806.51
721.303	27770.81
721.646	27859.39
721.989	27622.34
722.331	27626.18
722.674	27570.14
723.016	27674.31
723.359	27463.92
723.701	27553.41
724.044	27419.63
724.386	27243.37
724.729	27348.9
725.071	27238.17
725.413	27282.69
725.755	27317.04
726.097	27159.53
726.439	26979.87
726.782	27097.61
727.124	27125.4
727.465	26935.58
727.807	26876.14
728.149	26968.34
728.491	26824.85
728.833	26845.41
729.175	26775.36
729.516	26838.63
729.858	26693.32
730.199	26643.61
730.541	26678.41
730.882	26593.44
731.224	26644.51
731.565	26373.11
731.906	26447.91
732.248	26583.72
732.589	26326.55
732.93	26246.78
733.271	26321.58
733.612	26252.66
733.953	26272.09
734.294	26218.99
734.635	26160.68
734.976	26094.02
735.317	26047.01
735.658	26022.38
735.999	25945.77
736.339	26013.57
736.68	26106.67
737.021	25883.18
737.361	25852.44
737.702	26004.75
738.042	25843.4
738.383	25837.75
738.723	25689.51
739.063	25671.66
739.404	25793.01
739.744	25614.71
740.084	25530.87
740.424	25636.18
740.764	25573.8
741.104	25392.79
741.444	25485.67
741.784	25355.96
742.124	25405
742.464	25384.43
742.804	25320.48
743.143	25153.48
743.483	25222.18
743.823	25095.17
744.162	25002.29
744.502	25029.86
744.841	25051.56
745.181	25073.25
745.52	24960.04
745.86	25014.05
746.199	24932.69
746.538	24973.14
746.877	24805.92
747.216	24836.88
747.556	24746.93
747.895	24797.78
748.234	24735.18
748.573	24667.39
748.911	24587.62
749.25	24537.45
749.589	24458.35
749.928	24442.54
750.267	24508.3
750.605	24572.93
750.944	24556.43
751.283	24338.81
751.621	24331.13
751.96	24221.3
752.298	24241.18
752.636	24215.2
752.975	24082.09
753.313	24063.34
753.651	24132.94
753.989	24079.16
754.327	23895.43
754.666	23842.78
755.004	23915.32
755.342	23906.96
755.679	23796.68
756.017	23656.57
756.355	23677.36
756.693	23545.61
757.031	23688.88
757.368	23476.23
757.706	23436.69
