Data from hue_170_FLMS001491_00040.txt Node
Date: Tue Feb 07 16:48:37 GMT 2017
User: dcchb
Spectrometer: FLMS00149
Trigger mode: 0
Integration Time (sec): 2.000000E-2
Scans to average: 10
Electric dark correction enabled: true
Nonlinearity correction enabled: false
Boxcar width: 0
XAxis mode: Wavelengths
Number of Pixels in Spectrum: 2048
>>>>>Begin Spectral Data<<<<<
341.393	2.56
341.776	2.56
342.16	2.56
342.543	-66.59
342.927	-44.22
343.31	-54.39
343.693	-62.75
344.077	-64.11
344.46	-59.14
344.843	-39.93
345.226	-49.65
345.61	-23.88
345.993	-29.31
346.376	-15.07
346.759	12.27
347.142	11.6
347.525	32.16
347.908	68.77
348.291	81.65
348.674	92.72
349.057	99.05
349.44	119.16
349.823	160.29
350.206	146.96
350.588	172.72
350.971	205.04
351.354	237.8
351.737	236.45
352.119	224.7
352.502	252.49
352.884	243.23
353.267	267.63
353.65	281.87
354.032	285.94
354.414	318.25
354.797	302.89
355.179	315.32
355.562	323.68
355.944	325.94
356.326	317.12
356.709	320.29
357.091	349.21
357.473	327.97
357.855	341.98
358.238	329.55
358.62	335.2
359.002	344.47
359.384	341.98
359.766	332.94
360.148	322.1
360.53	340.4
360.912	353.96
361.294	310.34
361.676	319.84
362.057	325.26
362.439	319.61
362.821	320.74
363.203	297.92
363.584	326.16
363.966	321.64
364.348	333.85
364.729	305.83
365.111	334.53
365.493	325.94
365.874	326.62
366.256	297.69
366.637	297.92
367.019	347.86
367.4	304.7
367.781	310.57
368.163	291.81
368.544	308.76
368.925	310.12
369.306	285.71
369.688	318.03
370.069	307.86
370.45	317.35
370.831	306.5
371.212	291.81
371.593	305.15
371.974	315.54
372.355	295.88
372.736	331.81
373.117	320.74
373.498	313.28
373.879	316.9
374.26	312.6
374.641	316.45
375.021	315.77
375.402	308.09
375.783	323.68
376.163	316.67
376.544	315.32
376.925	311.25
377.305	327.07
377.686	334.07
378.066	319.61
378.447	320.74
378.827	325.26
379.208	334.98
379.588	334.98
379.968	319.38
380.349	326.16
380.729	320.29
381.109	336.56
381.489	333.17
381.87	325.03
382.25	345.6
382.63	318.93
383.01	331.59
383.39	333.62
383.77	314.41
384.15	336.56
384.53	335.2
384.91	332.49
385.29	347.63
385.67	351.02
386.049	344.47
386.429	345.37
386.809	352.83
387.189	347.18
387.568	339.27
387.948	333.62
388.328	358.71
388.707	345.37
389.087	337.69
389.466	352.38
389.846	365.71
390.225	388.31
390.605	357.8
390.984	367.97
391.363	377.01
391.743	368.87
392.122	384.47
392.501	359.16
392.881	366.16
393.26	365.94
393.639	364.35
394.018	376.78
394.397	371.59
394.776	374.07
395.155	362.77
395.534	370
395.913	366.16
396.292	358.93
396.671	391.02
397.05	386.5
397.429	403.45
397.808	388.53
398.186	396.67
398.565	386.73
398.944	411.59
399.323	384.92
399.701	380.4
400.08	395.99
400.458	404.58
400.837	409.1
401.215	379.95
401.594	402.55
401.972	406.39
402.351	435.77
402.729	400.06
403.107	390.57
403.486	394.41
403.864	428.99
404.242	422.66
404.62	417.23
404.999	428.99
405.377	445.48
405.755	438.93
406.133	427.18
406.511	447.97
406.889	431.92
407.267	447.74
407.645	448.19
408.023	433.28
408.401	464.69
408.779	471.47
409.156	454.75
409.534	480.96
409.912	475.99
410.29	475.76
410.667	457.91
411.045	478.25
411.422	501.53
411.8	495.88
412.178	513.28
412.555	515.99
412.933	507.63
413.31	508.76
413.687	512.15
414.065	516.44
414.442	512.37
414.819	527.97
415.197	552.37
415.574	551.47
415.951	574.97
416.328	558.93
416.705	554.63
417.082	578.13
417.46	575.42
417.837	591.92
418.214	584.69
418.591	586.27
418.967	588.3
419.344	588.76
419.721	596.89
420.098	588.76
420.475	599.83
420.852	619.04
421.228	605.48
421.605	623.11
421.982	631.47
422.358	636.44
422.735	644.35
423.111	649.77
423.488	652.71
423.864	666.27
424.241	673.27
424.617	661.75
424.994	683.67
425.37	677.34
425.746	692.93
426.123	700.17
426.499	715.08
426.875	718.47
427.251	716.66
427.627	752.82
428.003	739.94
428.379	749.2
428.756	760.73
429.132	761.41
429.507	777.68
429.883	788.3
430.259	795.98
430.635	800.95
431.011	765.47
431.387	811.8
431.763	798.47
432.138	822.65
432.514	823.78
432.89	812.48
433.265	876.88
433.641	864
434.016	894.74
434.392	910.33
434.767	925.7
435.143	933.83
435.518	899.48
435.894	929.31
436.269	929.76
436.644	955.3
437.02	966.82
437.395	959.14
437.77	988.75
438.145	998.69
438.52	1021.06
438.895	1012.93
439.271	991.68
439.646	1038.91
440.021	1070.32
440.395	1058.12
440.77	1087.5
441.145	1083.21
441.52	1101.28
441.895	1088.18
442.27	1096.76
442.645	1117.1
443.019	1116.43
443.394	1137.22
443.769	1151.9
444.143	1165.92
444.518	1174.05
444.892	1198.68
445.267	1179.93
445.641	1195.75
446.016	1219.7
446.39	1216.31
446.764	1214.73
447.139	1214.5
447.513	1241.17
447.887	1239.36
448.262	1245.01
448.636	1240.49
449.01	1288.17
449.384	1257.89
449.758	1302.64
450.132	1290.88
450.506	1337.66
450.88	1346.25
451.254	1297.66
451.628	1353.26
452.002	1370.66
452.376	1382.18
452.75	1375.85
453.123	1405.23
453.497	1441.61
453.871	1443.87
454.244	1446.36
454.618	1476.64
454.992	1468.28
455.365	1477.55
455.739	1533.82
456.112	1541.72
456.486	1549.41
456.859	1577.88
457.232	1617.88
457.606	1587.37
457.979	1639.35
458.352	1659.46
458.725	1654.72
459.099	1667.37
459.472	1724.55
459.845	1719.35
460.218	1751.21
460.591	1795.5
460.964	1792.79
461.337	1802.06
461.71	1840.02
462.083	1885.67
462.456	1897.65
462.829	1898.78
463.201	1954.6
463.574	1970.87
463.947	1988.27
464.32	2013.13
464.692	2036.85
465.065	2056.06
465.438	2090.41
465.81	2136.29
466.183	2149.39
466.555	2208.6
466.928	2201.37
467.3	2228.03
467.672	2292.67
468.045	2317.52
468.417	2372.89
468.789	2393.45
469.161	2399.56
469.534	2453.79
469.906	2538.76
470.278	2540.57
470.65	2571.3
471.022	2634.8
471.394	2686.55
471.766	2691.75
472.138	2748.25
472.51	2843.39
472.882	2893.78
473.253	2905.98
473.625	3015.36
473.997	3067.79
474.369	3119.54
474.74	3143.49
475.112	3197.5
475.484	3319.98
475.855	3360.21
476.227	3401.79
476.598	3519.53
476.97	3564.04
477.341	3632.52
477.713	3739.41
478.084	3779.41
478.455	3880.87
478.827	3961.32
479.198	4093.07
479.569	4150.24
479.94	4281.99
480.311	4338.26
480.682	4477.92
481.053	4637.01
481.424	4632.04
481.795	4758.82
482.166	4832.71
482.537	4935.08
482.908	5095.08
483.279	5167.62
483.65	5289.42
484.021	5421.4
484.391	5502.52
484.762	5619.36
485.133	5654.84
485.503	5844.89
485.874	5927.6
486.244	6037.43
486.615	6210.53
486.985	6294.37
487.356	6503.18
487.726	6627.02
488.097	6733.45
488.467	6822.04
488.837	6993.56
489.207	7114.01
489.578	7199.2
489.948	7323.27
490.318	7490.27
490.688	7557.84
491.058	7718.06
491.428	7852.29
491.798	7993.76
492.168	8151.95
492.538	8183.58
492.908	8341.32
493.278	8457.7
493.648	8542.22
494.017	8671.71
494.387	8775.43
494.757	8892.27
495.126	9004.58
495.496	9050.68
495.866	9194.41
496.235	9218.36
496.605	9379.71
496.974	9476.21
497.344	9559.37
497.713	9651.34
498.082	9768.85
498.452	9855.18
498.821	9938.34
499.19	9970.88
499.559	10065.57
499.928	10149.41
500.298	10193.02
500.667	10325.9
501.036	10394.6
501.405	10413.81
501.774	10491.09
502.143	10561.83
502.512	10627.36
502.88	10746
503.249	10752.78
503.618	10869.16
503.987	10891.54
504.356	10946.9
504.724	10987.13
505.093	11049.27
505.462	11135.6
505.83	11155.26
506.199	11245.42
506.567	11412.65
506.936	11388.02
507.304	11440.9
507.672	11559.99
508.041	11487.9
508.409	11578.52
508.777	11703.49
509.145	11758.86
509.514	11835.69
509.882	11810.83
510.25	11819.65
510.618	11955.46
510.986	11884.73
511.354	12041.34
511.722	12079.08
512.09	12136.02
512.458	12056.7
512.826	12211.5
513.193	12220.54
513.561	12235.68
513.929	12277.94
514.297	12367.43
514.664	12475.45
515.032	12411.27
515.4	12484.26
515.767	12491.27
516.135	12496.69
516.502	12322.01
516.869	12581.89
517.237	12646.52
517.604	12554.09
517.972	12627.08
518.339	12693.52
518.706	12668.89
519.073	12711.15
519.44	12698.04
519.808	12840.86
520.175	12804.48
520.542	12918.38
520.909	12896.68
521.276	12835.67
521.643	13005.15
522.009	12919.28
522.376	13010.12
522.743	12996.34
523.11	13105.04
523.477	13084.02
523.843	13157.01
524.21	13225.26
524.577	13304.35
524.943	13298.25
525.31	13319.49
525.676	13356.56
526.043	13420.06
526.409	13400.62
526.776	13473.84
527.142	13308.87
527.508	13387.52
527.874	13457.8
528.241	13480.85
528.607	13455.99
528.973	13435.2
529.339	13425.93
529.705	13525.36
530.071	13529.43
530.437	13459.38
530.803	13432.94
531.169	13504.57
531.535	13466.38
531.901	13489.43
532.267	13411.47
532.632	13458.7
532.998	13508.87
533.364	13473.16
533.73	13420.73
534.095	13444.24
534.461	13446.5
534.826	13431.13
535.192	13350.91
535.557	13429.55
535.923	13330.34
536.288	13372.83
536.653	13311.81
537.019	13194.53
537.384	13192.94
537.749	13227.75
538.114	13250.8
538.479	13113.17
538.845	13060.97
539.21	13045.38
539.575	13039.73
539.94	13062.1
540.305	13015.55
540.67	12910.24
541.034	12976.68
541.399	13007.64
541.764	12926.96
542.129	12945.49
542.494	12832.95
542.858	12812.62
543.223	12792.05
543.587	12798.83
543.952	12712.73
544.316	12544.83
544.681	12604.94
545.045	12670.02
545.41	12674.77
545.774	12486.75
546.138	12488.33
546.503	12469.8
546.867	12394.1
547.231	12426.86
547.595	12397.48
547.959	12337.83
548.324	12237.71
548.688	12266.41
549.052	12216.47
549.416	12239.75
549.779	12216.47
550.143	12087.21
550.507	12169.24
550.871	12094.44
551.235	12082.46
551.599	12083.82
551.962	11983.26
552.326	12005.4
552.689	11971.96
553.053	11908.91
553.417	11879.53
553.78	11986.65
554.143	11916.82
554.507	11788.24
554.87	11914.56
555.234	11862.13
555.597	11758.18
555.96	11801.79
556.323	11739.42
556.686	11720.67
557.05	11752.98
557.413	11742.13
557.776	11695.13
558.139	11694.45
558.502	11651.97
558.865	11684.96
559.228	11715.47
559.59	11668.69
559.953	11617.17
560.316	11729.03
560.679	11618.3
561.041	11698.75
561.404	11726.32
561.767	11735.81
562.129	11645.87
562.492	11623.49
562.854	11624.17
563.217	11595.92
563.579	11620.56
563.941	11662.59
564.304	11692.42
564.666	11642.02
565.028	11754.56
565.39	11671.85
565.753	11674.79
566.115	11709.14
566.477	11714.11
566.839	11668.92
567.201	11705.53
567.563	11737.39
567.925	11706.66
568.287	11755.92
568.648	11794.56
569.01	11766.09
569.372	11850.83
569.734	11758.18
570.095	11842.7
570.457	11809.93
570.819	11887.44
571.18	11745.75
571.542	11769.25
571.903	11820.1
572.265	11859.19
572.626	11861
572.987	11887.22
573.349	11877.72
573.71	11945.97
574.071	11771.06
574.432	11914.79
574.794	11998.63
575.155	11899.64
575.516	11842.92
575.877	11962.69
576.238	11901.23
576.599	11936.48
576.96	11825.75
577.32	11950.26
577.681	11922.47
578.042	11936.93
578.403	11917.5
578.763	11886.09
579.124	11945.52
579.485	11913.66
579.845	11957.04
580.206	11926.76
580.566	11888.35
580.927	11911.62
581.287	11930.83
581.648	11861.68
582.008	11945.75
582.368	11850.83
582.728	11933.77
583.089	11865.97
583.449	11922.69
583.809	11865.52
584.169	11890.38
584.529	11797.5
584.889	11852.19
585.249	11820.78
585.609	11743.72
585.969	11824.17
586.329	11743.94
586.688	11882.24
587.048	11726.09
587.408	11713.21
587.768	11712.53
588.127	11761.57
588.487	11770.38
588.846	11754.79
589.206	11717.05
589.565	11679.54
589.925	11772.42
590.284	11712.53
590.643	11736.71
591.003	11730.38
591.362	11723.38
591.721	11708.92
592.08	11705.75
592.44	11727.9
592.799	11678.86
593.158	11623.95
593.517	11628.01
593.876	11676.83
594.235	11582.36
594.593	11641.35
594.952	11599.09
595.311	11577.85
595.67	11600.22
596.029	11592.99
596.387	11623.72
596.746	11681.57
597.104	11578.07
597.463	11588.24
597.822	11642.93
598.18	11569.71
598.538	11633.66
598.897	11628.92
599.255	11575.13
599.613	11645.87
599.972	11577.62
600.33	11582.82
600.688	11567.22
601.046	11585.98
601.404	11606.77
601.762	11574.46
602.12	11606.32
602.478	11646.32
602.836	11568.81
603.194	11505.08
603.552	11555.7
603.91	11469.15
604.268	11536.94
604.625	11476.61
604.983	11562.03
605.341	11500.79
605.698	11531.52
606.056	11601.12
606.413	11544.17
606.771	11592.76
607.128	11546.66
607.485	11552.08
607.843	11518.86
608.2	11576.49
608.557	11653.32
608.914	11654.91
609.272	11661.46
609.629	11628.92
609.986	11627.56
610.343	11656.26
610.7	11729.93
611.057	11670.95
611.414	11716.82
611.771	11699.65
612.127	11661.23
612.484	11729.71
612.841	11715.47
613.198	11618.97
613.554	11727.22
613.911	11713.21
614.267	11695.36
614.624	11790.95
614.98	11670.72
615.337	11778.74
615.693	11767.44
616.05	11797.95
616.406	11813.32
616.762	11740.55
617.118	11770.38
617.475	11757.28
617.831	11824.84
618.187	11815.35
618.543	11799.08
618.899	11908.23
619.255	11854.45
619.611	11808.35
619.967	11903.49
620.323	11923.82
620.678	11788.91
621.034	11817.61
621.39	11822.58
621.746	11759.99
622.101	11917.72
622.457	11749.14
622.812	11831.4
623.168	11811.29
623.523	11797.5
623.879	11899.42
624.234	11776.94
624.589	11819.42
624.945	11862.13
625.3	11910.94
625.655	11880.44
626.01	11816.71
626.365	11829.82
626.72	11798.18
627.075	11802.7
627.43	11834.79
627.785	11847.44
628.14	11839.76
628.495	11877.05
628.85	11798.86
629.205	11825.97
629.559	11802.92
629.914	11768.35
630.269	11724.96
630.623	11775.81
630.978	11754.34
631.332	11782.13
631.687	11773.77
632.041	11675.92
632.396	11765.64
632.75	11700.1
633.104	11729.03
633.459	11572.87
633.813	11615.13
634.167	11681.12
634.521	11632.08
634.875	11618.52
635.229	11678.63
635.583	11557.51
635.937	11528.58
636.291	11498.07
636.645	11542.37
636.999	11523.38
637.352	11532.2
637.706	11463.72
638.06	11489.94
638.413	11472.99
638.767	11393.9
639.121	11450.17
639.474	11352.99
639.828	11330.39
640.181	11373.78
640.534	11449.94
640.888	11342.6
641.241	11308.25
641.594	11384.4
641.947	11469.83
642.301	11334.24
642.654	11427.57
643.007	11336.72
643.36	11324.74
643.713	11276.38
644.066	11325.42
644.419	11270.28
644.771	11304.63
645.124	11125.2
645.477	11193.67
645.83	11035.03
646.182	11015.15
646.535	10971.08
646.888	11063.06
647.24	11001.36
647.593	11018.54
647.945	10979.44
648.298	10985.54
648.65	10991.19
649.002	10924.3
649.355	10981.25
649.707	10915.49
650.059	11045.2
650.411	11193.45
650.763	11158.2
651.115	11218.53
651.467	11211.08
651.819	11177.86
652.171	11114.35
652.523	11169.95
652.875	11167.46
653.227	11055.15
653.578	11188.03
653.93	11115.26
654.282	11136.95
654.633	11098.76
654.985	11094.47
655.337	11104.64
655.688	11217.18
656.039	11221.7
656.391	11084.07
656.742	11168.36
657.094	11183.51
657.445	11173.56
657.796	11207.46
658.147	11103.96
658.498	11147.57
658.849	11163.17
659.2	11144.41
659.551	11206.56
659.902	11253.56
660.253	11230.28
660.604	11272.77
660.955	11206.78
661.306	11251.98
661.656	11181.7
662.007	11217.63
662.358	11206.56
662.708	11278.64
663.059	11273.45
663.409	11152.55
663.76	11260.34
664.11	11295.14
664.461	11279.1
664.811	11277.51
665.161	11234.8
665.511	11315.03
665.862	11390.73
666.212	11299.21
666.562	11340.56
666.912	11270.73
667.262	11233.67
667.612	11235.71
667.962	11288.59
668.312	11233.22
668.662	11275.71
669.011	11303.05
669.361	11233.22
669.711	11196.84
670.06	11154.13
670.41	11223.73
670.76	11198.42
671.109	11222.37
671.459	11183.05
671.808	11242.03
672.157	11191.87
672.507	11134.02
672.856	11170.85
673.205	11132.89
673.554	11108.48
673.904	11087.24
674.253	11174.01
674.602	11135.15
674.951	10994.36
675.3	10913
675.649	11123.85
675.998	11097.41
676.346	11064.64
676.695	11108.25
677.044	10979.44
677.393	11026.67
677.741	11106.22
678.09	11005.2
678.438	11013.57
678.787	11013.79
679.135	11018.31
679.484	10929.05
679.832	10963.4
680.181	10927.24
680.529	10967.47
680.877	10938.99
681.225	10851.31
681.573	10904.42
681.922	10821.26
682.27	10782.39
682.618	10791.2
682.966	10844.08
683.314	10769.28
683.661	10730.86
684.009	10633.46
684.357	10686.8
684.705	10673.91
685.053	10696.06
685.4	10688.15
685.748	10552.34
686.095	10532.45
686.443	10499.23
686.79	10506.69
687.138	10562.73
687.485	10513.24
687.832	10526.8
688.18	10456.97
688.527	10328.16
688.874	10372
689.221	10350.08
689.568	10322.51
689.915	10345.11
690.262	10281.38
690.609	10228.5
690.956	10229.63
691.303	10205
691.65	10114.83
691.997	10131.78
692.344	10050.2
692.69	10077.09
693.037	10080.03
693.383	9935.4
693.73	9999.13
694.077	9876.65
694.423	9857.66
694.769	9940.37
695.116	9854.95
695.462	9854.73
695.808	9741.06
696.155	9734.05
696.501	9687.95
696.847	9701.06
697.193	9653.15
697.539	9640.5
697.885	9558.01
698.231	9497
698.577	9487.73
698.923	9455.87
699.269	9419.03
699.614	9409.99
699.96	9366.6
700.306	9340.39
700.651	9262.2
700.997	9283.22
701.342	9250.45
701.688	9163.45
702.033	9205.93
702.379	9159.83
702.724	9140.4
703.069	9116.22
703.415	9030.57
703.76	9003.22
704.105	9043.22
704.45	8935.43
704.795	8918.03
705.14	8843.45
705.485	8891.14
705.83	8838.26
706.175	8826.73
706.52	8833.96
706.865	8751.48
707.209	8722.33
707.554	8735.21
707.899	8739.05
708.243	8632.39
708.588	8631.26
708.932	8601.2
709.277	8619.5
709.621	8523.91
709.966	8553.97
710.31	8520.3
710.654	8454.09
710.998	8487.31
711.342	8516.91
711.687	8438.72
712.031	8392.17
712.375	8332.05
712.719	8355.33
713.063	8429
713.407	8387.65
713.75	8294.77
714.094	8258.84
714.438	8234.2
714.782	8230.14
715.125	8222.23
715.469	8255.67
715.812	8222.91
716.156	8127.99
716.499	8183.13
716.843	8181.1
717.186	8116.02
717.53	8190.59
717.873	8122.79
718.216	8146.75
718.559	8116.92
718.902	8039.63
719.246	8033.53
719.589	8011.61
719.932	7982.46
720.275	8056.81
720.617	8078.95
720.96	7978.84
721.303	7994.66
721.646	8025.62
721.989	7968.67
722.331	7980.2
722.674	7925.96
723.016	8031.5
723.359	7891.61
723.701	7959.64
724.044	7945.17
724.386	7919.41
724.729	7978.17
725.071	7947.88
725.413	7948.56
725.755	7903.82
726.097	7933.65
726.439	7872.18
726.782	7882.8
727.124	7915.12
727.465	7885.51
727.807	7913.08
728.149	7891.16
728.491	7865.4
728.833	7831.73
729.175	7831.05
729.516	7793.31
729.858	7827.44
730.199	7915.34
730.541	7868.56
730.882	7846.42
731.224	7823.59
731.565	7779.53
731.906	7797.38
732.248	7812.52
732.589	7825.18
732.93	7786.53
733.271	7733.2
733.612	7796.02
733.953	7808
734.294	7777.95
734.635	7774.56
734.976	7815.91
735.317	7815.68
735.658	7758.74
735.999	7799.19
736.339	7766.87
736.68	7812.97
737.021	7787.44
737.361	7788.34
737.702	7821.79
738.042	7814.55
738.383	7848.23
738.723	7873.08
739.063	7827.44
739.404	7902.24
739.744	7880.09
740.084	7878.06
740.424	7877.15
740.764	7895.46
741.104	7948.79
741.444	7912.63
741.784	7921.44
742.124	7952.86
742.464	7992.63
742.804	7981.78
743.143	7980.65
743.483	8024.04
743.823	8015.45
744.162	8028.11
744.502	8118.95
744.841	8081.21
745.181	8153.53
745.52	8188.1
745.86	8217.26
746.199	8257.48
746.538	8312.62
746.877	8293.19
747.216	8448.21
747.556	8422.22
747.895	8476.68
748.234	8482.79
748.573	8553.97
748.911	8648.43
749.25	8637.58
749.589	8677.58
749.928	8759.39
750.267	8906.96
750.605	8916.45
750.944	9034.86
751.283	9011.36
751.621	9189.21
751.96	9249.32
752.298	9310.11
752.636	9457.45
752.975	9464
753.313	9565.24
753.651	9732.47
753.989	9806.37
754.327	9905.57
754.666	9984.21
755.004	10065.34
755.342	10259.46
755.679	10402.06
756.017	10456.29
756.355	10573.58
756.693	10773.12
757.031	10852.21
757.368	10976.05
757.706	11116.39
758.044	11274.35
758.381	11422.14
758.719	11609.93
759.056	11762.93
