Data from hue_220_FLMS001491_00010.txt Node
Date: Tue Feb 07 16:38:28 GMT 2017
User: dcchb
Spectrometer: FLMS00149
Trigger mode: 0
Integration Time (sec): 2.000000E-2
Scans to average: 10
Electric dark correction enabled: true
Nonlinearity correction enabled: false
Boxcar width: 0
XAxis mode: Wavelengths
Number of Pixels in Spectrum: 2048
>>>>>Begin Spectral Data<<<<<
341.393	-10.25
341.776	-10.25
342.16	-10.25
342.543	-54.32
342.927	-72.63
343.31	-65.62
343.693	-76.01
344.077	-51.61
344.46	-55.9
344.843	-43.7
345.226	-58.84
345.61	-38.05
345.993	-27.2
346.376	3.08
346.759	7.15
347.142	39.91
347.525	56.41
347.908	50.31
348.291	71.33
348.674	77.65
349.057	111.1
349.44	107.94
349.823	158.56
350.206	152.45
350.588	191.77
350.971	228.61
351.354	224.99
351.737	235.39
352.119	244.65
352.502	272.45
352.884	279.23
353.267	259.8
353.65	284.88
354.032	304.09
354.414	309.51
354.797	332.34
355.179	301.15
355.562	311.32
355.944	332.79
356.326	322.17
356.709	348.38
357.091	349.51
357.473	323.52
357.855	344.54
358.238	334.6
358.62	342.51
359.002	338.89
359.384	333.24
359.766	346.57
360.148	344.31
360.53	328.95
360.912	314.71
361.294	331.43
361.676	345.22
362.057	328.49
362.439	320.58
362.821	316.97
363.203	323.75
363.584	330.3
363.966	335.5
364.348	311.09
364.729	332.56
365.111	316.07
365.493	300.7
365.874	320.58
366.256	310.42
366.637	316.07
367.019	309.74
367.4	314.03
367.781	315.61
368.163	318.78
368.544	307.93
368.925	304.54
369.306	324.43
369.688	313.13
370.069	303.41
370.45	303.18
370.831	315.61
371.212	310.42
371.593	302.73
371.974	321.71
372.355	306.57
372.736	302.51
373.117	320.13
373.498	302.51
373.879	316.52
374.26	300.02
374.641	291.88
375.021	304.31
375.402	322.84
375.783	337.76
376.163	342.73
376.544	332.79
376.925	328.95
377.305	334.82
377.686	315.84
378.066	311.32
378.447	308.61
378.827	337.31
379.208	342.05
379.588	337.53
379.968	326.01
380.349	338.44
380.729	320.36
381.109	330.75
381.489	322.17
381.87	320.58
382.25	315.16
382.63	343.86
383.01	352.9
383.39	337.31
383.77	332.11
384.15	367.36
384.53	332.79
384.91	340.92
385.29	371.88
385.67	345.22
386.049	348.38
386.429	349.96
386.809	354.03
387.189	361.04
387.568	349.06
387.948	333.24
388.328	349.06
388.707	359
389.087	349.51
389.466	358.78
389.846	354.93
390.225	364.2
390.605	355.16
390.984	364.88
391.363	372.33
391.743	364.88
392.122	379.79
392.501	385.22
392.881	360.36
393.26	390.41
393.639	373.01
394.018	395.84
394.397	410.3
394.776	385.44
395.155	399.9
395.534	392
395.913	364.43
396.292	424.54
396.671	381.37
397.05	380.7
397.429	412.79
397.808	388.61
398.186	408.27
398.565	392.67
398.944	407.36
399.323	405.1
399.701	405.1
400.08	412.56
400.458	420.02
400.837	440.58
401.215	410.98
401.594	444.2
401.972	423.63
402.351	428.83
402.729	408.72
403.107	447.36
403.486	439.45
403.864	432.9
404.242	453.24
404.62	453.24
404.999	467.7
405.377	459.79
405.755	459.79
406.133	472.45
406.511	454.82
406.889	481.26
407.267	479
407.645	468.38
408.023	466.8
408.401	521.48
408.779	514.03
409.156	497.08
409.534	512.9
409.912	518.77
410.29	538.21
410.667	535.04
411.045	549.96
411.422	559.45
411.8	568.04
412.178	581.59
412.555	572.33
412.933	591.99
413.31	564.19
413.687	576.17
414.065	613.23
414.442	615.49
414.819	629.73
415.197	635.83
415.574	658.43
415.951	650.97
416.328	658.65
416.705	662.27
417.082	679.45
417.46	681.71
417.837	674.93
418.214	695.49
418.591	711.99
418.967	726.9
419.344	739.1
419.721	719.67
420.098	740.01
420.475	764.41
420.852	766.9
421.228	774.81
421.605	778.2
421.982	799.89
422.358	801.93
422.735	847.35
423.111	832.44
423.488	863.4
423.864	870.63
424.241	883.28
424.617	888.03
424.994	904.3
425.37	925.77
425.746	918.99
426.123	930.74
426.499	934.13
426.875	955.14
427.251	994.01
427.627	982.04
428.003	1004.41
428.379	1035.14
428.756	1025.2
429.132	1028.14
429.507	1036.05
429.883	1041.24
430.259	1082.15
430.635	1097.51
431.011	1107.91
431.387	1129.15
431.763	1150.85
432.138	1165.08
432.514	1174.12
432.89	1192.65
433.265	1211.18
433.641	1229.04
434.016	1227
434.392	1283.95
434.767	1320.56
435.143	1307.68
435.518	1342.03
435.894	1362.82
436.269	1379.09
436.644	1356.94
437.02	1419.54
437.395	1438.52
437.77	1477.62
438.145	1506.77
438.52	1538.41
438.895	1493.89
439.271	1524.39
439.646	1574.34
440.021	1590.61
440.395	1642.36
440.77	1605.3
441.145	1640.1
441.52	1656.59
441.895	1689.36
442.27	1710.38
442.645	1702.24
443.019	1751.73
443.394	1763.94
443.769	1761.68
444.143	1772.07
444.518	1789.92
444.892	1795.35
445.267	1795.57
445.641	1846.19
446.016	1853.2
446.39	1874.44
446.764	1905.63
447.139	1873.99
447.513	1902.01
447.887	1944.27
448.262	1933.2
448.636	1921.9
449.01	1954.67
449.384	1963.25
449.758	1993.54
450.132	2021.33
450.506	2039.18
450.88	2032.63
451.254	2038.96
451.628	2088
452.002	2063.59
452.376	2088.67
452.75	2104.27
453.123	2132.29
453.497	2174.55
453.871	2174.77
454.244	2233.3
454.618	2263.36
454.992	2261.55
455.365	2258.61
455.739	2327.31
456.112	2321.66
456.486	2370.7
456.859	2357.14
457.232	2417.25
457.606	2425.16
457.979	2433.75
458.352	2457.7
458.725	2509.45
459.099	2529.11
459.472	2554.2
459.845	2592.16
460.218	2563.92
460.591	2625.61
460.964	2626.06
461.337	2684.36
461.71	2720.52
462.083	2764.81
462.456	2750.58
462.829	2763.68
463.201	2781.99
463.574	2832.16
463.947	2871.7
464.32	2926.62
464.692	2925.26
465.065	2956.45
465.438	3009.55
465.81	3043.9
466.183	3063.79
466.555	3124.35
466.928	3136.56
467.3	3141.75
467.672	3205.71
468.045	3259.72
468.417	3252.03
468.789	3304.91
469.161	3340.62
469.534	3373.84
469.906	3419.71
470.278	3437.34
470.65	3450.22
471.022	3559.14
471.394	3612.7
471.766	3597.11
472.138	3659.71
472.51	3718.01
472.882	3753.26
473.253	3815.41
473.625	3835.75
473.997	3861.96
474.369	3906.25
474.74	3944.44
475.112	4042.52
475.484	4086.59
475.855	4150.54
476.227	4173.36
476.598	4282.51
476.97	4305.34
477.341	4442.06
477.713	4462.62
478.084	4424.88
478.455	4605.67
478.827	4646.8
479.198	4735.61
479.569	4688.83
479.94	4811.31
480.311	4869.84
480.682	4959.56
481.053	5045.66
481.424	5131.53
481.795	5160.01
482.166	5231.42
482.537	5291.3
482.908	5364.75
483.279	5438.42
483.65	5458.53
484.021	5571.52
484.391	5634.57
484.762	5676.15
485.133	5725.41
485.503	5757.05
485.874	5886.31
486.244	5926.09
486.615	6024.84
486.985	6082.47
487.356	6130.83
487.726	6185.29
488.097	6305.96
488.467	6318.17
488.837	6463.25
489.207	6484.26
489.578	6542.79
489.948	6650.14
490.318	6726.29
490.688	6707.08
491.058	6803.58
491.428	6851.03
491.798	6939.62
492.168	7056
492.538	7063.01
492.908	7113.4
493.278	7169.44
493.648	7159.73
494.017	7308.88
494.387	7271.81
494.757	7351.13
495.126	7478.81
495.496	7397.01
495.866	7490.11
496.235	7521.98
496.605	7563.56
496.974	7575.99
497.344	7575.76
497.713	7679.49
498.082	7738.92
498.452	7792.7
498.821	7826.15
499.19	7808.07
499.559	7899.14
499.928	7900.72
500.298	7933.27
500.667	8056.88
501.036	7954.96
501.405	8089.42
501.774	8055.52
502.143	8142.53
502.512	8124.45
502.88	8141.17
503.249	8132.36
503.618	8197.89
503.987	8189.53
504.356	8255.52
504.724	8278.12
505.093	8262.52
505.462	8311.34
505.83	8342.29
506.199	8325.57
506.567	8473.59
506.936	8392.91
507.304	8516.98
507.672	8552.91
508.041	8577.99
508.409	8581.16
508.777	8584.77
509.145	8615.51
509.514	8635.17
509.882	8661.61
510.25	8634.04
510.618	8657.77
510.986	8697.54
511.354	8737.76
511.722	8777.99
512.09	8783.64
512.458	8797.88
512.826	8832.68
513.193	8854.37
513.561	8857.54
513.929	8884.88
514.297	8903.64
514.664	8939.57
515.032	8877.2
515.4	8929.85
515.767	8963.3
516.135	8962.84
516.502	8943.18
516.869	9022.95
517.237	9068.83
517.604	8965.56
517.972	9069.73
518.339	9056.17
518.706	8963.52
519.073	9016.63
519.44	9056.85
519.808	9109.96
520.175	9058.66
520.542	9137.08
520.909	9156.06
521.276	9137.75
521.643	9171.88
522.009	9225.44
522.376	9222.5
522.743	9236.28
523.11	9249.62
523.477	9295.72
523.843	9288.71
524.21	9300.46
524.577	9371.87
524.943	9314.25
525.31	9375.04
525.676	9356.05
526.043	9407.13
526.409	9406
526.776	9516.05
527.142	9417.52
527.508	9445.09
527.874	9476.5
528.241	9481.47
528.607	9509.72
528.973	9556.05
529.339	9491.87
529.705	9531.19
530.071	9562.6
530.437	9552.66
530.803	9486.22
531.169	9513.79
531.535	9517.18
531.901	9512.66
532.267	9505.65
532.632	9508.82
532.998	9496.61
533.364	9437.63
533.73	9522.15
534.095	9483.51
534.461	9431.08
534.826	9544.75
535.192	9478.76
535.557	9510.63
535.923	9468.59
536.288	9495.71
536.653	9435.83
537.019	9389.72
537.384	9427.69
537.749	9428.82
538.114	9398.99
538.479	9356.96
538.845	9369.16
539.21	9303.4
539.575	9342.49
539.94	9335.26
540.305	9312.89
540.67	9192.89
541.034	9294.13
541.399	9252.1
541.764	9269.73
542.129	9274.02
542.494	9266.11
542.858	9251.88
543.223	9107.02
543.587	9151.09
543.952	9183.85
544.316	9168.94
544.681	9077.64
545.045	9105.66
545.41	9154.02
545.774	9110.18
546.138	9060.02
546.503	9027.47
546.867	8992
547.231	9057.76
547.595	9043.52
547.959	9007.81
548.324	9013.24
548.688	8914.71
549.052	8948.61
549.416	8924.43
549.779	8871.77
550.143	8849.85
550.507	8944.09
550.871	8849.4
551.235	8836.29
551.599	8853.02
551.962	8862.96
552.326	8796.75
552.689	8854.37
553.053	8778.22
553.417	8752.45
553.78	8820.25
554.143	8716.75
554.507	8778.22
554.87	8750.87
555.234	8808.05
555.597	8688.5
555.96	8689.18
556.323	8723.75
556.686	8668.39
557.05	8708.16
557.413	8694.83
557.776	8656.64
558.139	8728.73
558.502	8711.55
558.865	8685.34
559.228	8689.18
559.59	8710.19
559.953	8708.61
560.316	8755.84
560.679	8742.06
561.041	8702.51
561.404	8833.81
561.767	8739.57
562.129	8800.81
562.492	8757.88
562.854	8750.42
563.217	8749.74
563.579	8819.12
563.941	8808.72
564.304	8808.27
564.666	8821.83
565.028	8836.07
565.39	8846.46
565.753	8848.27
566.115	8949.74
566.477	8843.75
566.839	8890.53
567.201	8980.47
567.563	8858.67
567.925	8920.81
568.287	8922.17
568.648	8985.89
569.01	8953.8
569.372	9038.77
569.734	8970.98
570.095	9017.08
570.457	9090.52
570.819	9051.2
571.18	9037.19
571.542	9166.68
571.903	9102.73
572.265	9136.85
572.626	9168.71
572.987	9224.08
573.349	9217.75
573.71	9199.22
574.071	9228.6
574.432	9229.73
574.794	9369.16
575.155	9302.95
575.516	9322.38
575.877	9281.71
576.238	9326.45
576.599	9344.75
576.96	9436.73
577.32	9365.77
577.681	9430.85
578.042	9434.47
578.403	9354.7
578.763	9539.55
579.124	9535.94
579.485	9496.16
579.845	9563.73
580.206	9517.41
580.566	9534.58
580.927	9613.22
581.287	9598.08
581.648	9578.42
582.008	9642.83
582.368	9659.77
582.728	9682.6
583.089	9662.49
583.449	9666.33
583.809	9704.97
584.169	9714.24
584.529	9791.3
584.889	9794.69
585.249	9744.97
585.609	9734.35
585.969	9838.07
586.329	9845.08
586.688	9863.61
587.048	9831.97
587.408	9830.39
587.768	9797.62
588.127	9869.26
588.487	9844.85
588.846	9943.61
589.206	9859.09
589.565	9952.87
589.925	9973.89
590.284	9972.08
590.643	9974.79
591.003	10043.04
591.362	10021.35
591.721	10017.73
592.08	10003.27
592.44	10018.63
592.799	10066.09
593.158	10098.41
593.517	10000.33
593.876	10062.7
594.235	10057.96
594.593	10083.94
594.952	10104.51
595.311	10060.22
595.67	10082.59
596.029	10129.82
596.387	10177.5
596.746	10172.98
597.104	10135.24
597.463	10153.09
597.822	10185.18
598.18	10190.16
598.538	10153.32
598.897	10234.9
599.255	10125.98
599.613	10283.71
599.972	10229.48
600.33	10299.08
600.688	10220.89
601.046	10203.49
601.404	10260.44
601.762	10241
602.12	10223.83
602.478	10371.85
602.836	10334.56
603.194	10281.45
603.552	10310.38
603.91	10236.26
604.268	10322.36
604.625	10285.97
604.983	10348.34
605.341	10260.21
605.698	10331.62
606.056	10292.07
606.413	10346.76
606.771	10418.4
607.128	10417.04
607.485	10312.41
607.843	10348.8
608.2	10402.58
608.557	10411.62
608.914	10452.97
609.272	10395.12
609.629	10473.31
609.986	10528.23
610.343	10471.96
610.7	10509.7
611.057	10552.86
611.414	10452.75
611.771	10436.7
612.127	10518.06
612.484	10550.82
612.841	10512.41
613.198	10447.1
613.554	10558.06
613.911	10555.57
614.267	10575
614.624	10542.69
614.98	10550.15
615.337	10615.46
615.693	10546.76
616.05	10530.03
616.406	10657.26
616.762	10642.35
617.118	10645.06
617.475	10678.5
617.831	10766.64
618.187	10643.93
618.543	10688.9
618.899	10699.29
619.255	10697.49
619.611	10733.19
619.967	10722.12
620.323	10801.21
620.678	10656.81
621.034	10589.69
621.39	10652.06
621.746	10657.71
622.101	10766.41
622.457	10685.51
622.812	10769.58
623.168	10706.53
623.523	10705.4
623.879	10817.26
624.234	10653.65
624.589	10681.67
624.945	10782.46
625.3	10815.68
625.655	10697.26
626.01	10777.03
626.365	10750.59
626.72	10702.23
627.075	10636.47
627.43	10680.09
627.785	10654.1
628.14	10741.78
628.495	10681.44
628.85	10641.67
629.205	10666.98
629.559	10709.92
629.914	10603.25
630.269	10693.65
630.623	10613.42
630.978	10585.4
631.332	10564.84
631.687	10658.62
632.041	10597.83
632.396	10575.91
632.75	10610.94
633.104	10621.56
633.459	10513.99
633.813	10556.7
634.167	10496.59
634.521	10570.71
634.875	10491.62
635.229	10539.98
635.583	10505.4
635.937	10490.26
636.291	10443.26
636.645	10453.43
636.999	10431.28
637.352	10412.52
637.706	10407.55
638.06	10454.56
638.413	10328.68
638.767	10373.43
639.121	10397.16
639.474	10343.82
639.828	10336.82
640.181	10353.09
640.534	10358.96
640.888	10261.34
641.241	10252.08
641.594	10267.44
641.947	10353.54
642.301	10297.5
642.654	10290.94
643.007	10327.1
643.36	10247.78
643.713	10233.54
644.066	10333.43
644.419	10193.32
644.771	10224.28
645.124	10059.99
645.477	10079.2
645.83	9996.49
646.182	9966.66
646.535	9960.33
646.888	9986.32
647.24	9857.28
647.593	9903.16
647.945	9954.46
648.298	9859.54
648.65	9855.25
649.002	9895.7
649.355	9907.9
649.707	9852.54
650.059	9934.57
650.411	10053.21
650.763	10079.2
651.115	10134.56
651.467	10134.11
651.819	10094.34
652.171	10116.71
652.523	10116.26
652.875	10061.35
653.227	10088.24
653.578	10148.12
653.93	10176.82
654.282	10065.41
654.633	10049.37
654.985	10117.39
655.337	10076.49
655.688	10119.88
656.039	10191.06
656.391	10044.62
656.742	10153.55
657.094	10078.52
657.445	10093.44
657.796	10038.3
658.147	10128.91
658.498	10106.32
658.849	10054.34
659.2	10107.45
659.551	10037.17
659.902	10059.31
660.253	10125.3
660.604	10150.83
660.955	10102.93
661.306	10107.67
661.656	10224.73
662.007	10075.13
662.358	10170.04
662.708	10166.43
663.059	10130.72
663.409	10058.18
663.76	10181.57
664.11	10218.86
664.461	10169.59
664.811	10185.18
665.161	10174.34
665.511	10213.21
665.862	10229.7
666.212	10209.82
666.562	10191.74
666.912	10138.86
667.262	10195.58
667.612	10145.41
667.962	10238.74
668.312	10182.25
668.662	10262.24
669.011	10153.55
669.361	10167.78
669.711	10182.7
670.06	10210.04
670.41	10139.54
670.76	10146.77
671.109	10141.57
671.459	10236.93
671.808	10146.32
672.157	10187.22
672.507	10120.1
672.856	10080.1
673.205	10127.11
673.554	10090.5
673.904	10062.02
674.253	10158.74
674.602	10106.54
674.951	9969.82
675.3	9850.05
675.649	9984.96
675.998	9992.87
676.346	10044.4
676.695	10031.29
677.044	9902.25
677.393	9994.45
677.741	9956.49
678.09	9962.59
678.438	9929.6
678.787	9920.56
679.135	9933.21
679.484	9917.17
679.832	9887.79
680.181	9799.88
680.529	9902.03
680.877	9856.15
681.225	9840.11
681.573	9873.78
681.922	9881.46
682.27	9728.47
682.618	9773.44
682.966	9740.9
683.314	9690.73
683.661	9737.74
684.009	9653.67
684.357	9689.15
684.705	9641.7
685.053	9653.45
685.4	9634.46
685.748	9541.36
686.095	9560.79
686.443	9559.89
686.79	9514.92
687.138	9533.68
687.485	9531.87
687.832	9474.69
688.18	9476.28
688.527	9407.35
688.874	9479.67
689.221	9396.73
689.568	9270.41
689.915	9398.76
690.262	9330.97
690.609	9279.45
690.956	9240.35
691.303	9273.57
691.65	9241.48
691.997	9171.2
692.344	9089.85
692.69	9078.09
693.037	9083.74
693.383	9049.85
693.73	9065.21
694.077	8931.88
694.423	8987.7
694.769	8981.6
695.116	8970.3
695.462	8880.81
695.808	8865.44
696.155	8839
696.501	8744.32
696.847	8789.51
697.193	8693.25
697.539	8795.39
697.885	8660.93
698.231	8597.88
698.577	8602.63
698.923	8601.95
699.269	8524.66
699.614	8479.92
699.96	8497.77
700.306	8477.43
700.651	8414.16
700.997	8400.6
701.342	8347.72
701.688	8334.39
702.033	8368.51
702.379	8309.53
702.724	8259.81
703.069	8342.29
703.415	8180.72
703.76	8207.16
704.105	8269.75
704.45	8190.66
704.795	8118.57
705.14	8026.14
705.485	8115.41
705.83	8056.43
706.175	7986.6
706.52	8003.32
706.865	7991.8
707.209	7914.74
707.554	7861.86
707.899	7921.51
708.243	7917.9
708.588	7859.82
708.932	7788.41
709.277	7781.41
709.621	7820.95
709.966	7768.3
710.31	7733.72
710.654	7680.84
710.998	7722.42
711.342	7708.64
711.687	7651.69
712.031	7637.91
712.375	7519.04
712.719	7639.71
713.063	7555.87
713.407	7584.35
713.75	7570.34
714.094	7529.89
714.438	7554.29
714.782	7580.96
715.125	7486.05
715.469	7468.65
715.812	7470.68
716.156	7377.35
716.499	7466.39
716.843	7341.42
717.186	7362.66
717.53	7434.3
717.873	7385.03
718.216	7361.3
718.559	7380.96
718.902	7327.63
719.246	7350.68
719.589	7290.35
719.932	7288.31
720.275	7305.94
720.617	7225.49
720.96	7243.57
721.303	7302.32
721.646	7304.13
721.989	7226.84
722.331	7286.05
722.674	7282.66
723.016	7241.31
723.359	7232.04
723.701	7285.6
724.044	7173.29
724.386	7180.52
724.729	7178.48
725.071	7188.2
725.413	7164.47
725.755	7188.2
726.097	7185.04
726.439	7160.63
726.782	7108.43
727.124	7220.52
727.465	7128.99
727.807	7157.92
728.149	7180.29
728.491	7109.56
728.833	7114.98
729.175	7113.17
729.516	7161.53
729.858	7139.84
730.199	7180.74
730.541	7129.9
730.882	7100.75
731.224	7145.04
731.565	7046.51
731.906	7115.43
732.248	7086.06
732.589	7072.05
732.93	7103.91
733.271	7055.55
733.612	7095.55
733.953	7119.73
734.294	7065.94
734.635	7085.38
734.976	7094.19
735.317	7061.42
735.658	7048.54
735.999	7083.34
736.339	7083.8
736.68	7114.76
737.021	7082.44
737.361	7110.91
737.702	7181.65
738.042	7080.63
738.383	7144.59
738.723	7197.69
739.063	7100.75
739.404	7210.57
739.744	7143.68
740.084	7168.09
740.424	7184.36
740.764	7203.34
741.104	7235.21
741.444	7243.34
741.784	7195.43
742.124	7247.18
742.464	7250.8
742.804	7308.42
743.143	7287.41
743.483	7316.11
743.823	7292.38
744.162	7306.84
744.502	7368.99
744.841	7373.96
745.181	7442.66
745.52	7461.19
745.86	7520.17
746.199	7586.16
746.538	7611.92
746.877	7592.71
747.216	7630
747.556	7693.05
747.895	7730.11
748.234	7773.5
748.573	7839.71
748.911	7862.31
749.25	7938.24
749.589	7939.59
749.928	8038.12
750.267	8130.1
750.605	8201.06
750.944	8231.56
751.283	8295.29
751.621	8418.9
751.96	8502.06
752.298	8545.68
752.636	8621.61
752.975	8737.09
753.313	8758.56
753.651	8892.79
753.989	8979.57
754.327	9135.95
754.666	9211.65
755.004	9348.82
755.342	9424.07
755.679	9582.04
756.017	9692.32
756.355	9883.5
756.693	9956.72
757.031	10110.16
757.368	10230.83
757.706	10410.49
758.044	10546.98
758.381	10691.39
758.719	10818.61
759.056	11046.18
759.394	11151.71
759.731	11278.49
760.068	11478.94
760.405	11641.87
760.743	11725.93
761.08	11932.93
761.417	12108.98
761.754	12328.86
762.091	12577.66
762.428	12720.71
762.765	12763.42
763.102	13063.98
763.438	13202.05
763.775	13372.22
764.112	13625.55
764.449	13722.49
764.785	13875.71
