Data from hue_290_FLMS001491_00059.txt Node
Date: Tue Feb 07 15:52:56 GMT 2017
User: dcchb
Spectrometer: FLMS00149
Trigger mode: 0
Integration Time (sec): 2.000000E-2
Scans to average: 10
Electric dark correction enabled: true
Nonlinearity correction enabled: false
Boxcar width: 0
XAxis mode: Wavelengths
Number of Pixels in Spectrum: 2048
>>>>>Begin Spectral Data<<<<<
341.393	-24.75
341.776	-24.75
342.16	-24.75
342.543	-63.61
342.927	-48.93
343.31	-70.85
343.693	-60.68
344.077	-53.9
344.46	-42.6
344.843	-49.38
345.226	-53.44
345.61	-26.55
345.993	-13.67
346.376	3.73
346.759	9.15
347.142	20
347.525	30.17
347.908	45.76
348.291	68.36
348.674	96.61
349.057	97.29
349.44	130.96
349.823	146.78
350.206	172.09
350.588	201.24
350.971	203.27
351.354	229.71
351.737	226.55
352.119	239.2
352.502	277.85
352.884	278.07
353.267	276.94
353.65	286.43
354.032	270.39
354.414	295.47
354.797	298.86
355.179	278.3
355.562	313.78
355.944	321.01
356.326	323.04
356.709	324.4
357.091	332.99
357.473	345.19
357.855	352.65
358.238	329.82
358.62	349.48
359.002	337.73
359.384	323.04
359.766	316.94
360.148	324.85
360.53	318.75
360.912	317.39
361.294	317.17
361.676	317.39
362.057	336.15
362.439	319.43
362.821	319.88
363.203	330.5
363.584	340.44
363.966	314.23
364.348	322.59
364.729	306.32
365.111	306.55
365.493	313.78
365.874	280.11
366.256	315.13
366.637	295.47
367.019	322.82
367.4	281.91
367.781	332.99
368.163	307.68
368.544	309.26
368.925	295.25
369.306	288.24
369.688	303.61
370.069	311.29
370.45	307.9
370.831	320.33
371.212	297.05
371.593	302.03
371.974	296.15
372.355	270.84
372.736	312.42
373.117	302.48
373.498	305.87
373.879	295.7
374.26	311.29
374.641	291.4
375.021	314.68
375.402	308.81
375.783	325.98
376.163	323.49
376.544	317.84
376.925	320.56
377.305	327.79
377.686	326.66
378.066	311.07
378.447	343.15
378.827	317.39
379.208	345.19
379.588	314.68
379.968	314.91
380.349	330.95
380.729	340.22
381.109	305.42
381.489	342.48
381.87	359.88
382.25	326.66
382.63	335.92
383.01	305.87
383.39	346.54
383.77	339.09
384.15	341.8
384.53	333.66
384.91	353.78
385.29	347
385.67	339.99
386.049	352.65
386.429	342.48
386.809	358.75
387.189	353.55
387.568	344.06
387.948	355.58
388.328	352.19
388.707	339.99
389.087	367.11
389.466	351.06
389.846	349.48
390.225	363.04
390.605	376.83
390.984	357.62
391.363	341.8
391.743	352.87
392.122	361.01
392.501	397.84
392.881	361.23
393.26	370.27
393.639	358.97
394.018	382.7
394.397	364.85
394.776	394
395.155	378.41
395.534	371.85
395.913	389.26
396.292	355.58
396.671	394
397.05	388.58
397.429	387.45
397.808	378.86
398.186	395.81
398.565	378.63
398.944	385.87
399.323	388.13
399.701	412.98
400.08	398.97
400.458	402.36
400.837	411.63
401.215	399.2
401.594	391.97
401.972	420.67
402.351	422.7
402.729	412.98
403.107	439.42
403.486	419.09
403.864	406.88
404.242	435.81
404.62	426.77
404.999	446.43
405.377	452.53
405.755	443.04
406.133	470.16
406.511	436.49
406.889	467.9
407.267	471.06
407.645	453.21
408.023	476.26
408.401	482.59
408.779	466.99
409.156	500.21
409.534	499.08
409.912	467.22
410.29	519.2
410.667	520.55
411.045	525.3
411.422	518.97
411.8	514.22
412.178	524.84
412.555	548.57
412.933	531.85
413.31	539.76
413.687	558.52
414.065	555.8
414.442	571.4
414.819	597.16
415.197	607.78
415.574	590.15
415.951	604.62
416.328	610.72
416.705	613.43
417.082	623.37
417.46	626.76
417.837	640.1
418.214	639.64
418.591	682.81
418.967	665.41
419.344	677.16
419.721	694.78
420.098	673.77
420.475	692.3
420.852	701.56
421.228	723.48
421.605	732.07
421.982	728.91
422.358	763.26
422.735	758.29
423.111	772.97
423.488	754.67
423.864	779.75
424.241	806.42
424.617	790.15
424.994	800.09
425.37	790.15
425.746	800.54
426.123	823.82
426.499	826.08
426.875	852.75
427.251	876.7
427.627	860.43
428.003	889.58
428.379	885.51
428.756	890.49
429.132	882.58
429.507	909.24
429.883	911.5
430.259	951.5
430.635	938.17
431.011	969.81
431.387	957.38
431.763	960.77
432.138	990.82
432.514	1021.78
432.89	998.5
433.265	1008.22
433.641	1022.68
434.016	1021.78
434.392	1058.62
434.767	1090.25
435.143	1073.98
435.518	1065.62
435.894	1127.09
436.269	1115.11
436.644	1142.23
437.02	1157.14
437.395	1163.02
437.77	1188.78
438.145	1203.25
438.52	1172.51
438.895	1203.47
439.271	1203.47
439.646	1238.72
440.021	1244.15
440.395	1277.82
440.77	1225.84
441.145	1266.97
441.52	1277.37
441.895	1287.99
442.27	1302.23
442.645	1305.39
443.019	1313.98
443.394	1299.06
443.769	1308.1
444.143	1327.54
444.518	1341.32
444.892	1315.78
445.267	1350.13
445.641	1381.55
446.016	1364.82
446.39	1390.13
446.764	1403.69
447.139	1363.69
447.513	1391.26
447.887	1407.08
448.262	1398.27
448.636	1395.33
449.01	1422.45
449.384	1416.12
449.758	1417.25
450.132	1467.19
450.506	1439.85
450.88	1454.31
451.254	1459.06
451.628	1474.65
452.002	1468.77
452.376	1492.73
452.75	1482.56
453.123	1513.97
453.497	1532.95
453.871	1496.34
454.244	1551.71
454.618	1572.05
454.992	1543.8
455.365	1581.09
455.739	1619.05
456.112	1619.05
456.486	1606.4
456.859	1622.44
457.232	1650.01
457.606	1667.87
457.979	1676.91
458.352	1675.32
458.725	1685.04
459.099	1710.12
459.472	1738.15
459.845	1750.35
460.218	1751.71
460.591	1778.6
460.964	1762.33
461.337	1781.08
461.71	1861.08
462.083	1847.3
462.456	1840.06
462.829	1814.3
463.201	1893.62
463.574	1862.89
463.947	1863.34
464.32	1934.98
464.692	1914.86
465.065	1926.84
465.438	1965.26
465.81	1973.62
466.183	1984.24
466.555	2050
466.928	2042.32
467.3	2033.51
467.672	2064.47
468.045	2091.81
468.417	2101.07
468.789	2105.37
469.161	2148.76
469.534	2153.05
469.906	2198.02
470.278	2189.66
470.65	2199.38
471.022	2221.98
471.394	2288.87
471.766	2287.51
472.138	2283.89
472.51	2280.73
472.882	2335.64
473.253	2372.93
473.625	2387.62
473.997	2458.13
474.369	2428.75
474.74	2461.97
475.112	2492.48
475.484	2541.74
475.855	2569.31
476.227	2573.6
476.598	2582.19
476.97	2635.52
477.341	2668.74
477.713	2698.12
478.084	2685.01
478.455	2761.17
478.827	2741.28
479.198	2797.1
479.569	2821.28
479.94	2879.36
480.311	2908.29
480.682	2975.18
481.053	3018.79
481.424	3087.72
481.795	3077.09
482.166	3061.95
482.537	3129.07
482.908	3162.52
483.279	3183.53
483.65	3258.11
484.021	3249.75
484.391	3280.03
484.762	3309.4
485.133	3338.33
485.503	3373.13
485.874	3426.01
486.244	3464.43
486.615	3475.28
486.985	3503.3
487.356	3559.57
487.726	3651.32
488.097	3643.86
488.467	3626.01
488.837	3691.77
489.207	3738.32
489.578	3780.13
489.948	3792.1
490.318	3839.11
490.688	3862.61
491.058	3835.27
491.428	3942.83
491.798	3967.47
492.168	4057.63
492.538	3987.35
492.908	4052.44
493.278	4093.79
493.648	4121.36
494.017	4132.21
494.387	4159.78
494.757	4208.14
495.126	4231.64
495.496	4262.6
495.866	4225.99
496.235	4288.14
496.605	4294.01
496.974	4301.02
497.344	4316.16
497.713	4398.87
498.082	4406.55
498.452	4413.33
498.821	4435.25
499.19	4452.43
499.559	4483.16
499.928	4501.92
500.298	4537.17
500.667	4534.23
501.036	4531.75
501.405	4577.85
501.774	4558.19
502.143	4608.35
502.512	4599.09
502.88	4653.78
503.249	4638.86
503.618	4698.75
503.987	4710.95
504.356	4713.89
504.724	4757.5
505.093	4735.58
505.462	4752.76
505.83	4758.18
506.199	4791.85
506.567	4825.07
506.936	4845.18
507.304	4900.78
507.672	4862.81
508.041	4922.02
508.409	4922.92
508.777	4993.65
509.145	4965.63
509.514	4979.19
509.882	4947.55
510.25	4986.65
510.618	5039.3
510.986	4994.33
511.354	5066.65
511.722	5122.69
512.09	5119.98
512.458	5072.75
512.826	5135.12
513.193	5124.5
513.561	5145.97
513.929	5139.86
514.297	5167.89
514.664	5205.17
515.032	5221.22
515.4	5257.15
515.767	5273.65
516.135	5289.24
516.502	5216.92
516.869	5319.75
517.237	5280.88
517.604	5303.48
517.972	5317.71
518.339	5347.32
518.706	5338.05
519.073	5365.4
519.44	5376.02
519.808	5391.61
520.175	5400.87
520.542	5475.22
520.909	5458.5
521.276	5477.26
521.643	5486.75
522.009	5524.94
522.376	5492.17
522.743	5578.05
523.11	5633.19
523.477	5624.37
523.843	5642.45
524.21	5661.43
524.577	5684.71
524.943	5720.87
525.31	5754.99
525.676	5791.6
526.043	5775.78
526.409	5801.32
526.776	5867.08
527.142	5866.17
527.508	5899.17
527.874	5938.94
528.241	5957.92
528.607	5952.5
528.973	6009.67
529.339	5950.92
529.705	6111.14
530.071	6073.85
530.437	6088.77
530.803	6075.66
531.169	6150.91
531.535	6124.25
531.901	6141.87
532.267	6156.34
532.632	6198.37
532.998	6241.3
533.364	6290.8
533.73	6229.55
534.095	6330.79
534.461	6294.18
534.826	6379.38
535.192	6347.29
535.557	6365.14
535.923	6378.02
536.288	6435.42
536.653	6431.36
537.019	6426.61
537.384	6421.64
537.749	6399.72
538.114	6470.68
538.479	6502.31
538.845	6581.63
539.21	6473.16
539.575	6542.31
539.94	6557.68
540.305	6619.37
540.67	6541.64
541.034	6610.33
541.399	6637.23
541.764	6659.6
542.129	6699.37
542.494	6660.28
542.858	6736.66
543.223	6777.34
543.587	6801.52
543.952	6768.97
544.316	6825.92
544.681	6776.43
545.045	6785.92
545.41	6847.84
545.774	6882.87
546.138	6902.53
546.503	6856.88
546.867	6926.94
547.231	6920.16
547.595	6908.86
547.959	7014.84
548.324	7003.32
548.688	6978.91
549.052	7027.72
549.416	7038.57
549.779	7002.64
550.143	7048.74
550.507	7061.85
550.871	7073.83
551.235	7109.08
551.599	7156.08
551.962	7133.48
552.326	7171
552.689	7203.99
553.053	7184.56
553.417	7114.95
553.78	7283.09
554.143	7221.39
554.507	7299.13
554.87	7315.63
555.234	7342.52
555.597	7294.61
555.96	7343.2
556.323	7381.84
556.686	7363.76
557.05	7434.04
557.413	7444.21
557.776	7396.08
558.139	7409.18
558.502	7486.92
558.865	7396.98
559.228	7490.09
559.59	7533.02
559.953	7562.17
560.316	7658.89
560.679	7593.36
561.041	7648.05
561.404	7652.57
561.767	7698.67
562.129	7697.09
562.492	7720.59
562.854	7734.37
563.217	7688.27
563.579	7752
563.941	7805.78
564.304	7789.06
564.666	7844.65
565.028	7862.73
565.39	7835.16
565.753	7955.61
566.115	7934.59
566.477	8003.97
566.839	8008.72
567.201	8025.89
567.563	8009.17
567.925	8126.45
568.287	8080.35
568.648	8121.48
569.01	8137.98
569.372	8175.94
569.734	8182.72
570.095	8292.32
570.457	8291.87
570.819	8260.91
571.18	8266.56
571.542	8389.95
571.903	8394.24
572.265	8378.88
572.626	8431.3
572.987	8454.35
573.349	8514.92
573.71	8558.98
574.071	8590.4
574.432	8655.25
574.794	8690.51
575.155	8673.56
575.516	8734.8
575.877	8768.24
576.238	8830.62
576.599	8897.51
576.96	8908.35
577.32	8972.08
577.681	8970.72
578.042	9096.37
578.403	9154.67
578.763	9185.18
579.124	9193.77
579.485	9293.2
579.845	9409.36
580.206	9471.95
580.566	9476.02
580.927	9586.53
581.287	9593.31
581.648	9763.47
582.008	9831.49
582.368	9956.01
582.728	9995.1
583.089	10057.02
583.449	10158.72
583.809	10244.59
584.169	10408.43
584.529	10409.1
584.889	10626.05
585.249	10598.93
585.609	10703.79
585.969	10883.67
586.329	10982.65
586.688	11071.01
587.048	11182.19
587.408	11231.91
587.768	11399.81
588.127	11571.33
588.487	11669.86
588.846	11910.53
589.206	11911.66
589.565	12060.59
589.925	12197.98
590.284	12334.7
590.643	12465.32
591.003	12661.7
591.362	12775.37
591.721	12925.2
592.08	12986.89
592.44	13227.11
592.799	13312.08
593.158	13470.49
593.517	13582.81
593.876	13700.77
594.235	13810.15
594.593	13905.28
594.952	14127.65
595.311	14202.23
595.67	14383.01
596.029	14600.18
596.387	14734.41
596.746	14895.31
597.104	14834.75
597.463	15008.08
597.822	15209.88
598.18	15246.04
598.538	15420.72
598.897	15645.13
599.255	15579.59
599.613	15916.08
599.972	15944.55
600.33	16124.89
600.688	16167.15
601.046	16377.31
601.404	16558.55
601.762	16571.2
602.12	16788.37
602.478	16861.14
602.836	16925.32
603.194	17015.26
603.552	17094.13
603.91	17193.79
604.268	17392.65
604.625	17401.69
604.983	17503.16
605.341	17623.15
605.698	17703.38
606.056	17833.09
606.413	17841.23
606.771	18033.76
607.128	18073.08
607.485	18092.52
607.843	18221.55
608.2	18363.92
608.557	18380.19
608.914	18465.16
609.272	18598.49
609.629	18600.08
609.986	18776.12
610.343	18763.01
610.7	18894.53
611.057	18934.08
611.414	18990.8
611.771	19155.99
612.127	19330.9
612.484	19258.82
612.841	19358.7
613.198	19416.33
613.554	19362.77
613.911	19607.96
614.267	19569.77
614.624	19667.17
614.98	19727.28
615.337	19901.74
615.693	19818.35
616.05	19956.2
616.406	19963.43
616.762	20023.32
617.118	20035.52
617.475	20140.6
617.831	20188.73
618.187	20243.42
618.543	20329.52
618.899	20414.04
619.255	20446.81
619.611	20438.45
619.967	20546.69
620.323	20575.62
620.678	20513.92
621.034	20696.29
621.39	20550.31
621.746	20638.67
622.101	20844.31
622.457	20774.71
622.812	20826.91
623.168	20872.33
623.523	20913.46
623.879	21012.44
624.234	20784.65
624.589	20896.29
624.945	21028.71
625.3	21045.21
625.655	21001.82
626.01	21074.59
626.365	21184.87
626.72	21105.55
627.075	21136.51
627.43	21134.25
627.785	21130.86
628.14	21178.09
628.495	21160.91
628.85	21235.03
629.205	21256.28
629.559	21258.09
629.914	21164.75
630.269	21246.56
630.623	21138.99
630.978	21115.72
631.332	21266.67
631.687	21199.1
632.041	21157.75
632.396	21127.92
632.75	21123.85
633.104	21186.45
633.459	21007.02
633.813	21050.86
634.167	21022.16
634.521	21042.27
634.875	20990.52
635.229	21046.57
635.583	20938.55
635.937	20958.88
636.291	20929.96
636.645	20886.34
636.999	20900.58
637.352	21047.02
637.706	20928.83
638.06	20925.21
638.413	20921.14
638.767	20892.67
639.121	20944.65
639.474	20771.77
639.828	20829.62
640.181	20816.51
640.534	20822.16
640.888	20866.01
641.241	20717.31
641.594	20793.69
641.947	20809.51
642.301	20763.18
642.654	20842.95
643.007	20859.9
643.36	20797.76
643.713	20750.08
644.066	20851.77
644.419	20701.94
644.771	20651.1
645.124	20452.23
645.477	20392.12
645.83	20284.78
646.182	20133.37
646.535	20202.29
646.888	20320.71
647.24	20103.09
647.593	20262.63
647.945	20258.11
648.298	20151.9
648.65	20122.97
649.002	20061.05
649.355	20187.38
649.707	20139.92
650.059	20294.72
650.411	20434.15
650.763	20605.67
651.115	20767.48
651.467	20717.31
651.819	20647.93
652.171	20567.48
652.523	20559.35
652.875	20512.79
653.227	20508.05
653.578	20663.07
653.93	20677.54
654.282	20615.39
654.633	20498.11
654.985	20585.56
655.337	20599.8
655.688	20637.31
656.039	20791.2
656.391	20483.42
656.742	20537.2
657.094	20536.07
657.445	20702.85
657.796	20667.37
658.147	20599.12
658.498	20676.18
658.849	20701.72
659.2	20661.72
659.551	20513.47
659.902	20772
660.253	20731.32
660.604	20717.53
660.955	20549.63
661.306	20733.13
661.656	20801.37
662.007	20725.44
662.358	20612.68
662.708	20777.87
663.059	20743.07
663.409	20594.6
663.76	20687.7
664.11	20748.49
664.461	20851.99
664.811	20810.41
665.161	20682.06
665.511	20732
665.862	20805.44
666.212	20782.62
666.562	20725.67
666.912	20710.53
667.262	20708.5
667.612	20644.09
667.962	20684.54
668.312	20708.72
668.662	20768.61
669.011	20663.3
669.361	20736.29
669.711	20669.63
670.06	20686.12
670.41	20636.63
670.76	20561.61
671.109	20784.88
671.459	20556.41
671.808	20639.34
672.157	20554.15
672.507	20464.21
672.856	20485.22
673.205	20489.52
673.554	20592.79
673.904	20482.74
674.253	20573.81
674.602	20527.71
674.951	20211.33
675.3	20248.62
675.649	20480.93
675.998	20517.99
676.346	20510.76
676.695	20504.21
677.044	20410.65
677.393	20416.98
677.741	20427.15
678.09	20493.13
678.438	20330.2
678.787	20378.33
679.135	20279.81
679.484	20206.36
679.832	20299.69
680.181	20096.99
680.529	20284.1
680.877	20069.42
681.225	20135.18
681.573	20151.9
681.922	20140.15
682.27	19959.14
682.618	20058.34
682.966	19981.06
683.314	19991.45
683.661	19992.81
684.009	19824.9
684.357	19856.31
684.705	19801.63
685.053	19802.53
685.4	19607.73
685.748	19692.25
686.095	19650.9
686.443	19601.63
686.79	19480.96
687.138	19583.55
687.485	19579.94
687.832	19406.61
688.18	19459.26
688.527	19316.22
688.874	19388.08
689.221	19259.27
689.568	19252.49
689.915	19184.24
690.262	19210.23
690.609	19065.6
690.956	18947.86
691.303	18946.73
691.65	18912.61
691.997	18942.67
692.344	18770.01
692.69	18750.35
693.037	18694.99
693.383	18623.58
693.73	18688.89
694.077	18553.75
694.423	18537.93
694.769	18421.55
695.116	18444.6
695.462	18359.86
695.808	18365.05
696.155	18354.43
696.501	18221.33
696.847	18226.07
697.193	18051.39
697.539	18127.32
697.885	17967.55
698.231	17869.93
698.577	17894.11
698.923	17867.44
699.269	17749.25
699.614	17595.13
699.96	17606.66
700.306	17601.23
700.651	17560.56
700.997	17408.24
701.342	17344.97
701.688	17407.11
702.033	17422.48
702.379	17257.96
702.724	17237.17
703.069	17227.46
703.415	17095.03
703.76	17000.8
704.105	16971.87
704.45	16966.45
704.795	16758.99
705.14	16732.1
705.485	16836.51
705.83	16736.85
706.175	16737.53
706.52	16633.35
706.865	16655.27
707.209	16675.83
707.554	16463.18
707.899	16561.94
708.243	16428.61
708.588	16445.1
708.932	16283.75
709.277	16265
709.621	16294.83
709.966	16173.7
710.31	16287.37
710.654	16081.95
710.998	16036.75
711.342	16102.97
711.687	16061.16
712.031	15982.52
712.375	15875.18
712.719	16006.92
713.063	15937.32
713.407	15841.73
713.75	15803.77
714.094	15773.71
714.438	15679.7
714.782	15762.86
715.125	15588.4
715.469	15695.07
715.812	15606.26
716.156	15519.03
716.499	15536.88
716.843	15545.69
717.186	15381.4
717.53	15582.98
717.873	15484.45
718.216	15525.81
718.559	15384.79
718.902	15268.64
719.246	15352.7
719.589	15307.06
719.932	15182.31
720.275	15222.09
720.617	15218.02
720.96	15211.69
721.303	15224.57
721.646	15267.73
721.989	15197.91
722.331	15191.58
722.674	15062.54
723.016	15112.71
723.359	15112.94
723.701	15121.98
724.044	14979.83
724.386	14927.86
724.729	15062.77
725.071	15009.21
725.413	15013.5
725.755	14972.37
726.097	14819.16
726.439	14864.81
726.782	14852.83
727.124	14860.51
727.465	14898.48
727.807	14856.45
728.149	14836.11
728.491	14790.01
728.833	14857.12
729.175	14739.84
729.516	14752.27
729.858	14775.09
730.199	14785.49
730.541	14692.61
730.882	14752.95
731.224	14727.86
731.565	14671.14
731.906	14723.34
732.248	14659.39
732.589	14688.77
732.93	14607.64
733.271	14615.1
733.612	14758.14
733.953	14714.08
734.294	14634.76
734.635	14603.12
734.976	14736.9
735.317	14618.26
735.658	14576.23
735.999	14661.65
736.339	14523.57
736.68	14666.62
737.021	14574.19
737.361	14569.22
737.702	14654.42
738.042	14604.25
738.383	14599.28
738.723	14674.98
739.063	14572.84
739.404	14695.32
739.744	14597.24
740.084	14621.42
740.424	14622.33
740.764	14638.6
741.104	14784.36
741.444	14643.34
741.784	14655.55
742.124	14650.8
742.464	14733.74
742.804	14765.83
743.143	14664.59
743.483	14689.9
743.823	14791.14
744.162	14814.41
744.502	14861.19
744.841	14744.81
745.181	14847.41
745.52	14825.94
745.86	14917.23
746.199	14943.9
746.538	14895.09
746.877	15049.66
747.216	15056.21
747.556	15070
747.895	15143.22
748.234	15100.73
748.573	15161.75
748.911	15230
749.25	15331.24
749.589	15360.16
749.928	15437.22
750.267	15462.98
750.605	15622.75
750.944	15648.74
751.283	15584.56
751.621	15685.12
751.96	15669.08
752.298	15841.96
752.636	16003.53
752.975	15995.85
753.313	16034.95
753.651	16124.43
753.989	16218.67
754.327	16255.28
754.666	16372.56
755.004	16492.56
755.342	16667.02
755.679	16772.55
756.017	16740.24
756.355	16892.55
756.693	16989.72
757.031	17126.67
757.368	17084.41
757.706	17205.08
758.044	17295.25
758.381	17490.05
758.719	17543.83
759.056	17749.02
759.394	17716.03
