Data from hue_90_FLMS001491_40.txt Node
Date: Mon Feb 06 15:25:03 GMT 2017
User: dcchb
Spectrometer: FLMS00149
Trigger mode: 0
Integration Time (sec): 2.000000E-2
Scans to average: 10
Electric dark correction enabled: true
Nonlinearity correction enabled: false
Boxcar width: 0
XAxis mode: Wavelengths
Number of Pixels in Spectrum: 2048
>>>>>Begin Spectral Data<<<<<
341.393	-24.01
341.776	-24.01
342.16	-24.01
342.543	-59.04
342.927	-50.68
343.31	-68.53
343.693	-69.21
344.077	-81.18
344.46	-47.74
344.843	-22.65
345.226	-61.3
345.61	-35.54
345.993	-11.13
346.376	7.85
346.759	21.41
347.142	31.36
347.525	44.01
347.908	41.98
348.291	63.9
348.674	81.98
349.057	104.8
349.44	123.78
349.823	142.54
350.206	181.63
350.588	200.39
350.971	218.24
351.354	223.67
351.737	238.36
352.119	267.06
352.502	263.89
352.884	290.78
353.267	288.52
353.65	300.27
354.032	308.41
354.414	305.47
354.797	326.49
355.179	307.51
355.562	324.68
355.944	328.3
356.326	308.64
356.709	360.84
357.091	337.79
357.473	337.79
357.855	350.67
358.238	354.06
358.62	340.05
359.002	361.52
359.384	358.8
359.766	337.34
360.148	349.54
360.53	367.17
360.912	335.53
361.294	361.29
361.676	345.7
362.057	351.57
362.439	359.93
362.821	342.53
363.203	340.95
363.584	326.94
363.966	343.44
364.348	330.1
364.729	345.7
365.111	329.65
365.493	321.97
365.874	324.45
366.256	323.55
366.637	317.45
367.019	317
367.4	348.63
367.781	328.97
368.163	304.79
368.544	317.22
368.925	309.99
369.306	328.3
369.688	322.87
370.069	322.19
370.45	315.42
370.831	331.91
371.212	312.93
371.593	308.64
371.974	323.78
372.355	313.83
372.736	323.78
373.117	328.07
373.498	319.48
373.879	330.56
374.26	301.18
374.641	301.86
375.021	326.04
375.402	333.49
375.783	342.99
376.163	347.96
376.544	325.58
376.925	335.3
377.305	340.05
377.686	341.86
378.066	352.93
378.447	333.27
378.827	350.67
379.208	329.65
379.588	344.34
379.968	336.88
380.349	340.05
380.729	334.62
381.109	324.91
381.489	370.1
381.87	367.39
382.25	346.83
382.63	349.31
383.01	363.55
383.39	355.41
383.77	345.25
384.15	355.41
384.53	358.8
384.91	340.27
385.29	350.89
385.67	348.41
386.049	374.4
386.429	368.97
386.809	383.89
387.189	370.56
387.568	353.83
387.948	360.61
388.328	345.7
388.707	354.51
389.087	383.21
389.466	375.07
389.846	357
390.225	355.19
390.605	392.25
390.984	362.19
391.363	380.95
391.743	381.63
392.122	387.05
392.501	373.49
392.881	384.11
393.26	394.28
393.639	401.51
394.018	397
394.397	383.21
394.776	405.13
395.155	412.14
395.534	419.82
395.913	378.69
396.292	409.42
396.671	371.69
397.05	395.41
397.429	409.65
397.808	405.58
398.186	401.29
398.565	420.95
398.944	408.29
399.323	403.1
399.701	405.58
400.08	415.75
400.458	436.32
400.837	432.47
401.215	408.52
401.594	419.14
401.972	411.46
402.351	422.98
402.729	442.87
403.107	425.92
403.486	439.25
403.864	425.47
404.242	429.31
404.62	461.17
404.999	436.99
405.377	429.08
405.755	432.93
406.133	442.64
406.511	435.41
406.889	459.37
407.267	457.11
407.645	457.56
408.023	461.17
408.401	473.6
408.779	471.34
409.156	453.72
409.534	474.28
409.912	476.54
410.29	493.49
410.667	479.7
411.045	491.23
411.422	484.22
411.8	487.39
412.178	480.83
412.555	493.04
412.933	514.28
413.31	531
413.687	511.12
414.065	518.8
414.442	515.18
414.819	517.22
415.197	509.76
415.574	530.78
415.951	533.49
416.328	512.7
416.705	548.18
417.082	558.12
417.46	540.95
417.837	549.99
418.214	557.67
418.591	543.88
418.967	538.91
419.344	543.66
419.721	549.99
420.098	542.53
420.475	571.45
420.852	557.67
421.228	578.46
421.605	592.7
421.982	575.07
422.358	590.89
422.735	579.14
423.111	568.97
423.488	601.28
423.864	597.44
424.241	613.49
424.617	617.78
424.994	600.15
425.37	612.81
425.746	594.28
426.123	604
426.499	641.51
426.875	638.57
427.251	655.29
427.627	634.73
428.003	636.76
428.379	678.12
428.756	662.52
429.132	668.63
429.507	674.28
429.883	670.89
430.259	690.55
430.635	695.97
431.011	674.95
431.387	697.33
431.763	688.06
432.138	689.19
432.514	721.28
432.89	700.04
433.265	724.22
433.641	717.21
434.016	735.97
434.392	731.22
434.767	733.48
435.143	743.2
435.518	774.61
435.894	769.41
436.269	776.19
436.644	782.75
437.02	782.3
437.395	797.21
437.77	788.17
438.145	819.36
438.52	798.57
438.895	834.05
439.271	806.48
439.646	849.41
440.021	857.32
440.395	869.98
440.77	852.58
441.145	868.62
441.52	877.21
441.895	862.07
442.27	910.2
442.645	860.03
443.019	917.66
443.394	884.67
443.769	901.84
444.143	893.93
444.518	923.54
444.892	900.03
445.267	902.07
445.641	928.73
446.016	932.57
446.39	943.87
446.764	952.46
447.139	937.77
447.513	973.93
447.887	952.23
448.262	959.01
448.636	945.46
449.01	971.9
449.384	988.62
449.758	986.81
450.132	1008.5
450.506	975.51
450.88	1005.79
451.254	1033.36
451.628	1042.63
452.002	1049.86
452.376	1039.46
452.75	1063.19
453.123	1043.31
453.497	1083.08
453.871	1063.87
454.244	1089.41
454.618	1115.39
454.992	1131.67
455.365	1139.35
455.739	1159.24
456.112	1169.18
456.486	1193.81
456.859	1182.06
457.232	1181.38
457.606	1194.94
457.979	1212.57
458.352	1212.34
458.725	1248.95
459.099	1292.79
459.472	1286.46
459.845	1291.21
460.218	1282.62
460.591	1317.42
460.964	1314.26
461.337	1344.09
461.71	1377.08
462.083	1397.87
462.456	1424.76
462.829	1420.02
463.201	1469.51
463.574	1458.44
463.947	1450.07
464.32	1524.65
464.692	1508.15
465.065	1530.75
465.438	1549.51
465.81	1566
466.183	1601.26
466.555	1630.64
466.928	1651.88
467.3	1657.3
467.672	1700.46
468.045	1719.67
468.417	1739.11
468.789	1732.78
469.161	1781.37
469.534	1798.99
469.906	1822.04
470.278	1882.61
470.65	1922.6
471.022	1972.55
471.394	2001.25
471.766	1970.06
472.138	2038.76
472.51	2147.01
472.882	2141.13
473.253	2162.15
473.625	2180.45
473.997	2270.84
474.369	2310.17
474.74	2354.68
475.112	2416.38
475.484	2436.26
475.855	2511.97
476.227	2559.65
476.598	2639.65
476.97	2694.11
477.341	2785.86
477.713	2845.97
478.084	2913.77
478.455	2975.01
478.827	3023.14
479.198	3123.7
479.569	3197.15
479.94	3263.36
480.311	3342.23
480.682	3497.25
481.053	3594.88
481.424	3665.16
481.795	3736.57
482.166	3840.52
482.537	3938.37
482.908	4056.79
483.279	4124.35
483.65	4271.24
484.021	4415.87
484.391	4428.53
484.762	4584
485.133	4678.92
485.503	4834.17
485.874	4978.8
486.244	5058.12
486.615	5207.94
486.985	5335.17
487.356	5425.34
487.726	5568.61
488.097	5787.81
488.467	5815.38
488.837	6032.1
489.207	6147.13
489.578	6261.47
489.948	6401.58
490.318	6577.4
490.688	6678.64
491.058	6869.37
491.428	7016.93
491.798	7131.06
492.168	7329.02
492.538	7427.77
492.908	7599.97
493.278	7731.49
493.648	7873.63
494.017	8058.49
494.387	8115.66
494.757	8260.74
495.126	8420.06
495.496	8585.48
495.866	8658.47
496.235	8888.3
496.605	8952.7
496.974	9087.16
497.344	9187.72
497.713	9341.39
498.082	9460.49
498.452	9579.13
498.821	9775.73
499.19	9782.96
499.559	9974.82
499.928	10018.89
500.298	10187.02
500.667	10260.69
501.036	10337.75
501.405	10433.12
501.774	10543.85
502.143	10714.24
502.512	10706.33
502.88	10851.64
503.249	10936.83
503.618	11006.21
503.987	11118.97
504.356	11188.58
504.724	11310.83
505.093	11390.38
505.462	11436.48
505.83	11528.91
506.199	11673.53
506.567	11883.25
506.936	11779.29
507.304	12019.06
507.672	12101.32
508.041	12140.87
508.409	12166.63
508.777	12366.17
509.145	12367.98
509.514	12344.03
509.882	12441.65
510.25	12497.02
510.618	12642.77
510.986	12661.08
511.354	12809.55
511.722	12883.67
512.09	12943.78
512.458	12961.18
512.826	13138.36
513.193	13087.51
513.561	13054.97
513.929	13189.2
514.297	13345.58
514.664	13334.73
515.032	13372.93
515.4	13494.28
515.767	13500.61
516.135	13600.72
516.502	13403.88
516.869	13715.06
517.237	13682.75
517.604	13527.72
517.972	13756.64
518.339	13826.02
518.706	13796.87
519.073	13773.59
519.44	13884.78
519.808	13965.45
520.175	13887.49
520.542	14109.4
520.909	14095.39
521.276	14059.01
521.643	14209.29
522.009	14314.14
522.376	14280.92
522.743	14369.96
523.11	14337.65
523.477	14540.35
523.843	14430.07
524.21	14563.85
524.577	14586.45
524.943	14677.07
525.31	14653.57
525.676	14768.14
526.043	14802.49
526.409	14719.33
526.776	14860.12
527.142	14819.89
527.508	14882.94
527.874	14931.75
528.241	14903.28
528.607	14942.6
528.973	15069.83
529.339	14974.01
529.705	15098.98
530.071	15086.78
530.437	15048.81
530.803	15075.25
531.169	15251.29
531.535	15042.94
531.901	15147.79
532.267	15079.32
532.632	15180.34
532.998	15013.33
533.364	15080.68
533.73	15081.35
534.095	15137.17
534.461	15061.69
534.826	15063.95
535.192	15080.68
535.557	15204.29
535.923	15055.82
536.288	15050.4
536.653	15153.67
537.019	14970.4
537.384	14971.75
537.749	15037.97
538.114	14907.57
538.479	14914.35
538.845	14985.76
539.21	14840.01
539.575	14825.09
539.94	14913
540.305	14884.07
540.67	14836.84
541.034	14792.32
541.399	14896.05
541.764	14754.58
542.129	14707.13
542.494	14698.54
542.858	14748.48
543.223	14684.08
543.587	14682.04
543.952	14590.52
544.316	14587.81
544.681	14490.18
545.045	14463.97
545.41	14520.92
545.774	14505.1
546.138	14447.25
546.503	14494.25
546.867	14442.95
547.231	14348.94
547.595	14443.86
547.959	14394.82
548.324	14316.86
548.688	14373.12
549.052	14286.35
549.416	14287.03
549.779	14176.52
550.143	14226.01
550.507	14212.68
550.871	14171.32
551.235	14084.32
551.599	14140.14
551.962	14079.12
552.326	14132.23
552.689	14174.94
553.053	13992.12
553.417	14010.2
553.78	14118.67
554.143	13897.66
554.507	13993.47
554.87	14052.46
555.234	13930.88
555.597	13869.86
555.96	13851.33
556.323	13976.3
556.686	13900.14
557.05	13876.87
557.413	13964.55
557.776	13930.2
558.139	13904.21
558.502	13886.13
558.865	13829.64
559.228	13995.06
559.59	13976.07
559.953	13922.06
560.316	13995.28
560.679	13945.57
561.041	13972.01
561.404	14029.63
561.767	13983.76
562.129	13936.98
562.492	13999.8
562.854	13986.92
563.217	14004.55
563.579	14008.61
563.941	14137.2
564.304	13953.93
564.666	14137.2
565.028	14064.21
565.39	14107.37
565.753	14175.39
566.115	14103.08
566.477	14158.22
566.839	14197.99
567.201	14227.59
567.563	14198.67
567.925	14216.97
568.287	14398.21
568.648	14229.63
569.01	14286.57
569.372	14323.86
569.734	14280.7
570.095	14396.4
570.457	14363.18
570.819	14436.4
571.18	14385.55
571.542	14372.45
571.903	14443.86
572.265	14476.63
572.626	14370.19
572.987	14446.12
573.349	14437.53
573.71	14559.56
574.071	14536.28
574.432	14547.36
574.794	14713.45
575.155	14552.33
575.516	14443.86
575.877	14528.15
576.238	14600.69
576.599	14639.56
576.96	14586.9
577.32	14649.5
577.681	14734.25
578.042	14618.99
578.403	14653.8
578.763	14574.48
579.124	14561.14
579.485	14640.91
579.845	14761.59
580.206	14673.46
580.566	14664.64
580.927	14705.77
581.287	14679.33
581.648	14579.67
582.008	14704.64
582.368	14623.97
582.728	14726.79
583.089	14684.3
583.449	14589.62
583.809	14621.25
584.169	14661.03
584.529	14605.44
584.889	14740.12
585.249	14615.38
585.609	14567.24
585.969	14693.57
586.329	14538.77
586.688	14606.11
587.048	14562.05
587.408	14508.04
587.768	14513.69
588.127	14548.71
588.487	14565.44
588.846	14579
589.206	14508.26
589.565	14416.06
589.925	14636.39
590.284	14511.65
590.643	14495.83
591.003	14579.67
591.362	14563.85
591.721	14504.42
592.08	14471.88
592.44	14576.96
592.799	14470.75
593.158	14576.51
593.517	14560.01
593.876	14509.17
594.235	14483.63
594.593	14447.7
594.952	14463.07
595.311	14376.74
595.67	14395.05
596.029	14583.97
596.387	14562.05
596.746	14534.25
597.104	14470.07
597.463	14480.92
597.822	14428.26
598.18	14349.85
598.538	14381.03
598.897	14503.06
599.255	14367.93
599.613	14591.42
599.972	14469.17
600.33	14388.94
600.688	14415.38
601.046	14437.08
601.404	14493.57
601.762	14457.19
602.12	14532.44
602.478	14440.24
602.836	14405.67
603.194	14337.65
603.552	14381.49
603.91	14442.05
604.268	14487.92
604.625	14454.03
604.983	14498.32
605.341	14431.65
605.698	14503.97
606.056	14555.27
606.413	14488.38
606.771	14551.43
607.128	14626.23
607.485	14456.06
607.843	14492.44
608.2	14491.31
608.557	14566.34
608.914	14490.18
609.272	14582.16
609.629	14622.84
609.986	14616.28
610.343	14524.08
610.7	14666.9
611.057	14654.7
611.414	14651.08
611.771	14666.68
612.127	14734.02
612.484	14634.13
612.841	14701.03
613.198	14671.2
613.554	14668.48
613.911	14758.65
614.267	14729.05
614.624	14685.89
614.98	14647.02
615.337	14760.69
615.693	14742.61
616.05	14768.82
616.406	14777.63
616.762	14780.35
617.118	14811.08
617.475	14682.72
617.831	14831.42
618.187	14834.81
618.543	14875.94
618.899	14859.44
619.255	14997.74
619.611	14884.52
619.967	14873.68
620.323	15025.54
620.678	14877.97
621.034	14817.41
621.39	14840.01
621.746	14881.36
622.101	15087.23
622.457	14804.07
622.812	14926.33
623.168	14957.06
623.523	14876.39
623.879	14915.71
624.234	14878.65
624.589	14964.52
624.945	14950.06
625.3	14949.38
625.655	14910.06
626.01	14876.39
626.365	14849.27
626.72	14880.68
627.075	14922.04
627.43	14824.19
627.785	14848.82
628.14	14897.63
628.495	14921.13
628.85	14871.42
629.205	14895.37
629.559	14945.54
629.914	14814.7
630.269	14872.77
630.623	14845.2
630.978	14737.86
631.332	14865.77
631.687	14789.16
632.041	14786.9
632.396	14710.74
632.75	14744.64
633.104	14659.45
633.459	14735.38
633.813	14633.01
634.167	14658.99
634.521	14720.23
634.875	14593.68
635.229	14632.33
635.583	14566.79
635.937	14614.93
636.291	14596.17
636.645	14575.61
636.999	14534.93
637.352	14584.19
637.706	14504.42
638.06	14519.56
638.413	14560.69
638.767	14431.43
639.121	14541.03
639.474	14418.32
639.828	14377.87
640.181	14435.5
640.534	14484.08
640.888	14382.16
641.241	14270.75
641.594	14373.12
641.947	14367.25
642.301	14325.89
642.654	14248.83
643.007	14252.45
643.36	14263.52
643.713	14256.52
644.066	14313.01
644.419	14262.62
644.771	14120.02
645.124	13998.67
645.477	14041.16
645.83	13947.83
646.182	13882.29
646.535	13788.96
646.888	13874.38
647.24	13761.62
647.593	13881.61
647.945	13816.08
648.298	13850.43
648.65	13755.51
649.002	13772.69
649.355	13843.2
649.707	13790.99
650.059	13849.3
650.411	13952.35
650.763	13979.01
651.115	14184.2
651.467	14030.54
651.819	14162.51
652.171	14101.95
652.523	14015.17
652.875	14028.95
653.227	14014.26
653.578	14035.51
653.93	14056.52
654.282	13982.17
654.633	13952.57
654.985	13986.24
655.337	14024.66
655.688	14024.21
656.039	14058.78
656.391	13961.38
656.742	14095.62
657.094	13995.28
657.445	14061.95
657.796	14040.25
658.147	13969.29
658.498	14025.56
658.849	14017.88
659.2	14068.05
659.551	14021.04
659.902	14023.76
660.253	14087.48
660.604	14070.08
660.955	13925.23
661.306	14045.45
661.656	14027.37
662.007	14019.24
662.358	14018.56
662.708	14089.52
663.059	14043.64
663.409	13888.84
663.76	14023.98
664.11	13994.38
664.461	14096.07
664.811	14067.37
665.161	14096.75
665.511	14056.98
665.862	14088.61
666.212	14102.62
666.562	14109.85
666.912	14073.7
667.262	14040.48
667.612	14089.29
667.962	14037.77
668.312	14084.54
668.662	14153.92
669.011	14040.03
669.361	14037.54
669.711	14073.47
670.06	14041.16
670.41	13989.63
670.76	14008.84
671.109	14005.22
671.459	14118.67
671.808	13982.63
672.157	14101.27
672.507	14017.43
672.856	13928.62
673.205	13949.86
673.554	14016.52
673.904	14002.06
674.253	14032.34
674.602	14056.3
674.951	13735.63
675.3	13689.53
675.649	13868.05
675.998	13851.78
676.346	13867.83
676.695	13877.32
677.044	13627.38
677.393	13840.26
677.741	13767.72
678.09	13720.03
678.438	13709.19
678.787	13786.25
679.135	13747.83
679.484	13637.78
679.832	13786.7
680.181	13654.5
680.529	13657.44
680.877	13623.77
681.225	13594.84
681.573	13676.87
681.922	13543.99
682.27	13507.16
682.618	13578.34
682.966	13473.04
683.314	13562.07
683.661	13499.48
684.009	13345.13
684.357	13439.59
684.705	13349.65
685.053	13350.33
685.4	13307.62
685.748	13263.55
686.095	13246.83
686.443	13168.18
686.79	13239.37
687.138	13174.51
687.485	13079.15
687.832	13168.41
688.18	13184.68
688.527	13085.7
688.874	13101.29
689.221	12994.63
689.568	12973.16
689.915	12940.39
690.262	12908.76
690.609	12924.12
690.956	12809.55
691.303	12799.15
691.65	12651.59
691.997	12759.16
692.344	12628.76
692.69	12628.76
693.037	12608.2
693.383	12480.97
693.73	12557.58
694.077	12514.42
694.423	12494.08
694.769	12389
695.116	12315.78
695.462	12335.66
695.808	12245.5
696.155	12193.97
696.501	12179.06
696.847	12094.54
697.193	12116.01
697.539	12156.69
697.885	12024.26
698.231	11977.48
698.577	11953.98
698.923	11948.1
699.269	11907.2
699.614	11806.64
699.96	11753.98
700.306	11805.28
700.651	11772.52
700.997	11696.13
701.342	11689.58
701.688	11631.73
702.033	11557.83
702.379	11567.77
702.724	11508.79
703.069	11558.51
703.415	11392.64
703.76	11425.18
704.105	11309.02
704.45	11248.69
704.795	11257.05
705.14	11201
705.485	11173.44
705.83	11202.36
706.175	11234
706.52	11091.18
706.865	11080.78
707.209	10964.85
707.554	11013.44
707.899	11058.64
708.243	10905.87
708.588	10864.97
708.932	10877.62
709.277	10764.41
709.621	10849.6
709.966	10761.69
710.31	10814.8
710.654	10738.64
710.998	10777.06
711.342	10781.35
711.687	10713.11
712.031	10637.86
712.375	10592.43
712.719	10638.99
713.063	10617.97
713.407	10645.31
713.75	10553.11
714.094	10503.85
714.438	10490.29
714.782	10505.88
715.125	10508.37
715.469	10426.11
715.812	10357.19
716.156	10400.57
716.499	10381.14
716.843	10396.73
717.186	10302.27
717.53	10337.3
717.873	10342.27
718.216	10268.15
718.559	10365.09
718.902	10228.6
719.246	10209.84
719.589	10295.49
719.932	10127.36
720.275	10168.04
720.617	10177.53
720.96	10097.53
721.303	10178.43
721.646	10130.75
721.989	10091.2
722.331	10104.54
722.674	10134.14
723.016	10106.57
723.359	10058.66
723.701	10051.66
724.044	10068.38
724.386	9997.42
724.729	10064.76
725.071	9989.51
725.413	10051.2
725.755	9996.06
726.097	9978.44
726.439	9870.87
726.782	9921.72
727.124	10029.28
727.465	9979.12
727.807	9936.41
728.149	9955.61
728.491	9923.52
728.833	9895.95
729.175	9908.38
729.516	9926.69
729.858	9841.04
730.199	9914.26
730.541	9818.22
730.882	9922.39
731.224	9969.4
731.565	9801.72
731.906	9828.39
732.248	9886.92
732.589	9822.96
732.93	9812.79
733.271	9853.92
733.612	9821.61
733.953	9868.38
734.294	9871.77
734.635	9827.93
734.976	9871.32
735.317	9767.82
735.658	9805.11
735.999	9806.92
736.339	9816.63
736.68	9823.41
737.021	9872.9
737.361	9730.76
737.702	9903.64
738.042	9817.76
738.383	9787.93
738.723	9937.08
739.063	9836.52
739.404	9852.57
739.744	9835.17
740.084	9820.02
740.424	9935.05
740.764	9876.52
741.104	9953.81
741.444	9876.97
741.784	9916.07
742.124	9896.86
742.464	9904.77
742.804	9889.18
743.143	9931.43
743.483	9963.07
743.823	9945.67
744.162	10002.39
744.502	9998.1
744.841	10067.7
745.181	10064.76
745.52	10151.77
745.86	10118.1
746.199	10160.81
746.538	10189.51
746.877	10253.46
747.216	10341.37
747.556	10304.76
747.895	10386.56
748.234	10466.11
748.573	10452.78
748.911	10527.12
749.25	10580
749.589	10587.46
749.928	10655.93
750.267	10829.49
750.605	10784.29
750.944	10878.08
751.283	10987
751.621	11104.06
751.96	11082.59
752.298	11246.43
752.636	11344.96
752.975	11375.69
753.313	11461.34
753.651	11635.34
753.989	11707.21
754.327	11804.38
754.666	11870.37
755.004	12048.67
755.342	12160.53
755.679	12231.26
756.017	12371.6
756.355	12604.58
756.693	12624.92
757.031	12806.61
