Data from hue_40_FLMS001491_26.txt Node
Date: Mon Feb 06 15:07:40 GMT 2017
User: dcchb
Spectrometer: FLMS00149
Trigger mode: 0
Integration Time (sec): 2.000000E-2
Scans to average: 10
Electric dark correction enabled: true
Nonlinearity correction enabled: false
Boxcar width: 0
XAxis mode: Wavelengths
Number of Pixels in Spectrum: 2048
>>>>>Begin Spectral Data<<<<<
341.393	2.02
341.776	2.02
342.16	2.02
342.543	-62.61
342.927	-68.49
343.31	-64.19
343.693	-63.29
344.077	-60.58
344.46	-58.77
344.843	-33.69
345.226	-40.01
345.61	-40.24
345.993	-22.39
346.376	0.21
346.759	20.55
347.142	30.95
347.525	37.95
347.908	63.04
348.291	62.81
348.674	70.94
349.057	96.71
349.44	122.47
349.823	128.12
350.206	171.28
350.588	199.98
350.971	206.99
351.354	207.66
351.737	243.6
352.119	232.07
352.502	248.34
352.884	268
353.267	254.67
353.65	280.88
354.032	288.79
354.414	310.49
354.797	283.37
355.179	295.8
355.562	317.72
355.944	332.86
356.326	320.88
356.709	345.06
357.091	318.62
357.473	344.61
357.855	318.17
358.238	353.2
358.62	346.19
359.002	335.57
359.384	338.73
359.766	341.45
360.148	336.02
360.53	334.21
360.912	348
361.294	345.29
361.676	308.23
362.057	327.21
362.439	333.54
362.821	307.1
363.203	328.34
363.584	287.66
363.966	328.56
364.348	311.16
364.729	345.51
365.111	309.36
365.493	328.79
365.874	325.18
366.256	301.67
366.637	322.46
367.019	330.6
367.4	307.55
367.781	318.62
368.163	317.94
368.544	290.15
368.925	296.93
369.306	331.05
369.688	301.67
370.069	304.84
370.45	321.79
370.831	313.65
371.212	310.71
371.593	308.45
371.974	303.03
372.355	319.75
372.736	312.29
373.117	321.33
373.498	306.64
373.879	306.42
374.26	304.61
374.641	310.49
375.021	324.95
375.402	313.2
375.783	335.34
376.163	349.13
376.544	322.69
376.925	312.97
377.305	335.34
377.686	345.74
378.066	322.46
378.447	326.08
378.827	319.3
379.208	328.34
379.588	311.84
379.968	311.62
380.349	324.72
380.729	324.5
381.109	321.56
381.489	318.4
381.87	343.03
382.25	344.84
382.63	339.86
383.01	353.2
383.39	328.11
383.77	362.91
384.15	348
384.53	326.08
384.91	341.22
385.29	331.95
385.67	325.18
386.049	357.94
386.429	335.8
386.809	340.54
387.189	358.17
387.568	366.98
387.948	369.92
388.328	341.67
388.707	371.05
389.087	343.93
389.466	344.84
389.846	353.87
390.225	373.31
390.605	364.04
390.984	368.11
391.363	355.91
391.743	370.6
392.122	366.08
392.501	370.37
392.881	360.43
393.26	364.72
393.639	366.76
394.018	381.44
394.397	386.87
394.776	369.47
395.155	369.24
395.534	368.11
395.913	380.54
396.292	394.1
396.671	405.17
397.05	386.42
397.429	384.38
397.808	392.74
398.186	381.9
398.565	387.77
398.944	389.35
399.323	380.77
399.701	398.39
400.08	371.73
400.458	397.94
400.837	396.36
401.215	406.53
401.594	398.62
401.972	401.33
402.351	406.08
402.729	409.01
403.107	409.92
403.486	420.31
403.864	416.92
404.242	423.7
404.62	421.67
404.999	428.9
405.377	419.86
405.755	435
406.133	413.31
406.511	422.57
406.889	432.74
407.267	434.55
407.645	452.63
408.023	442.23
408.401	419.86
408.779	450.6
409.156	425.96
409.534	444.27
409.912	451.73
410.29	470.48
410.667	459.18
411.045	474.1
411.422	468.22
411.8	463.93
412.178	472.97
412.555	472.97
412.933	471.39
413.31	489.69
413.687	480.2
414.065	455.34
414.442	492.85
414.819	500.76
415.197	504.83
415.574	489.01
415.951	509.13
416.328	507.54
416.705	505.06
417.082	508.22
417.46	518.39
417.837	525.17
418.214	526.3
418.591	498.73
418.967	532.4
419.344	520.42
419.721	535.57
420.098	533.53
420.475	549.8
420.852	522.23
421.228	548.45
421.605	550.93
421.982	537.82
422.358	541.21
422.735	545.06
423.111	553.42
423.488	562.91
423.864	564.72
424.241	553.42
424.617	567.65
424.994	575.56
425.37	572.63
425.746	559.52
426.123	596.81
426.499	569.46
426.875	584.6
427.251	607.88
427.627	583.02
428.003	610.82
428.379	606.75
428.756	634.55
429.132	594.55
429.507	639.07
429.883	636.13
430.259	630.7
430.635	660.31
431.011	663.02
431.387	667.31
431.763	644.04
432.138	677.71
432.514	649.91
432.89	689.01
433.265	659.4
433.641	671.38
434.016	686.97
434.392	708.67
434.767	702.34
435.143	714.32
435.518	720.19
435.894	688.33
436.269	708.67
436.644	720.64
437.02	736.24
437.395	740.76
437.77	746.41
438.145	755.45
438.52	757.93
438.895	764.71
439.271	778.5
439.646	783.24
440.021	777.82
440.395	783.47
440.77	781.21
441.145	777.14
441.52	812.39
441.895	812.85
442.27	824.6
442.645	795.45
443.019	827.76
443.394	828.21
443.769	832.28
444.143	810.36
444.518	825.05
444.892	826.18
445.267	860.98
445.641	834.77
446.016	859.62
446.39	845.84
446.764	847.42
447.139	875.67
447.513	857.82
447.887	876.8
448.262	870.92
448.636	896.23
449.01	875.67
449.384	927.19
449.758	920.19
450.132	878.15
450.506	899.85
450.88	925.39
451.254	945.05
451.628	936.91
452.002	937.14
452.376	958.83
452.75	928.78
453.123	951.15
453.497	981.65
453.871	977.81
454.244	969.45
454.618	980.53
454.992	1008.77
455.365	1032.95
455.739	1040.18
456.112	1023.24
456.486	1030.69
456.859	1025.5
457.232	1055.55
457.606	1059.62
457.979	1077.02
458.352	1108.88
458.725	1128.32
459.099	1124.25
459.472	1138.49
459.845	1129.9
460.218	1157.92
460.591	1186.17
460.964	1188.2
461.337	1172.84
461.71	1217.81
462.083	1264.36
462.456	1247.18
462.829	1269.33
463.201	1269.33
463.574	1258.03
463.947	1278.14
464.32	1331.48
464.692	1292.16
465.065	1343.45
465.438	1349.33
465.81	1378.48
466.183	1386.62
466.555	1420.51
466.928	1420.06
467.3	1460.06
467.672	1462.77
468.045	1479.49
468.417	1540.96
468.789	1507.52
469.161	1548.87
469.534	1587.29
469.906	1590.45
470.278	1627.74
470.65	1648.98
471.022	1665.03
471.394	1739.6
471.766	1735.08
472.138	1768.75
472.51	1780.96
472.882	1840.62
473.253	1853.72
473.625	1869.54
473.997	1919.03
474.369	1954.96
474.74	1969.88
475.112	2034.28
475.484	2088.29
475.855	2142.98
476.227	2160.61
476.598	2232.7
476.97	2254.84
477.341	2324.22
477.713	2368.96
478.084	2416.42
478.455	2505.46
478.827	2554.72
479.198	2622.29
479.569	2612.57
479.94	2713.81
480.311	2814.6
480.682	2865.67
481.053	2969.63
481.424	3050.3
481.795	3142.5
482.166	3159
482.537	3217.08
482.908	3340.91
483.279	3387.47
483.65	3538.88
484.021	3639.21
484.391	3653.45
484.762	3768.7
485.133	3804.41
485.503	3909.49
485.874	4057.96
486.244	4090.5
486.615	4225.41
486.985	4306.77
487.356	4455.24
487.726	4544.5
488.097	4657.94
488.467	4767.54
488.837	4901.55
489.207	4979.74
489.578	5097.03
489.948	5148.55
490.318	5272.62
490.688	5353.07
491.058	5476
491.428	5631.7
491.798	5754.86
492.168	5893.62
492.538	5964.8
492.908	6060.62
493.278	6135.19
493.648	6241.86
494.017	6409.31
494.387	6481.17
494.757	6532.7
495.126	6693.82
495.496	6774.95
495.866	6939.01
496.235	7056.98
496.605	7075.05
496.974	7208.84
497.344	7357.53
497.713	7417.64
498.082	7535.83
498.452	7650.41
498.821	7710.29
499.19	7809.27
499.559	7941.25
499.928	8025.09
500.298	8151.64
500.667	8248.81
501.036	8219.2
501.405	8329.48
501.774	8445.41
502.143	8574.9
502.512	8677.05
502.88	8726.76
503.249	8764.73
503.618	8916.36
503.987	8899.19
504.356	9077.49
504.724	9127.43
505.093	9200.65
505.462	9283.36
505.83	9356.58
506.199	9494.65
506.567	9668.43
506.936	9672.73
507.304	9783.23
507.672	9774.87
508.041	9896
508.409	10033.39
508.777	10116.56
509.145	10153.62
509.514	10182.09
509.882	10292.6
510.25	10300.73
510.618	10446.26
510.986	10495.76
511.354	10616.66
511.722	10700.04
512.09	10850.1
512.458	10815.07
512.826	10979.58
513.193	11045.12
513.561	10996.98
513.929	11179.8
514.297	11284.43
514.664	11300.93
515.032	11356.3
515.4	11468.38
515.767	11566.91
516.135	11621.38
516.502	11564.65
516.869	11777.76
517.237	11840.13
517.604	11833.35
517.972	11980.01
518.339	12086.22
518.706	12127.8
519.073	12181.59
519.44	12227.91
519.808	12335.71
520.175	12373.45
520.542	12539.77
520.909	12579.77
521.276	12565.31
521.643	12777.28
522.009	12761.23
522.376	12824.28
522.743	12857.73
523.11	13043.48
523.477	13225.4
523.843	13260.88
524.21	13343.14
524.577	13408.9
524.943	13543.81
525.31	13596.46
525.676	13706.97
526.043	13832.16
526.409	13813.63
526.776	13998.49
527.142	14086.85
527.508	14193.74
527.874	14293.85
528.241	14325.71
528.607	14244.13
528.973	14462.43
529.339	14555.76
529.705	14647.06
530.071	14721.18
530.437	14836.66
530.803	14957.33
531.169	14993.26
531.535	15001.85
531.901	15091.11
532.267	15237.55
532.632	15261.05
532.998	15258.34
533.364	15273.93
533.73	15381.05
534.095	15603.19
534.461	15617.88
534.826	15576.98
535.192	15664.43
535.557	15873.01
535.923	15821.26
536.288	15914.37
536.653	16017.42
537.019	16037.98
537.384	16047.02
537.749	16180.13
538.114	16298.09
538.479	16261.03
538.845	16301.25
539.21	16369.27
539.575	16357.3
539.94	16459.67
540.305	16542.6
540.67	16604.52
541.034	16668.47
541.399	16788.92
541.764	16821.46
542.129	16913.89
542.494	16872.31
542.858	16984.17
543.223	16998.63
543.587	17153.66
543.952	17193.88
544.316	17246.09
544.681	17261.23
545.045	17328.57
545.41	17430.26
545.774	17456.25
546.138	17438.85
546.503	17577.15
546.867	17628
547.231	17815.79
547.595	17751.38
547.959	17910.7
548.324	17877.26
548.688	17905.5
549.052	17998.61
549.416	18094.88
549.779	18053.3
550.143	18155.44
550.507	18284.48
550.871	18381.88
551.235	18306.62
551.599	18492.83
551.962	18487.64
552.326	18543
552.689	18700.06
553.053	18620.51
553.417	18727.86
553.78	18973.27
554.143	18834.74
554.507	18932.37
554.87	18995.19
555.234	19155.64
555.597	19107.05
555.96	19129.65
556.323	19166.94
556.686	19340.04
557.05	19481.73
557.413	19502.52
557.776	19583.65
558.139	19628.85
558.502	19682.41
558.865	19745.91
559.228	19855.06
559.59	19938.9
559.953	19956.98
560.316	20200.13
560.679	20067.48
561.041	20224.09
561.404	20313.12
561.767	20471.09
562.129	20293.24
562.492	20636.05
562.854	20602.61
563.217	20636.28
563.579	20611.2
563.941	20832.66
564.304	20883.96
564.666	21019.32
565.028	20947.68
565.39	21185.19
565.753	21215.7
566.115	21318.52
566.477	21385.19
566.839	21411.4
567.201	21518.29
567.563	21511.51
567.925	21741.34
568.287	21741.56
568.648	21827.89
569.01	21955.57
569.372	22132.29
569.734	21951.5
570.095	22220.87
570.457	22253.64
570.819	22392.62
571.18	22461.77
571.542	22610.46
571.903	22575.66
572.265	22780.4
572.626	22843.23
572.987	22837.58
573.349	23008.87
573.71	23073.5
574.071	23135.87
574.432	23244.35
574.794	23364.8
575.155	23455.64
575.516	23494.74
575.877	23572.25
576.238	23796.42
576.599	23902.63
576.96	24016.08
577.32	24080.03
577.681	24263.08
578.042	24373.58
578.403	24513.01
578.763	24525.44
579.124	24668.26
579.485	24820.8
579.845	25067.8
580.206	25096.73
580.566	25221.02
580.927	25373.56
581.287	25591.86
581.648	25622.59
582.008	25840.21
582.368	25981.22
582.728	26068.68
583.089	26140.54
583.449	26431.83
583.809	26548.44
584.169	26722.9
584.529	26903.91
584.889	27214.19
585.249	27179.61
585.609	27295.77
585.969	27722.19
586.329	27771.46
586.688	27868.41
587.048	28120.83
587.408	28121.28
587.768	28457.09
588.127	28712.9
588.487	28805.33
588.846	29160.58
589.206	29125.32
589.565	29295.26
589.925	29675.82
590.284	29689.83
590.643	29946.77
591.003	30172.53
591.362	30473.76
591.721	30569.35
592.08	30794.88
592.44	31005.05
592.799	31185.15
593.158	31228.77
593.517	31544.92
593.876	31747.4
594.235	31881.86
594.593	32008.18
594.952	32306.03
595.311	32325.46
595.67	32642.07
596.029	32960.02
596.387	33185.78
596.746	33286.57
597.104	33356.62
597.463	33493.34
597.822	33830.06
598.18	33773.11
598.538	33901.24
598.897	34316.82
599.255	34236.6
599.613	34801.1
599.972	34685.18
600.33	34886.07
600.688	34872.97
601.046	35189.12
601.404	35450.13
601.762	35509.56
602.12	35826.84
602.478	35854.86
602.836	36099.83
603.194	36043.56
603.552	36337.79
603.91	36246.72
604.268	36545.24
604.625	36631.79
604.983	36889.19
605.341	36895.06
605.698	37023.87
606.056	37170.76
606.413	37400.81
606.771	37440.36
607.128	37628.15
607.485	37486.01
607.843	37736.39
608.2	38030.17
608.557	38257.96
608.914	38153.56
609.272	38570.72
609.629	38496.83
609.986	38741.11
610.343	38634.22
610.7	38976.14
611.057	38916.7
611.414	39057.72
611.771	39245.96
612.127	39311.04
612.484	39413.86
612.841	39624.48
613.198	39504.94
613.554	39623.12
613.911	40163.45
614.267	40008.43
614.624	40074.64
614.98	40191.92
615.337	40379.72
615.693	40347.4
616.05	40395.99
616.406	40716.66
616.762	40523.21
617.118	40672.36
617.475	40740.84
617.831	40911
618.187	40979.47
618.543	41011.11
618.899	41385.34
619.255	41403.64
619.611	41408.16
619.967	41520.02
620.323	41597.54
620.678	41440.48
621.034	41391.44
621.39	41616.52
621.746	41567.48
622.101	41971.76
622.457	41633.69
622.812	41892.22
623.168	41929.5
623.523	41957.98
623.879	42213.79
624.234	41995.94
624.589	42081.14
624.945	42096.73
625.3	42115.26
625.655	42141.7
626.01	42282.49
626.365	42251.53
626.72	42332.21
627.075	42363.84
627.43	42369.72
627.785	42256.5
628.14	42446.78
628.495	42421.7
628.85	42396.39
629.205	42442.26
629.559	42582.82
629.914	42343.28
630.269	42415.59
630.623	42472.32
630.978	42245.43
631.332	42709.15
631.687	42563.16
632.041	42511.86
632.396	42495.82
632.75	42472.99
633.104	42569.26
633.459	42261.02
633.813	42391.19
634.167	42403.62
634.521	42390.51
634.875	42448.14
635.229	42410.4
635.583	42186.22
635.937	42347.12
636.291	42308.03
636.645	42225.54
636.999	42056.28
637.352	42310.51
637.706	42070.97
638.06	42204.07
638.413	42127.47
638.767	42053.8
639.121	42214.24
639.474	41950.07
639.828	41929.05
640.181	42033.68
640.534	41960.69
640.888	42024.64
641.241	41816.06
641.594	41908.94
641.947	42033.91
642.301	41707.14
642.654	41898.09
643.007	41904.42
643.36	41836.17
643.713	41784.88
644.066	41969.28
644.419	41684.31
644.771	41471.21
645.124	40960.04
645.477	40995.97
645.83	40798.46
646.182	40588.75
646.535	40573.83
646.888	40670.78
647.24	40348.98
647.593	40531.8
647.945	40514.85
648.298	40307.4
648.65	40248.65
649.002	40353.05
649.355	40431.69
649.707	40331.35
650.059	40510.56
650.411	40930.44
650.763	41084.33
651.115	41475.28
651.467	41214.95
651.819	41213.14
652.171	41173.14
652.523	41073.26
652.875	41229.18
653.227	41042.52
653.578	41236.19
653.93	41158.9
654.282	40957.1
654.633	41000.72
654.985	40869.65
655.337	40960.26
655.688	40910.1
656.039	41060.15
656.391	40776.99
656.742	40878.01
657.094	40831.45
657.445	40993.71
657.796	40832.13
658.147	40720.95
658.498	40779.93
658.849	40766.6
659.2	40733.15
659.551	40863.54
659.902	40804.11
660.253	40715.07
660.604	40628.75
660.955	40633.04
661.306	40762.98
661.656	40651.8
662.007	40687.73
662.358	40634.4
662.708	40672.36
663.059	40741.97
663.409	40350.79
663.76	40577.22
664.11	40565.02
664.461	40734.73
664.811	40674.62
665.161	40565.92
665.511	40499.03
665.862	40510.79
666.212	40802.08
666.562	40518.24
666.912	40626.71
667.262	40457.68
667.612	40590.11
667.962	40620.84
668.312	40466.49
668.662	40738.12
669.011	40558.92
669.361	40560.28
669.711	40488.86
670.06	40491.8
670.41	40310.11
670.76	40325.25
671.109	40428.08
671.459	40384.23
671.808	40255.88
672.157	40362.54
672.507	40183.56
672.856	40185.14
673.205	40264.92
673.554	40272.15
673.904	40140.63
674.253	40269.89
674.602	40212.04
674.951	39593.97
675.3	39469.68
675.649	40067.63
675.998	40045.26
676.346	39974.3
676.695	40178.82
677.044	39877.58
677.393	40122.09
677.741	40039.39
678.09	40024.47
678.438	39774.76
678.787	39973.17
679.135	39937.92
679.484	39609.11
679.832	39845.72
680.181	39600.75
680.529	39689.56
680.877	39744.03
681.225	39655.89
681.573	39767.75
681.922	39382.91
682.27	39322.79
682.618	39411.6
682.966	39177.03
683.314	39419.74
683.661	39238.95
684.009	39099.75
684.357	39037.15
684.705	39056.59
685.053	39019.52
685.4	39068.11
685.748	38808.91
686.095	38796.48
686.443	38716.93
686.79	38495.02
687.138	38704.28
687.485	38714.45
687.832	38434.68
688.18	38587.45
688.527	38365.08
688.874	38201.47
689.221	38154.91
689.568	38164.41
689.915	37937.07
690.262	37953.79
690.609	37940.91
690.956	37918.76
691.303	37742.27
691.65	37584.99
691.997	37624.08
692.344	37438.78
692.69	37330.3
693.037	37407.59
693.383	37067.03
693.73	37319.46
694.077	37043.08
694.423	37075.4
694.769	36783.65
695.116	36681.73
695.462	36748.17
695.808	36583.66
696.155	36728.06
696.501	36400.84
696.847	36338.47
697.193	36108.41
697.539	36296.43
697.885	36050.56
698.231	35905.71
698.577	36045.37
698.923	35896.9
699.269	35828.87
699.614	35644.25
699.96	35601.08
700.306	35493.06
700.651	35435.89
700.997	35324.48
701.342	35295.78
701.688	35215.11
702.033	35145.5
702.379	34980.08
702.724	35057.82
703.069	35024.15
703.415	34560.66
703.76	34737.38
704.105	34603.6
704.45	34563.37
704.795	34285.64
705.14	34315.47
705.485	34333.55
705.83	34105.98
706.175	34138.52
706.52	34025.76
706.865	33938.08
707.209	33904.86
707.554	33848.81
707.899	33765.88
708.243	33730.17
708.588	33571.53
708.932	33397.75
709.277	33309.62
709.621	33413.8
709.966	33114.37
710.31	33320.69
710.654	32956.18
710.998	33081.6
711.342	33127.25
711.687	33049.29
712.031	32823.08
712.375	32582.41
712.719	32697.66
713.063	32643.42
713.407	32786.69
713.75	32631.67
714.094	32551.45
714.438	32530.88
714.782	32493.59
715.125	32175.64
715.469	32350.77
715.812	32101.51
716.156	32076.66
716.499	32072.14
716.843	32012.93
717.186	31920.95
717.53	32120.27
717.873	31977.22
718.216	31842.09
718.559	31641.87
718.902	31531.36
719.246	31635.76
719.589	31530.91
719.932	31408.65
720.275	31360.07
720.617	31352.16
720.96	31219.05
721.303	31260.63
721.646	31339.05
721.989	31070.81
722.331	31217.92
722.674	31016.8
723.016	31034.88
723.359	31039.85
723.701	30998.49
724.044	30854.54
724.386	30724.15
724.729	30695
725.071	30759.18
725.413	30785.17
725.755	30647.09
726.097	30410.71
726.439	30389.02
726.782	30321.22
727.124	30411.16
727.465	30295.91
727.807	30301.56
728.149	30243.03
728.491	30237.16
728.833	30202.13
729.175	30020.44
729.516	29917.39
729.858	29965.53
730.199	30038.07
730.541	29944.74
730.882	29770.5
731.224	29896.83
731.565	29753.78
731.906	29754.91
732.248	29811.86
732.589	29659.32
732.93	29503.84
733.271	29587.91
733.612	29615.93
733.953	29515.82
734.294	29323.96
734.635	29223.62
734.976	29394.47
735.317	29193.12
735.658	29266.56
735.999	29257.07
736.339	29158.54
736.68	29213.46
737.021	29014.59
737.361	28979.79
737.702	29236.28
738.042	29073.8
738.383	28950.86
738.723	28992.44
739.063	28937.76
739.404	28838.32
739.744	28887.81
740.084	28683.98
740.424	28678.78
740.764	28592
741.104	28693.92
741.444	28494.83
741.784	28431.78
742.124	28497.77
742.464	28391.33
742.804	28447.83
743.143	28309.3
743.483	28281.28
743.823	28215.52
744.162	28112.02
744.502	28251.22
744.841	28203.76
745.181	28156.76
745.52	28113.6
745.86	28075.63
746.199	27943.88
746.538	27987.95
746.877	28019.14
747.216	27961.96
747.556	27781.63
747.895	27898.01
748.234	27935.75
748.573	27734.4
748.911	27602.88
749.25	27754.06
749.589	27645.81
749.928	27629.54
750.267	27665.02
750.605	27486.27
750.944	27433.61
751.283	27464.12
751.621	27431.35
751.96	27228.42
752.298	27219.16
752.636	27207.41
752.975	27107.3
753.313	26931.93
753.651	27087.18
753.989	26891.93
754.327	26966.96
754.666	26875.66
755.004	26862.78
755.342	26893.74
755.679	26705.72
756.017	26676.12
756.355	26721.09
756.693	26539.4
757.031	26563.36
