Data from hue_100_FLMS001491_00026.txt Node
Date: Tue Feb 07 17:02:56 GMT 2017
User: dcchb
Spectrometer: FLMS00149
Trigger mode: 0
Integration Time (sec): 2.000000E-2
Scans to average: 10
Electric dark correction enabled: true
Nonlinearity correction enabled: false
Boxcar width: 0
XAxis mode: Wavelengths
Number of Pixels in Spectrum: 2048
>>>>>Begin Spectral Data<<<<<
341.393	-5.97
341.776	-5.97
342.16	-5.97
342.543	-65.86
342.927	-95.01
343.31	-81.9
343.693	-71.74
344.077	-69.48
344.46	-45.07
344.843	-62.24
345.226	-29.02
345.61	-36.03
345.993	-17.5
346.376	-12.3
346.759	33.35
347.142	20.92
347.525	19.11
347.908	77.64
348.291	74.48
348.674	94.59
349.057	105.21
349.44	123.06
349.823	130.75
350.206	176.17
350.588	196.96
350.971	218.65
351.354	222.27
351.737	228.37
352.119	250.06
352.502	258.88
352.884	256.17
353.267	299.33
353.65	289.16
354.032	296.16
354.414	285.77
354.797	310.63
355.179	329.84
355.562	316.95
355.944	310.4
356.326	328.71
356.709	334.81
357.091	335.94
357.473	342.27
357.855	326.22
358.238	333.68
358.62	344.98
359.002	337.52
359.384	341.14
359.766	340.01
360.148	347.46
360.53	334.81
360.912	335.49
361.294	346.56
361.676	345.43
362.057	330.97
362.439	346.56
362.821	331.42
363.203	314.02
363.584	308.14
363.966	328.25
364.348	313.57
364.729	309.5
365.111	328.48
365.493	329.84
365.874	304.75
366.256	303.4
366.637	307.01
367.019	341.36
367.4	329.61
367.781	320.34
368.163	336.84
368.544	295.71
368.925	325.54
369.306	334.13
369.688	309.72
370.069	315.83
370.45	320.12
370.831	312.44
371.212	317.41
371.593	317.18
371.974	320.57
372.355	313.79
372.736	342.72
373.117	311.53
373.498	337.07
373.879	326.9
374.26	330.29
374.641	318.54
375.021	303.62
375.402	331.87
375.783	311.08
376.163	324.41
376.544	340.01
376.925	322.38
377.305	330.74
377.686	329.61
378.066	340.46
378.447	332.55
378.827	346.33
379.208	340.01
379.588	343.39
379.968	340.23
380.349	334.13
380.729	330.51
381.109	343.39
381.489	343.17
381.87	343.39
382.25	335.49
382.63	348.82
383.01	339.55
383.39	361.02
383.77	357.86
384.15	346.11
384.53	353.56
384.91	342.27
385.29	349.5
385.67	343.17
386.049	375.71
386.429	361.7
386.809	359.89
387.189	356.73
387.568	344.52
387.948	384.75
388.328	364.19
388.707	363.96
389.087	373.68
389.466	378.42
389.846	377.07
390.225	372.77
390.605	394.47
390.984	388.59
391.363	369.16
391.743	380
392.122	381.59
392.501	375.48
392.881	388.59
393.26	370.06
393.639	381.36
394.018	389.72
394.397	399.21
394.776	385.2
395.155	399.21
395.534	413.68
395.913	393.34
396.292	400.12
396.671	412.09
397.05	395.14
397.429	388.59
397.808	409.83
398.186	396.5
398.565	398.31
398.944	408.03
399.323	400.34
399.701	415.48
400.08	418.2
400.458	402.15
400.837	432.21
401.215	426.33
401.594	403.05
401.972	413.68
402.351	420.23
402.729	430.62
403.107	428.36
403.486	435.37
403.864	461.13
404.242	448.48
404.62	448.48
404.999	457.74
405.377	433.56
405.755	448.7
406.133	462.04
406.511	490.96
406.889	442.83
407.267	462.04
407.645	474.01
408.023	459.78
408.401	485.76
408.779	461.13
409.156	480.57
409.534	452.54
409.912	481.92
410.29	478.76
410.667	498.42
411.045	499.1
411.422	491.64
411.8	488.93
412.178	491.19
412.555	503.84
412.933	515.82
413.31	528.7
413.687	509.49
414.065	540.9
414.442	549.94
414.819	541.58
415.197	541.58
415.574	536.16
415.951	549.04
416.328	536.84
416.705	528.7
417.082	542.71
417.46	546.55
417.837	555.82
418.214	567.34
418.591	570.96
418.967	575.71
419.344	575.93
419.721	581.13
420.098	565.08
420.475	568.47
420.852	554.69
421.228	588.81
421.605	586.78
421.982	589.72
422.358	589.26
422.735	606.21
423.111	603.95
423.488	610.05
423.864	616.38
424.241	602.37
424.617	643.05
424.994	620
425.37	622.48
425.746	640.34
426.123	646.44
426.499	631.75
426.875	665.87
427.251	642.82
427.627	682.6
428.003	674.23
428.379	665.65
428.756	691.86
429.132	684.63
429.507	681.01
429.883	710.84
430.259	711.75
430.635	711.97
431.011	714.68
431.387	721.24
431.763	747.68
432.138	744.29
432.514	763.27
432.89	761.24
433.265	741.8
433.641	769.15
434.016	785.64
434.392	793.1
434.767	793.1
435.143	784.06
435.518	793.33
435.894	812.08
436.269	821.57
436.644	815.25
437.02	836.04
437.395	856.15
437.77	828.58
438.145	875.13
438.52	858.86
438.895	867.22
439.271	859.99
439.646	891.86
440.021	879.2
440.395	911.06
440.77	900.44
441.145	888.24
441.52	895.7
441.895	935.24
442.27	914.45
442.645	927.33
443.019	949.25
443.394	954.45
443.769	963.04
444.143	952.87
444.518	965.07
444.892	974.34
445.267	963.72
445.641	1012.3
446.016	982.02
446.39	1016.37
446.764	995.36
447.139	1009.14
447.513	1003.26
447.887	1013.43
448.262	1008.24
448.636	1027.44
449.01	1019.76
449.384	1041
449.758	1026.54
450.132	1056.37
450.506	1084.39
450.88	1068.57
451.254	1082.13
451.628	1078.74
452.002	1120.55
452.376	1098.86
452.75	1124.39
453.123	1133.66
453.497	1136.37
453.871	1151.51
454.244	1184.73
454.618	1185.41
454.992	1189.47
455.365	1188.8
455.739	1237.61
456.112	1215.01
456.486	1237.16
456.859	1237.83
457.232	1293.2
457.606	1266.76
457.979	1286.42
458.352	1324.39
458.725	1356.02
459.099	1359.19
459.472	1365.97
459.845	1399.19
460.218	1380.88
460.591	1428.79
460.964	1399.41
461.337	1465.85
461.71	1469.02
462.083	1502.01
462.456	1543.14
462.829	1490.48
463.201	1527.77
463.574	1533.19
463.947	1582.68
464.32	1593.08
464.692	1598.73
465.065	1643.7
465.438	1661.55
465.81	1676.69
466.183	1717.82
466.555	1747.88
466.928	1768.89
467.3	1774.54
467.672	1769.12
468.045	1862.9
468.417	1859.51
468.789	1875.33
469.161	1939.29
469.534	1943.13
469.906	1992.84
470.278	2006.85
470.65	2039.4
471.022	2102.44
471.394	2175.44
471.766	2166.4
472.138	2220.63
472.51	2283.68
472.882	2340.4
473.253	2368.88
473.625	2410.23
473.997	2458.59
474.369	2509.44
474.74	2561.42
475.112	2581.3
475.484	2678.25
475.855	2731.81
476.227	2781.97
476.598	2871.92
476.97	2926.15
477.341	3011.12
477.713	3088.41
478.084	3161.17
478.455	3259.93
478.827	3312.13
479.198	3419.47
479.569	3445.46
479.94	3567.04
480.311	3630.99
480.682	3725.45
481.053	3862.62
481.424	3986.01
481.795	4042.51
482.166	4204.54
482.537	4267.59
482.908	4421.48
483.279	4516.39
483.65	4630.74
484.021	4787.8
484.391	4884.97
484.762	4980.56
485.133	5072.54
485.503	5219.42
485.874	5380.78
486.244	5453.09
486.615	5661.22
486.985	5802.01
487.356	5938.28
487.726	6069.35
488.097	6246.74
488.467	6329.9
488.837	6540.29
489.207	6691.48
489.578	6767.18
489.948	6957.91
490.318	7164.91
490.688	7194.06
491.058	7420.27
491.428	7550.21
491.798	7775.06
492.168	7977.54
492.538	8025
492.908	8238.55
493.278	8446.91
493.648	8488.04
494.017	8753.57
494.387	8871.76
494.757	8964.19
495.126	9148.36
495.496	9262.03
495.866	9386.1
496.235	9457.96
496.605	9711.74
496.974	9798.29
497.344	9959.19
497.713	10103.59
498.082	10235.79
498.452	10414.09
498.821	10519.4
499.19	10599.62
499.559	10787.87
499.928	10840.29
500.298	10994.19
500.667	11130.91
501.036	11174.75
501.405	11346.95
501.774	11429.21
502.143	11600.05
502.512	11661.29
502.88	11776.77
503.249	11892.02
503.618	11927.72
503.987	12102.63
504.356	12237.09
504.724	12277.32
505.093	12330.2
505.462	12462.17
505.83	12499.69
506.199	12733.8
506.567	12835.27
506.936	12872.11
507.304	13063.29
507.672	13099.44
508.041	13208.82
508.409	13229.61
508.777	13439.77
509.145	13481.35
509.514	13502.82
509.882	13670.73
510.25	13602.03
510.618	13713.44
510.986	13903.49
511.354	13952.3
511.722	14016.71
512.09	14149.36
512.458	14041.57
512.826	14254.89
513.193	14309.58
513.561	14247.44
513.929	14336.47
514.297	14505.96
514.664	14658.95
515.032	14619.4
515.4	14658.72
515.767	14789.12
516.135	14759.97
516.502	14777.14
516.869	14939.4
517.237	14987.3
517.604	15025.04
517.972	15188.43
518.339	15142.33
518.706	15209.67
519.073	15164.02
519.44	15255.77
519.808	15418.93
520.175	15269.33
520.542	15575.54
520.909	15520.62
521.276	15542.54
521.643	15652.82
522.009	15675.87
522.376	15780.28
522.743	15800.62
523.11	15865.02
523.477	15981.63
523.843	16025.47
524.21	16174.17
524.577	16236.99
524.943	16236.76
525.31	16211.23
525.676	16334.39
526.043	16374.84
526.409	16459.36
526.776	16520.6
527.142	16469.75
527.508	16665.9
527.874	16622.97
528.241	16625.23
528.607	16504.33
528.973	16697.09
529.339	16661.61
529.705	16773.47
530.071	16798.1
530.437	16757.2
530.803	16773.47
531.169	16861.38
531.535	16783.19
531.901	16823.87
532.267	16846.24
532.632	16972.34
532.998	16708.61
533.364	16852.57
533.73	16901.15
534.095	16934.15
534.461	16928.04
534.826	16961.49
535.192	16964.2
535.557	16973.69
535.923	16883.07
536.288	16984.09
536.653	16902.51
537.019	16849.4
537.384	16833.81
537.749	16900.7
538.114	16750.2
538.479	16802.17
538.845	16805.56
539.21	16690.31
539.575	16759.23
539.94	16733.92
540.305	16824.32
540.67	16681.95
541.034	16689.86
541.399	16741.83
541.764	16657.09
542.129	16688.05
542.494	16569.63
542.858	16700.03
543.223	16592.46
543.587	16573.7
543.952	16452.35
544.316	16519.92
544.681	16449.19
545.045	16449.19
545.41	16507.94
545.774	16414.61
546.138	16422.07
546.503	16418.23
546.867	16304.56
547.231	16349.75
547.595	16315.18
547.959	16246.71
548.324	16232.24
548.688	16186.37
549.052	16206.03
549.416	16264.78
549.779	16142.08
550.143	16159.7
550.507	16125.8
550.871	16082.87
551.235	16011.23
551.599	16129.87
551.962	16043.1
552.326	16040.16
552.689	16064.56
553.053	15946.83
553.417	16039.25
553.78	16155.86
554.143	15910.22
554.507	15971.91
554.87	15922.19
555.234	15984.79
555.597	15775.98
555.96	15867.28
556.323	15887.62
556.686	15794.06
557.05	15951.8
557.413	15917.45
557.776	15866.38
558.139	15911.35
558.502	15979.59
558.865	15859.6
559.228	15919.03
559.59	15890.78
559.953	15851.46
560.316	15992.02
560.679	15988.63
561.041	16001.06
561.404	15945.92
561.767	16077.9
562.129	15950.89
562.492	16047.61
562.854	15969.88
563.217	16002.42
563.579	16026.6
563.941	16059.59
564.304	16006.03
564.666	16147.5
565.028	16020.95
565.39	16093.72
565.753	16217.55
566.115	16202.41
566.477	16169.42
566.839	16131.68
567.201	16259.13
567.563	16281.51
567.925	16340.04
568.287	16289.64
568.648	16308.17
569.01	16286.25
569.372	16369.41
569.734	16394.05
570.095	16468.39
570.457	16486.47
570.819	16484.21
571.18	16396.53
571.542	16522.86
571.903	16449.19
572.265	16518.11
572.626	16479.92
572.987	16583.87
573.349	16653.7
573.71	16539.35
574.071	16561.73
574.432	16611.44
574.794	16697.09
575.155	16659.8
575.516	16584.1
575.877	16712
576.238	16684.66
576.599	16726.02
576.96	16618.45
577.32	16680.59
577.681	16693.47
578.042	16657.77
578.403	16710.65
578.763	16832.45
579.124	16763.53
579.485	16834.71
579.845	16806.69
580.206	16705.68
580.566	16689.41
580.927	16734.15
581.287	16879.23
581.648	16806.24
582.008	16875.16
582.368	16800.36
582.728	16825.45
583.089	16708.84
583.449	16695.06
583.809	16797.43
584.169	16720.59
584.529	16719.69
584.889	16737.77
585.249	16710.65
585.609	16594.49
585.969	16697.54
586.329	16639.01
586.688	16719.91
587.048	16643.76
587.408	16644.89
587.768	16612.57
588.127	16506.36
588.487	16602.4
588.846	16716.75
589.206	16369.87
589.565	16498.9
589.925	16612.57
590.284	16471.33
590.643	16536.42
591.003	16617.54
591.362	16498.22
591.721	16578.22
592.08	16540.71
592.44	16584.32
592.799	16510.43
593.158	16514.04
593.517	16479.24
593.876	16492.35
594.235	16489.86
594.593	16492.57
594.952	16467.94
595.311	16450.77
595.67	16443.76
596.029	16477.89
596.387	16544.78
596.746	16483.99
597.104	16418.68
597.463	16433.59
597.822	16456.87
598.18	16390.43
598.538	16408.28
598.897	16450.32
599.255	16287.83
599.613	16513.82
599.972	16460.71
600.33	16452.8
600.688	16440.82
601.046	16461.62
601.404	16517.88
601.762	16472.46
602.12	16488.96
602.478	16529.18
602.836	16441.28
603.194	16374.61
603.552	16404.67
603.91	16314.27
604.268	16442.63
604.625	16383.88
604.983	16458.45
605.341	16366.25
605.698	16485.57
606.056	16560.37
606.413	16433.14
606.771	16488.51
607.128	16466.13
607.485	16497.55
607.843	16425.01
608.2	16529.41
608.557	16615.96
608.914	16513.14
609.272	16622.51
609.629	16584.1
609.986	16644.44
610.343	16530.31
610.7	16685.79
611.057	16567.38
611.414	16668.84
611.771	16619.8
612.127	16664.32
612.484	16626.13
612.841	16730.53
613.198	16650.54
613.554	16686.69
613.911	16760.59
614.267	16702.06
614.624	16761.04
614.98	16780.93
615.337	16832.9
615.693	16775.05
616.05	16799.69
616.406	16911.32
616.762	16861.15
617.118	16826.8
617.475	16839.23
617.831	16987.93
618.187	16970.53
618.543	16848.5
618.899	17014.14
619.255	16973.92
619.611	16858.44
619.967	17073.8
620.323	17061.6
620.678	16974.6
621.034	16868.16
621.39	16929.85
621.746	16985.67
622.101	17150.86
622.457	16967.14
622.812	17008.49
623.168	16999.68
623.523	17103.41
623.879	17089.17
624.234	16919.23
624.589	16951.32
624.945	16967.36
625.3	16958.55
625.655	16952.22
626.01	16984.54
626.365	16991.54
626.72	16988.16
627.075	16935.95
627.43	16891.89
627.785	16904.09
628.14	16925.33
628.495	16937.53
628.85	16956.07
629.205	16815.73
629.559	16949.96
629.914	16859.57
630.269	16976.63
630.623	16817.99
630.978	16802.62
631.332	16865.45
631.687	16875.84
632.041	16834.03
632.396	16796.75
632.75	16731.21
633.104	16723.76
633.459	16704.77
633.813	16624.77
634.167	16744.55
634.521	16646.24
634.875	16634.94
635.229	16674.26
635.583	16560.14
635.937	16566.7
636.291	16535.74
636.645	16587.26
636.999	16496.19
637.352	16588.39
637.706	16582.97
638.06	16589.52
638.413	16481.5
638.767	16477.43
639.121	16433.14
639.474	16352.24
639.828	16293.26
640.181	16375.29
640.534	16321.05
640.888	16270.43
641.241	16268.4
641.594	16275.18
641.947	16306.59
642.301	16251.23
642.654	16243.09
643.007	16271.11
643.36	16230.89
643.713	16318.79
644.066	16291
644.419	16173.26
644.771	16046.71
645.124	15925.36
645.477	15969.2
645.83	15834.96
646.182	15796.55
646.535	15665.03
646.888	15809.88
647.24	15549.1
647.593	15688.08
647.945	15707.28
648.298	15621.86
648.65	15540.74
649.002	15474.3
649.355	15697.57
649.707	15646.72
650.059	15797.68
650.411	15951.35
650.763	16032.47
651.115	16097.78
651.467	16048.29
651.819	16068.41
652.171	16002.19
652.523	16053.49
652.875	15931.91
653.227	15933.49
653.578	16084.45
653.93	16071.57
654.282	15943.66
654.633	15919.93
654.985	15897.79
655.337	15956.77
655.688	15944.11
656.039	16081.96
656.391	15939.6
656.742	16022.98
657.094	15931.69
657.445	16024.79
657.796	15978.69
658.147	15966.94
658.498	16009.88
658.849	16026.82
659.2	16046.03
659.551	15985.92
659.902	16043.32
660.253	16080.38
660.604	16129.42
660.955	15943.21
661.306	16052.81
661.656	16104.11
662.007	16018.01
662.358	16022.3
662.708	16011.23
663.059	15972.59
663.409	15865.25
663.76	16014.85
664.11	16057.56
664.461	16073.15
664.811	16023.43
665.161	16087.16
665.511	16015.07
665.862	16051.68
666.212	16134.84
666.562	16065.02
666.912	16100.49
667.262	16102.3
667.612	16037.9
667.962	16055.75
668.312	16060.04
668.662	16036.99
669.011	16006.94
669.361	15996.54
669.711	16000.38
670.06	15922.65
670.41	15970.55
670.76	15921.74
671.109	15993.15
671.459	16002.87
671.808	15979.82
672.157	15947.28
672.507	15871.35
672.856	15839.03
673.205	15859.37
673.554	15924.91
673.904	15915.87
674.253	15941.63
674.602	15928.3
674.951	15649.89
675.3	15600.62
675.649	15900.27
675.998	15812.37
676.346	15771.92
676.695	15879.03
677.044	15727.4
677.393	15832.93
677.741	15787.06
678.09	15717
678.438	15717.68
678.787	15646.27
679.135	15682.65
679.484	15580.51
679.832	15610.34
680.181	15578.02
680.529	15520.85
680.877	15527.63
681.225	15546.61
681.573	15516.1
681.922	15442.88
682.27	15438.14
682.618	15338.25
682.966	15370.8
683.314	15366.05
683.661	15297.58
684.009	15269.33
684.357	15187.52
684.705	15152.72
685.053	15247.64
685.4	15110.92
685.748	15090.35
686.095	15088.09
686.443	15066.62
686.79	15002.22
687.138	15081.09
687.485	15032.73
687.832	14983.91
688.18	14944.37
688.527	14806.07
688.874	14875.44
689.221	14747.99
689.568	14764.26
689.915	14789.79
690.262	14724.03
690.609	14710.93
690.956	14674.77
691.303	14558.84
691.65	14535.11
691.997	14526.3
692.344	14422.57
692.69	14378.96
693.037	14324.95
693.383	14201.79
693.73	14242.01
694.077	14157.49
694.423	14170.6
694.769	14127.44
695.116	14010.61
695.462	14036.59
695.808	13897.84
696.155	13993.21
696.501	13858.75
696.847	13893.32
697.193	13744.62
697.539	13754.12
697.885	13693.78
698.231	13569.04
698.577	13615.81
698.923	13614.01
699.269	13451.07
699.614	13387.12
699.96	13388.48
700.306	13384.41
700.651	13284.52
700.997	13256.5
701.342	13247.69
701.688	13204.98
702.033	13197.07
702.379	13146.22
702.724	13117.07
703.069	13111.42
703.415	12915.95
703.76	12882.73
704.105	12819.45
704.45	12933.12
704.795	12744.65
705.14	12708.27
705.485	12612.9
705.83	12677.08
706.175	12621.26
706.52	12528.39
706.865	12548.5
707.209	12589.17
707.554	12466.24
707.899	12490.87
708.243	12419.24
708.588	12421.04
708.932	12253.14
709.277	12319.35
709.621	12245.91
709.966	12218.79
710.31	12198.45
710.654	12123.88
710.998	12163.2
711.342	12098.57
711.687	12050.88
712.031	11987.16
712.375	11982.86
712.719	12001.17
713.063	11947.16
713.407	11944.45
713.75	11908.74
714.094	11894.5
714.438	11824.67
714.782	11780.61
715.125	11813.38
715.469	11753.72
715.812	11720.5
716.156	11654.96
716.499	11642.76
716.843	11669.88
717.186	11639.82
717.53	11665.81
717.873	11671.46
718.216	11652.7
718.559	11599.37
718.902	11528.41
719.246	11560.73
719.589	11442.31
719.932	11476.89
720.275	11504.91
720.617	11532.71
720.96	11453.39
721.303	11454.52
721.646	11389.88
721.989	11414.52
722.331	11401.64
722.674	11376.78
723.016	11303.78
723.359	11321.41
723.701	11345.14
724.044	11307.63
724.386	11292.49
724.729	11311.24
725.071	11306.95
725.413	11245.26
725.755	11296.33
726.097	11181.75
726.439	11147.18
726.782	11217.69
727.124	11251.13
727.465	11170.45
727.807	11129.1
728.149	11158.25
728.491	11221.98
728.833	11225.82
729.175	11165.94
729.516	11124.35
729.858	11181.75
730.199	11199.83
730.541	11200.74
730.882	11150.79
731.224	11106.73
731.565	11125.03
731.906	11124.81
732.248	11146.95
732.589	11106.5
732.93	11088.42
733.271	11090.46
733.612	11085.94
733.953	11096.78
734.294	11037.58
734.635	11030.57
734.976	11121.42
735.317	11050.68
735.658	11039.61
735.999	11046.62
736.339	11079.16
736.68	11142.43
737.021	11064.69
737.361	11025.6
737.702	11174.97
738.042	11091.36
738.383	11148.53
738.723	11122.55
739.063	11039.61
739.404	11142.66
739.744	11117.57
740.084	11120.74
740.424	11141.3
740.764	11124.81
741.104	11191.02
741.444	11195.99
741.784	11174.52
742.124	11247.97
742.464	11189.66
742.804	11250.9
743.143	11289.32
743.483	11269.66
743.823	11245.48
744.162	11330.68
744.502	11401.41
744.841	11421.52
745.181	11403.67
745.52	11465.59
745.86	11426.27
746.199	11494.97
746.538	11522.31
746.877	11659.48
747.216	11627.39
747.556	11671.46
747.895	11741.74
748.234	11806.82
748.573	11873.49
748.911	11908.06
749.25	11951.9
749.589	11989.42
749.928	12174.72
750.267	12264.66
750.605	12210.65
750.944	12299.92
751.283	12401.61
751.621	12510.76
751.96	12555.5
752.298	12710.98
752.636	12828.49
752.975	12848.15
753.313	12938.77
753.651	13118.88
753.989	13197.75
754.327	13291.98
754.666	13371.98
755.004	13501.24
755.342	13662.14
755.679	13796.37
