Data from hue_260_FLMS001491_00063.txt Node
Date: Tue Feb 07 15:59:23 GMT 2017
User: dcchb
Spectrometer: FLMS00149
Trigger mode: 0
Integration Time (sec): 2.000000E-2
Scans to average: 10
Electric dark correction enabled: true
Nonlinearity correction enabled: false
Boxcar width: 0
XAxis mode: Wavelengths
Number of Pixels in Spectrum: 2048
>>>>>Begin Spectral Data<<<<<
341.393	-33.02
341.776	-33.02
342.16	-33.02
342.543	-56.3
342.927	-95.62
343.31	-73.47
343.693	-70.76
344.077	-62.63
344.46	-42.74
344.843	-52.68
345.226	-46.35
345.61	-37.54
345.993	-13.59
346.376	-10.2
346.759	13.53
347.142	36.35
347.525	48.56
347.908	59.63
348.291	48.78
348.674	89.46
349.057	113.64
349.44	112.06
349.823	133.98
350.206	167.88
350.588	184.83
350.971	197.48
351.354	204.03
351.737	224.37
352.119	222.11
352.502	235.67
352.884	258.72
353.267	259.63
353.65	272.28
354.032	287.87
354.414	278.38
354.797	298.04
355.179	304.37
355.562	326.29
355.944	314.77
356.326	319.74
356.709	320.42
357.091	308.21
357.473	314.09
357.855	310.7
358.238	321.77
358.62	323.35
359.002	321.09
359.384	329
359.766	331.49
360.148	327.65
360.53	310.02
360.912	317.03
361.294	310.7
361.676	317.03
362.057	329.68
362.439	311.83
362.821	319.96
363.203	304.82
363.584	302.79
363.966	307.99
364.348	316.57
364.729	321.55
365.111	297.59
365.493	299.62
365.874	294.65
366.256	301.88
366.637	305.27
367.019	293.3
367.4	312.05
367.781	306.63
368.163	293.52
368.544	296.91
368.925	289.91
369.306	307.08
369.688	288.78
370.069	306.86
370.45	295.78
370.831	313.18
371.212	294.2
371.593	289.46
371.974	310.7
372.355	314.09
372.736	291.26
373.117	297.37
373.498	307.53
373.879	288.33
374.26	316.8
374.641	294.65
375.021	313.64
375.402	307.08
375.783	300.98
376.163	309.34
376.544	305.5
376.925	337.14
377.305	296.24
377.686	313.41
378.066	319.74
378.447	320.42
378.827	290.36
379.208	326.97
379.588	317.93
379.968	304.82
380.349	339.85
380.729	326.97
381.109	318.38
381.489	344.37
381.87	304.14
382.25	331.26
382.63	327.87
383.01	330.81
383.39	320.64
383.77	351.6
384.15	336.01
384.53	324.48
384.91	346.18
385.29	348.66
385.67	334.65
386.049	346.18
386.429	329.45
386.809	351.6
387.189	351.83
387.568	341.43
387.948	337.59
388.328	337.36
388.707	359.28
389.087	347.76
389.466	347.76
389.846	356.35
390.225	343.01
390.605	388.66
390.984	347.08
391.363	358.15
391.743	358.38
392.122	355.67
392.501	394.99
392.881	372.39
393.26	348.66
393.639	349.57
394.018	359.74
394.397	387.08
394.776	387.76
395.155	377.36
395.534	385.95
395.913	372.39
396.292	384.37
396.671	369
397.05	380.53
397.429	371.49
397.808	399.28
398.186	380.98
398.565	400.41
398.944	414.42
399.323	420.3
399.701	399.51
400.08	383.46
400.458	387.08
400.837	397.7
401.215	396.57
401.594	405.84
401.972	416.68
402.351	434.99
402.729	418.72
403.107	425.72
403.486	407.42
403.864	423.46
404.242	421.43
404.62	418.94
404.999	429.79
405.377	425.95
405.755	443.35
406.133	453.52
406.511	438.6
406.889	459.85
407.267	459.62
407.645	453.97
408.023	462.56
408.401	478.15
408.779	470.92
409.156	495.1
409.534	491.03
409.912	484.03
410.29	497.36
410.667	493.74
411.045	487.64
411.422	495.55
411.8	513.63
412.178	536.45
412.555	545.49
412.933	521.09
413.31	535.78
413.687	547.08
414.065	556.12
414.442	565.83
414.819	588.2
415.197	581.2
415.574	573.52
415.951	589.56
416.328	616.68
416.705	576.91
417.082	597.92
417.46	617.58
417.837	611.93
418.214	644.7
418.591	638.37
418.967	620.75
419.344	660.52
419.721	667.75
420.098	674.08
420.475	681.31
420.852	691.93
421.228	683.34
421.605	706.85
421.982	703.23
422.358	706.39
422.735	712.27
423.111	726.51
423.488	717.69
423.864	771.25
424.241	766.73
424.617	780.97
424.994	789.1
425.37	815.77
425.746	800.18
426.123	826.62
426.499	836.56
426.875	827.75
427.251	872.27
427.627	845.83
428.003	880.63
428.379	873.85
428.756	897.35
429.132	871.36
429.507	914.3
429.883	917.46
430.259	924.47
430.635	928.08
431.011	948.42
431.387	959.95
431.763	979.16
432.138	992.49
432.514	1016.22
432.89	1028.87
433.265	1041.75
433.641	1043.11
434.016	1046.27
434.392	1065.48
434.767	1102.09
435.143	1098.02
435.518	1124.24
435.894	1133.5
436.269	1131.92
436.644	1177.79
437.02	1190.22
437.395	1197.68
437.77	1227.96
438.145	1234.74
438.52	1295.76
438.895	1274.06
439.271	1301.18
439.646	1343.67
440.021	1313.16
440.395	1357.68
440.77	1320.61
441.145	1353.83
441.52	1388.18
441.895	1389.77
442.27	1381.18
442.645	1398.81
443.019	1458.46
443.394	1427.73
443.769	1451.01
444.143	1495.07
444.518	1465.02
444.892	1488.75
445.267	1488.29
445.641	1501.85
446.016	1531
446.39	1484.68
446.764	1525.13
447.139	1540.04
447.513	1595.64
447.887	1545.92
448.262	1556.09
448.636	1573.94
449.01	1625.92
449.384	1613.26
449.758	1627.5
450.132	1633.6
450.506	1646.48
450.88	1640.15
451.254	1668.85
451.628	1663.88
452.002	1698.01
452.376	1699.14
452.75	1726.93
453.123	1768.51
453.497	1787.72
453.871	1777.55
454.244	1770.77
454.618	1814.84
454.992	1858.91
455.365	1816.2
455.739	1873.37
456.112	1900.71
456.486	1892.8
456.859	1935.06
457.232	1934.61
457.606	1932.12
457.979	1972.35
458.352	2020.48
458.725	2018.45
459.099	2030.88
459.472	2074.72
459.845	2106.13
460.218	2132.57
460.591	2132.57
460.964	2132.8
461.337	2165.11
461.71	2217.54
462.083	2208.5
462.456	2256.41
462.829	2261.38
463.201	2250.53
463.574	2267.93
463.947	2330.76
464.32	2361.04
464.692	2357.42
465.065	2368.72
465.438	2418.67
465.81	2448.95
466.183	2467.7
466.555	2531.2
466.928	2535.72
467.3	2535.95
467.672	2588.6
468.045	2626.57
468.417	2634.25
468.789	2608.04
469.161	2674.93
469.534	2692.56
469.906	2774.36
470.278	2759.22
470.65	2825.89
471.022	2881.03
471.394	2920.8
471.766	2946.79
472.138	2921.02
472.51	3013.68
472.882	3044.19
473.253	3094.81
473.625	3119.89
473.997	3187.68
474.369	3224.97
474.74	3211.41
475.112	3228.59
475.484	3299.09
475.855	3385.42
476.227	3401.24
476.598	3439.88
476.97	3504.29
477.341	3571.18
477.713	3611.85
478.084	3586.54
478.455	3680.33
478.827	3747.9
479.198	3793.54
479.569	3793.32
479.94	3882.36
480.311	3946.08
480.682	4010.26
481.053	4076.7
481.424	4123.25
481.795	4170.03
482.166	4215
482.537	4245.06
482.908	4344.26
483.279	4367.31
483.65	4437.14
484.021	4548.78
484.391	4589.91
484.762	4559.4
485.133	4641.43
485.503	4645.95
485.874	4790.81
486.244	4781.99
486.615	4905.61
486.985	4942.44
487.356	5015.66
487.726	5018.37
488.097	5116.67
488.467	5087.75
488.837	5216.78
489.207	5266.05
489.578	5351.02
489.948	5374.75
490.318	5434.18
490.688	5431.24
491.058	5527.51
491.428	5615.42
491.798	5615.42
492.168	5684.34
492.538	5718.69
492.908	5754.85
493.278	5869.87
493.648	5845.47
494.017	5917.78
494.387	5950.78
494.757	5995.29
495.126	6055.86
495.496	6085.46
495.866	6088.85
496.235	6165.23
496.605	6162.07
496.974	6131.11
497.344	6278.68
497.713	6282.74
498.082	6326.59
498.452	6358.45
498.821	6363.65
499.19	6414.94
499.559	6453.81
499.928	6462.17
500.298	6497.2
500.667	6591.44
501.036	6534.49
501.405	6567.48
501.774	6580.14
502.143	6658.33
502.512	6593.92
502.88	6705.78
503.249	6699.46
503.618	6813.13
503.987	6770.64
504.356	6767.48
504.724	6798.44
505.093	6854.93
505.462	6834.82
505.83	6859.23
506.199	6868.04
506.567	6961.6
506.936	6924.76
507.304	6995.04
507.672	6974.03
508.041	7016.96
508.409	7115.04
508.777	7161.37
509.145	7148.03
509.514	7093.12
509.882	7161.14
510.25	7172.89
510.618	7191.65
510.986	7168.37
511.354	7225.32
511.722	7255.15
512.09	7267.13
512.458	7295.15
512.826	7371.53
513.193	7347.58
513.561	7340.12
513.929	7421.25
514.297	7487.01
514.664	7455.14
515.032	7458.08
515.4	7520.45
515.767	7468.25
516.135	7555.25
516.502	7482.71
516.869	7607
517.237	7561.58
517.604	7527.91
517.972	7606.1
518.339	7602.26
518.706	7561.13
519.073	7616.27
519.44	7599.55
519.808	7676.15
520.175	7665.31
520.542	7754.8
520.909	7721.35
521.276	7759.99
521.643	7771.97
522.009	7774
522.376	7771.52
522.743	7873.66
523.11	7830.27
523.477	7854.45
523.843	7936.26
524.21	8005.41
524.577	7974
524.943	7963.38
525.31	7972.87
525.676	8029.37
526.043	8038.86
526.409	8082.7
526.776	8113.66
527.142	8118.63
527.508	8172.19
527.874	8127.67
528.241	8187.33
528.607	8171.96
528.973	8202.02
529.339	8174.67
529.705	8211.51
530.071	8182.81
530.437	8216.25
530.803	8239.98
531.169	8293.99
531.535	8251.51
531.901	8265.97
532.267	8216.25
532.632	8282.69
532.998	8224.16
533.364	8284.73
533.73	8277.72
534.095	8310.49
534.461	8304.61
534.826	8315.23
535.192	8264.16
535.557	8375.57
535.923	8376.93
536.288	8272.52
536.653	8289.92
537.019	8238.4
537.384	8319.98
537.749	8210.83
538.114	8225.74
538.479	8295.57
538.845	8324.5
539.21	8256.7
539.575	8294.67
539.94	8226.65
540.305	8261.68
540.67	8259.87
541.034	8280.88
541.399	8241.11
541.764	8270.71
542.129	8267.1
542.494	8254.44
542.858	8223.26
543.223	8187.78
543.587	8258.06
543.952	8201.79
544.316	8210.83
544.681	8163.37
545.045	8239.3
545.41	8170.38
545.774	8171.73
546.138	8092.64
546.503	8156.82
546.867	8118.18
547.231	8209.93
547.595	8189.36
547.959	8124.96
548.324	8131.96
548.688	8112.53
549.052	8089.93
549.416	8143.03
549.779	8115.24
550.143	8141.68
550.507	8173.77
550.871	8167.21
551.235	8077.95
551.599	8121.11
551.962	8151.62
552.326	8129.7
552.689	8146.65
553.053	8116.59
553.417	8156.59
553.78	8113.66
554.143	8115.92
554.507	8093.09
554.87	8102.36
555.234	8145.29
555.597	8051.96
555.96	8094.9
556.323	8138.06
556.686	8147.78
557.05	8087.89
557.413	8117.27
557.776	8133.77
558.139	8151.62
558.502	8132.87
558.865	8136.48
559.228	8186.65
559.59	8232.52
559.953	8221.68
560.316	8240.66
560.679	8198.17
561.041	8253.31
561.404	8266.87
561.767	8234.56
562.129	8234.78
562.492	8322.92
562.854	8282.92
563.217	8271.62
563.579	8383.25
563.941	8311.62
564.304	8352.52
564.666	8394.1
565.028	8399.75
565.39	8447.89
565.753	8424.38
566.115	8460.54
566.477	8464.38
566.839	8489.47
567.201	8468.45
567.563	8495.57
567.925	8590.93
568.287	8570.59
568.648	8549.13
569.01	8610.59
569.372	8679.29
569.734	8670.93
570.095	8657.6
570.457	8656.24
570.819	8637.26
571.18	8660.08
571.542	8714.32
571.903	8813.75
572.265	8821.66
572.626	8787.76
572.987	8789.12
573.349	8775.11
573.71	8842.45
574.071	8839.06
574.432	8865.73
574.794	8958.61
575.155	8950.24
575.516	8802.68
575.877	8948.89
576.238	8957.7
576.599	9009.9
576.96	8980.53
577.32	9011.26
577.681	9030.69
578.042	9109.56
578.403	9036.8
578.763	9008.55
579.124	9101.65
579.485	9091.26
579.845	9177.58
580.206	9158.6
580.566	9177.58
580.927	9195.66
581.287	9207.64
581.648	9211.71
582.008	9302.33
582.368	9293.29
582.728	9269.11
583.089	9311.59
583.449	9312.72
583.809	9321.31
584.169	9337.58
584.529	9310.91
584.889	9402.89
585.249	9410.35
585.609	9392.04
585.969	9460.06
586.329	9359.73
586.688	9400.63
587.048	9436.56
587.408	9419.84
587.768	9477.91
588.127	9459.38
588.487	9463.45
588.846	9584.13
589.206	9482.66
589.565	9507.52
589.925	9589.55
590.284	9531.47
590.643	9500.51
591.003	9631.81
591.362	9613.5
591.721	9630.9
592.08	9625.03
592.44	9632.49
592.799	9668.42
593.158	9670
593.517	9667.97
593.876	9717.68
594.235	9661.86
594.593	9618.02
594.952	9763.56
595.311	9682.66
595.67	9702.99
596.029	9757.46
596.387	9714.97
596.746	9787.51
597.104	9737.57
597.463	9775.99
597.822	9747.74
598.18	9763.56
598.538	9751.58
598.897	9804.46
599.255	9681.07
599.613	9837.45
599.972	9783.9
600.33	9854.4
600.688	9792.93
601.046	9808.98
601.404	9876.32
601.762	9851.69
602.12	9899.15
602.478	9907.06
602.836	9865.02
603.194	9832.71
603.552	9909.54
603.91	9852.82
604.268	9902.08
604.625	9866.15
604.983	9848.07
605.341	9859.83
605.698	9961.52
606.056	9923.33
606.413	9881.97
606.771	9944.12
607.128	10015.08
607.485	9976.43
607.843	9934.63
608.2	9923.78
608.557	9988.86
608.914	9965.36
609.272	9935.98
609.629	9986.38
609.986	10011.46
610.343	10035.19
610.7	10080.61
611.057	10053.72
611.414	10067.5
611.771	10046.49
612.127	10067.96
612.484	10092.14
612.841	10106.37
613.198	10094.17
613.554	10090.78
613.911	10179.59
614.267	10156.77
614.624	10137.56
614.98	10106.15
615.337	10166.26
615.693	10189.76
616.05	10169.87
616.406	10177.78
616.762	10152.7
617.118	10126.03
617.475	10117.67
617.831	10185.24
618.187	10235.63
618.543	10225.69
618.899	10251.91
619.255	10271.79
619.611	10171.46
619.967	10247.84
620.323	10249.65
620.678	10250.1
621.034	10197.44
621.39	10240.38
621.746	10260.72
622.101	10345.46
622.457	10206.26
622.812	10232.47
623.168	10253.49
623.523	10262.3
623.879	10292.36
624.234	10296.65
624.589	10323.99
624.945	10356.54
625.3	10318.12
625.655	10287.38
626.01	10253.71
626.365	10257.1
626.72	10262.75
627.075	10259.36
627.43	10225.47
627.785	10269.31
628.14	10219.14
628.495	10216.88
628.85	10167.39
629.205	10232.92
629.559	10270.89
629.914	10174.17
630.269	10208.06
630.623	10185.92
630.978	10172.81
631.332	10215.07
631.687	10193.6
632.041	10120.38
632.396	10118.12
632.75	10105.24
633.104	10147.95
633.459	10098.01
633.813	10060.72
634.167	10030.67
634.521	10047.62
634.875	10124
635.229	10052.81
635.583	9988.41
635.937	10013.95
636.291	9971.46
636.645	9998.8
636.999	9986.15
637.352	9961.74
637.706	9952.48
638.06	9969.2
638.413	9901.86
638.767	9930.78
639.121	9920.16
639.474	9840.39
639.828	9919.03
640.181	9918.81
640.534	9916.55
640.888	9843.1
641.241	9800.84
641.594	9863.22
641.947	9820.28
642.301	9806.27
642.654	9786.61
643.007	9870.67
643.36	9768.98
643.713	9758.81
644.066	9834.52
644.419	9741.86
644.771	9687.4
645.124	9667.06
645.477	9665.71
645.83	9505.71
646.182	9519.72
646.535	9481.98
646.888	9476.33
647.24	9427.75
647.593	9456.67
647.945	9424.58
648.298	9370.12
648.65	9421.42
649.002	9434.07
649.355	9479.72
649.707	9389.56
650.059	9473.39
650.411	9518.37
650.763	9541.87
651.115	9671.13
651.467	9667.51
651.819	9696.21
652.171	9613.05
652.523	9584.58
652.875	9579.38
653.227	9489.44
653.578	9656.44
653.93	9635.65
654.282	9592.49
654.633	9545.26
654.985	9618.7
655.337	9613.96
655.688	9641.3
656.039	9632.71
656.391	9563.34
656.742	9622.09
657.094	9590.68
657.445	9654.41
657.796	9614.41
658.147	9561.3
658.498	9601.75
658.849	9586.61
659.2	9544.35
659.551	9551.81
659.902	9621.87
660.253	9541.87
660.604	9626.39
660.955	9556.78
661.306	9590
661.656	9553.17
662.007	9628.42
662.358	9646.95
662.708	9591.58
663.059	9620.51
663.409	9555.43
663.76	9608.98
664.11	9622.09
664.461	9664.8
664.811	9694.86
665.161	9626.39
665.511	9650.57
665.862	9636.55
666.212	9651.24
666.562	9623.22
666.912	9637.68
667.262	9615.09
667.612	9575.09
667.962	9651.24
668.312	9610.79
668.662	9618.02
669.011	9627.74
669.361	9571.47
669.711	9563.11
670.06	9604.01
670.41	9563.79
670.76	9560.4
671.109	9566.27
671.459	9529.66
671.808	9565.37
672.157	9552.49
672.507	9551.13
672.856	9480.85
673.205	9512.04
673.554	9531.25
673.904	9447.18
674.253	9578.02
674.602	9512.49
674.951	9357.69
675.3	9293.74
675.649	9500.96
675.998	9467.29
676.346	9454.41
676.695	9486.5
677.044	9408.76
677.393	9413.96
677.741	9440.18
678.09	9389.33
678.438	9387.97
678.787	9313.17
679.135	9408.99
679.484	9275.89
679.832	9320.86
680.181	9249.45
680.529	9347.75
680.877	9325.38
681.225	9269.11
681.573	9366.51
681.922	9267.3
682.27	9233.18
682.618	9250.12
682.966	9184.59
683.314	9302.33
683.661	9191.14
684.009	9068.21
684.357	9114.08
684.705	9094.87
685.053	9087.19
685.4	9059.62
685.748	9106.4
686.095	8998.15
686.443	8956.35
686.79	8969.23
687.138	8956.35
687.485	8915.22
687.832	8929.68
688.18	8978.04
688.527	8883.58
688.874	8825.5
689.221	8794.77
689.568	8849
689.915	8832.73
690.262	8727.43
690.609	8714.54
690.956	8681.55
691.303	8707.54
691.65	8629.8
691.997	8688.56
692.344	8569.01
692.69	8555.9
693.037	8603.59
693.383	8564.72
693.73	8561.78
694.077	8454.44
694.423	8463.93
694.769	8485.62
695.116	8429.81
695.462	8356.81
695.808	8357.04
696.155	8356.14
696.501	8339.19
696.847	8245.63
697.193	8262.35
697.539	8225.07
697.885	8194.78
698.231	8114.56
698.577	8174.22
698.923	8157.72
699.269	8092.87
699.614	8005.64
699.96	8016.03
700.306	8003.38
700.651	7961.12
700.997	7916.15
701.342	7938.97
701.688	7963.83
702.033	7872.99
702.379	7835.7
702.724	7841.57
703.069	7858.52
703.415	7759.32
703.76	7778.07
704.105	7737.4
704.45	7702.37
704.795	7625.99
705.14	7603.84
705.485	7623.73
705.83	7567.91
706.175	7580.79
706.52	7581.92
706.865	7551.64
707.209	7534.01
707.554	7473.22
707.899	7505.99
708.243	7495.37
708.588	7456.27
708.932	7362.04
709.277	7394.35
709.621	7386.9
709.966	7343.96
710.31	7309.61
710.654	7242.49
710.998	7240.69
711.342	7328.14
711.687	7261.02
712.031	7235.71
712.375	7162.72
712.719	7169.05
713.063	7232.1
713.407	7216.96
713.75	7154.36
714.094	7128.82
714.438	7134.02
714.782	7125.66
715.125	7091.31
715.469	7109.16
715.812	7035.72
716.156	7064.19
716.499	7080.01
716.843	7062.84
717.186	6995.04
717.53	7044.98
717.873	7017.64
718.216	6974.7
718.559	6997.3
718.902	6910.75
719.246	6910.3
719.589	6963.18
719.932	6883.63
720.275	6889.73
720.617	6919.34
720.96	6928.83
721.303	6887.02
721.646	6872.56
721.989	6844.54
722.331	6834.14
722.674	6800.02
723.016	6875.5
723.359	6875.05
723.701	6837.53
724.044	6859.9
724.386	6757.99
724.729	6779.68
725.071	6734.26
725.413	6798.21
725.755	6767.93
726.097	6759.12
726.439	6726.57
726.782	6666.92
727.124	6774.48
727.465	6765.22
727.807	6722.51
728.149	6729.51
728.491	6713.69
728.833	6729.51
729.175	6702.17
729.516	6693.13
729.858	6714.6
730.199	6763.18
730.541	6642.96
730.882	6670.53
731.224	6674.82
731.565	6713.92
731.906	6696.07
732.248	6743.52
732.589	6584.88
732.93	6661.72
733.271	6696.97
733.612	6687.03
733.953	6694.48
734.294	6659.68
734.635	6654.03
734.976	6666.01
735.317	6669.85
735.658	6678.21
735.999	6635.05
736.339	6633.92
736.68	6720.25
737.021	6657.42
737.361	6659.46
737.702	6692
738.042	6636.41
738.383	6661.04
738.723	6677.76
739.063	6729.06
739.404	6696.74
739.744	6715.05
740.084	6698.1
740.424	6708.27
740.764	6762.05
741.104	6799.57
741.444	6767.7
741.784	6722.51
742.124	6831.66
742.464	6730.42
742.804	6761.38
743.143	6783.52
743.483	6848.15
743.823	6783.97
744.162	6831.2
744.502	6835.05
744.841	6814.26
745.181	6836.4
745.52	6844.54
745.86	6897.87
746.199	6984.65
746.538	6974.03
746.877	7005.66
747.216	7068.71
747.556	6998.21
747.895	7033.46
748.234	7130.41
748.573	7120.69
748.911	7190.74
749.25	7244.53
749.589	7232.55
749.928	7305.54
750.267	7370.4
750.605	7430.28
750.944	7526.1
751.283	7547.57
751.621	7671.63
751.96	7666.44
752.298	7772.65
752.636	7794.57
752.975	7834.12
753.313	7882.93
753.651	8036.6
753.989	8118.63
754.327	8155.24
754.666	8213.32
755.004	8328.79
755.342	8432.29
755.679	8515.45
756.017	8563.14
756.355	8746.18
756.693	8791.6
757.031	8954.31
757.368	9015.1
757.706	9104.82
758.044	9222.33
758.381	9278.15
758.719	9444.92
759.056	9564.24
759.394	9677.46
759.731	9733.28
760.068	9836.32
760.405	9979.6
760.743	10085.36
761.08	10234.73
761.417	10393.37
761.754	10517.21
762.091	10569.86
762.428	10747.94
762.765	10814.38
763.102	10994.48
763.438	11032.9
763.775	11087.59
764.112	11292.56
764.449	11471.31
764.785	11527.13
765.122	11604.41
765.458	11700.23
765.795	11744.52
766.131	11930.05
766.467	12034.46
766.804	12156.94
767.14	12179.76
767.476	12351.96
