Data from hue_90_FLMS001491_85.txt Node
Date: Mon Feb 06 15:25:48 GMT 2017
User: dcchb
Spectrometer: FLMS00149
Trigger mode: 0
Integration Time (sec): 2.000000E-2
Scans to average: 10
Electric dark correction enabled: true
Nonlinearity correction enabled: false
Boxcar width: 0
XAxis mode: Wavelengths
Number of Pixels in Spectrum: 2048
>>>>>Begin Spectral Data<<<<<
341.393	-18.49
341.776	-18.49
342.16	-18.49
342.543	-59.39
342.927	-80.41
343.31	-62.33
343.693	-60.97
344.077	-65.72
344.46	-37.7
344.843	-70.01
345.226	-35.89
345.61	-36.79
345.993	-35.89
346.376	-20.97
346.759	8.18
347.142	26.48
347.525	46.14
347.908	57.89
348.291	74.62
348.674	86.14
349.057	126.82
349.44	132.24
349.823	139.02
350.206	138.8
350.588	191.9
350.971	218.57
351.354	219.02
351.737	247.72
352.119	270.09
352.502	264.22
352.884	284.1
353.267	293.82
353.65	294.72
354.032	316.42
354.414	300.37
354.797	315.51
355.179	305.35
355.562	329.98
355.944	323.42
356.326	325.01
356.709	346.02
357.091	345.12
357.473	358.23
357.855	339.24
358.238	340.37
358.62	324.78
359.002	335.85
359.384	346.7
359.766	338.79
360.148	328.4
360.53	332.69
360.912	351.22
361.294	357.77
361.676	327.49
362.057	312.12
362.439	345.12
362.821	316.64
363.203	327.27
363.584	305.8
363.966	337.89
364.348	328.4
364.729	335.63
365.111	317.55
365.493	334.95
365.874	306.25
366.256	311.45
366.637	309.41
367.019	318.23
367.4	306.7
367.781	323.2
368.163	315.06
368.544	328.85
368.925	309.19
369.306	327.49
369.688	306.47
370.069	314.84
370.45	309.41
370.831	312.8
371.212	322.75
371.593	304.44
371.974	290.2
372.355	320.94
372.736	332.01
373.117	316.42
373.498	323.65
373.879	314.84
374.26	314.16
374.641	312.58
375.021	301.73
375.402	315.29
375.783	302.18
376.163	323.88
376.544	335.4
376.925	323.65
377.305	329.53
377.686	325.68
378.066	305.35
378.447	334.72
378.827	324.55
379.208	328.62
379.588	342.86
379.968	349.86
380.349	328.17
380.729	327.72
381.109	347.6
381.489	353.48
381.87	334.95
382.25	336.3
382.63	331.79
383.01	351.9
383.39	355.29
383.77	364.55
384.15	329.07
384.53	350.77
384.91	359.13
385.29	356.42
385.67	336.08
386.049	343.31
386.429	350.54
386.809	340.15
387.189	341.5
387.568	359.58
387.948	353.48
388.328	372.46
388.707	367.04
389.087	359.13
389.466	372.01
389.846	363.42
390.225	378.79
390.605	371.11
390.984	381.5
391.363	360.94
391.743	383.31
392.122	383.99
392.501	375.4
392.881	398.22
393.26	363.42
393.639	388.05
394.018	379.47
394.397	396.87
394.776	389.18
395.155	388.73
395.534	395.06
395.913	373.82
396.292	406.13
396.671	376.76
397.05	406.59
397.429	394.38
397.808	398.22
398.186	410.43
398.565	396.19
398.944	408.17
399.323	403.2
399.701	402.97
400.08	386.92
400.458	432.8
400.837	408.62
401.215	380.15
401.594	413.82
401.972	409.07
402.351	410.2
402.729	423.08
403.107	430.09
403.486	417.88
403.864	423.08
404.242	415.85
404.62	435.06
404.999	434.16
405.377	437.32
405.755	466.02
406.133	443.19
406.511	448.17
406.889	443.87
407.267	473.7
407.645	438.9
408.023	439.35
408.401	460.6
408.779	459.92
409.156	463.98
409.534	466.92
409.912	471.89
410.29	481.39
410.667	491.1
411.045	486.13
411.422	512.35
411.8	483.19
412.178	494.94
412.555	483.42
412.933	495.4
413.31	517.77
413.687	517.77
414.065	494.72
414.442	495.85
414.819	527.49
415.197	529.75
415.574	525.9
415.951	532.68
416.328	520.71
416.705	516.64
417.082	522.74
417.46	510.09
417.837	529.29
418.214	523.64
418.591	522.74
418.967	548.05
419.344	543.98
419.721	565.23
420.098	541.27
420.475	557.54
420.852	563.19
421.228	555.06
421.605	561.61
421.982	551.89
422.358	576.07
422.735	594.6
423.111	592.8
423.488	589.18
423.864	567.49
424.241	605.9
424.617	593.47
424.994	606.35
425.37	612.91
425.746	610.42
426.123	613.81
426.499	628.73
426.875	615.17
427.251	626.69
427.627	625.11
428.003	618.78
428.379	646.35
428.756	652.23
429.132	641.16
429.507	645.22
429.883	626.92
430.259	666.69
430.635	668.73
431.011	663.98
431.387	684.54
431.763	701.04
432.138	701.49
432.514	676.63
432.89	719.8
433.265	724.54
433.641	714.83
434.016	732
434.392	751.44
434.767	764.32
435.143	739.23
435.518	743.3
435.894	742.17
436.269	762.51
436.644	788.5
437.02	806.35
437.395	780.36
437.77	795.28
438.145	791.89
438.52	814.71
438.895	831.66
439.271	799.57
439.646	837.31
440.021	844.99
440.395	828.04
440.77	822.85
441.145	832.34
441.52	866.91
441.895	837.31
442.27	860.58
442.645	865.33
443.019	872.11
443.394	892.22
443.769	873.24
444.143	881.38
444.518	882.51
444.892	899.91
445.267	901.71
445.641	908.72
446.016	910.75
446.39	917.98
446.764	930.64
447.139	920.92
447.513	946.91
447.887	948.72
448.262	940.81
448.636	948.27
449.01	969.96
449.384	969.51
449.758	1024.2
450.132	992.56
450.506	979.68
450.88	990.98
451.254	1013.8
451.628	997.53
452.002	1024.42
452.376	1047.02
452.75	1017.19
453.123	1057.19
453.497	1064.42
453.871	1076.17
454.244	1076.17
454.618	1090.64
454.992	1103.06
455.365	1081.37
455.739	1157.98
456.112	1148.03
456.486	1140.35
456.859	1167.02
457.232	1185.55
457.606	1193.46
457.979	1211.31
458.352	1186.45
458.725	1205.21
459.099	1249.95
459.472	1272.78
459.845	1270.74
460.218	1284.53
460.591	1318.2
460.964	1307.8
461.337	1345.32
461.71	1387.8
462.083	1379.22
462.456	1402.49
462.829	1405.66
463.201	1435.71
463.574	1427.58
463.947	1462.15
464.32	1478.65
464.692	1479.55
465.065	1503.28
465.438	1538.08
465.81	1567.23
466.183	1556.61
466.555	1587.35
466.928	1614.01
467.3	1625.54
467.672	1650.17
468.045	1686.78
468.417	1701.92
468.789	1730.39
469.161	1768.13
469.534	1810.39
469.906	1797.96
470.278	1847.68
470.65	1858.3
471.022	1896.26
471.394	1954.34
471.766	1989.82
472.138	1996.37
472.51	2059.65
472.882	2089.48
473.253	2101.68
473.625	2179.65
473.997	2232.75
474.369	2267.55
474.74	2289.25
475.112	2353.65
475.484	2386.19
475.855	2451.5
476.227	2508.9
476.598	2527.89
476.97	2593.19
477.341	2668.45
477.713	2756.13
478.084	2760.42
478.455	2891.27
478.827	2920.64
479.198	3032.96
479.569	3031.38
479.94	3213.97
480.311	3205.61
480.682	3320.18
481.053	3427.52
481.424	3515.88
481.795	3626.39
482.166	3634.75
482.537	3770.34
482.908	3878.13
483.279	3942.76
483.65	4072.03
484.021	4199.25
484.391	4293.04
484.762	4329.65
485.133	4495.52
485.503	4539.58
485.874	4690.09
486.244	4785.91
486.615	4899.8
486.985	5003.75
487.356	5167.36
487.726	5265.89
488.097	5363.07
488.467	5435.83
488.837	5651.87
489.207	5788.59
489.578	5916.5
489.948	6022.71
490.318	6162.37
490.688	6263.38
491.058	6397.16
491.428	6531.17
491.798	6674.44
492.168	6821.78
492.538	6961.22
492.908	7090.93
493.278	7199.63
493.648	7275.11
494.017	7476.23
494.387	7553.52
494.757	7675.77
495.126	7903.11
495.496	7856.56
495.866	8058.14
496.235	8162.54
496.605	8325.7
496.974	8353.27
497.344	8538.35
497.713	8644.56
498.082	8730.89
498.452	8859.47
498.821	8933.82
499.19	9043.19
499.559	9158.22
499.928	9228.5
500.298	9360.93
500.667	9519.11
501.036	9513.24
501.405	9648.15
501.774	9660.58
502.143	9794.36
502.512	9968.14
502.88	10005.43
503.249	10088.59
503.618	10137.85
503.987	10220.79
504.356	10276.38
504.724	10396.15
505.093	10437.73
505.462	10569.03
505.83	10663.94
506.199	10742.13
506.567	10838.85
506.936	10883.82
507.304	11060.54
507.672	11055.12
508.041	11108.45
508.409	11213.76
508.777	11272.29
509.145	11357.48
509.514	11446.75
509.882	11566.74
510.25	11533.75
510.618	11604.71
510.986	11614.65
511.354	11772.84
511.722	11894.64
512.09	12011.7
512.458	11888.32
512.826	11971.48
513.193	12028.2
513.561	12158.14
513.929	12172.15
514.297	12330.34
514.664	12354.07
515.032	12424.8
515.4	12379.6
515.767	12454.18
516.135	12533.5
516.502	12436.78
516.869	12684.23
517.237	12752.25
517.604	12729.43
517.972	12816.2
518.339	12805.13
518.706	12831.12
519.073	12831.8
519.44	12912.7
519.808	13002.41
520.175	12984.79
520.542	13173.26
520.909	13217.32
521.276	13127.15
521.643	13286.92
522.009	13328.05
522.376	13390.2
522.743	13347.71
523.11	13451.89
523.477	13602.85
523.843	13578.67
524.21	13697.99
524.577	13745.44
524.943	13706.35
525.31	13681.49
525.676	13838.1
526.043	13803.97
526.409	13958.55
526.776	13886.68
527.142	13924.42
527.508	13922.39
527.874	14055.72
528.241	14128.71
528.607	14046.45
528.973	14123.74
529.339	14060.69
529.705	14201.93
530.071	14320.57
530.437	14252.32
530.803	14301.81
531.169	14358.08
531.535	14204.64
531.901	14350.4
532.267	14366.44
532.632	14273.34
532.998	14333
533.364	14336.16
533.73	14284.86
534.095	14302.94
534.461	14370.29
534.826	14447.8
535.192	14335.26
535.557	14359.44
535.923	14281.7
536.288	14364.86
536.653	14409.83
537.019	14233.11
537.384	14316.28
537.749	14307.91
538.114	14224.08
538.479	14341.81
538.845	14311.53
539.21	14166
539.575	14202.38
539.94	14232.66
540.305	14260.68
540.67	14231.53
541.034	14163.51
541.399	14228.82
541.764	14173
542.129	14177.97
542.494	14171.65
542.858	14186.56
543.223	14063.18
543.587	14135.26
543.952	14046
544.316	14033.8
544.681	14003.52
545.045	14049.62
545.41	13965.55
545.774	13900.47
546.138	13981.14
546.503	14011.65
546.867	13959.9
547.231	14045.55
547.595	13926.23
547.959	13851.66
548.324	13928.94
548.688	13890.52
549.052	13834.71
549.416	13870.19
549.779	13824.09
550.143	13735.73
550.507	13824.09
550.871	13799.45
551.235	13684.65
551.599	13721.04
551.962	13741.15
552.326	13644.43
552.689	13687.14
553.053	13625.45
553.417	13581.61
553.78	13819.79
554.143	13609.4
554.507	13658.44
554.87	13663.64
555.234	13763.07
555.597	13543.19
555.96	13630.64
556.323	13626.35
556.686	13620.93
557.05	13639.23
557.413	13627.71
557.776	13711.32
558.139	13662.96
558.502	13687.82
558.865	13673.58
559.228	13731.66
559.59	13653.47
559.953	13611.44
560.316	13763.75
560.679	13705.44
561.041	13802.62
561.404	13758.78
561.767	13752.22
562.129	13740.02
562.492	13761.49
562.854	13780.7
563.217	13761.04
563.579	13832
563.941	13850.07
564.304	13839
564.666	13855.05
565.028	13867.25
565.39	13927.81
565.753	13987.02
566.115	13970.52
566.477	13995.15
566.839	13992.67
567.201	14108.15
567.563	14012.33
567.925	13975.04
568.287	14078.77
568.648	14050.29
569.01	14144.76
569.372	14098.65
569.734	14075.38
570.095	14171.2
570.457	14174.58
570.819	14199.44
571.18	14201.48
571.542	14283.96
571.903	14234.47
572.265	14292.77
572.626	14286.22
572.987	14277.18
573.349	14338.42
573.71	14330.51
574.071	14378.65
574.432	14342.26
574.794	14510.62
575.155	14474.46
575.516	14343.62
575.877	14517.63
576.238	14435.37
576.599	14537.97
576.96	14516.04
577.32	14458.87
577.681	14482.15
578.042	14492.09
578.403	14523.05
578.763	14559.89
579.124	14473.79
579.485	14521.24
579.845	14573.44
580.206	14533.9
580.566	14504.52
580.927	14508.81
581.287	14587.23
581.648	14526.21
582.008	14589.72
582.368	14623.16
582.728	14628.13
583.089	14590.39
583.449	14586.78
583.809	14549.04
584.169	14667
584.529	14565.08
584.889	14618.64
585.249	14550.17
585.609	14429.27
585.969	14550.62
586.329	14461.58
586.688	14475.59
587.048	14468.59
587.408	14466.55
587.768	14429.49
588.127	14457.52
588.487	14331.42
588.846	14513.56
589.206	14351.76
589.565	14389.72
589.925	14369.38
590.284	14333.45
590.643	14432.43
591.003	14430.17
591.362	14429.27
591.721	14436.27
592.08	14380
592.44	14432.66
592.799	14451.64
593.158	14388.59
593.517	14362.38
593.876	14424.75
594.235	14420.45
594.593	14346.56
594.952	14413
595.311	14232.44
595.67	14349.5
596.029	14413.45
596.387	14456.61
596.746	14405.54
597.104	14340.91
597.463	14349.04
597.822	14351.76
598.18	14251.19
598.538	14295.49
598.897	14312.66
599.255	14234.24
599.613	14395.82
599.972	14317.41
600.33	14365.09
600.688	14299.33
601.046	14330.06
601.404	14388.14
601.762	14400.34
602.12	14474.46
602.478	14399.66
602.836	14438.08
603.194	14369.83
603.552	14318.99
603.91	14341.36
604.268	14434.92
604.625	14335.48
604.983	14386.78
605.341	14269.05
605.698	14376.16
606.056	14389.04
606.413	14369.16
606.771	14381.81
607.128	14422.94
607.485	14426.78
607.843	14353.79
608.2	14383.17
608.557	14456.39
608.914	14358.99
609.272	14452.09
609.629	14497.06
609.986	14455.03
610.343	14494.35
610.7	14635.82
611.057	14506.1
611.414	14463.16
611.771	14532.99
612.127	14552.88
612.484	14546.78
612.841	14607.79
613.198	14559.66
613.554	14556.95
613.911	14639.66
614.267	14641.69
614.624	14538.64
614.98	14655.48
615.337	14611.86
615.693	14728.69
616.05	14679.43
616.406	14637.62
616.762	14714.91
617.118	14711.29
617.475	14697.06
617.831	14808.01
618.187	14704.51
618.543	14708.81
618.899	14815.47
619.255	14750.84
619.611	14783.16
619.967	14829.26
620.323	14942.47
620.678	14809.82
621.034	14715.59
621.39	14682.82
621.746	14714.46
622.101	14923.72
622.457	14803.95
622.812	14856.6
623.168	14803.72
623.523	14917.84
623.879	14871.06
624.234	14785.64
624.589	14817.96
624.945	14850.95
625.3	14908.35
625.655	14827.22
626.01	14819.09
626.365	14794.68
626.72	14773.67
627.075	14761.91
627.43	14775.02
627.785	14752.42
628.14	14832.65
628.495	14797.39
628.85	14780.9
629.205	14737.96
629.559	14866.09
629.914	14728.92
630.269	14769.37
630.623	14695.48
630.978	14654.35
631.332	14697.06
631.687	14777.51
632.041	14686.66
632.396	14675.81
632.75	14633.1
633.104	14659.32
633.459	14597.4
633.813	14567.57
634.167	14588.81
634.521	14602.82
634.875	14618.19
635.229	14532.77
635.583	14434.01
635.937	14605.99
636.291	14504.75
636.645	14410.96
636.999	14327.58
637.352	14431.75
637.706	14388.36
638.06	14505.2
638.413	14408.93
638.767	14383.84
639.121	14405.99
639.474	14223.62
639.828	14311.3
640.181	14193.12
640.534	14313.56
640.888	14253.45
641.241	14168.03
641.594	14299.33
641.947	14285.32
642.301	14199.44
642.654	14259.1
643.007	14227.46
643.36	14201.48
643.713	14114.93
644.066	14184.08
644.419	14061.14
644.771	14153.34
645.124	13973.69
645.477	13913.35
645.83	13784.09
646.182	13740.02
646.535	13706.35
646.888	13793.8
647.24	13598.33
647.593	13675.84
647.945	13720.36
648.298	13567.14
648.65	13614.6
649.002	13485.56
649.355	13619.35
649.707	13616.18
650.059	13645.56
650.411	13808.94
650.763	13894.37
651.115	14011.2
651.467	13926.91
651.819	13991.99
652.171	13983.63
652.523	13938.21
652.875	13951.99
653.227	13789.06
653.578	13974.36
653.93	13977.98
654.282	13843.29
654.633	13778.44
654.985	13928.04
655.337	13893.69
655.688	13924.87
656.039	13987.47
656.391	13829.96
656.742	13824.99
657.094	13926.68
657.445	14002.61
657.796	13903.86
658.147	13906.34
658.498	13910.41
658.849	14023.18
659.2	13905.21
659.551	13921.48
659.902	13990.63
660.253	13894.37
660.604	13991.76
660.955	13942.05
661.306	13942.73
661.656	13903.18
662.007	13966.68
662.358	13954.7
662.708	13959.68
663.059	13914.03
663.409	13859.56
663.76	14013.01
664.11	14001.03
664.461	13926
664.811	13881.94
665.161	13958.55
665.511	13975.95
665.862	13979.34
666.212	14030.41
666.562	14009.17
666.912	13989.51
667.262	13970.07
667.612	13939.56
667.962	13981.6
668.312	13994.02
668.662	14036.96
669.011	13915.61
669.361	13933.24
669.711	13943.86
670.06	13876.06
670.41	13890.3
670.76	13836.29
671.109	13758.55
671.459	13875.84
671.808	13816.4
672.157	13840.58
672.507	13720.36
672.856	13794.03
673.205	13757.19
673.554	13773.92
673.904	13813.01
674.253	13864.76
674.602	13760.36
674.951	13636.97
675.3	13517.43
675.649	13750.42
675.998	13664.77
676.346	13720.59
676.695	13740.7
677.044	13724.2
677.393	13679.68
677.741	13739.57
678.09	13665.67
678.438	13594.71
678.787	13687.82
679.135	13644.43
679.484	13548.16
679.832	13630.19
680.181	13568.5
680.529	13568.27
680.877	13493.25
681.225	13583.19
681.573	13588.39
681.922	13472.23
682.27	13424.77
682.618	13425.45
682.966	13398.79
683.314	13373.25
683.661	13397.43
684.009	13245.12
684.357	13205.34
684.705	13193.14
685.053	13171.45
685.4	13197.66
685.748	13113.6
686.095	13064.56
686.443	13042.19
686.79	13055.07
687.138	13044.67
687.485	13069.76
687.832	12982.3
688.18	12923.77
688.527	12866.6
688.874	12940.95
689.221	12884
689.568	12836.54
689.915	12846.03
690.262	12771.91
690.609	12752.02
690.956	12620.73
691.303	12712.02
691.65	12608.07
691.997	12616.43
692.344	12586.38
692.69	12517.68
693.037	12486.49
693.383	12354.07
693.73	12439.26
694.077	12370.34
694.423	12340.73
694.769	12299.83
695.116	12277.69
695.462	12210.34
695.808	12160.4
696.155	12177.12
696.501	12070.46
696.847	12049.44
697.193	11983.23
697.539	12011.48
697.885	11857.81
698.231	11849.22
698.577	11896
698.923	11820.97
699.269	11713.41
699.614	11756.34
699.96	11654.88
700.306	11670.24
700.651	11566.07
700.997	11535.11
701.342	11546.18
701.688	11449.23
702.033	11518.61
702.379	11424.15
702.724	11376.47
703.069	11470.25
703.415	11291.27
703.76	11279.97
704.105	11275.9
704.45	11212.63
704.795	11181.67
705.14	11121.33
705.485	11136.92
705.83	11066.64
706.175	11077.94
706.52	10992.07
706.865	10885.41
707.209	10980.09
707.554	10898.96
707.899	10879.98
708.243	10865.75
708.588	10800.66
708.932	10735.81
709.277	10772.87
709.621	10719.08
709.966	10713.88
710.31	10724.28
710.654	10639.76
710.998	10633.89
711.342	10611.06
711.687	10597.73
712.031	10503.27
712.375	10495.81
712.719	10458.52
713.063	10500.33
713.407	10509.37
713.75	10462.14
714.094	10462.82
714.438	10328.81
714.782	10326.32
715.125	10322.48
715.469	10306.66
715.812	10348.7
716.156	10209.72
716.499	10212.66
716.843	10287
717.186	10262.6
717.53	10281.13
717.873	10225.08
718.216	10219.66
718.559	10161.13
718.902	10123.39
719.246	10107.8
719.589	10156.16
719.932	10072.55
720.275	10092.88
720.617	10077.74
720.96	10062.6
721.303	10028.25
721.646	10077.07
721.989	9967.46
722.331	10055.15
722.674	9974.7
723.016	10006.56
723.359	9925.43
723.701	9876.17
724.044	9925.66
724.386	9907.35
724.729	9939.22
725.071	9881.59
725.413	9913
725.755	9893.12
726.097	9836.85
726.439	9749.39
726.782	9820.12
727.124	9825.32
727.465	9812.44
727.807	9740.8
728.149	9760.46
728.491	9702.39
728.833	9809.5
729.175	9703.97
729.516	9718.88
729.858	9729.73
730.199	9741.93
730.541	9700.35
730.882	9715.04
731.224	9753.46
731.565	9701.03
731.906	9696.51
732.248	9790.75
732.589	9659.22
732.93	9704.87
733.271	9602.5
733.612	9706
733.953	9711.43
734.294	9607.7
734.635	9698.54
734.976	9705.32
735.317	9643.4
735.658	9652.44
735.999	9598.66
736.339	9708.26
736.68	9739.45
737.021	9651.54
737.361	9622.16
737.702	9641.37
738.042	9719.11
738.383	9688.15
738.723	9622.61
739.063	9627.13
739.404	9678.43
739.744	9661.94
740.084	9637.98
740.424	9677.75
740.764	9716.17
741.104	9735.61
741.444	9643.86
741.784	9694.02
742.124	9769.05
742.464	9702.61
742.804	9747.13
743.143	9707.36
743.483	9803.63
743.823	9820.58
744.162	9868.03
744.502	9895.83
744.841	9800.24
745.181	9928.37
745.52	9901.48
745.86	9958.2
746.199	10003.17
746.538	10022.6
746.877	9983.73
747.216	10103.28
747.556	10092.88
747.895	10173.56
748.234	10190.96
748.573	10209.04
748.911	10265.08
749.25	10356.38
749.589	10314.35
749.928	10413.33
750.267	10456.49
750.605	10505.3
750.944	10592.08
751.283	10624.17
751.621	10703.26
751.96	10693.09
752.298	10868.91
752.636	10958.62
752.975	10976.7
753.313	10978.06
753.651	11124.95
753.989	11280.65
754.327	11321.1
754.666	11349.57
755.004	11538.5
755.342	11642.22
755.679	11756.12
756.017	11797.25
756.355	11941.2
756.693	12046.28
757.031	12116.33
757.368	12224.35
757.706	12347.97
758.044	12459.15
