Data from hue_320_FLMS001491_14.txt Node
Date: Mon Feb 06 15:46:47 GMT 2017
User: dcchb
Spectrometer: FLMS00149
Trigger mode: 0
Integration Time (sec): 2.000000E-2
Scans to average: 10
Electric dark correction enabled: true
Nonlinearity correction enabled: false
Boxcar width: 0
XAxis mode: Wavelengths
Number of Pixels in Spectrum: 2048
>>>>>Begin Spectral Data<<<<<
341.393	-8.01
341.776	-8.01
342.16	-8.01
342.543	-63.83
342.927	-70.61
343.31	-57.5
343.693	-89.14
344.077	-63.15
344.46	-72.41
344.843	-42.13
345.226	-52.07
345.61	-34.45
345.993	-7.56
346.376	4.87
346.759	11.65
347.142	24.08
347.525	57.07
347.908	63.18
348.291	52.1
348.674	96.17
349.057	109.28
349.44	120.12
349.823	145.43
350.206	157.41
350.588	181.37
350.971	204.19
351.354	216.17
351.737	239.67
352.119	223.4
352.502	262.04
352.884	248.26
353.267	273.11
353.65	293.23
354.032	299.78
354.414	297.75
354.797	312.44
355.179	327.35
355.562	315.15
355.944	327.58
356.326	326.9
356.709	316.95
357.091	334.81
357.473	350.4
357.855	318.54
358.238	344.07
358.62	350.17
359.002	332.1
359.384	333.23
359.766	336.39
360.148	342.72
360.53	331.64
360.912	339.78
361.294	334.13
361.676	342.27
362.057	327.8
362.439	333.23
362.821	323.06
363.203	328.48
363.584	313.34
363.966	333
364.348	329.38
364.729	321.47
365.111	313.34
365.493	317.41
365.874	323.73
366.256	320.8
366.637	328.48
367.019	304.07
367.4	299.78
367.781	302.49
368.163	309.05
368.544	314.92
368.925	314.47
369.306	294.58
369.688	297.97
370.069	309.05
370.45	332.1
370.831	300.23
371.212	289.61
371.593	303.17
371.974	312.44
372.355	303.85
372.736	321.47
373.117	325.99
373.498	308.59
373.879	317.18
374.26	321.02
374.641	305.88
375.021	290.51
375.402	327.58
375.783	319.44
376.163	318.54
376.544	318.76
376.925	334.36
377.305	325.77
377.686	335.03
378.066	311.76
378.447	332.32
378.827	341.36
379.208	330.97
379.588	345.43
379.968	317.86
380.349	325.54
380.729	337.52
381.109	322.6
381.489	326.9
381.87	334.36
382.25	329.84
382.63	323.28
383.01	320.12
383.39	341.81
383.77	333.45
384.15	331.42
384.53	330.97
384.91	342.94
385.29	341.81
385.67	350.4
386.049	325.99
386.429	354.47
386.809	342.94
387.189	346.33
387.568	366.45
387.948	350.85
388.328	339.1
388.707	341.81
389.087	355.15
389.466	342.49
389.846	335.03
390.225	358.99
390.605	362.6
390.984	366.22
391.363	351.08
391.743	370.06
392.122	397.18
392.501	381.59
392.881	375.71
393.26	373
393.639	354.92
394.018	367.58
394.397	361.47
394.776	363.51
395.155	368.7
395.534	361.7
395.913	376.39
396.292	384.98
396.671	383.39
397.05	374.13
397.429	383.17
397.808	391.76
398.186	395.6
398.565	375.94
398.944	398.99
399.323	383.85
399.701	400.79
400.08	404.41
400.458	400.34
400.837	400.34
401.215	398.99
401.594	396.27
401.972	398.31
402.351	411.87
402.729	427.91
403.107	412.77
403.486	415.71
403.864	405.31
404.242	427.46
404.62	434.01
404.999	420.46
405.377	419.55
405.755	432.66
406.133	428.82
406.511	453.67
406.889	444.41
407.267	440.79
407.645	456.16
408.023	437.18
408.401	457.52
408.779	475.82
409.156	467.91
409.534	481.02
409.912	476.05
410.29	497.52
410.667	473.56
411.045	476.05
411.422	481.47
411.8	502.94
412.178	490.06
412.555	503.39
412.933	484.86
413.31	523.28
413.687	540.45
414.065	530.73
414.442	527.34
414.819	547.68
415.197	537.06
415.574	553.56
415.951	545.42
416.328	561.92
416.705	554.24
417.082	570.73
417.46	604.41
417.837	616.16
418.214	606.44
418.591	592.43
418.967	617.29
419.344	625.65
419.721	634.91
420.098	624.29
420.475	641.92
420.852	660.67
421.228	645.08
421.605	664.29
421.982	668.58
422.358	682.37
422.735	673.1
423.111	697.96
423.488	678.53
423.864	677.17
424.241	682.6
424.617	694.35
424.994	728.02
425.37	717.4
425.746	721.92
426.123	733.22
426.499	772.54
426.875	738.41
427.251	764.63
427.627	744.29
428.003	775.7
428.379	795.81
428.756	790.16
429.132	768.47
429.507	823.61
429.883	826.55
430.259	821.12
430.635	833.33
431.011	825.64
431.387	851.63
431.763	874.45
432.138	866.55
432.514	854.34
432.89	887.79
433.265	930.95
433.641	909.93
434.016	902.25
434.392	912.42
434.767	946.54
435.143	940.44
435.518	969.82
435.894	962.59
436.269	961.23
436.644	971.4
437.02	981.12
437.395	1006.65
437.77	1009.14
438.145	1027.22
438.52	1015.02
438.895	1028.57
439.271	1040.1
439.646	1043.49
440.021	1070.38
440.395	1080.55
440.77	1066.77
441.145	1073.77
441.52	1075.13
441.895	1066.31
442.27	1076.26
442.645	1093.43
443.019	1106.99
443.394	1104.96
443.769	1111.06
444.143	1115.8
444.518	1134.56
444.892	1132.98
445.267	1131.85
445.641	1146.54
446.016	1155.12
446.39	1130.94
446.764	1166.42
447.139	1165.75
447.513	1130.72
447.887	1173.43
448.262	1183.6
448.636	1164.16
449.01	1188.57
449.384	1182.69
449.758	1198.29
450.132	1203.71
450.506	1203.94
450.88	1191.73
451.254	1193.32
451.628	1218.4
452.002	1219.53
452.376	1219.3
452.75	1210.72
453.123	1240.09
453.497	1254.11
453.871	1251.39
454.244	1256.14
454.618	1275.12
454.992	1274.22
455.365	1320.54
455.739	1324.61
456.112	1336.36
456.486	1344.95
456.859	1347.44
457.232	1361.22
457.606	1324.84
457.979	1361.22
458.352	1396.47
458.725	1397.15
459.099	1382.01
459.472	1425.17
459.845	1456.81
460.218	1427.66
460.591	1415.46
460.964	1441.9
461.337	1490.03
461.71	1497.94
462.083	1506.53
462.456	1495
462.829	1500.43
463.201	1524.83
463.574	1520.31
463.947	1536.58
464.32	1564.61
464.692	1574.32
465.065	1587.66
465.438	1608.67
465.81	1596.24
466.183	1625.17
466.555	1653.87
466.928	1653.87
467.3	1657.03
467.672	1655.9
468.045	1716.24
468.417	1690.03
468.789	1715.11
469.161	1735.22
469.534	1732.96
469.906	1767.99
470.278	1789.46
470.65	1802.11
471.022	1802.79
471.394	1875.56
471.766	1844.6
472.138	1864.48
472.51	1881.66
472.882	1875.11
473.253	1928.66
473.625	1974.54
473.997	2013.41
474.369	2000.53
474.74	1968.89
475.112	2037.81
475.484	2074.42
475.855	2078.04
476.227	2115.78
476.598	2173.18
476.97	2162.78
477.341	2171.37
477.713	2229.22
478.084	2217.47
478.455	2304.7
478.827	2280.75
479.198	2325.04
479.569	2330.24
479.94	2390.57
480.311	2417.92
480.682	2459.05
481.053	2488.42
481.424	2501.3
481.795	2525.03
482.166	2545.14
482.537	2603.45
482.908	2617.69
483.279	2632.83
483.65	2717.12
484.021	2716.21
484.391	2707.63
484.762	2755.53
485.133	2763.67
485.503	2805.03
485.874	2859.71
486.244	2853.84
486.615	2869.66
486.985	2929.77
487.356	2951.01
487.726	2977
488.097	3026.49
488.467	3023.1
488.837	3095.64
489.207	3085.92
489.578	3131.12
489.948	3203.66
490.318	3186.26
490.688	3227.16
491.058	3234.84
491.428	3287.72
491.798	3315.07
492.168	3345.58
492.538	3360.72
492.908	3408.85
493.278	3431
493.648	3439.36
494.017	3517.55
494.387	3456.99
494.757	3522.75
495.126	3493.37
495.496	3567.94
495.866	3610.2
496.235	3629.86
496.605	3613.37
496.974	3667.6
497.344	3662.63
497.713	3717.09
498.082	3699.46
498.452	3720.26
498.821	3757.54
499.19	3781.72
499.559	3785.11
499.928	3775.17
500.298	3856.3
500.667	3869.18
501.036	3843.87
501.405	3896.07
501.774	3851.33
502.143	3924.77
502.512	3919.8
502.88	3959.57
503.249	3942.85
503.618	3947.37
503.987	3970.87
504.356	3973.36
504.724	4032.79
505.093	4004.09
505.462	4016.97
505.83	4030.08
506.199	4051.32
506.567	4120.47
506.936	4073.92
507.304	4128.38
507.672	4142.62
508.041	4136.52
508.409	4165.44
508.777	4180.36
509.145	4193.46
509.514	4202.05
509.882	4217.19
510.25	4228.72
510.618	4248.83
510.986	4234.37
511.354	4301.03
511.722	4308.71
512.09	4303.74
512.458	4315.72
512.826	4360.24
513.193	4372.67
513.561	4363.63
513.929	4372.44
514.297	4407.92
514.664	4409.95
515.032	4440.69
515.4	4468.94
515.767	4489.05
516.135	4472.1
516.502	4441.14
516.869	4509.61
517.237	4525.21
517.604	4506.22
517.972	4518.2
518.339	4570.85
518.706	4545.77
519.073	4536.05
519.44	4555.94
519.808	4594.58
520.175	4558.43
520.542	4702.6
520.909	4653.56
521.276	4684.98
521.643	4693.34
522.009	4651.3
522.376	4710.06
522.743	4707.12
523.11	4743.51
523.477	4796.39
523.843	4850.62
524.21	4839.1
524.577	4889.26
524.943	4862.15
525.31	4873.9
525.676	4934.23
526.043	4924.74
526.409	4977.17
526.776	5012.65
527.142	4995.02
527.508	5057.62
527.874	5062.14
528.241	5066.43
528.607	5082.25
528.973	5118.86
529.339	5160.67
529.705	5195.24
530.071	5204.96
530.437	5240.44
530.803	5223.27
531.169	5314.79
531.535	5265.98
531.901	5286.54
532.267	5258.07
532.632	5369.25
532.998	5368.35
533.364	5355.92
533.73	5422.58
534.095	5415.8
534.461	5480.89
534.826	5505.75
535.192	5546.42
535.557	5570.15
535.923	5526.08
536.288	5579.19
536.653	5636.36
537.019	5586.19
537.384	5619.64
537.749	5665.97
538.114	5689.24
538.479	5655.35
538.845	5695.34
539.21	5720.65
539.575	5778.73
539.94	5754.55
540.305	5783.7
540.67	5847.88
541.034	5884.27
541.399	5903.47
541.764	5869.8
542.129	5947.99
542.494	5950.48
542.858	5960.65
543.223	5935.79
543.587	6009.23
543.952	6014.88
544.316	6021.44
544.681	6066.63
545.045	6133.3
545.41	6127.65
545.774	6147.08
546.138	6173.07
546.503	6186.63
546.867	6175.33
547.231	6237.48
547.595	6256.69
547.959	6318.15
548.324	6261.43
548.688	6337.14
549.052	6355.21
549.416	6357.93
549.779	6432.27
550.143	6418.94
550.507	6496.68
550.871	6441.09
551.235	6508.43
551.599	6513.85
551.962	6514.76
552.326	6537.13
552.689	6636.79
553.053	6514.31
553.417	6570.8
553.78	6656.22
554.143	6609.22
554.507	6657.81
554.87	6684.47
555.234	6749.55
555.597	6653.51
555.96	6729.44
556.323	6765.15
556.686	6765.6
557.05	6819.38
557.413	6821.87
557.776	6790.68
558.139	6915.65
558.502	6831.59
558.865	6937.12
559.228	6952.26
559.59	6952.71
559.953	6975.76
560.316	7026.61
560.679	7063.9
561.041	7076.55
561.404	7096.21
561.767	7125.82
562.129	7100.96
562.492	7130.11
562.854	7144.57
563.217	7179.83
563.579	7179.83
563.941	7196.55
564.304	7271.12
564.666	7288.52
565.028	7331.91
565.39	7262.54
565.753	7382.31
566.115	7406.94
566.477	7427.5
566.839	7444.9
567.201	7482.87
567.563	7481.51
567.925	7536.88
568.287	7517.44
568.648	7576.88
569.01	7588.63
569.372	7688.51
569.734	7670.43
570.095	7684.44
570.457	7737.78
570.819	7775.52
571.18	7795.4
571.542	7801.5
571.903	7852.58
572.265	7854.38
572.626	7976.64
572.987	7947.71
573.349	8007.15
573.71	8138.44
574.071	8163.98
574.432	8208.72
574.794	8313.81
575.155	8330.3
575.516	8326.91
575.877	8368.49
576.238	8473.8
576.599	8518.32
576.96	8636.51
577.32	8693.01
577.681	8715.38
578.042	8857.75
578.403	8893.45
578.763	8996.27
579.124	9099.32
579.485	9234.69
579.845	9356.49
580.206	9359.66
580.566	9497.96
580.927	9574.34
581.287	9826.76
581.648	9869.25
582.008	10017.72
582.368	10213.64
582.728	10331.15
583.089	10424.71
583.449	10658.6
583.809	10820.63
584.169	10937.47
584.529	11135.43
584.889	11323.67
585.249	11536.55
585.609	11651.8
585.969	11985.12
586.329	12076.42
586.688	12424.43
587.048	12633.69
587.408	12737.42
587.768	13085.88
588.127	13258.99
588.487	13478.42
588.846	13866.88
589.206	13958.4
589.565	14269.36
589.925	14555.68
590.284	14836.8
590.643	15051.48
591.003	15375.77
591.362	15743.67
591.721	15892.59
592.08	16251.68
592.44	16600.82
592.799	16877.88
593.158	17147.92
593.517	17429.05
593.876	17729.6
594.235	18059.54
594.593	18309.93
594.952	18656.36
595.311	18924.6
595.67	19185.84
596.029	19495.43
596.387	19864.24
596.746	20147.39
597.104	20365.02
597.463	20686.59
597.822	21127.26
598.18	21215.61
598.538	21587.13
598.897	22019.21
599.255	22158.87
599.613	22769.25
599.972	22913.42
600.33	23183.02
600.688	23322.9
601.046	23811.93
601.404	24148.42
601.762	24314.29
602.12	24828.85
602.478	24901.17
602.836	25258.45
603.194	25396.07
603.552	25768.94
603.91	25924.19
604.268	26407.12
604.625	26491.86
604.983	26947.22
605.341	26891.4
605.698	27426.3
606.056	27619.74
606.413	27862.22
606.771	28156.9
607.128	28459.49
607.485	28520.73
607.843	28833.95
608.2	29198
608.557	29425.79
608.914	29553.25
609.272	29894.48
609.629	30177.19
609.986	30444.52
610.343	30401.36
610.7	30811.52
611.057	31024.85
611.414	31301
611.771	31412.63
612.127	31665.74
612.484	31820.53
612.841	32099.85
613.198	32205.61
613.554	32413.96
613.911	32641.53
614.267	32835.42
614.624	33076.55
614.98	33188.86
615.337	33508.4
615.693	33435.63
616.05	33697.32
616.406	34059.57
616.762	34098.89
617.118	34210.3
617.475	34284.2
617.831	34679.44
618.187	34645.77
618.543	34822.04
618.899	35141.35
619.255	35301.57
619.611	35273.78
619.967	35565.75
620.323	35740.88
620.678	35648.23
621.034	35645.07
621.39	35822.91
621.746	35772.52
622.101	36250.7
622.457	36207.08
622.812	36339.51
623.168	36600.29
623.523	36632.61
623.879	36736.34
624.234	36686.85
624.589	36863.11
624.945	36951.02
625.3	37126.83
625.655	37015.88
626.01	37067.4
626.365	37418.35
626.72	37277.79
627.075	37473.04
627.43	37370.22
627.785	37363.66
628.14	37629.42
628.495	37619.25
628.85	37607.05
629.205	37522.98
629.559	37863.09
629.914	37622.19
630.269	37945.34
630.623	37687.5
630.978	37799.13
631.332	38104.66
631.687	37963.42
632.041	37981.73
632.396	38008.17
632.75	38037.55
633.104	38249.29
633.459	37926.36
633.813	38033.25
634.167	38025.34
634.521	37950.99
634.875	38198.67
635.229	38099.24
635.583	38024.44
635.937	38069.18
636.291	38003.2
636.645	38197.77
636.999	38141.27
637.352	38214.49
637.706	38078
638.06	38161.16
638.413	38097.43
638.767	38028.28
639.121	38214.94
639.474	37856.53
639.828	38097.2
640.181	37962.74
640.534	38125.68
640.888	38067.37
641.241	37938.11
641.594	37945.57
641.947	38183.76
642.301	38071.67
642.654	38009.07
643.007	37991.22
643.36	38134.94
643.713	37972.69
644.066	38126.81
644.419	37936.98
644.771	37698.8
645.124	37368.86
645.477	37306.72
645.83	37097.91
646.182	37068.53
646.535	36946.5
646.888	37043.67
647.24	36856.56
647.593	37144.24
647.945	36915.31
648.298	36746.05
648.65	36871.02
649.002	36739.27
649.355	36873.96
649.707	36676.9
650.059	36964.35
650.411	37323.67
650.763	37558.46
651.115	37879.36
651.467	37613.38
651.819	37773.15
652.171	37533.15
652.523	37449.54
652.875	37611.79
653.227	37414.06
653.578	37573.6
653.93	37500.84
654.282	37360.05
654.633	37334.74
654.985	37453.61
655.337	37409.54
655.688	37539.93
656.039	37656.76
656.391	37304.23
656.742	37431.23
657.094	37406.6
657.445	37490.89
657.796	37155.76
658.147	37258.36
658.498	37249.54
658.849	37366.15
659.2	37290.9
659.551	37195.08
659.902	37355.53
660.253	37395.98
660.604	37395.75
660.955	37181.75
661.306	37330.44
661.656	37364.79
662.007	37364.79
662.358	37332.7
662.708	37328.64
663.059	37136.1
663.409	36949.66
663.76	37324.12
664.11	37283.67
664.461	37307.85
664.811	37238.24
665.161	37287.28
665.511	37112.15
665.862	37275.98
666.212	37314.4
666.562	37269.88
666.912	37229.88
667.262	37230.11
667.612	37151.47
667.962	37110.34
668.312	37083.45
668.662	37286.6
669.011	37183.78
669.361	37160.05
669.711	37019.27
670.06	37029.21
670.41	37017.46
670.76	36970.45
671.109	37052.03
671.459	37089.77
671.808	36994.18
672.157	37098.59
672.507	36760.74
672.856	36808.2
673.205	37009.78
673.554	36930.91
673.904	36800.97
674.253	37018.81
674.602	37021.07
674.951	36494.76
675.3	36125.73
675.649	36725.26
675.998	36834.19
676.346	36902.66
676.695	36899.72
677.044	36611.37
677.393	36748.31
677.741	36854.3
678.09	36745.15
678.438	36528.43
678.787	36633.51
679.135	36669.9
679.484	36315.33
679.832	36545.15
680.181	36396.01
680.529	36629.9
680.877	36397.14
681.225	36420.64
681.573	36559.62
681.922	36255.9
682.27	36133.64
682.618	36212.73
682.966	36090.48
683.314	36351.94
683.661	36142
684.009	35938.17
684.357	35938.62
684.705	35836.47
685.053	36002.57
685.4	35655.46
685.748	35568.46
686.095	35645.97
686.443	35488.23
686.79	35521.23
687.138	35531.62
687.485	35547.44
687.832	35471.74
688.18	35613.65
688.527	35301.57
688.874	35254.12
689.221	35251.4
689.568	35153.33
689.915	35067.23
690.262	34966.67
690.609	34910.4
690.956	34769.38
691.303	34784.07
691.65	34680.35
691.997	34721.25
692.344	34406
692.69	34381.37
693.037	34455.49
693.383	34100.47
693.73	34211.66
694.077	34033.13
694.423	33994.94
694.769	33916.52
695.116	33949.06
695.462	33749.52
695.808	33701.16
696.155	33953.13
696.501	33549.75
696.847	33545.69
697.193	33210.1
697.539	33413.26
697.885	33103.89
698.231	33099.14
698.577	33097.11
698.923	33055.08
699.269	32932.14
699.614	32806.72
699.96	32705.03
700.306	32672.49
700.651	32573.28
700.997	32533.51
701.342	32415.32
701.688	32484.47
702.033	32278.83
702.379	32391.14
702.724	32255.1
703.069	32252.39
703.415	31920.87
703.76	32031.38
704.105	31881.77
704.45	31821.66
704.795	31623.7
705.14	31657.6
705.485	31576.02
705.83	31512.29
706.175	31533.99
706.52	31329.47
706.865	31361.79
707.209	31178.29
707.554	31202.24
707.899	31379.87
708.243	31025.98
708.588	30935.13
708.932	30776.27
709.277	30716.83
709.621	30720
709.966	30634.58
710.31	30662.15
710.654	30338.99
710.998	30481.36
711.342	30509.61
711.687	30261.03
712.031	30298.77
712.375	29914.82
712.719	30144.87
713.063	30141.93
713.407	30272.55
713.75	29990.98
714.094	30103.06
714.438	29782.85
714.782	29962.73
715.125	29619.46
715.469	29854.26
715.812	29615.62
716.156	29475.96
716.499	29555.28
716.843	29479.58
717.186	29374.27
717.53	29638.9
717.873	29480.48
718.216	29307.83
718.559	29310.54
718.902	29138.57
719.246	29165.24
719.589	29085.46
719.932	29042.53
720.275	28911.46
720.617	28975.18
720.96	28721.41
721.303	28772.48
721.646	28856.32
721.989	28659.03
722.331	28751.24
722.674	28689.09
723.016	28620.39
723.359	28644.35
723.701	28584.01
724.044	28377.46
724.386	28220.85
724.729	28472.6
725.071	28307.63
725.413	28263.34
725.755	28254.3
726.097	28182.21
726.439	27976.11
726.782	28035.32
727.124	28057.69
727.465	27931.37
727.807	27991.03
728.149	27918.49
728.491	27859.51
728.833	27891.6
729.175	27739.06
729.516	27702
729.858	27622.45
730.199	27656.35
730.541	27526.86
730.882	27516.47
731.224	27594.66
731.565	27438.28
731.906	27515.34
732.248	27508.33
732.589	27236.7
732.93	27127.55
733.271	27278.05
733.612	27268.34
733.953	27324.38
734.294	27174.33
734.635	27085.29
734.976	27068.79
735.317	27005.97
735.658	27097.27
735.999	27077.83
736.339	26953.99
736.68	26984.73
737.021	26875.13
737.361	26767.56
737.702	26869.03
738.042	26731.85
738.383	26618.41
738.723	26648.69
739.063	26652.53
739.404	26694.79
739.744	26527.79
740.084	26456.38
740.424	26564.85
740.764	26417.74
741.104	26505.19
741.444	26226.56
741.784	26317.85
742.124	26376.38
742.464	26369.83
742.804	26189.49
743.143	26122.6
743.483	26146.33
743.823	26097.07
744.162	26085.77
744.502	26210.74
744.841	25958.99
745.181	26028.37
745.52	25913.12
745.86	25925.32
746.199	25831.09
746.538	25834.7
746.877	25949.73
747.216	25756.06
747.556	25839.9
747.895	25719.9
748.234	25583.41
748.573	25661.37
748.911	25588.38
749.25	25580.47
749.589	25423.19
749.928	25393.36
750.267	25478.33
750.605	25378.22
750.944	25254.38
751.283	25272.91
751.621	25199.69
751.96	25107.04
752.298	25124.66
752.636	25056.19
752.975	24961.05
753.313	24863.88
753.651	25050.54
753.989	24789.31
754.327	24775.97
754.666	24673.38
755.004	24785.24
755.342	24663.66
755.679	24564.9
756.017	24490.33
756.355	24636.77
756.693	24383.89
757.031	24419.82
757.368	24241.98
757.706	24294.63
758.044	24103.22
758.381	24274.97
758.719	24057.12
759.056	24094.86
759.394	24009.89
759.731	23840.4
760.068	23756.56
