Data from hue_260_FLMS001491_00041.txt Node
Date: Tue Feb 07 15:59:02 GMT 2017
User: dcchb
Spectrometer: FLMS00149
Trigger mode: 0
Integration Time (sec): 2.000000E-2
Scans to average: 10
Electric dark correction enabled: true
Nonlinearity correction enabled: false
Boxcar width: 0
XAxis mode: Wavelengths
Number of Pixels in Spectrum: 2048
>>>>>Begin Spectral Data<<<<<
341.393	-19.14
341.776	-19.14
342.16	-19.14
342.543	-48.52
342.927	-50.55
343.31	-54.62
343.693	-70.89
344.077	-57.55
344.46	-42.64
344.843	-60.27
345.226	-49.65
345.61	-45.58
345.993	-28.86
346.376	3.46
346.759	11.14
347.142	30.35
347.525	32.61
347.908	60.18
348.291	76
348.674	92.5
349.057	103.8
349.44	107.41
349.823	141.54
350.206	158.94
350.588	187.41
350.971	210.69
351.354	222.66
351.737	252.27
352.119	228.09
352.502	240.74
352.884	271.02
353.267	279.61
353.65	288.2
354.032	291.81
354.414	323.45
354.797	314.86
355.179	309.89
355.562	315.09
355.944	318.93
356.326	324.36
356.709	321.42
357.091	318.48
357.473	322.1
357.855	344.69
358.238	328.42
358.62	346.73
359.002	333.62
359.384	324.13
359.766	331.81
360.148	346.5
360.53	355.54
360.912	314.19
361.294	348.76
361.676	323.23
362.057	359.38
362.439	329.55
362.821	340.4
363.203	311.47
363.584	334.53
363.966	321.64
364.348	311.47
364.729	314.19
365.111	325.49
365.493	291.59
365.874	316.45
366.256	307.63
366.637	302.89
367.019	303.57
367.4	308.09
367.781	317.58
368.163	313.28
368.544	328.42
368.925	308.09
369.306	343.56
369.688	300.63
370.069	313.06
370.45	321.42
370.831	292.72
371.212	320.51
371.593	314.64
371.974	307.41
372.355	310.34
372.736	318.71
373.117	312.38
373.498	333.4
373.879	311.47
374.26	303.79
374.641	307.63
375.021	319.61
375.402	308.99
375.783	315.09
376.163	313.96
376.544	311.7
376.925	327.75
377.305	336.33
377.686	314.64
378.066	320.74
378.447	319.61
378.827	307.41
379.208	316.22
379.588	336.56
379.968	345.82
380.349	337.91
380.729	304.47
381.109	322.32
381.489	337.69
381.87	342.21
382.25	320.51
382.63	342.21
383.01	348.54
383.39	330.46
383.77	336.11
384.15	327.52
384.53	332.94
384.91	335.88
385.29	353.06
385.67	341.08
386.049	305.83
386.429	341.98
386.809	353.51
387.189	347.63
387.568	326.39
387.948	343.79
388.328	342.21
388.707	331.81
389.087	360.74
389.466	342.66
389.846	355.09
390.225	351.02
390.605	357.58
390.984	366.61
391.363	361.64
391.743	355.77
392.122	345.15
392.501	369.55
392.881	380.85
393.26	391.7
393.639	362.77
394.018	372.04
394.397	360.06
394.776	393.05
395.155	372.26
395.534	412.04
395.913	372.26
396.292	372.72
396.671	388.76
397.05	396.44
397.429	395.31
397.808	401.87
398.186	388.53
398.565	385.37
398.944	399.61
399.323	384.02
399.701	402.09
400.08	413.17
400.458	400.29
400.837	381.76
401.215	423.79
401.594	424.47
401.972	411.36
402.351	432.83
402.729	433.96
403.107	408.65
403.486	409.78
403.864	422.21
404.242	443.45
404.62	442.54
404.999	441.87
405.377	472.6
405.755	454.3
406.133	447.52
406.511	451.81
406.889	438.93
407.267	461.08
407.645	462.88
408.023	470.11
408.401	474.63
408.779	485.03
409.156	493.62
409.534	485.71
409.912	493.39
410.29	529.1
410.667	499.04
411.045	509.89
411.422	526.16
411.8	527.97
412.178	513.96
412.555	540.17
412.933	539.94
413.31	555.31
413.687	578.81
414.065	583.56
414.442	562.99
414.819	581.75
415.197	578.13
415.574	593.5
415.951	599.6
416.328	591.69
416.705	627.85
417.082	601.64
417.46	613.39
417.837	639.83
418.214	643.44
418.591	661.52
418.967	647.06
419.344	665.59
419.721	668.75
420.098	690.22
420.475	694.74
420.852	702.88
421.228	685.93
421.605	727.96
421.982	690.45
422.358	710.79
422.735	730.45
423.111	749.66
423.488	759.82
423.864	774.97
424.241	756.89
424.617	779.71
424.994	789.2
425.37	802.08
425.746	807.73
426.123	824.68
426.499	817.9
426.875	837.34
427.251	855.19
427.627	871.91
428.003	882.76
428.379	876.21
428.756	911.01
429.132	899.71
429.507	923.21
429.883	939.03
430.259	944.45
430.635	934.74
431.011	949.42
431.387	1003.89
431.763	995.98
432.138	995.07
432.514	1002.98
432.89	1035.52
433.265	1040.27
433.641	1067.16
434.016	1074.84
434.392	1095.86
434.767	1101.51
435.143	1100.83
435.518	1139.7
435.894	1164.11
436.269	1179.47
436.644	1181.28
437.02	1216.08
437.395	1238.23
437.77	1245.69
438.145	1238.91
438.52	1275.07
438.895	1304.67
439.271	1306.7
439.646	1347.15
440.021	1333.59
440.395	1365.46
440.77	1331.56
441.145	1364.78
441.52	1391.67
441.895	1391.22
442.27	1407.94
442.645	1410.2
443.019	1425.57
443.394	1454.72
443.769	1495.62
444.143	1460.6
444.518	1458.56
444.892	1478.9
445.267	1512.35
445.641	1527.26
446.016	1507.6
446.39	1518
446.764	1547.37
447.139	1537.88
447.513	1565.68
447.887	1560.48
448.262	1602.74
448.636	1603.64
449.01	1610.65
449.384	1640.25
449.758	1621.27
450.132	1655.17
450.506	1656.3
450.88	1689.07
451.254	1662.85
451.628	1703.75
452.002	1698.56
452.376	1712.79
452.75	1747.6
453.123	1753.24
453.497	1780.14
453.871	1773.13
454.244	1807.71
454.618	1816.29
454.992	1848.38
455.365	1871.21
455.739	1907.14
456.112	1902.85
456.486	1901.26
456.859	1957.99
457.232	1967.48
457.606	1959.79
457.979	1946.23
458.352	2029.17
458.725	2035.95
459.099	2020.81
459.472	2086.34
459.845	2105.78
460.218	2126.57
460.591	2146.68
460.964	2107.13
461.337	2185.78
461.71	2182.16
462.083	2233.01
462.456	2264.64
462.829	2233.23
463.201	2310.29
463.574	2294.93
463.947	2306
464.32	2378.54
464.692	2406.56
465.065	2407.46
465.438	2421.7
465.81	2468.03
466.183	2459.21
466.555	2555.26
466.928	2536.28
467.3	2520.23
467.672	2569.27
468.045	2666.89
468.417	2619.66
468.789	2649.27
469.161	2715.03
469.534	2705.99
469.906	2763.16
470.278	2792.54
470.65	2820.11
471.022	2879.54
471.394	2914.8
471.766	2929.26
472.138	2958.64
472.51	3025.98
472.882	3077.96
473.253	3073.66
473.625	3123.38
473.997	3131.74
474.369	3229.14
474.74	3226.88
475.112	3265.52
475.484	3328.8
475.855	3340.55
476.227	3368.12
476.598	3444.95
476.97	3483.82
477.341	3560.43
477.713	3594.55
478.084	3611.28
478.455	3712.74
478.827	3752.06
479.198	3801.78
479.569	3815.79
479.94	3921.55
480.311	3916.35
480.682	4012.62
481.053	4108.44
481.424	4137.14
481.795	4174.65
482.166	4168.1
482.537	4252.16
482.908	4305.95
483.279	4356.57
483.65	4409.67
484.021	4514.53
484.391	4506.62
484.762	4591.14
485.133	4612.38
485.503	4672.26
485.874	4726.27
486.244	4814.86
486.615	4875.42
486.985	4948.42
487.356	4967.4
487.726	5024.12
488.097	5063.44
488.467	5058.24
488.837	5207.84
489.207	5252.14
489.578	5356.09
489.948	5371.91
490.318	5394.28
490.688	5424.79
491.058	5466.37
491.428	5528.51
491.798	5579.81
492.168	5719.02
492.538	5722.86
492.908	5739.81
493.278	5793.59
493.648	5834.27
494.017	5933.02
494.387	5919.01
494.757	5956.3
495.126	6038.1
495.496	5994.72
495.866	6091.66
496.235	6155.61
496.605	6166.24
496.974	6151.55
497.344	6222.05
497.713	6294.14
498.082	6278.78
498.452	6329.62
498.821	6333.01
499.19	6298.21
499.559	6412.11
499.928	6465.89
500.298	6413.01
500.667	6556.73
501.036	6516.96
501.405	6577.52
501.774	6543.4
502.143	6621.14
502.512	6631.53
502.88	6644.87
503.249	6653.68
503.618	6637.86
503.987	6696.17
504.356	6730.74
504.724	6759.44
505.093	6738.65
505.462	6759.21
505.83	6822.04
506.199	6872.43
506.567	6919.66
506.936	6906.1
507.304	6916.95
507.672	6963.73
508.041	7008.25
508.409	7039.89
508.777	7093.22
509.145	7082.82
509.514	7076.49
509.882	7071.75
510.25	7094.35
510.618	7140.45
510.986	7125.53
511.354	7179.99
511.722	7201.24
512.09	7237.17
512.458	7213.21
512.826	7245.98
513.193	7290.73
513.561	7310.61
513.929	7384.96
514.297	7389.25
514.664	7437.16
515.032	7404.62
515.4	7440.55
515.767	7412.53
516.135	7407.79
516.502	7392.42
516.869	7465.41
517.237	7534.34
517.604	7424.06
517.972	7532.3
518.339	7545.86
518.706	7510.16
519.073	7552.41
519.44	7516.94
519.808	7573.88
520.175	7633.77
520.542	7606.88
520.909	7591.74
521.276	7610.49
521.643	7652.52
522.009	7668.8
522.376	7703.37
522.743	7725.52
523.11	7751.96
523.477	7859.98
523.843	7811.62
524.21	7837.15
524.577	7864.95
524.943	7849.81
525.31	7845.74
525.676	7848.9
526.043	7957.38
526.409	7932.74
526.776	7951.27
527.142	8021.33
527.508	7985.4
527.874	8027.88
528.241	7984.49
528.607	8034.21
528.973	8024.94
529.339	8017.71
529.705	8091.61
530.071	8093.19
530.437	8091.38
530.803	8097.71
531.169	8110.14
531.535	8114.89
531.901	8038.05
532.267	8063.36
532.632	8131.83
532.998	8163.25
533.364	8133.64
533.73	8197.14
534.095	8158.95
534.461	8128.44
534.826	8117.15
535.192	8120.31
535.557	8164.6
535.923	8173.19
536.288	8141.55
536.653	8091.61
537.019	8061.55
537.384	8127.54
537.749	8152.17
538.114	8101.55
538.479	8126.41
538.845	8044.83
539.21	8014.1
539.575	8113.3
539.94	8056.36
540.305	8021.33
540.67	7981.1
541.034	8098.39
541.399	8034.44
541.764	8022.68
542.129	8062.91
542.494	8027.2
542.858	8044.6
543.223	7992.85
543.587	8036.47
543.952	7981.33
544.316	8012.97
544.681	7994.21
545.045	7970.03
545.41	8017.03
545.774	7982.23
546.138	7918.28
546.503	7953.53
546.867	7897.94
547.231	7951.73
547.595	7947.88
547.959	7922.35
548.324	7937.04
548.688	7901.11
549.052	7932.52
549.416	7883.71
549.779	7855.68
550.143	7891.16
550.507	7909.92
550.871	7885.74
551.235	7826.31
551.599	7865.85
551.962	7860.65
552.326	7817.49
552.689	7892.97
553.053	7856.59
553.417	7845.74
553.78	7854.55
554.143	7806.19
554.507	7876.7
554.87	7821.56
555.234	7857.49
555.597	7846.87
555.96	7831.73
556.323	7805.74
556.686	7804.39
557.05	7872.18
557.413	7742.24
557.776	7826.08
558.139	7912.4
558.502	7799.19
558.865	7891.16
559.228	7907.89
559.59	7950.37
559.953	7906.53
560.316	7892.07
560.679	7926.64
561.041	7986.75
561.404	7897.49
561.767	7967.77
562.129	7965.28
562.492	7997.37
562.854	7935.23
563.217	7972.06
563.579	7984.95
563.941	7977.04
564.304	8026.75
564.666	8063.59
565.028	8016.81
565.39	8033.08
565.753	8136.35
566.115	8160.31
566.477	8121.44
566.839	8165.73
567.201	8176.13
567.563	8140.65
567.925	8254.32
568.287	8160.76
568.648	8231.04
569.01	8245.05
569.372	8278.27
569.734	8294.09
570.095	8303.36
570.457	8358.27
570.819	8343.81
571.18	8332.96
571.542	8388.78
571.903	8316.46
572.265	8359.62
572.626	8421.09
572.987	8471.26
573.349	8389.91
573.71	8423.8
574.071	8494.54
574.432	8527.53
574.794	8528.66
575.155	8503.35
575.516	8551.03
575.877	8571.14
576.238	8648.88
576.599	8635.78
576.96	8576.34
577.32	8600.97
577.681	8677.13
578.042	8667.87
578.403	8706.28
578.763	8697.7
579.124	8757.58
579.485	8776.11
579.845	8866.96
580.206	8805.71
580.566	8720.07
580.927	8791.48
581.287	8829.22
581.648	8785.38
582.008	8904.47
582.368	8918.48
582.728	8972.94
583.089	8877.8
583.449	8913.28
583.809	8908.76
584.169	8944.47
584.529	8889.55
584.889	9017.91
585.249	8951.25
585.609	8956.45
585.969	9037.8
586.329	9088.19
586.688	9012.94
587.048	9036.44
587.408	9076.67
587.768	9110.57
588.127	9057.23
588.487	9080.51
588.846	9148.3
589.206	9206.61
589.565	9139.94
589.925	9178.59
590.284	9179.72
590.643	9226.95
591.003	9213.84
591.362	9241.64
591.721	9206.16
592.08	9231.69
592.44	9279.15
592.799	9338.81
593.158	9334.51
593.517	9281.63
593.876	9286.15
594.235	9264.91
594.593	9447.05
594.952	9298.36
595.311	9330.22
595.67	9339.94
596.029	9372.48
596.387	9363.21
596.746	9429.2
597.104	9347.4
597.463	9337
597.822	9337.68
598.18	9334.29
598.538	9401.63
598.897	9385.59
599.255	9355.3
599.613	9524.79
599.972	9417
600.33	9410.9
600.688	9402.54
601.046	9495.64
601.404	9523.66
601.762	9461.29
602.12	9502.65
602.478	9458.35
602.836	9503.55
603.194	9441.4
603.552	9449.77
603.91	9447.05
604.268	9533.38
604.625	9460.84
604.983	9464.91
605.341	9473.72
605.698	9554.4
606.056	9513.49
606.413	9547.39
606.771	9632.81
607.128	9568.86
607.485	9545.36
607.843	9540.38
608.2	9552.81
608.557	9663.32
608.914	9503.1
609.272	9643.43
609.629	9636.88
609.986	9665.13
610.343	9669.65
610.7	9647.95
611.057	9672.36
611.414	9635.52
611.771	9629.2
612.127	9734.73
612.484	9687.73
612.841	9740.61
613.198	9692.47
613.554	9693.83
613.911	9796.2
614.267	9711.45
614.624	9732.92
614.98	9697.67
615.337	9797.1
615.693	9763.2
616.05	9757.78
616.406	9797.33
616.762	9810.21
617.118	9784.9
617.475	9782.64
617.831	9824.22
618.187	9839.36
618.543	9788.51
618.899	9904.44
619.255	9879.81
619.611	9871.68
619.967	9928.4
620.323	9948.96
620.678	9883.88
621.034	9838.23
621.39	9865.35
621.746	9846.14
622.101	9907.61
622.457	9823.32
622.812	9866.03
623.168	9954.39
623.523	9864.22
623.879	9995.74
624.234	9898.79
624.589	9879.13
624.945	9956.87
625.3	9903.77
625.655	9945.57
626.01	9891.11
626.365	9908.06
626.72	9895.18
627.075	9817.44
627.43	9881.84
627.785	9855.63
628.14	9883.65
628.495	9854.73
628.85	9842.75
629.205	9825.35
629.559	9915.97
629.914	9843.65
630.269	9809.53
630.623	9834.84
630.978	9801.17
631.332	9807.04
631.687	9874.16
632.041	9792.81
632.396	9807.72
632.75	9762.53
633.104	9787.84
633.459	9721.85
633.813	9744.22
634.167	9773.15
634.521	9736.09
634.875	9693.83
635.229	9740.83
635.583	9685.92
635.937	9655.18
636.291	9679.82
636.645	9625.35
636.999	9745.8
637.352	9642.53
637.706	9586.71
638.06	9611.12
638.413	9654.28
638.767	9593.04
639.121	9653.38
639.474	9602.98
639.828	9553.04
640.181	9566.6
640.534	9580.84
640.888	9530.22
641.241	9453.83
641.594	9528.63
641.947	9571.12
642.301	9513.72
642.654	9482.53
643.007	9485.24
643.36	9522.98
643.713	9477.56
644.066	9473.27
644.419	9414.96
644.771	9328.41
645.124	9301.29
645.477	9306.27
645.83	9216.55
646.182	9197.12
646.535	9165.93
646.888	9144.46
647.24	9142.66
647.593	9216.78
647.945	9139.72
648.298	9083.67
648.65	9138.14
649.002	9060.85
649.355	9087.06
649.707	9085.26
650.059	9144.91
650.411	9287.06
650.763	9286.61
651.115	9336.1
651.467	9301.52
651.819	9332.03
652.171	9323.67
652.523	9308.3
652.875	9296.32
653.227	9257.91
653.578	9388.98
653.93	9353.72
654.282	9294.97
654.633	9278.24
654.985	9281.86
655.337	9387.17
655.688	9328.41
656.039	9316.21
656.391	9231.01
656.742	9269.66
657.094	9254.29
657.445	9316.89
657.796	9349.43
658.147	9332.48
658.498	9272.82
658.849	9315.08
659.2	9346.27
659.551	9318.92
659.902	9356.43
660.253	9321.86
660.604	9305.59
660.955	9279.15
661.306	9322.99
661.656	9315.98
662.007	9328.64
662.358	9325.02
662.708	9364.8
663.059	9320.5
663.409	9307.4
663.76	9285.25
664.11	9286.83
664.461	9347.62
664.811	9367.06
665.161	9348.07
665.511	9244.8
665.862	9332.71
666.212	9396.66
666.562	9324.57
666.912	9274.63
667.262	9344.01
667.612	9369.99
667.962	9300.17
668.312	9390.78
668.662	9385.13
669.011	9296.78
669.361	9279.83
669.711	9285.02
670.06	9280.96
670.41	9267.62
670.76	9268.08
671.109	9296.1
671.459	9273.5
671.808	9250.67
672.157	9283.89
672.507	9223.78
672.856	9182.88
673.205	9374.97
673.554	9279.37
673.904	9220.39
674.253	9275.98
674.602	9297.68
674.951	9122.77
675.3	9026.05
675.649	9159.83
675.998	9130
676.346	9148.98
676.695	9202.77
677.044	9162.99
677.393	9099.72
677.741	9200.73
678.09	9143.78
678.438	9091.58
678.787	9153.5
679.135	9153.73
679.484	9033.28
679.832	9053.39
680.181	8975.2
680.529	9025.82
680.877	9002.55
681.225	9013.17
681.573	9020.85
681.922	8978.37
682.27	8932.94
682.618	9037.57
682.966	8971.59
683.314	8921.87
683.661	8958.93
684.009	8899.27
684.357	8905.15
684.705	8848.65
685.053	8865.83
685.4	8845.26
685.748	8866.05
686.095	8767.75
686.443	8726.39
686.79	8752.38
687.138	8730.69
687.485	8733.17
687.832	8674.64
688.18	8726.39
688.527	8667.64
688.874	8673.74
689.221	8607.75
689.568	8544.7
689.915	8593.97
690.262	8519.62
690.609	8569.34
690.956	8490.92
691.303	8487.08
691.65	8365.95
691.997	8440.98
692.344	8453.63
692.69	8356.91
693.037	8372.05
693.383	8262.23
693.73	8317.59
694.077	8254.32
694.423	8232.4
694.769	8242.11
695.116	8189.69
695.462	8186.07
695.808	8134.77
696.155	8114.66
696.501	8064.49
696.847	8076.02
697.193	8072.17
697.539	7988.79
697.885	7945.17
698.231	7946.3
698.577	7911.28
698.923	7889.13
699.269	7897.26
699.614	7795.8
699.96	7748.12
700.306	7808.68
700.651	7735.69
700.997	7743.37
701.342	7719.19
701.688	7684.61
702.033	7659.08
702.379	7680.32
702.724	7572.3
703.069	7627.21
703.415	7554.45
703.76	7540.66
704.105	7480.55
704.45	7512.19
704.795	7477.84
705.14	7447.33
705.485	7422.02
705.83	7384.51
706.175	7350.61
706.52	7348.13
706.865	7306.32
707.209	7306.77
707.554	7322.82
707.899	7249.6
708.243	7259.09
708.588	7211.41
708.932	7187.23
709.277	7150.17
709.621	7176.61
709.966	7133.44
710.31	7115.14
710.654	7069.04
710.998	7074.91
711.342	7026.78
711.687	7010.28
712.031	7022.94
712.375	7057.96
712.719	7022.94
713.063	6951.53
713.407	6971.86
713.75	6967.57
714.094	6942.03
714.438	6934.13
714.782	6977.97
715.125	6945.42
715.469	6971.41
715.812	6942.49
716.156	6866.1
716.499	6863.17
716.843	6884.86
717.186	6778.2
717.53	6880.34
717.873	6811.42
718.216	6859.1
718.559	6795.15
718.902	6759.44
719.246	6803.96
719.589	6778.2
719.932	6696.39
720.275	6764.19
720.617	6701.36
720.96	6695.26
721.303	6732.77
721.646	6714.02
721.989	6673.57
722.331	6745.2
722.674	6687.13
723.016	6719.67
723.359	6694.36
723.701	6679.89
724.044	6617.52
724.386	6586.79
724.729	6623.85
725.071	6674.7
725.413	6671.31
725.755	6593.8
726.097	6598.99
726.439	6600.58
726.782	6582.04
727.124	6633.34
727.465	6607.58
727.807	6548.15
728.149	6593.34
728.491	6609.84
728.833	6559.67
729.175	6534.14
729.516	6606.45
729.858	6557.41
730.199	6564.19
730.541	6562.61
730.882	6556.51
731.224	6525.1
731.565	6504.76
731.906	6536.85
732.248	6545.44
732.589	6537.53
732.93	6497.53
733.271	6498.66
733.612	6514.02
733.953	6521.71
734.294	6545.89
734.635	6496.62
734.976	6518.09
735.317	6563.97
735.658	6505.44
735.999	6528.26
736.339	6508.15
736.68	6554.47
737.021	6540.24
737.361	6502.95
737.702	6564.19
738.042	6520.13
738.383	6521.03
738.723	6509.05
739.063	6532.33
739.404	6535.27
739.744	6561.25
740.084	6527.58
740.424	6540.46
740.764	6544.76
741.104	6644.87
741.444	6568.71
741.784	6560.58
742.124	6622.04
742.464	6620.01
742.804	6701.82
743.143	6633.34
743.483	6668.14
743.823	6637.86
744.162	6679.44
744.502	6715.15
744.841	6652.78
745.181	6755.37
745.52	6803.28
745.86	6789.5
746.199	6792.66
746.538	6828.37
746.877	6886.44
747.216	6937.06
747.556	6961.92
747.895	6974.58
748.234	6956.5
748.573	7043.28
748.911	7083.95
749.25	7101.35
749.589	7152.2
749.928	7204.17
750.267	7313.1
750.605	7336.37
750.944	7317.17
751.283	7408.46
751.621	7499.99
751.96	7519.42
752.298	7608.46
752.636	7654.56
752.975	7693.43
753.313	7779.53
753.651	7949.47
753.989	7947.66
754.327	8014.55
754.666	8122.57
755.004	8227.42
755.342	8370.02
755.679	8454.54
756.017	8518.26
756.355	8694.98
756.693	8654.98
757.031	8859.05
757.368	8900.18
757.706	9072.6
758.044	9200.51
758.381	9245.93
758.719	9428.98
759.056	9489.99
759.394	9684.56
759.731	9728.85
760.068	9837.55
760.405	9965.91
760.743	10083.2
761.08	10196.19
761.417	10239.12
761.754	10484.77
762.091	10501.04
762.428	10689.06
762.765	10716.4
763.102	10931.99
763.438	11089.27
763.775	11119.33
764.112	11204.07
764.449	11439.32
764.785	11514.8
765.122	11543.27
765.458	11694.45
765.795	11782.36
766.131	11901.9
766.467	12028
766.804	12125.18
767.14	12272.97
767.476	12337.83
767.812	12423.47
768.148	12523.13
768.485	12587.54
768.821	12675.67
