Data from hue_24_FLMS001491_00019.txt Node
Date: Tue Feb 07 17:11:52 GMT 2017
User: dcchb
Spectrometer: FLMS00149
Trigger mode: 0
Integration Time (sec): 2.000000E-2
Scans to average: 10
Electric dark correction enabled: true
Nonlinearity correction enabled: false
Boxcar width: 0
XAxis mode: Wavelengths
Number of Pixels in Spectrum: 2048
>>>>>Begin Spectral Data<<<<<
341.393	-14.65
341.776	-14.65
342.16	-14.65
342.543	-55.78
342.927	-75.66
343.31	-58.04
343.693	-81.31
344.077	-68.88
344.46	-73.63
344.843	-48.54
345.226	-40.41
345.61	-48.54
345.993	3.88
346.376	-26.17
346.759	20.61
347.142	40.49
347.525	48.4
347.908	34.84
348.291	85.46
348.674	99.02
349.057	112.81
349.44	135.86
349.823	136.08
350.206	151
350.588	210.66
350.971	217.44
351.354	221.96
351.737	246.59
352.119	252.92
352.502	283.42
352.884	288.17
353.267	266.02
353.65	298.34
354.032	308.06
354.414	317.32
354.797	320.26
355.179	333.59
355.562	340.37
355.944	334.04
356.326	339.69
356.709	338.34
357.091	347.6
357.473	336.08
357.855	343.31
358.238	342.18
358.62	350.09
359.002	362.29
359.384	341.28
359.766	345.8
360.148	343.31
360.53	352.35
360.912	354.38
361.294	328.62
361.676	342.18
362.057	338.56
362.439	334.5
362.821	350.54
363.203	341.05
363.584	344.67
363.966	333.14
364.348	344.67
364.729	326.59
365.111	305.8
365.493	336.76
365.874	330.43
366.256	338.56
366.637	327.72
367.019	325.46
367.4	334.95
367.781	313.25
368.163	323.88
368.544	327.27
368.925	328.4
369.306	334.5
369.688	319.36
370.069	332.01
370.45	306.02
370.831	329.07
371.212	318.45
371.593	321.16
371.974	295.85
372.355	316.19
372.736	325.46
373.117	328.17
373.498	327.04
373.879	343.31
374.26	337.43
374.641	333.37
375.021	314.61
375.402	348.51
375.783	336.76
376.163	332.69
376.544	324.33
376.925	326.81
377.305	350.99
377.686	343.31
378.066	314.38
378.447	334.5
378.827	352.12
379.208	336.08
379.588	317.77
379.968	336.53
380.349	334.27
380.729	337.66
381.109	352.35
381.489	339.24
381.87	371.11
382.25	360.48
382.63	337.89
383.01	362.97
383.39	364.1
383.77	367.26
384.15	368.17
384.53	346.25
384.91	347.38
385.29	343.08
385.67	370.43
386.049	365.68
386.429	365
386.809	356.87
387.189	375.85
387.568	371.11
387.948	369.75
388.328	355.06
388.707	376.53
389.087	351.67
389.466	381.95
389.846	392.35
390.225	376.08
390.605	381.05
390.984	367.94
391.363	397.32
391.743	381.95
392.122	360.71
392.501	364.1
392.881	385.34
393.26	391.44
393.639	387.6
394.018	371.78
394.397	400.71
394.776	380.82
395.155	399.13
395.534	398
395.913	383.08
396.292	404.33
396.671	373.82
397.05	405
397.429	405.91
397.808	407.04
398.186	403.65
398.565	400.03
398.944	405.46
399.323	416.75
399.701	397.32
400.08	417.21
400.458	431.67
400.837	428.73
401.215	444.55
401.594	414.49
401.972	412.23
402.351	420.37
402.729	409.75
403.107	432.57
403.486	403.87
403.864	452.01
404.242	449.3
404.62	440.03
404.999	422.4
405.377	440.03
405.755	458.56
406.133	440.03
406.511	432.57
406.889	428.05
407.267	448.17
407.645	472.35
408.023	469.63
408.401	443.42
408.779	461.95
409.156	470.31
409.534	472.12
409.912	484.55
410.29	481.16
410.667	483.87
411.045	475.74
411.422	489.97
411.8	475.28
412.178	503.76
412.555	508.96
412.933	501.72
413.31	486.13
413.687	509.63
414.065	521.16
414.442	508.96
414.819	494.27
415.197	517.77
415.574	515.74
415.951	537.88
416.328	522.06
416.705	512.8
417.082	530.2
417.46	546.24
417.837	552.12
418.214	540.59
418.591	521.16
418.967	533.81
419.344	546.24
419.721	548.5
420.098	552.8
420.475	564.55
420.852	583.98
421.228	609.07
421.605	553.7
421.982	557.99
422.358	572.23
422.735	576.07
423.111	596.18
423.488	584.21
423.864	599.8
424.241	597.77
424.617	587.37
424.994	601.38
425.37	594.38
425.746	632.12
426.123	605.68
426.499	640.48
426.875	643.87
427.251	650.65
427.627	630.31
428.003	637.54
428.379	641.83
428.756	646.58
429.132	669.18
429.507	680.02
429.883	642.74
430.259	656.97
430.635	688.61
431.011	681.83
431.387	688.16
431.763	702.17
432.138	698.56
432.514	680.02
432.89	727.71
433.265	702.17
433.641	720.7
434.016	730.42
434.392	730.64
434.767	740.36
435.143	772.45
435.518	748.27
435.894	747.82
436.269	783.75
436.644	779
437.02	762.51
437.395	787.82
437.77	808.38
438.145	774.03
438.52	784.2
438.895	790.53
439.271	813.81
439.646	833.47
440.021	850.64
440.395	853.81
440.77	815.84
441.145	841.83
441.52	848.38
441.895	858.32
442.27	851.55
442.645	871.43
443.019	869.4
443.394	862.39
443.769	869.62
444.143	877.53
444.518	898.1
444.892	868.27
445.267	905.1
445.641	928.83
446.016	904.43
446.39	887.93
446.764	920.7
447.139	918.21
447.513	909.4
447.887	930.64
448.262	940.13
448.636	954.37
449.01	935.16
449.384	933.58
449.758	949.62
450.132	965.44
450.506	985.1
450.88	970.86
451.254	981.49
451.628	983.97
452.002	998.43
452.376	1009.28
452.75	1012.45
453.123	1009.28
453.497	1026
453.871	1060.81
454.244	1043.63
454.618	1058.09
454.992	1083.86
455.365	1085.89
455.739	1080.92
456.112	1096.96
456.486	1124.76
456.859	1149.16
457.232	1145.77
457.606	1129.73
457.979	1147.36
458.352	1167.02
458.725	1172.44
459.099	1187.81
459.472	1217.86
459.845	1211.54
460.218	1210.86
460.591	1253.57
460.964	1244.3
461.337	1294.92
461.71	1290.86
462.083	1309.84
462.456	1316.62
462.829	1329.72
463.201	1322.95
463.574	1347.58
463.947	1371.08
464.32	1394.36
464.692	1414.69
465.065	1423.28
465.438	1433.23
465.81	1451.3
466.183	1464.41
466.555	1476.16
466.928	1499.89
467.3	1485.88
467.672	1527.01
468.045	1567.23
468.417	1601.81
468.789	1583.28
469.161	1632.77
469.534	1650.17
469.906	1686.1
470.278	1665.08
470.65	1694.91
471.022	1716.61
471.394	1767.68
471.766	1783.72
472.138	1795.48
472.51	1840.9
472.882	1868.24
473.253	1882.25
473.625	1911.86
473.997	1920.9
474.369	1938.97
474.74	2003.61
475.112	2037.28
475.484	2092.87
475.855	2109.59
476.227	2107.56
476.598	2152.53
476.97	2192.75
477.341	2241.79
477.713	2288.8
478.084	2329.7
478.455	2354.56
478.827	2398.17
479.198	2444.05
479.569	2458.28
479.94	2572.86
480.311	2585.06
480.682	2644.94
481.053	2715.45
481.424	2737.15
481.795	2783.25
482.166	2809.69
482.537	2879.74
482.908	2934.65
483.279	3001.32
483.65	3008.1
484.021	3115.67
484.391	3151.82
484.762	3226.62
485.133	3228.88
485.503	3301.65
485.874	3370.58
486.244	3368.09
486.615	3457.35
486.985	3536.22
487.356	3581.87
487.726	3601.53
488.097	3700.06
488.467	3703
488.837	3821.86
489.207	3844.69
489.578	3921.07
489.948	3953.84
490.318	3978.92
490.688	4025.93
491.058	4114.74
491.428	4151.35
491.798	4222.76
492.168	4310.21
492.538	4318.12
492.908	4355.86
493.278	4483.77
493.648	4449.87
494.017	4581.84
494.387	4560.83
494.757	4630.66
495.126	4644.67
495.496	4770.54
495.866	4755.62
496.235	4815.06
496.605	4848.28
496.974	4884.66
497.344	4961.27
497.713	4951.1
498.082	5058.89
498.452	5078.33
498.821	5126.69
499.19	5076.07
499.559	5204.65
499.928	5220.92
500.298	5243.97
500.667	5245.1
501.036	5255.27
501.405	5371.65
501.774	5361.94
502.143	5472.89
502.512	5454.14
502.88	5505.89
503.249	5519.45
503.618	5563.29
503.987	5580.23
504.356	5598.99
504.724	5657.29
505.093	5657.52
505.462	5681.93
505.83	5735.71
506.199	5745.65
506.567	5789.72
506.936	5840.57
507.304	5905.42
507.672	5883.05
508.041	5940
508.409	5977.06
508.777	6016.38
509.145	6094.8
509.514	6107.68
509.882	6128.92
510.25	6116.72
510.618	6193.1
510.986	6202.59
511.354	6212.31
511.722	6278.07
512.09	6342.25
512.458	6328.01
512.826	6405.3
513.193	6372.3
513.561	6446.65
513.929	6464.28
514.297	6464.51
514.664	6537.05
515.032	6560.77
515.4	6573.2
515.767	6611.62
516.135	6642.58
516.502	6636.03
516.869	6746.53
517.237	6734.1
517.604	6714.44
517.972	6781.78
518.339	6776.14
518.706	6813.42
519.073	6858.62
519.44	6870.6
519.808	6894.32
520.175	6956.24
520.542	6984.27
520.909	6988.11
521.276	7013.87
521.643	7126.86
522.009	7152.62
522.376	7168.67
522.743	7192.62
523.11	7295.44
523.477	7334.76
523.843	7393.29
524.21	7435.78
524.577	7436.23
524.943	7480.3
525.31	7531.82
525.676	7560.75
526.043	7628.77
526.409	7692.5
526.776	7730.01
527.142	7765.26
527.508	7779.72
527.874	7783.34
528.241	7887.29
528.607	7907.86
528.973	7965.71
529.339	8010.45
529.705	8039.83
530.071	8074.41
530.437	8173.16
530.803	8150.56
531.169	8299.49
531.535	8201.18
531.901	8247.96
532.267	8336.77
532.632	8352.14
532.998	8324.57
533.364	8394.17
533.73	8424.45
534.095	8548.74
534.461	8545.58
534.826	8573.6
535.192	8643.43
535.557	8695.41
535.923	8629.87
536.288	8718.46
536.653	8763.88
537.019	8712.81
537.384	8754.39
537.749	8793.94
538.114	8858.79
538.479	8859.47
538.845	8902.86
539.21	8902.86
539.575	8943.08
539.94	8989.86
540.305	9084.32
540.67	9086.36
541.034	9115.51
541.399	9115.73
541.764	9200.7
542.129	9238.22
542.494	9264.43
542.858	9281.61
543.223	9310.31
543.587	9376.74
543.952	9461.71
544.316	9413.13
544.681	9482.5
545.045	9476.63
545.41	9600.92
545.774	9579.68
546.138	9608.38
546.503	9610.41
546.867	9603.41
547.231	9787.58
547.595	9728.6
547.959	9745.55
548.324	9797.07
548.688	9852.44
549.052	9847.92
549.416	9928.14
549.779	9933.34
550.143	9957.52
550.507	10021.93
550.871	10040.91
551.235	10060.12
551.599	10118.87
551.962	10075.94
552.326	10207.91
552.689	10206.33
553.053	10250.17
553.417	10176.72
553.78	10357.28
554.143	10264.41
554.507	10311.64
554.87	10377.4
555.234	10520.67
555.597	10422.59
555.96	10442.48
556.323	10540.33
556.686	10519.09
557.05	10605.64
557.413	10669.14
557.776	10633.44
558.139	10795.92
558.502	10769.7
558.865	10726.09
559.228	10909.13
559.59	10810.38
559.953	10809.48
560.316	11002.69
560.679	11009.24
561.041	11048.11
561.404	11040.66
561.767	11171.73
562.129	11076.14
562.492	11276.36
562.854	11124.95
563.217	11221.44
563.579	11259.63
563.941	11384.15
564.304	11385.73
564.666	11440.87
565.028	11433.87
565.39	11504.82
565.753	11512.06
566.115	11516.12
566.477	11642.45
566.839	11640.41
567.201	11790.24
567.563	11791.82
567.925	11803.8
568.287	11788.21
568.648	11938.71
569.01	11924.25
569.372	11979.84
569.734	11952.04
570.095	12064.36
570.457	12177.58
570.819	12120.18
571.18	12148.65
571.542	12253.28
571.903	12257.57
572.265	12349.77
572.626	12394.74
572.987	12397.46
573.349	12522.42
573.71	12559.94
574.071	12617.56
574.432	12637.68
574.794	12765.36
575.155	12790.44
575.516	12787.28
575.877	12886.26
576.238	13055.29
576.599	13121.05
576.96	13120.38
577.32	13251.22
577.681	13348.62
578.042	13410.31
578.403	13502.74
578.763	13610.08
579.124	13706.12
579.485	13857.98
579.845	13954.48
580.206	14023.18
580.566	14142.04
580.927	14257.07
581.287	14470.62
581.648	14554.46
582.008	14712.42
582.368	14897.28
582.728	15052.53
583.089	15118.51
583.449	15328
583.809	15413.2
584.169	15672.85
584.529	15787.42
584.889	16089.11
585.249	16139.96
585.609	16302.21
585.969	16655.2
586.329	16840.05
586.688	17052.93
587.048	17209.31
587.408	17467.61
587.768	17691.78
588.127	17880.02
588.487	18167.47
588.846	18476.17
589.206	18569.95
589.565	18836.84
589.925	19331.29
590.284	19402.47
590.643	19753.65
591.003	19969.01
591.362	20299.17
591.721	20631.82
592.08	20869.78
592.44	21147.28
592.799	21483.55
593.158	21770.54
593.517	22168.05
593.876	22417.31
594.235	22659.33
594.593	22952.66
594.952	23289.83
595.311	23462.7
595.67	23924.16
596.029	24299.52
596.387	24536.57
596.746	24910.8
597.104	25032.83
597.463	25512.59
597.822	25902.64
598.18	25989.42
598.538	26353.47
598.897	26777.19
599.255	26857.64
599.613	27583.05
599.972	27660.78
600.33	28006.31
600.688	28128.34
601.046	28601.32
601.404	29017.81
601.762	29236.34
602.12	29619.83
602.478	29938.24
602.836	30173.49
603.194	30318.57
603.552	30663.42
603.91	30820.47
604.268	31131.88
604.625	31557.63
604.983	31802.82
605.341	31987.22
605.698	32427.89
606.056	32663.36
606.413	32740.2
606.771	33246.63
607.128	33447.75
607.485	33489.56
607.843	33913.27
608.2	34256.99
608.557	34502.86
608.914	34715.06
609.272	35172.9
609.629	35111.66
609.986	35474.59
610.343	35699.67
610.7	36217.62
611.057	36208.81
611.414	36458.07
611.771	36658.74
612.127	36882.46
612.484	37013.08
612.841	37392.28
613.198	37459.17
613.554	37595.66
613.911	37921.31
614.267	38202.88
614.624	38227.96
614.98	38442.2
615.337	38752.47
615.693	38884.9
616.05	38834.95
616.406	39388.39
616.762	39384.32
617.118	39341.61
617.475	39582.73
617.831	39815.72
618.187	40060.68
618.543	40288.7
618.899	40560.11
619.255	40742.02
619.611	40631.29
619.967	40957.84
620.323	41147.89
620.678	41158.28
621.034	41099.07
621.39	41325.96
621.746	41233.53
622.101	41878.94
622.457	41629.23
622.812	41737.02
623.168	41994.87
623.523	41942.67
623.879	42097.47
624.234	41984.93
624.589	42243.9
624.945	42518.25
625.3	42524.12
625.655	42603.89
626.01	42596.44
626.365	42770.44
626.72	42697.22
627.075	42786.04
627.43	42901.06
627.785	42887.05
628.14	43046.59
628.495	43185.35
628.85	43035.52
629.205	43077.33
629.559	43294.5
629.914	43191.45
630.269	43258.57
630.623	43126.14
630.978	43121.39
631.332	43548.95
631.687	43412.46
632.041	43283.42
632.396	43428.28
632.75	43415.4
633.104	43473.7
633.459	43308.51
633.813	43487.26
634.167	43499.92
634.521	43563.42
634.875	43719.8
635.229	43648.16
635.583	43494.49
635.937	43532.23
636.291	43468.73
636.645	43421.05
636.999	43432.57
637.352	43681.38
637.706	43359.81
638.06	43731.77
638.413	43545.79
638.767	43444.78
639.121	43677.76
639.474	43445.91
639.828	43461.27
640.181	43394.16
640.534	43463.53
640.888	43353.93
641.241	43294.72
641.594	43399.13
641.947	43423.08
642.301	43269.41
642.654	43389.86
643.007	43527.49
643.36	43377.21
643.713	43453.36
644.066	43485
644.419	43237.55
644.771	43151.68
645.124	42749.88
645.477	42701.97
645.83	42539.49
646.182	42277.8
646.535	42322.09
646.888	42139.27
647.24	42046.39
647.593	42405.48
647.945	42208.42
648.298	41976.34
648.65	41972.05
649.002	41826.29
649.355	42118.93
649.707	42121.42
650.059	42251.59
650.411	42687.96
650.763	42642.54
651.115	43018.8
651.467	43049.98
651.819	43090.43
652.171	42938.57
652.523	42921.63
652.875	42937.44
653.227	42745.13
653.578	43083.43
653.93	42937.44
654.282	42758.47
654.633	42750.33
654.985	42934.51
655.337	42877.33
655.688	42911
656.039	42955.3
656.391	42643.89
656.742	42682.54
657.094	42681.18
657.445	42832.59
657.796	42763.21
658.147	42713.5
658.498	42711.69
658.849	42820.39
659.2	42754.17
659.551	42549.88
659.902	42820.84
660.253	42522.77
660.604	42645.47
660.955	42640.28
661.306	42643.89
661.656	42658.36
662.007	42761.63
662.358	42603.67
662.708	42488.19
663.059	42586.95
663.409	42434.41
663.76	42722.53
664.11	42685.25
664.461	42708.75
664.811	42760.27
665.161	42434.86
665.511	42547.85
665.862	42589.43
666.212	42763.44
666.562	42690.22
666.912	42613.61
667.262	42564.8
667.612	42513.27
667.962	42565.7
668.312	42480.06
668.662	42826.71
669.011	42489.77
669.361	42513.5
669.711	42563.22
670.06	42346.95
670.41	42586.72
670.76	42458.81
671.109	42395.54
671.459	42332.26
671.808	42387.4
672.157	42366.84
672.507	42232.83
672.856	42221.31
673.205	42250.23
673.554	42449.1
673.904	42216.79
674.253	42362.77
674.602	42234.19
674.951	41716.23
675.3	41625.84
675.649	42095.21
675.998	42071.48
676.346	42134.3
676.695	42220.4
677.044	42077.58
677.393	42131.36
677.741	42143.12
678.09	42021.54
678.438	42055.89
678.787	42117.58
679.135	41998.94
679.484	41866.96
679.832	42023.57
680.181	41692.05
680.529	41879.39
680.877	41764.37
681.225	41563.92
681.573	41809.11
681.922	41556.01
682.27	41442.79
682.618	41529.57
682.966	41334.32
683.314	41367.77
683.661	41222.91
684.009	41076.93
684.357	41117.61
684.705	41091.62
685.053	41221.33
685.4	41095.46
685.748	40832.42
686.095	40833.32
686.443	40688.92
686.79	40762.81
687.138	40801.68
687.485	40674.68
687.832	40682.36
688.18	40687.56
688.527	40482.82
688.874	40468.36
689.221	40433.1
689.568	40253
689.915	40065.88
690.262	40227.91
690.609	40085.54
690.956	39992.21
691.303	39817.53
691.65	39709.51
691.997	39558.1
692.344	39463.64
692.69	39520.13
693.037	39427.71
693.383	39052.35
693.73	39314.04
694.077	38972.8
694.423	39128.51
694.769	38899.36
695.116	38825.01
695.462	38805.35
695.808	38703.88
696.155	38688.97
696.501	38439.48
696.847	38524.68
697.193	38180.96
697.539	38412.82
697.885	38172.15
698.231	38068.87
698.577	38084.92
698.923	38021.64
699.269	37930.34
699.614	37573.52
699.96	37625.27
700.306	37517.25
700.651	37445.16
700.997	37313.86
701.342	37359.51
701.688	37256.69
702.033	37206.52
702.379	37004.04
702.724	36956.81
703.069	37064.38
703.415	36682.69
703.76	36658.97
704.105	36725.18
704.45	36623.94
704.795	36416.71
705.14	36297.85
705.485	36244.51
705.83	36141.46
706.175	36224.4
706.52	36155.93
706.865	35957.74
707.209	35885.88
707.554	35727.92
707.899	35797.07
708.243	35628.94
708.588	35544.42
708.932	35387.59
709.277	35442.27
709.621	35297.42
709.966	35005
710.31	35252.67
710.654	34880.71
710.998	34971.78
711.342	35019.69
711.687	34797.09
712.031	34787.83
712.375	34629.64
712.719	34641.62
713.063	34559.36
713.407	34709.19
713.75	34364.11
714.094	34452.02
714.438	34373.6
714.782	34325.47
715.125	34084.12
715.469	34307.16
715.812	34177
716.156	33944.01
716.499	34000.96
716.843	33969.77
717.186	33737.69
717.53	33772.04
717.873	33965.03
718.216	33836.89
718.559	33520.74
718.902	33446.62
719.246	33570.69
719.589	33365.49
719.932	33350.13
720.275	33313.06
720.617	33334.53
720.96	33224.03
721.303	33191.03
721.646	33122.11
721.989	32973.41
722.331	33153.75
722.674	32967.76
723.016	33017.93
723.359	32811.61
723.701	32760.31
724.044	32588.79
724.386	32594.67
724.729	32621.78
725.071	32534.1
725.413	32460.43
725.755	32444.61
726.097	32359.42
726.439	32085.53
726.782	32225.18
727.124	32404.84
727.465	32188.35
727.807	32120.33
728.149	32182.02
728.491	32085.98
728.833	32121.23
729.175	31921.46
729.516	31864.29
729.858	31893.67
730.199	31823.16
730.541	31801.01
730.882	31680.11
731.224	31855.93
731.565	31674.46
731.906	31680.57
732.248	31557.4
732.589	31491.19
732.93	31349.73
733.271	31361.93
733.612	31380.23
733.953	31334.59
734.294	31253.68
734.635	31133.01
734.976	31368.94
735.317	31103.86
735.658	31218.66
735.999	31119
736.339	31007.14
736.68	31114.48
737.021	30990.64
737.361	30901.6
737.702	30990.64
738.042	30808.72
738.383	30747.93
738.723	30911.09
739.063	30631.55
739.404	30792.91
739.744	30600.14
740.084	30676.98
740.424	30566.47
740.764	30588.84
741.104	30583.87
741.444	30311.79
741.784	30380.49
742.124	30469.75
742.464	30286.7
742.804	30273.82
743.143	30240.38
743.483	30196.31
743.823	30048.52
744.162	30022.08
744.502	30171.9
744.841	29968.75
745.181	30156.99
745.52	29943.44
745.86	30011
746.199	29934.62
746.538	29849.2
746.877	30013.49
747.216	29852.82
747.556	29672.71
747.895	29746.15
748.234	29610.56
748.573	29803.1
748.911	29565.14
749.25	29622.31
749.589	29477.01
749.928	29584.12
750.267	29557.23
750.605	29529.44
750.944	29379.16
751.283	29298.48
751.621	29280.18
751.96	29066.85
752.298	29177.81
752.636	29089.22
752.975	29099.16
753.313	28947.3
753.651	29064.14
753.989	28920.64
754.327	28823.47
754.666	28650.59
755.004	28748.44
755.342	28742.56
755.679	28713.86
756.017	28614.66
756.355	28618.72
756.693	28529.91
757.031	28527.43
757.368	28401.56
757.706	28251.05
758.044	28205.85
758.381	28284.27
758.719	28151.84
759.056	28189.81
