Data from hue_220_FLMS001491_00019.txt Node
Date: Tue Feb 07 16:38:36 GMT 2017
User: dcchb
Spectrometer: FLMS00149
Trigger mode: 0
Integration Time (sec): 2.000000E-2
Scans to average: 10
Electric dark correction enabled: true
Nonlinearity correction enabled: false
Boxcar width: 0
XAxis mode: Wavelengths
Number of Pixels in Spectrum: 2048
>>>>>Begin Spectral Data<<<<<
341.393	-8.14
341.776	-8.14
342.16	-8.14
342.543	-65.08
342.927	-67.12
343.31	-73.22
343.693	-66.44
344.077	-40.68
344.46	-47.68
344.843	-37.29
345.226	-52.65
345.61	-38.87
345.993	-26.21
346.376	-19.89
346.759	26.21
347.142	14.24
347.525	39.1
347.908	46.55
348.291	60.11
348.674	102.37
349.057	114.35
349.44	123.84
349.823	154.12
350.206	174.23
350.588	206.32
350.971	222.14
351.354	223.27
351.737	234.34
352.119	246.55
352.502	262.59
352.884	264.85
353.267	285.64
353.65	282.93
354.032	297.85
354.414	308.24
354.797	314.12
355.179	292.2
355.562	310.05
355.944	315.92
356.326	315.7
356.709	338.52
357.091	337.39
357.473	343.72
357.855	320.22
358.238	329.03
358.62	323.61
359.002	340.78
359.384	323.16
359.766	333.1
360.148	331.97
360.53	355.02
360.912	331.97
361.294	328.58
361.676	329.93
362.057	349.14
362.439	347.34
362.821	335.13
363.203	317.05
363.584	310.05
363.966	323.38
364.348	298.07
364.729	330.61
365.111	323.83
365.493	309.6
365.874	316.15
366.256	315.47
366.637	334
367.019	317.28
367.4	314.12
367.781	312.53
368.163	304.4
368.544	323.16
368.925	331.74
369.306	329.93
369.688	302.82
370.069	314.57
370.45	303.04
370.831	316.83
371.212	304.62
371.593	330.16
371.974	303.27
372.355	317.51
372.736	321.57
373.117	326.32
373.498	294.46
373.879	287
374.26	316.15
374.641	326.32
375.021	299.88
375.402	331.29
375.783	305.3
376.163	318.18
376.544	325.42
376.925	322.03
377.305	324.51
377.686	345.3
378.066	319.31
378.447	326.09
378.827	313.66
379.208	353.21
379.588	339.65
379.968	317.51
380.349	330.16
380.729	339.88
381.109	340.1
381.489	331.97
381.87	339.2
382.25	329.03
382.63	340.78
383.01	341.69
383.39	327.67
383.77	329.93
384.15	333.55
384.53	337.62
384.91	349.14
385.29	356.83
385.67	339.2
386.049	339.65
386.429	327.45
386.809	367.45
387.189	355.92
387.568	354.11
387.948	360.44
388.328	349.82
388.707	352.76
389.087	374.68
389.466	380.33
389.846	347.79
390.225	370.61
390.605	364.28
390.984	368.8
391.363	375.58
391.743	372.19
392.122	390.72
392.501	389.82
392.881	365.87
393.26	367.9
393.639	395.47
394.018	367.45
394.397	391.18
394.776	380.78
395.155	402.25
395.534	362.25
395.913	401.57
396.292	376.94
396.671	409.93
397.05	383.04
397.429	387.33
397.808	397.73
398.186	387.11
398.565	383.04
398.944	397.73
399.323	430.72
399.701	393.89
400.08	402.25
400.458	400.44
400.837	395.02
401.215	430.5
401.594	429.37
401.972	397.28
402.351	414.45
402.729	427.56
403.107	417.62
403.486	438.63
403.864	436.37
404.242	438.63
404.62	462.59
404.999	434.79
405.377	444.06
405.755	462.59
406.133	471.17
406.511	451.29
406.889	453.77
407.267	466.65
407.645	486.77
408.023	472.08
408.401	483.38
408.779	497.39
409.156	502.59
409.534	494
409.912	491.51
410.29	515.92
410.667	531.51
411.045	539.87
411.422	507.78
411.8	535.58
412.178	546.43
412.555	531.96
412.933	557.05
413.31	585.75
413.687	581
414.065	587.33
414.442	591.17
414.819	592.3
415.197	611.51
415.574	624.39
415.951	617.84
416.328	623.71
416.705	648.8
417.082	643.15
417.46	646.31
417.837	662.58
418.214	684.95
418.591	682.02
418.967	697.61
419.344	677.72
419.721	698.96
420.098	710.26
420.475	724.95
420.852	731.73
421.228	770.15
421.605	736.03
421.982	762.01
422.358	757.27
422.735	794.33
423.111	802.46
423.488	804.95
423.864	825.74
424.241	845.63
424.617	825.06
424.994	845.85
425.37	868.45
425.746	895.57
426.123	883.14
426.499	896.25
426.875	909.13
427.251	946.42
427.627	951.16
428.003	938.73
428.379	983.7
428.756	978.05
429.132	1001.1
429.507	1017.83
429.883	1006.08
430.259	1000.88
430.635	1030.48
431.011	1051.05
431.387	1062.12
431.763	1056.7
432.138	1091.04
432.514	1078.84
432.89	1112.74
433.265	1136.69
433.641	1141.66
434.016	1193.41
434.392	1213.53
434.767	1227.99
435.143	1234.09
435.518	1277.48
435.894	1264.6
436.269	1324.26
436.644	1328.78
437.02	1317.48
437.395	1353.86
437.77	1386.63
438.145	1405.84
438.52	1426.86
438.895	1462.79
439.271	1460.75
439.646	1515.44
440.021	1531.03
440.395	1527.19
440.77	1540.52
441.145	1522.9
441.52	1569.45
441.895	1587.53
442.27	1606.74
442.645	1626.4
443.019	1647.64
443.394	1658.49
443.769	1680.86
444.143	1687.41
444.518	1693.51
444.892	1716.11
445.267	1744.81
445.641	1739.16
446.016	1766.96
446.39	1755.89
446.764	1745.94
447.139	1785.26
447.513	1835.88
447.887	1810.8
448.262	1808.09
448.636	1829.33
449.01	1863.91
449.384	1843.34
449.758	1851.25
450.132	1934.19
450.506	1917.24
450.88	1961.76
451.254	1935.54
451.628	1969.21
452.002	1984.13
452.376	2024.58
452.75	1980.51
453.123	2034.07
453.497	2062.54
453.871	2077.91
454.244	2083.11
454.618	2133.28
454.992	2136.67
455.365	2185.25
455.739	2190.9
456.112	2212.82
456.486	2210.11
456.859	2263.9
457.232	2295.98
457.606	2251.01
457.979	2300.5
458.352	2349.77
458.725	2385.02
459.099	2366.49
459.472	2407.39
459.845	2426.38
460.218	2439.26
460.591	2499.14
460.964	2491.46
461.337	2535.07
461.71	2598.12
462.083	2606.03
462.456	2595.64
462.829	2633.6
463.201	2669.08
463.574	2651.91
463.947	2719.02
464.32	2731.23
464.692	2773.94
465.065	2838.8
465.438	2897.32
465.81	2881.73
466.183	2904.1
466.555	2958.34
466.928	3000.6
467.3	2988.62
467.672	3030.43
468.045	3104.1
468.417	3073.59
468.789	3095.74
469.161	3164.44
469.534	3190.2
469.906	3304.09
470.278	3268.61
470.65	3311.33
471.022	3339.57
471.394	3398.33
471.766	3464.32
472.138	3442.4
472.51	3551.09
472.882	3528.72
473.253	3618.21
473.625	3649.17
473.997	3713.8
474.369	3779.34
474.74	3731.2
475.112	3859.11
475.484	3860.46
475.855	3987.24
476.227	3929.16
476.598	4072.44
476.97	4083.96
477.341	4211.41
477.713	4217.52
478.084	4206.67
478.455	4339.32
478.827	4387.46
479.198	4499.77
479.569	4501.8
479.94	4590.16
480.311	4629.03
480.682	4674
481.053	4789.48
481.424	4848.46
481.795	4878.74
482.166	4944.5
482.537	4982.47
482.908	5075.12
483.279	5135.68
483.65	5186.3
484.021	5293.42
484.391	5378.62
484.762	5389.46
485.133	5439.18
485.503	5455.68
485.874	5551.27
486.244	5601.66
486.615	5712.62
486.985	5748.78
487.356	5791.94
487.726	5866.06
488.097	5964.14
488.467	5962.56
488.837	6119.84
489.207	6163.68
489.578	6238.03
489.948	6257.24
490.318	6323.22
490.688	6296.33
491.058	6417.91
491.428	6520.28
491.798	6589.43
492.168	6676.66
492.538	6647.96
492.908	6713.04
493.278	6763.21
493.648	6805.7
494.017	6868.75
494.387	6903.32
494.757	6971.57
495.126	7036.88
495.496	7060.83
495.866	7103.54
496.235	7056.09
496.605	7107.61
496.974	7201.17
497.344	7214.27
497.713	7319.58
498.082	7307.15
498.452	7387.15
498.821	7380.37
499.19	7393.7
499.559	7408.84
499.928	7456.08
500.298	7572.68
500.667	7582.17
501.036	7495.85
501.405	7577.2
501.774	7618.56
502.143	7667.6
502.512	7671.89
502.88	7718.89
503.249	7698.55
503.618	7732.23
503.987	7702.17
504.356	7790.08
504.724	7768.84
505.093	7833.69
505.462	7807.93
505.83	7874.82
506.199	7925.22
506.567	8029.17
506.936	7994.82
507.304	8010.64
507.672	7973.35
508.041	8059.9
508.409	8145.55
508.777	8090.63
509.145	8136.96
509.514	8148.26
509.882	8151.65
510.25	8157.3
510.618	8198.2
510.986	8150.07
511.354	8200.91
511.722	8275.94
512.09	8282.95
512.458	8275.94
512.826	8285.66
513.193	8290.63
513.561	8324.75
513.929	8349.61
514.297	8449.95
514.664	8399.33
515.032	8372.66
515.4	8508.93
515.767	8437.29
516.135	8445.65
516.502	8383.51
516.869	8444.07
517.237	8474.35
517.604	8433.9
517.972	8478.2
518.339	8494.47
518.706	8453.11
519.073	8504.18
519.44	8529.49
519.808	8499.89
520.175	8510.74
520.542	8618.3
520.909	8589.15
521.276	8556.84
521.643	8568.14
522.009	8632.99
522.376	8640.22
522.743	8618.3
523.11	8691.52
523.477	8692.2
523.843	8708.7
524.21	8739.66
524.577	8752.31
524.943	8710.05
525.31	8722.93
525.676	8756.83
526.043	8771.75
526.409	8813.78
526.776	8817.4
527.142	8798.41
527.508	8789.37
527.874	8755.02
528.241	8874.79
528.607	8833.21
528.973	8783.95
529.339	8862.37
529.705	8785.53
530.071	8895.81
530.437	8815.14
530.803	8827.56
531.169	8907.79
531.535	8845.64
531.901	8801.8
532.267	8793.44
532.632	8819.43
532.998	8798.19
533.364	8873.21
533.73	8797.28
534.095	8839.99
534.461	8824.85
534.826	8814.01
535.192	8752.09
535.557	8784.63
535.923	8682.03
536.288	8768.36
536.653	8770.62
537.019	8685.2
537.384	8700.79
537.749	8681.81
538.114	8709.38
538.479	8627.57
538.845	8663.05
539.21	8582.37
539.575	8609.04
539.94	8588.02
540.305	8611.98
540.67	8572.66
541.034	8529.72
541.399	8510.96
541.764	8510.74
542.129	8490.62
542.494	8526.1
542.858	8485.43
543.223	8467.57
543.587	8484.07
543.952	8436.16
544.316	8420.34
544.681	8446.56
545.045	8391.87
545.41	8411.08
545.774	8383.06
546.138	8347.8
546.503	8298.76
546.867	8280.91
547.231	8288.82
547.595	8313.68
547.959	8316.84
548.324	8236.62
548.688	8180.58
549.052	8186.68
549.416	8198.2
549.779	8169.95
550.143	8102.84
550.507	8165.66
550.871	8137.87
551.235	8034.37
551.599	8127.02
551.962	8102.16
552.326	8022.84
552.689	8077.3
553.053	8025.33
553.417	8034.14
553.78	8095.15
554.143	8041.37
554.507	7995.72
554.87	8004.08
555.234	8028.26
555.597	7940.81
555.96	7965.44
556.323	8044.08
556.686	7935.16
557.05	7962.5
557.413	7965.21
557.776	7920.24
558.139	7914.82
558.502	7910.07
558.865	7887.48
559.228	7979
559.59	7890.41
559.953	7960.24
560.316	7934.25
560.679	7999.11
561.041	7942.62
561.404	8013.12
561.767	8020.13
562.129	7954.59
562.492	7988.72
562.854	7968.15
563.217	7976.51
563.579	7979.9
563.941	7968.6
564.304	7993.69
564.666	8010.64
565.028	8007.47
565.39	8023.29
565.753	8028.49
566.115	8032.33
566.477	8135.61
566.839	8101.93
567.201	8165.44
567.563	8113.68
567.925	8101.71
568.287	8105.32
568.648	8087.47
569.01	8125.21
569.372	8159.79
569.734	8157.53
570.095	8198.2
570.457	8186.23
570.819	8189.84
571.18	8270.97
571.542	8215.83
571.903	8164.98
572.265	8363.4
572.626	8271.65
572.987	8315.04
573.349	8307.13
573.71	8374.02
574.071	8332.21
574.432	8373.11
574.794	8445.43
575.155	8362.72
575.516	8359.1
575.877	8390.29
576.238	8393.68
576.599	8458.31
576.96	8451.53
577.32	8467.57
577.681	8465.54
578.042	8515.93
578.403	8525.88
578.763	8478.87
579.124	8522.94
579.485	8568.36
579.845	8631.41
580.206	8565.2
580.566	8647
580.927	8562.26
581.287	8643.84
581.648	8579.66
582.008	8675.25
582.368	8670.28
582.728	8687.46
583.089	8732.88
583.449	8638.19
583.809	8691.52
584.169	8818.3
584.529	8698.53
584.889	8839.99
585.249	8764.52
585.609	8757.96
585.969	8784.4
586.329	8843.84
586.688	8827.34
587.048	8821.46
587.408	8831.63
587.768	8887
588.127	8882.93
588.487	8913.44
588.846	8882.25
589.206	8838.41
589.565	8897.17
589.925	9002.02
590.284	8964.28
590.643	8974.23
591.003	8899.65
591.362	9031.4
591.721	8971.74
592.08	8982.14
592.44	9113.88
592.799	9088.57
593.158	9047.67
593.517	9065.52
593.876	9030.05
594.235	9083.6
594.593	9079.08
594.952	9061.23
595.311	9063.94
595.67	9078.41
596.029	9157.5
596.387	9090.16
596.746	9233.66
597.104	9131.51
597.463	9155.24
597.822	9189.59
598.18	9106.65
598.538	9193.43
598.897	9273.43
599.255	9157.27
599.613	9219.19
599.972	9128.35
600.33	9219.19
600.688	9178.06
601.046	9172.41
601.404	9181.45
601.762	9285.18
602.12	9285.63
602.478	9317.04
602.836	9296.25
603.194	9206.54
603.552	9271.62
603.91	9271.39
604.268	9234.33
604.625	9254.45
604.983	9240.89
605.341	9253.32
605.698	9321.79
606.056	9341
606.413	9346.19
606.771	9291.06
607.128	9355.01
607.485	9352.75
607.843	9323.82
608.2	9332.41
608.557	9326.53
608.914	9373.76
609.272	9380.09
609.629	9375.8
609.986	9427.1
610.343	9355.01
610.7	9445.18
611.057	9408.34
611.414	9467.32
611.771	9381.22
612.127	9470.49
612.484	9441.33
612.841	9551.84
613.198	9472.97
613.554	9478.39
613.911	9498.51
614.267	9539.18
614.624	9462.58
614.98	9547.55
615.337	9544.61
615.693	9494.44
616.05	9534.44
616.406	9566.53
616.762	9564.04
617.118	9505.74
617.475	9525.4
617.831	9642.01
618.187	9581.22
618.543	9547.77
618.899	9556.81
619.255	9606.08
619.611	9670.25
619.967	9686.52
620.323	9669.35
620.678	9579.86
621.034	9602.91
621.39	9555.23
621.746	9580.99
622.101	9731.72
622.457	9652.4
622.812	9658.5
623.168	9578.28
623.523	9630.48
623.879	9697.15
624.234	9604.72
624.589	9666.86
624.945	9640.42
625.3	9691.72
625.655	9645.85
626.01	9658.28
626.365	9627.32
626.72	9648.56
627.075	9610.82
627.43	9593.19
627.785	9589.13
628.14	9651.05
628.495	9620.31
628.85	9661.89
629.205	9606.98
629.559	9607.88
629.914	9567.43
630.269	9595.91
630.623	9572.18
630.978	9576.7
631.332	9592.52
631.687	9572.18
632.041	9502.12
632.396	9641.78
632.75	9570.37
633.104	9513.87
633.459	9461.45
633.813	9466.87
634.167	9459.19
634.521	9487.43
634.875	9420.54
635.229	9503.93
635.583	9385.06
635.937	9430.03
636.291	9403.82
636.645	9390.26
636.999	9394.56
637.352	9432.07
637.706	9357.72
638.06	9386.42
638.413	9430.94
638.767	9397.27
639.121	9381
639.474	9299.42
639.828	9308.91
640.181	9266.87
640.534	9352.3
640.888	9274.11
641.241	9214.45
641.594	9276.37
641.947	9283.6
642.301	9228.23
642.654	9268.46
643.007	9254.67
643.36	9296.48
643.713	9258.29
644.066	9221
644.419	9196.14
644.771	9147.78
645.124	9068.24
645.477	9079.76
645.83	8999.31
646.182	8985.53
646.535	8901.46
646.888	8904.85
647.24	8868.69
647.593	8903.72
647.945	8885.64
648.298	8894.91
648.65	8919.31
649.002	8899.43
649.355	8879.54
649.707	8958.63
650.059	8919.54
650.411	9056.94
650.763	9050.38
651.115	9124.05
651.467	9085.86
651.819	9090.38
652.171	9086.09
652.523	9093.55
652.875	9089.25
653.227	9113.43
653.578	9148.23
653.93	9079.31
654.282	9038.86
654.633	9116.82
654.985	9027.11
655.337	9088.35
655.688	9075.92
656.039	9126.31
656.391	9081.34
656.742	9085.86
657.094	9120.44
657.445	9162.02
657.796	9156.37
658.147	9130.61
658.498	9112.75
658.849	9080.44
659.2	9104.62
659.551	9108.46
659.902	9178.74
660.253	9188.68
660.604	9116.14
660.955	9033.43
661.306	9202.24
661.656	9067.11
662.007	9109.59
662.358	9089.93
662.708	9127.44
663.059	9141
663.409	9089.93
663.76	9164.96
664.11	9070.95
664.461	9180.1
664.811	9164.73
665.161	9147.33
665.511	9138.97
665.862	9206.54
666.212	9121.79
666.562	9095.13
666.912	9124.28
667.262	9122.02
667.612	9212.41
667.962	9174.67
668.312	9148.91
668.662	9263.03
669.011	9122.25
669.361	9149.14
669.711	9186.65
670.06	9057.84
670.41	9139.19
670.76	9078.63
671.109	9107.33
671.459	9085.64
671.808	9102.36
672.157	9109.82
672.507	9062.81
672.856	9047.22
673.205	9114.56
673.554	9075.02
673.904	9012.19
674.253	9062.13
674.602	9036.37
674.951	8867.56
675.3	8851.29
675.649	9037.95
675.998	8991.85
676.346	9008.35
676.695	9009.25
677.044	8952.98
677.393	9011.51
677.741	8991.85
678.09	8953.21
678.438	8989.82
678.787	8938.07
679.135	8964.74
679.484	8872.54
679.832	8957.5
680.181	8885.19
680.529	8875.47
680.877	8875.7
681.225	8836.6
681.573	8896.94
681.922	8785.53
682.27	8755.93
682.618	8795.93
682.966	8812.42
683.314	8776.27
683.661	8729.94
684.009	8676.38
684.357	8665.99
684.705	8711.41
685.053	8634.58
685.4	8653.33
685.748	8596.84
686.095	8558.65
686.443	8537.4
686.79	8510.96
687.138	8574.69
687.485	8552.32
687.832	8524.75
688.18	8543.05
688.527	8476.39
688.874	8450.4
689.221	8453.11
689.568	8391.64
689.915	8377.63
690.262	8421.02
690.609	8335.6
690.956	8351.64
691.303	8366.11
691.65	8340.8
691.997	8245.43
692.344	8228.26
692.69	8192.33
693.037	8159.11
693.383	8140.35
693.73	8103.52
694.077	8080.24
694.423	8031.2
694.769	8036.85
695.116	8032.56
695.462	8006.57
695.808	8001.82
696.155	8005.44
696.501	7925.22
696.847	7923.63
697.193	7845.67
697.539	7812
697.885	7808.38
698.231	7776.29
698.577	7776.97
698.923	7725.45
699.269	7627.82
699.614	7611.78
699.96	7632.57
700.306	7567.71
700.651	7584.66
700.997	7574.49
701.342	7495.4
701.688	7523.42
702.033	7481.84
702.379	7475.06
702.724	7358.9
703.069	7483.19
703.415	7296.08
703.76	7375.85
704.105	7310.77
704.45	7283.65
704.795	7260.37
705.14	7216.99
705.485	7272.8
705.83	7200.26
706.175	7202.07
706.52	7174.05
706.865	7138.8
707.209	7103.09
707.554	7150.55
707.899	7090.66
708.243	7096.54
708.588	7050.21
708.932	6941.51
709.277	7009.99
709.621	7005.24
709.966	6922.08
710.31	6950.1
710.654	6969.53
710.998	6925.24
711.342	6967.5
711.687	6914.62
712.031	6764.57
712.375	6783.1
712.719	6775.87
713.063	6773.83
713.407	6824.91
713.75	6771.12
714.094	6790.78
714.438	6780.61
714.782	6764.79
715.125	6702.87
715.469	6740.16
715.812	6689.99
716.156	6648.19
716.499	6665.81
716.843	6727.05
717.186	6623.55
717.53	6691.12
717.873	6631.24
718.216	6656.77
718.559	6631.92
718.902	6624.01
719.246	6586.95
719.589	6537.68
719.932	6562.77
720.275	6540.17
720.617	6601.41
720.96	6562.99
721.303	6553.5
721.646	6497.91
721.989	6506.72
722.331	6519.38
722.674	6476.21
723.016	6534.97
723.359	6440.06
723.701	6463.33
724.044	6472.6
724.386	6430.79
724.729	6494.29
725.071	6456.1
725.413	6466.5
725.755	6453.16
726.097	6421.75
726.439	6375.2
726.782	6363.22
727.124	6407.52
727.465	6375.88
727.807	6437.34
728.149	6408.65
728.491	6338.36
728.833	6384.01
729.175	6372.04
729.516	6366.84
729.858	6356.44
730.199	6336.78
730.541	6351.47
730.882	6371.81
731.224	6386.27
731.565	6392.83
731.906	6388.53
732.248	6382.66
732.589	6403.45
732.93	6358.48
733.271	6386.5
733.612	6448.42
733.953	6406.84
734.294	6363.9
734.635	6343.79
734.976	6413.84
735.317	6395.09
735.658	6354.18
735.999	6409.55
736.339	6389.21
736.68	6449.32
737.021	6367.06
737.361	6391.47
737.702	6348.99
738.042	6434.41
738.383	6408.19
738.723	6380.85
739.063	6412.94
739.404	6458.81
739.744	6420.4
740.084	6531.35
740.424	6479.83
740.764	6490.22
741.104	6489.32
741.444	6495.42
741.784	6498.13
742.124	6508.3
742.464	6544.46
742.804	6509.89
743.143	6528.42
743.483	6607.74
743.823	6593.95
744.162	6594.63
744.502	6660.39
744.841	6672.59
745.181	6673.5
745.52	6671.69
745.86	6744
746.199	6741.52
746.538	6774.96
746.877	6841.18
747.216	6915.07
747.556	6919.37
747.895	6913.26
748.234	6987.84
748.573	7056.76
748.911	7057.44
749.25	7121.62
749.589	7194.16
749.928	7226.93
750.267	7289.98
750.605	7331.33
750.944	7429.64
751.283	7522.74
751.621	7530.65
751.96	7671.66
752.298	7715.73
752.636	7812.22
752.975	7886.57
753.313	7951.66
753.651	8084.76
753.989	8139.9
754.327	8273.45
754.666	8388.71
755.004	8425.54
755.342	8581.47
755.679	8695.14
756.017	8767.91
756.355	8977.17
756.693	9087.9
757.031	9203.6
757.368	9284.95
757.706	9469.58
758.044	9535.12
758.381	9725.39
758.719	9858.05
759.056	10094.42
759.394	10201.31
759.731	10262.1
760.068	10446.5
760.405	10593.62
760.743	10742.09
761.08	10865.93
761.417	11032.93
761.754	11256.88
762.091	11421.62
762.428	11516.76
762.765	11701.84
763.102	11916.3
763.438	12024.99
763.775	12207.59
764.112	12356.96
764.449	12514.7
764.785	12702.26
765.122	12850.74
765.458	12970.05
765.795	13134.12
766.131	13256.15
766.467	13454.56
766.804	13601.68
767.14	13760.77
767.476	13906.75
767.812	13972.74
768.148	14138.61
768.485	14293.64
768.821	14416.12
769.157	14626.28
