Data from hue_330_FLMS001491_77.txt Node
Date: Mon Feb 06 15:45:53 GMT 2017
User: dcchb
Spectrometer: FLMS00149
Trigger mode: 0
Integration Time (sec): 2.000000E-2
Scans to average: 10
Electric dark correction enabled: true
Nonlinearity correction enabled: false
Boxcar width: 0
XAxis mode: Wavelengths
Number of Pixels in Spectrum: 2048
>>>>>Begin Spectral Data<<<<<
341.393	-20.01
341.776	-20.01
342.16	-20.01
342.543	-78.09
342.927	-60.24
343.31	-75.83
343.693	-67.24
344.077	-50.52
344.46	-57.75
344.843	-43.29
345.226	-40.13
345.61	-36.74
345.993	-29.96
346.376	-0.58
346.759	8.01
347.142	26.76
347.525	37.61
347.908	60.66
348.291	64.73
348.674	95.46
349.057	108.8
349.44	122.36
349.823	144.5
350.206	165.74
350.588	178.63
350.971	214.56
351.354	245.97
351.737	249.81
352.119	244.16
352.502	262.01
352.884	283.93
353.267	273.09
353.65	273.99
354.032	301.79
354.414	309.92
354.797	317.6
355.179	313.31
355.562	316.7
355.944	341.56
356.326	350.6
356.709	329.58
357.091	341.78
357.473	332.07
357.855	328.9
358.238	335.68
358.62	328.23
359.002	339.75
359.384	333.65
359.766	338.4
360.148	331.62
360.53	333.42
360.912	349.69
361.294	329.36
361.676	317.38
362.057	328.9
362.439	331.16
362.821	310.83
363.203	334.78
363.584	322.12
363.966	333.2
364.348	320.99
364.729	318.51
365.111	309.47
365.493	334.78
365.874	315.57
366.256	311.73
366.637	313.99
367.019	287.32
367.4	326.42
367.781	309.02
368.163	315.34
368.544	311.5
368.925	313.99
369.306	337.72
369.688	312.41
370.069	312.18
370.45	342.24
370.831	330.94
371.212	318.51
371.593	312.41
371.974	319.64
372.355	311.73
372.736	309.47
373.117	310.6
373.498	336.59
373.879	313.08
374.26	324.84
374.641	316.93
375.021	300.66
375.402	316.7
375.783	323.48
376.163	320.09
376.544	338.62
376.925	308.79
377.305	339.52
377.686	339.75
378.066	321.45
378.447	313.31
378.827	337.72
379.208	331.39
379.588	323.71
379.968	326.87
380.349	330.94
380.729	344.04
381.109	358.28
381.489	337.27
381.87	338.62
382.25	331.84
382.63	333.42
383.01	341.11
383.39	335.68
383.77	328.68
384.15	347.89
384.53	349.47
384.91	364.16
385.29	356.47
385.67	337.72
386.049	365.96
386.429	346.76
386.809	363.48
387.189	344.27
387.568	355.34
387.948	353.08
388.328	352.18
388.707	354.89
389.087	373.42
389.466	348.79
389.846	355.34
390.225	351.73
390.605	386.76
390.984	346.98
391.363	351.5
391.743	365.96
392.122	371.39
392.501	378.39
392.881	371.84
393.26	388.56
393.639	370.26
394.018	369.35
394.397	382.91
394.776	367.32
395.155	382.01
395.534	383.82
395.913	391.5
396.292	379.3
396.671	402.57
397.05	386.98
397.429	375.68
397.808	371.39
398.186	398.73
398.565	406.42
398.944	397.83
399.323	398.96
399.701	396.7
400.08	397.38
400.458	412.74
400.837	411.61
401.215	413.2
401.594	415
401.972	424.95
402.351	418.39
402.729	403.93
403.107	407.09
403.486	428.56
403.864	417.72
404.242	396.7
404.62	415.91
404.999	439.64
405.377	430.82
405.755	447.54
406.133	435.34
406.511	443.03
406.889	442.57
407.267	436.02
407.645	448.22
408.023	457.71
408.401	443.93
408.779	432.86
409.156	446.64
409.534	464.72
409.912	468.34
410.29	479.41
410.667	472.63
411.045	506.53
411.422	490.26
411.8	512.85
412.178	501.55
412.555	508.11
412.933	502.68
413.31	525.96
413.687	514.66
414.065	538.39
414.442	540.88
414.819	538.39
415.197	556.92
415.574	545.85
415.951	559.41
416.328	556.69
416.705	553.98
417.082	580.87
417.46	567.09
417.837	578.61
418.214	603.7
418.591	615.9
418.967	605.51
419.344	621.78
419.721	604.38
420.098	627.88
420.475	615.68
420.852	638.5
421.228	626.3
421.605	634.21
421.982	638.95
422.358	647.31
422.735	677.14
423.111	647.54
423.488	672.62
423.864	683.47
424.241	692.74
424.617	696.8
424.994	673.53
425.37	704.49
425.746	694.77
426.123	711.72
426.499	720.76
426.875	723.24
427.251	742.45
427.627	747.65
428.003	756.46
428.379	754.2
428.756	770.93
429.132	765.05
429.507	788.1
429.883	772.06
430.259	816.35
430.635	827.87
431.011	799.17
431.387	797.37
431.763	845.73
432.138	838.49
432.514	842.11
432.89	854.54
433.265	855.22
433.641	875.1
434.016	883.47
434.392	887.08
434.767	903.58
435.143	892.73
435.518	940.64
435.894	949.45
436.269	940.41
436.644	921.2
437.02	946.29
437.395	951.94
437.77	964.59
438.145	999.62
438.52	979.28
438.895	1009.34
439.271	998.49
439.646	1003.91
440.021	1037.59
440.395	1024.7
440.77	989.45
441.145	1038.94
441.52	1011.6
441.895	1034.65
442.27	1047.75
442.645	1070.13
443.019	1058.15
443.394	1054.76
443.769	1078.71
444.143	1095.44
444.518	1085.95
444.892	1083.01
445.267	1089.79
445.641	1127.98
446.016	1093.4
446.39	1118.71
446.764	1122.56
447.139	1111.93
447.513	1148.77
447.887	1142.44
448.262	1121.2
448.636	1145.38
449.01	1130.01
449.384	1153.97
449.758	1154.87
450.132	1170.24
450.506	1175.89
450.88	1172.27
451.254	1183.8
451.628	1177.7
452.002	1190.12
452.376	1220.18
452.75	1202.33
453.123	1221.54
453.497	1231.93
453.871	1243
454.244	1247.52
454.618	1244.81
454.992	1270.57
455.365	1272.38
455.739	1292.04
456.112	1304.47
456.486	1292.04
456.859	1320.97
457.232	1316
457.606	1331.82
457.979	1332.04
458.352	1364.58
458.725	1372.49
459.099	1374.75
459.472	1374.98
459.845	1391.7
460.218	1406.39
460.591	1427.18
460.964	1442.09
461.337	1460.63
461.71	1468.08
462.083	1477.12
462.456	1481.42
462.829	1501.3
463.201	1485.71
463.574	1509.66
463.947	1517.57
464.32	1548.98
464.692	1602.09
465.065	1583.79
465.438	1585.82
465.81	1597.35
466.183	1624.24
466.555	1641.41
466.928	1639.83
467.3	1645.48
467.672	1680.05
468.045	1676.21
468.417	1727.06
468.789	1680.73
469.161	1739.04
469.534	1747.4
469.906	1794.18
470.278	1763.89
470.65	1795.31
471.022	1848.41
471.394	1859.94
471.766	1907.17
472.138	1894.29
472.51	1921.86
472.882	1950.56
473.253	1933.38
473.625	2002.98
473.997	2007.5
474.369	2015.19
474.74	2072.81
475.112	2046.6
475.484	2099.93
475.855	2125.92
476.227	2128.63
476.598	2200.04
476.97	2204.56
477.341	2202.98
477.713	2273.94
478.084	2292.02
478.455	2328.17
478.827	2312.81
479.198	2362.07
479.569	2389.41
479.94	2454.05
480.311	2466.7
480.682	2514.84
481.053	2554.61
481.424	2623.53
481.795	2589.64
482.166	2655.4
482.537	2666.24
482.908	2718.9
483.279	2720.25
483.65	2816.52
484.021	2865.79
484.391	2835.5
484.762	2863.53
485.133	2905.33
485.503	2955.73
485.874	2979.68
486.244	3007.7
486.615	3039.57
486.985	3073.01
487.356	3137.19
487.726	3149.17
488.097	3190.3
488.467	3240.47
488.837	3263.97
489.207	3305.55
489.578	3367.24
489.948	3341.25
490.318	3388.48
490.688	3461.93
491.058	3471.65
491.428	3489.95
491.798	3548.25
492.168	3567.91
492.538	3607.69
492.908	3596.39
493.278	3661.7
493.648	3697.18
494.017	3743.73
494.387	3743.05
494.757	3786.89
495.126	3815.82
495.496	3817.63
495.866	3833.44
496.235	3870.51
496.605	3894.01
496.974	3868.92
497.344	3914.12
497.713	3968.13
498.082	4048.81
498.452	4037.73
498.821	4047.68
499.19	4029.15
499.559	4088.8
499.928	4114.34
500.298	4114.79
500.667	4156.15
501.036	4123.61
501.405	4242.93
501.774	4187.11
502.143	4205.64
502.512	4220.1
502.88	4228.01
503.249	4230.27
503.618	4278.86
503.987	4253.55
504.356	4334.45
504.724	4314.11
505.093	4369.02
505.462	4359.53
505.83	4424.84
506.199	4398.63
506.567	4454.9
506.936	4460.55
507.304	4484.73
507.672	4534.67
508.041	4546.19
508.409	4508.23
508.777	4549.13
509.145	4560.66
509.514	4584.16
509.882	4570.15
510.25	4586.42
510.618	4639.3
510.986	4664.61
511.354	4703.48
511.722	4698.73
512.09	4710.71
512.458	4692.63
512.826	4757.04
513.193	4774.44
513.561	4746.41
513.929	4776.02
514.297	4811.05
514.664	4825.28
515.032	4828.45
515.4	4861.67
515.767	4881.1
516.135	4896.92
516.502	4896.24
516.869	4898.95
517.237	4926.97
517.604	4902.12
517.972	4947.09
518.339	4959.97
518.706	4948.67
519.073	4998.84
519.44	4983.02
519.808	5041.1
520.175	4994.32
520.542	5101.89
520.909	5093.75
521.276	5087.42
521.643	5084.71
522.009	5114.99
522.376	5192.28
522.743	5167.19
523.11	5224.37
523.477	5233.86
523.843	5257.59
524.21	5319.51
524.577	5374.19
524.943	5336.68
525.31	5351.14
525.676	5411.93
526.043	5459.16
526.409	5428.2
526.776	5464.81
527.142	5524.7
527.508	5499.62
527.874	5592.95
528.241	5571.93
528.607	5594.08
528.973	5611.02
529.339	5632.95
529.705	5690.34
530.071	5686.28
530.437	5770.79
530.803	5766.5
531.169	5775.77
531.535	5779.83
531.901	5829.55
532.267	5835.2
532.632	5915.65
532.998	5912.26
533.364	5936.67
533.73	5986.16
534.095	6017.57
534.461	5989.32
534.826	6045.59
535.192	6042.88
535.557	6089.43
535.923	6159.26
536.288	6169.2
536.653	6154.51
537.019	6139.15
537.384	6194.29
537.749	6185.25
538.114	6232.93
538.479	6265.24
538.845	6289.43
539.21	6295.53
539.575	6298.24
539.94	6344.56
540.305	6378.01
540.67	6406.94
541.034	6374.62
541.399	6378.01
541.764	6471.79
542.129	6500.27
542.494	6516.31
542.858	6524
543.223	6618.68
543.587	6656.87
543.952	6617.1
544.316	6631.11
544.681	6648.06
545.045	6713.82
545.41	6734.61
545.774	6733.03
546.138	6792.91
546.503	6864.1
546.867	6820.94
547.231	6927.15
547.595	6893.93
547.959	6920.14
548.324	6931.67
548.688	6965.11
549.052	6976.41
549.416	7004.66
549.779	7038.78
550.143	7037.65
550.507	7075.17
550.871	7136.86
551.235	7076.97
551.599	7188.16
551.962	7113.58
552.326	7173.47
552.689	7186.12
553.053	7232.9
553.417	7210.3
553.78	7286.23
554.143	7273.58
554.507	7346.12
554.87	7321.71
555.234	7386.12
555.597	7362.62
555.96	7376.85
556.323	7433.12
556.686	7469.06
557.05	7539.11
557.413	7504.76
557.776	7520.81
558.139	7538.21
558.502	7569.17
558.865	7590.41
559.228	7641.03
559.59	7652.33
559.953	7693.23
560.316	7724.42
560.679	7698.2
561.041	7798.31
561.404	7834.7
561.767	7860.91
562.129	7849.84
562.492	7847.35
562.854	7867.69
563.217	7927.12
563.579	7904.3
563.941	7944.3
564.304	8002.6
564.666	8069.27
565.028	8036.5
565.39	8084.63
565.753	8075.14
566.115	8123.28
566.477	8146.55
566.839	8257.51
567.201	8227
567.563	8191.97
567.925	8255.02
568.287	8256.38
568.648	8262.71
569.01	8395.58
569.372	8470.84
569.734	8434.23
570.095	8443.27
570.457	8495.24
570.819	8481.23
571.18	8570.27
571.542	8593.32
571.903	8637.84
572.265	8706.31
572.626	8727.1
572.987	8723.49
573.349	8850.71
573.71	8850.49
574.071	8883.48
574.432	9028.11
574.794	9083.48
575.155	9101.1
575.516	9111.95
575.877	9200.08
576.238	9270.82
576.599	9329.8
576.96	9413.18
577.32	9469.91
577.681	9632.16
578.042	9699.5
578.403	9703.35
578.763	9813.63
579.124	9935.66
579.485	10085.26
579.845	10198.02
580.206	10285.93
580.566	10358.7
580.927	10492.25
581.287	10707.84
581.648	10770.44
582.008	10900.15
582.368	11054.05
582.728	11229.86
583.089	11385.79
583.449	11508.27
583.809	11697.42
584.169	11907.81
584.529	12049.5
584.889	12353.9
585.249	12517.96
585.609	12664.62
585.969	12908.01
586.329	13055.35
586.688	13289.92
587.048	13543.02
587.408	13702.34
587.768	14025.72
588.127	14143
588.487	14467.52
588.846	14675.42
589.206	14883.55
589.565	15239.92
589.925	15440.82
590.284	15587.94
590.643	15906.35
591.003	16237.19
591.362	16476.95
591.721	16780.45
592.08	17083.49
592.44	17437.15
592.799	17704.27
593.158	17857.26
593.517	18169.11
593.876	18521.65
594.235	18793.28
594.593	19000.5
594.952	19334.73
595.311	19556.42
595.67	19911.44
596.029	20366.34
596.387	20673.45
596.746	20801.59
597.104	21112.09
597.463	21362.25
597.822	21701.9
598.18	21959.97
598.538	22226.63
598.897	22597.92
599.255	22708.2
599.613	23258.24
599.972	23441.97
600.33	23826.59
600.688	23895.06
601.046	24276.97
601.404	24691.2
601.762	24853.46
602.12	25183.17
602.478	25469.03
602.836	25694.79
603.194	25894.33
603.552	26092.75
603.91	26230.14
604.268	26597.14
604.625	26813.63
604.983	27181.31
605.341	27252.72
605.698	27643.67
606.056	27847.95
606.413	28030.77
606.771	28356.19
607.128	28487.71
607.485	28718.67
607.843	28932.45
608.2	29317.07
608.557	29465.09
608.914	29670.05
609.272	29940.55
609.629	30117.05
609.986	30575.57
610.343	30412.41
610.7	30892.62
611.057	31101.43
611.414	31196.57
611.771	31416
612.127	31690.11
612.484	31854.18
612.841	32137.78
613.198	32155.41
613.554	32383.65
613.911	32699.35
614.267	32706.36
614.624	32981.15
614.98	33006.91
615.337	33355.15
615.693	33512.89
616.05	33464.98
616.406	33886.44
616.762	33861.36
617.118	34031.07
617.475	34100.22
617.831	34369.14
618.187	34475.58
618.543	34608.45
618.899	34894.32
619.255	34898.16
619.611	34992.63
619.967	35215.67
620.323	35402.56
620.678	35225.84
621.034	35298.83
621.39	35375.21
621.746	35505.83
622.101	36092.71
622.457	35782.21
622.812	35985.82
623.168	36057.68
623.523	36142.2
623.879	36283.21
624.234	36172.93
624.589	36529.76
624.945	36578.35
625.3	36754.39
625.655	36738.34
626.01	36785.8
626.365	36934.95
626.72	36929.75
627.075	36964.1
627.43	37101.95
627.785	36969.97
628.14	37161.61
628.495	37355.95
628.85	37300.36
629.205	37193.02
629.559	37362.05
629.914	37265.79
630.269	37483.18
630.623	37423.3
630.978	37348.5
631.332	37471.88
631.687	37644.76
632.041	37459.45
632.396	37567.25
632.75	37554.82
633.104	37593.91
633.459	37470.98
633.813	37499.68
634.167	37586.23
634.521	37619.22
634.875	37689.28
635.229	37715.94
635.583	37664.19
635.937	37543.07
636.291	37573.35
636.645	37585.55
636.999	37517.53
637.352	37704.19
637.706	37662.16
638.06	37713.46
638.413	37555.04
638.767	37542.61
639.121	37666.91
639.474	37522.73
639.828	37454.26
640.181	37640.69
640.534	37640.24
640.888	37522.95
641.241	37444.99
641.594	37512.78
641.947	37699.9
642.301	37452.67
642.654	37548.26
643.007	37642.05
643.36	37466.46
643.713	37513.01
644.066	37658.09
644.419	37230.31
644.771	37202.06
645.124	36850.43
645.477	36823.76
645.83	36639.36
646.182	36581.74
646.535	36381.74
646.888	36540.16
647.24	36363.66
647.593	36512.36
647.945	36398.24
648.298	36404.57
648.65	36362.98
649.002	36248.19
649.355	36317.34
649.707	36284.12
650.059	36485.92
650.411	36877.55
650.763	36875.97
651.115	37300.59
651.467	37152.12
651.819	37191.21
652.171	37095.85
652.523	37134.94
652.875	37013.81
653.227	36933.14
653.578	37148.95
653.93	37135.17
654.282	36981.27
654.633	36893.82
654.985	36945.34
655.337	36969.07
655.688	36903.54
656.039	37036.19
656.391	36671.9
656.742	36895.85
657.094	36799.58
657.445	36956.19
657.796	36777.89
658.147	36943.99
658.498	36728.85
658.849	37006.81
659.2	36833.25
659.551	36749.19
659.902	36884.1
660.253	36838.9
660.604	36759.13
660.955	36775.18
661.306	36809.07
661.656	36761.84
662.007	36806.59
662.358	36769.98
662.708	36670.32
663.059	36705.57
663.409	36530.44
663.76	36941.05
664.11	36888.39
664.461	36925.23
664.811	36685.01
665.161	36721.39
665.511	36712.81
665.862	36727.95
666.212	36845.68
666.562	36854.05
666.912	36595.75
667.262	36729.53
667.612	36713.94
667.962	36780.83
668.312	36640.49
668.662	36734.05
669.011	36713.26
669.361	36801.39
669.711	36555.3
670.06	36517.78
670.41	36659.25
670.76	36362.76
671.109	36626.48
671.459	36539.25
671.808	36527.27
672.157	36656.99
672.507	36439.59
672.856	36492.47
673.205	36467.39
673.554	36517.1
673.904	36319.14
674.253	36614.05
674.602	36502.42
674.951	36060.17
675.3	35761.87
675.649	36480.27
675.998	36298.35
676.346	36329.31
676.695	36494.28
677.044	36172.71
677.393	36337.45
677.741	36399.82
678.09	36202.76
678.438	36132.48
678.787	36166.61
679.135	36220.39
679.484	35863.11
679.832	36171.13
680.181	35833.05
680.529	36192.14
680.877	35923.45
681.225	35972.71
681.573	36141.3
681.922	35838.93
682.27	35798.71
682.618	35902.88
682.966	35595.32
683.314	35794.41
683.661	35627.18
684.009	35516.68
684.357	35299.96
684.705	35387.19
685.053	35416.57
685.4	35318.94
685.748	35188.55
686.095	35190.81
686.443	34996.69
686.79	35081.21
687.138	35118.72
687.485	35052.74
687.832	34960.99
688.18	35012.51
688.527	34852.97
688.874	34734.55
689.221	34737.04
689.568	34492.75
689.915	34552.41
690.262	34615.91
690.609	34425.86
690.956	34363.26
691.303	34329.59
691.65	34155.58
691.997	34116.26
692.344	34035.81
692.69	33919.43
693.037	34053.89
693.383	33729.16
693.73	33921.69
694.077	33728.48
694.423	33678.99
694.769	33697.52
695.116	33523.29
695.462	33408.03
695.808	33315.83
696.155	33366
696.501	33090.75
696.847	33042.62
697.193	32900.02
697.539	32946.58
697.885	32849.4
698.231	32579.58
698.577	32681.5
698.923	32693.25
699.269	32467.95
699.614	32409.87
699.96	32358.57
700.306	32411.68
700.651	32255.07
700.997	32152.7
701.342	32097.33
701.688	32102.31
702.033	31864.57
702.379	31976.21
702.724	31863.67
703.069	31842.65
703.415	31492.38
703.76	31478.14
704.105	31636.78
704.45	31320.18
704.795	31310.01
705.14	31049.68
705.485	31140.3
705.83	31135.1
706.175	31183.23
706.52	30951.38
706.865	30896.46
707.209	30844.03
707.554	30785.5
707.899	30982.56
708.243	30673.42
708.588	30574.89
708.932	30389.58
709.277	30359.07
709.621	30525.62
709.966	30242.02
710.31	30304.39
710.654	29905.53
710.998	30120.21
711.342	30116.37
711.687	30010.38
712.031	29969.93
712.375	29817.17
712.719	29832.08
713.063	29823.95
713.407	29894.91
713.75	29663.27
714.094	29715.02
714.438	29606.1
714.782	29614.91
715.125	29280.68
715.469	29459.89
715.812	29284.98
716.156	29125.66
716.499	29104.42
716.843	29182.83
717.186	29055.15
717.53	29171.99
717.873	29128.82
718.216	29074.59
718.559	28969.96
718.902	28752.34
719.246	28774.94
719.589	28689.74
719.932	28620.36
720.275	28685.22
720.617	28590.08
720.96	28590.08
721.303	28467.82
721.646	28662.4
721.989	28386.7
722.331	28425.11
722.674	28241.16
723.016	28353.03
723.359	28302.63
723.701	28287.72
724.044	28107.61
724.386	27917.56
724.729	28113.71
725.071	27919.59
725.413	28011.34
725.755	28044.56
726.097	27801.4
726.439	27730.44
726.782	27710.1
727.124	27916.65
727.465	27684.79
727.807	27719.37
728.149	27459.04
728.491	27512.14
728.833	27559.6
729.175	27492.71
729.516	27376.55
729.858	27376.33
730.199	27354.41
730.541	27299.04
730.882	27270.79
731.224	27341.3
731.565	27244.13
731.906	27229.21
732.248	27118.48
732.589	27012.72
732.93	26725.95
733.271	26937.7
733.612	26883.69
733.953	27013.4
734.294	26818.83
734.635	26845.04
734.976	26911.48
735.317	26821.31
735.658	26659.51
735.999	26633.97
736.339	26573.19
736.68	26790.13
737.021	26615.44
737.361	26497.26
737.702	26676.46
738.042	26518.05
738.383	26441.66
738.723	26556.24
739.063	26407.77
739.404	26400.31
739.744	26296.36
740.084	26224.95
740.424	26177.26
740.764	26181.56
741.104	26311.95
741.444	26196.47
741.784	25942.47
742.124	26108.11
742.464	26014.1
742.804	25897.5
743.143	25971.62
743.483	25915.8
743.823	25848.46
744.162	25777.95
744.502	25811.4
744.841	25674.45
745.181	25907.89
745.52	25634.91
745.86	25617.5
746.199	25527.11
746.538	25651.4
746.877	25604.17
747.216	25508.58
747.556	25496.6
747.895	25520.56
748.234	25331.41
748.573	25281.02
748.911	25234.46
749.25	25274.91
749.589	25119.89
749.928	25124.18
750.267	25188.36
750.605	25045.77
750.944	24965.09
751.283	25018.88
751.621	24975.04
751.96	24829.28
752.298	24905.21
752.636	24790.63
752.975	24615.27
753.313	24631.77
753.651	24727.81
753.989	24597.64
754.327	24629.28
754.666	24390.42
755.004	24410.08
755.342	24474.03
755.679	24362.85
756.017	24313.13
756.355	24299.12
756.693	24196.98
757.031	24198.56
757.368	23950.2
757.706	24039.92
758.044	23936.64
758.381	23942.07
758.719	23850.77
759.056	23802.64
759.394	23848.74
759.731	23618.23
