Data from hue_290_FLMS001491_00032.txt Node
Date: Tue Feb 07 15:52:39 GMT 2017
User: dcchb
Spectrometer: FLMS00149
Trigger mode: 0
Integration Time (sec): 2.000000E-2
Scans to average: 10
Electric dark correction enabled: true
Nonlinearity correction enabled: false
Boxcar width: 0
XAxis mode: Wavelengths
Number of Pixels in Spectrum: 2048
>>>>>Begin Spectral Data<<<<<
341.393	-23.86
341.776	-23.86
342.16	-23.86
342.543	-69.96
342.927	-74.48
343.31	-66.34
343.693	-66.79
344.077	-74.25
344.46	-38.54
344.843	-47.58
345.226	-55.72
345.61	-48.26
345.993	-17.53
346.376	-22.5
346.759	13.88
347.142	30.15
347.525	28.57
347.908	69.48
348.291	88.68
348.674	97.72
349.057	109.02
349.44	123.03
349.823	137.5
350.206	145.86
350.588	169.36
350.971	200.32
351.354	234.67
351.737	220.66
352.119	224.27
352.502	250.26
352.884	264.72
353.267	273.76
353.65	297.49
354.032	291.84
354.414	286.87
354.797	285.97
355.179	300.43
355.562	325.74
355.944	307.44
356.326	306.53
356.709	293.2
357.091	319.64
357.473	301.79
357.855	319.64
358.238	327.77
358.62	327.1
359.002	328
359.384	320.09
359.766	316.25
360.148	323.48
360.53	311.5
360.912	329.81
361.294	351.95
361.676	316.25
362.057	292.29
362.439	314.67
362.821	323.25
363.203	316.7
363.584	308.34
363.966	299.3
364.348	311.73
364.729	316.25
365.111	329.13
365.493	318.28
365.874	320.77
366.256	314.44
366.637	312.86
367.019	297.04
367.4	310.37
367.781	314.21
368.163	310.6
368.544	306.53
368.925	302.92
369.306	302.01
369.688	304.27
370.069	288.23
370.45	302.46
370.831	288.23
371.212	296.81
371.593	299.75
371.974	311.5
372.355	311.5
372.736	300.2
373.117	290.49
373.498	311.05
373.879	325.29
374.26	302.46
374.641	290.03
375.021	302.46
375.402	302.69
375.783	323.71
376.163	312.86
376.544	308.34
376.925	313.54
377.305	305.63
377.686	318.73
378.066	334.1
378.447	312.18
378.827	333.2
379.208	335.23
379.588	332.75
379.968	312.86
380.349	299.07
380.729	322.12
381.109	323.71
381.489	343.37
381.87	330.94
382.25	319.41
382.63	323.03
383.01	333.88
383.39	339.75
383.77	336.14
384.15	322.12
384.53	326.87
384.91	341.11
385.29	337.04
385.67	334.1
386.049	354.44
386.429	328
386.809	351.05
387.189	360.77
387.568	360.99
387.948	359.64
388.328	347.66
388.707	353.99
389.087	337.94
389.466	347.66
389.846	340.43
390.225	351.95
390.605	356.93
390.984	365.29
391.363	347.89
391.743	379.3
392.122	356.7
392.501	364.38
392.881	387.21
393.26	368.45
393.639	352.63
394.018	363.93
394.397	389.02
394.776	376.59
395.155	387.21
395.534	364.84
395.913	377.04
396.292	367.09
396.671	386.98
397.05	391.28
397.429	380.2
397.808	382.91
398.186	406.87
398.565	385.63
398.944	403.03
399.323	383.37
399.701	412.29
400.08	399.86
400.458	410.94
400.837	412.07
401.215	403.93
401.594	412.29
401.972	404.16
402.351	409.35
402.729	409.35
403.107	412.29
403.486	421.56
403.864	412.97
404.242	418.17
404.62	427.88
404.999	449.35
405.377	447.32
405.755	441.22
406.133	434.44
406.511	457.26
406.889	466.08
407.267	462.69
407.645	473.31
408.023	475.11
408.401	477.37
408.779	463.36
409.156	510.59
409.534	485.96
409.912	499.07
410.29	492.06
410.667	523.02
411.045	506.53
411.422	513.53
411.8	498.62
412.178	512.18
412.555	545.62
412.933	551.5
413.31	569.35
413.687	542.68
414.065	552.63
414.442	584.04
414.819	571.38
415.197	580.42
415.574	591.5
415.951	596.02
416.328	630.59
416.705	602.79
417.082	634.66
417.46	648.9
417.837	630.59
418.214	666.3
418.591	661.78
418.967	666.75
419.344	695.45
419.721	702.68
420.098	689.8
420.475	711.72
420.852	702.91
421.228	694.32
421.605	718.95
421.982	720.76
422.358	742
422.735	744.71
423.111	734.77
423.488	749.23
423.864	777.25
424.241	795.33
424.617	769.34
424.994	797.37
425.37	800.76
425.746	787.2
426.123	827.42
426.499	819.06
426.875	839.17
427.251	850.7
427.627	883.47
428.003	910.58
428.379	874.2
428.756	890.92
429.132	904.71
429.507	902.67
429.883	908.55
430.259	933.18
430.635	939.06
431.011	961.88
431.387	948.77
431.763	960.07
432.138	982.22
432.514	1032.84
432.89	1020.86
433.265	1027.19
433.641	1045.95
434.016	1058.83
434.392	1085.95
434.767	1089.56
435.143	1113.74
435.518	1082.78
435.894	1122.1
436.269	1116.91
436.644	1137.24
437.02	1139.73
437.395	1167.53
437.77	1219.05
438.145	1194.19
438.52	1214.53
438.895	1227.41
439.271	1216.34
439.646	1229.67
440.021	1249.56
440.395	1274.64
440.77	1256.56
441.145	1267.18
441.52	1296.11
441.895	1277.35
442.27	1309.44
442.645	1298.6
443.019	1340.4
443.394	1323.23
443.769	1318.93
444.143	1332.49
444.518	1347.41
444.892	1367.97
445.267	1348.76
445.641	1349.67
446.016	1375.43
446.39	1373.85
446.764	1389.89
447.139	1381.98
447.513	1395.32
447.887	1372.49
448.262	1388.99
448.636	1432.38
449.01	1424.47
449.384	1405.71
449.758	1448.42
450.132	1459.5
450.506	1443.9
450.88	1475.09
451.254	1449.78
451.628	1471.02
452.002	1506.95
452.376	1518.03
452.75	1510.34
453.123	1496.78
453.497	1499.72
453.871	1556.67
454.244	1539.72
454.618	1561.41
454.992	1594.18
455.365	1585.82
455.739	1623.78
456.112	1620.17
456.486	1670.79
456.859	1635.31
457.232	1643.9
457.606	1633.5
457.979	1654.97
458.352	1694.74
458.725	1705.14
459.099	1728.87
459.472	1746.72
459.845	1748.3
460.218	1748.53
460.591	1777.68
460.964	1759.15
461.337	1786.04
461.71	1804.57
462.083	1848.41
462.456	1862.2
462.829	1838.92
463.201	1859.94
463.574	1877.56
463.947	1891.12
464.32	1949.65
464.692	1934.06
465.065	1944.68
465.438	1946.94
465.81	1972.7
466.183	2001.18
466.555	2028.29
466.928	2032.36
467.3	2004.34
467.672	2056.09
468.045	2084.79
468.417	2128.18
468.789	2114.62
469.161	2131.12
469.534	2166.37
469.906	2202.75
470.278	2211.79
470.65	2194.17
471.022	2220.61
471.394	2281.39
471.766	2294.73
472.138	2322.52
472.51	2341.96
472.882	2366.59
473.253	2385.8
473.625	2409.53
473.997	2450.43
474.369	2475.06
474.74	2448.4
475.112	2490.43
475.484	2556.87
475.855	2586.02
476.227	2555.06
476.598	2622.85
476.97	2665.57
477.341	2675.06
477.713	2744.21
478.084	2715.96
478.455	2778.56
478.827	2805.22
479.198	2837.76
479.569	2871.89
479.94	2911.43
480.311	2899.23
480.682	2969.06
481.053	2987.59
481.424	3030.98
481.795	3074.59
482.166	3110.3
482.537	3145.1
482.908	3194.14
483.279	3207.92
483.65	3218.55
484.021	3299.22
484.391	3343.29
484.762	3334.7
485.133	3377.64
485.503	3419.9
485.874	3449.73
486.244	3489.5
486.615	3529.95
486.985	3518.2
487.356	3599.78
487.726	3628.7
488.097	3673.67
488.467	3644.3
488.837	3722.49
489.207	3776.04
489.578	3814.91
489.948	3817.63
490.318	3875.93
490.688	3876.38
491.058	3923.84
491.428	3964.29
491.798	3963.61
492.168	4027.34
492.538	4065.3
492.908	4072.31
493.278	4157.5
493.648	4157.05
494.017	4168.8
494.387	4209.48
494.757	4213.55
495.126	4247.9
495.496	4271.17
495.866	4304.84
496.235	4313.21
496.605	4313.88
496.974	4357.72
497.344	4403.37
497.713	4396.14
498.082	4416.93
498.452	4436.59
498.821	4468.23
499.19	4490.83
499.559	4526.76
499.928	4530.6
500.298	4549.58
500.667	4615.34
501.036	4569.7
501.405	4650.82
501.774	4567.21
502.143	4664.16
502.512	4657.6
502.88	4663.03
503.249	4670.71
503.618	4755
503.987	4721.78
504.356	4729.24
504.724	4767.21
505.093	4775.57
505.462	4796.13
505.83	4782.35
506.199	4831.61
506.567	4851.72
506.936	4812.85
507.304	4898.28
507.672	4916.35
508.041	4896.69
508.409	4970.82
508.777	4962.23
509.145	4969.69
509.514	4997.93
509.882	5015.33
510.25	5020.53
510.618	5044.49
510.986	5062.56
511.354	5122.45
511.722	5126.07
512.09	5049.46
512.458	5091.72
512.826	5122.22
513.193	5138.49
513.561	5144.37
513.929	5177.59
514.297	5195.44
514.664	5259.62
515.032	5281.09
515.4	5303.24
515.767	5268.21
516.135	5236.35
516.502	5244.48
516.869	5365.61
517.237	5380.52
517.604	5381.65
517.972	5374.19
518.339	5346.62
518.706	5313.41
519.073	5404.48
519.44	5401.76
519.808	5441.99
520.175	5395.21
520.542	5461.2
520.909	5496.68
521.276	5498.26
521.643	5490.35
522.009	5519.28
522.376	5586.84
522.743	5590.01
523.11	5599.05
523.477	5653.06
523.843	5643.79
524.21	5717.91
524.577	5708.88
524.943	5765.15
525.31	5759.95
525.676	5799.95
526.043	5809.21
526.409	5842.66
526.776	5840.4
527.142	5850.34
527.508	5875.65
527.874	5964.91
528.241	5932.37
528.607	5979.83
528.973	5949.32
529.339	5985.48
529.705	6073.84
530.071	6113.38
530.437	6065.02
530.803	6078.36
531.169	6108.64
531.535	6170.56
531.901	6190.67
532.267	6182.54
532.632	6208.07
532.998	6255.98
533.364	6252.14
533.73	6208.07
534.095	6299.82
534.461	6309.54
534.826	6331.46
535.192	6345.69
535.557	6342.53
535.923	6365.81
536.288	6384.79
536.653	6430.89
537.019	6388.86
537.384	6480.61
537.749	6475.41
538.114	6530.1
538.479	6526.48
538.845	6531.9
539.21	6514.5
539.575	6543.88
539.94	6584.56
540.305	6574.16
540.67	6601.96
541.034	6612.13
541.399	6628.63
541.764	6594.28
542.129	6671.11
542.494	6714.5
542.858	6793.59
543.223	6675.86
543.587	6740.26
543.952	6757.89
544.316	6786.14
544.681	6721.96
545.045	6803.08
545.41	6842.86
545.774	6852.57
546.138	6840.82
546.503	6901.84
546.867	6868.17
547.231	6936.64
547.595	6985
547.959	6980.48
548.324	6934.61
548.688	6978.67
549.052	6997.43
549.416	7042.4
549.779	7076.07
550.143	7019.35
550.507	7022.74
550.871	7035.39
551.235	7083.98
551.599	7138.44
551.962	7137.99
552.326	7035.85
552.689	7092.12
553.053	7175.96
553.417	7134.15
553.78	7236.97
554.143	7145.9
554.507	7247.59
554.87	7210.53
555.234	7280.81
555.597	7236.97
555.96	7280.59
556.323	7246.69
556.686	7326.91
557.05	7386.8
557.413	7442.84
557.776	7356.06
558.139	7425.21
558.502	7366.01
558.865	7416.85
559.228	7455.27
559.59	7443.52
559.953	7476.51
560.316	7579.33
560.679	7550.41
561.041	7598.09
561.404	7604.64
561.767	7655.26
562.129	7644.87
562.492	7691.2
562.854	7692.78
563.217	7678.77
563.579	7700.01
563.941	7780.69
564.304	7722.61
564.666	7767.58
565.028	7777.97
565.39	7804.19
565.753	7846.45
566.115	7965.54
566.477	7918.99
566.839	7934.13
567.201	8015.93
567.563	7920.12
567.925	7999.89
568.287	8020
568.648	8010.96
569.01	8051.86
569.372	8118.76
569.734	8094.35
570.095	8091.41
570.457	8196.27
570.819	8186.1
571.18	8163.05
571.542	8223.39
571.903	8271.29
572.265	8353.33
572.626	8371.18
572.987	8397.62
573.349	8471.97
573.71	8505.86
574.071	8498.41
574.432	8531.85
574.794	8646.2
575.155	8651.4
575.516	8657.27
575.877	8650.49
576.238	8714.9
576.599	8777.27
576.96	8886.64
577.32	8860.2
577.681	8978.62
578.042	8984.5
578.403	9041.9
578.763	9064.27
579.124	9135
579.485	9209.35
579.845	9257.93
580.206	9332.73
580.566	9404.6
580.927	9426.97
581.287	9537.25
581.648	9582.22
582.008	9639.62
582.368	9716.68
582.728	9861.31
583.089	9890.23
583.449	10038.03
583.809	10125.26
584.169	10311.47
584.529	10329.54
584.889	10422.65
585.249	10513.04
585.609	10619.71
585.969	10716.43
586.329	10884.78
586.688	11007.49
587.048	11105.8
587.408	11204.55
587.768	11294.49
588.127	11390.76
588.487	11531.55
588.846	11782.39
589.206	11820.58
589.565	11876.85
589.925	12099.89
590.284	12222.6
590.643	12295.14
591.003	12485.87
591.362	12636.15
591.721	12741.01
592.08	12747.79
592.44	13045.18
592.799	13230.94
593.158	13321.78
593.517	13470.48
593.876	13624.15
594.235	13722
594.593	13821.66
594.952	14083.12
595.311	14184.81
595.67	14319.27
596.029	14482.2
596.387	14601.52
596.746	14797.22
597.104	14885.58
597.463	14938.92
597.822	15041.29
598.18	15193.15
598.538	15390.2
598.897	15466.36
599.255	15483.08
599.613	15883.3
599.972	15807.82
600.33	16039.45
600.688	16027.25
601.046	16196.74
601.404	16396.96
601.762	16431.31
602.12	16620.45
602.478	16742.26
602.836	16918.3
603.194	16918.07
603.552	16971.4
603.91	16990.84
604.268	17187.9
604.625	17149.7
604.983	17325.07
605.341	17384.73
605.698	17502.46
606.056	17649.58
606.413	17780.2
606.771	17814.55
607.128	17902.23
607.485	17899.29
607.843	18066.74
608.2	18200.75
608.557	18264.7
608.914	18403
609.272	18518.03
609.629	18549.67
609.986	18747.85
610.343	18549.67
610.7	18770.9
611.057	18807.97
611.414	18913.05
611.771	18991.01
612.127	19067.62
612.484	19217.45
612.841	19299.25
613.198	19211.12
613.554	19333.15
613.911	19496.99
614.267	19511.45
614.624	19437.1
614.98	19679.58
615.337	19664.44
615.693	19725.23
616.05	19817.66
616.406	19828.5
616.762	19899.69
617.118	19897.43
617.475	20010.19
617.831	20022.62
618.187	20171.77
618.543	20127.71
618.899	20310.07
619.255	20279.34
619.611	20265.33
619.967	20369.96
620.323	20563.85
620.678	20412.22
621.034	20500.12
621.39	20511.2
621.746	20551.65
622.101	20780.8
622.457	20616.05
622.812	20625.55
623.168	20773.56
623.523	20785.77
623.879	20867.57
624.234	20693.34
624.589	20892.66
624.945	20923.16
625.3	20960
625.655	20824.86
626.01	20842.49
626.365	21009.72
626.72	20919.77
627.075	20915.71
627.43	20992.77
627.785	20983.73
628.14	21028.92
628.495	20991.64
628.85	21045.87
629.205	21023.05
629.559	21064.63
629.914	21083.39
630.269	21109.15
630.623	21049.71
630.978	20995.25
631.332	21066.89
631.687	21184.85
632.041	21113.89
632.396	21125.65
632.75	20918.42
633.104	21027.34
633.459	20969.94
633.813	20984.18
634.167	20902.15
634.521	20997.06
634.875	20899.89
635.229	21036.16
635.583	20891.07
635.937	20877.06
636.291	20810.17
636.645	20802.94
636.999	20798.65
637.352	20877.06
637.706	20756.62
638.06	20882.49
638.413	20922.49
638.767	20791.87
639.121	20818.76
639.474	20680.23
639.828	20688.59
640.181	20758.42
640.534	20766.33
640.888	20790.74
641.241	20742.38
641.594	20737.86
641.947	20757.07
642.301	20680.23
642.654	20916.84
643.007	20811.08
643.36	20747.8
643.713	20614.92
644.066	20809.5
644.419	20651.31
644.771	20509.16
645.124	20318.21
645.477	20315.72
645.83	20233.47
646.182	20154.82
646.535	20071.89
646.888	20040.25
647.24	20011.32
647.593	20128.61
647.945	20100.59
648.298	20005.67
648.65	19908.28
649.002	19927.48
649.355	20022.62
649.707	19981.72
650.059	20120.47
650.411	20483.63
650.763	20350.07
651.115	20549.39
651.467	20546.9
651.819	20550.74
652.171	20677.3
652.523	20543.29
652.875	20442.05
653.227	20455.38
653.578	20596.62
653.93	20594.13
654.282	20497.41
654.633	20431.88
654.985	20448.15
655.337	20562.5
655.688	20533.12
656.039	20562.5
656.391	20449.96
656.742	20477.3
657.094	20509.16
657.445	20526.34
657.796	20591.2
658.147	20497.64
658.498	20484.98
658.849	20590.29
659.2	20488.6
659.551	20512.55
659.902	20480.01
660.253	20508.94
660.604	20578.31
660.955	20498.09
661.306	20644.08
661.656	20609.95
662.007	20609.27
662.358	20505.1
662.708	20609.73
663.059	20639.1
663.409	20442.5
663.76	20629.16
664.11	20577.18
664.461	20639.78
664.811	20677.07
665.161	20694.7
665.511	20595.26
665.862	20650.63
666.212	20619.9
666.562	20711.42
666.912	20621.03
667.262	20546.9
667.612	20657.18
667.962	20675.71
668.312	20586.9
668.662	20677.97
669.011	20602.04
669.361	20573.12
669.711	20506.23
670.06	20546.68
670.41	20579.67
670.76	20480.46
671.109	20605.43
671.459	20550.52
671.808	20474.59
672.157	20527.24
672.507	20418.55
672.856	20407.25
673.205	20476.62
673.554	20534.93
673.904	20329.73
674.253	20567.24
674.602	20487.47
674.951	20090.64
675.3	20018.1
675.649	20487.7
675.998	20449.96
676.346	20462.39
676.695	20434.36
677.044	20200.92
677.393	20342.61
677.741	20347.81
678.09	20333.8
678.438	20249.96
678.787	20362.95
679.135	20326.12
679.484	20096.75
679.832	20296.51
680.181	20071.44
680.529	20150.53
680.877	20126.12
681.225	20080.25
681.573	20228.95
681.922	20051.78
682.27	19897.88
682.618	19990.99
682.966	19855.4
683.314	19984.88
683.661	19867.15
684.009	19719.35
684.357	19696.76
684.705	19688.17
685.053	19616.76
685.4	19747.6
685.748	19595.97
686.095	19558.45
686.443	19500.83
686.79	19477.55
687.138	19450.43
687.485	19463.99
687.832	19369.31
688.18	19419.25
688.527	19308.07
688.874	19298.8
689.221	19235.98
689.568	19087.28
689.915	19079.15
690.262	19160.5
690.609	19002.76
690.956	18897.91
691.303	18957.34
691.65	18849.77
691.997	18953.5
692.344	18782.88
692.69	18748.08
693.037	18700.85
693.383	18449.78
693.73	18670.79
694.077	18492.72
694.423	18498.14
694.769	18491.36
695.116	18243.46
695.462	18329.33
695.808	18183.58
696.155	18236
696.501	18076.46
696.847	18090.24
697.193	17946.97
697.539	17997.37
697.885	17848.67
698.231	17842.79
698.577	17809.35
698.923	17708.33
699.269	17606.19
699.614	17626.75
699.96	17570.26
700.306	17504.72
700.651	17387.66
700.997	17330.72
701.342	17299.98
701.688	17298.4
702.033	17166.65
702.379	17191.06
702.724	17104.06
703.069	17139.76
703.415	16913.1
703.76	16829.71
704.105	16988.8
704.45	16930.95
704.795	16773.67
705.14	16729.6
705.485	16750.62
705.83	16540
706.175	16568.25
706.52	16530.51
706.865	16498.87
707.209	16491.87
707.554	16351.53
707.899	16489.83
708.243	16387.92
708.588	16350.86
708.932	16189.05
709.277	16135.95
709.621	16118.55
709.966	16074.7
710.31	16095.04
710.654	15879.23
710.998	15961.26
711.342	15948.61
711.687	15935.95
712.031	15785.67
712.375	15784.09
712.719	15771.66
713.063	15779.57
713.407	15726.24
713.75	15677.43
714.094	15628.61
714.438	15593.36
714.782	15608.73
715.125	15460.94
715.469	15621.84
715.812	15518.33
716.156	15383.88
716.499	15371.67
716.843	15459.81
717.186	15343.42
717.53	15418.9
717.873	15357.21
718.216	15340.49
718.559	15272.92
718.902	15186.59
719.246	15215.29
719.589	15239.7
719.932	15161.28
720.275	15199.93
720.617	15175.07
720.96	15103.88
721.303	15064.79
721.646	15235.86
721.989	15041.06
722.331	15094.84
722.674	15048.29
723.016	14988.63
723.359	14971
723.701	14945.02
724.044	14973.94
724.386	14809.88
724.729	14933.72
725.071	14934.17
725.413	14919.48
725.755	14851.01
726.097	14850.33
726.439	14854.62
726.782	14759.94
727.124	14824.34
727.465	14798.81
727.807	14844.91
728.149	14820.5
728.491	14809.2
728.833	14788.86
729.175	14722.65
729.516	14631.58
729.858	14675.65
730.199	14703.89
730.541	14669.09
730.882	14747.28
731.224	14618.7
731.565	14589.77
731.906	14624.12
732.248	14624.35
732.589	14580.96
732.93	14591.58
733.271	14592.71
733.612	14536.44
733.953	14549.55
734.294	14607.85
734.635	14486.72
734.976	14623.22
735.317	14514.52
735.658	14532.82
735.999	14583.22
736.339	14544.35
736.68	14632.71
737.021	14609.43
737.361	14538.7
737.702	14618.7
738.042	14607.62
738.383	14514.29
738.723	14664.8
739.063	14465.03
739.404	14517.91
739.744	14558.59
740.084	14620.51
740.424	14493.28
740.764	14557.46
741.104	14648.53
741.444	14552.03
741.784	14546.84
742.124	14619.38
742.464	14622.54
742.804	14558.13
743.143	14643.78
743.483	14681.97
743.823	14653.27
744.162	14732.37
744.502	14706.6
744.841	14732.59
745.181	14801.07
745.52	14818.69
745.86	14845.36
746.199	14918.58
746.538	14941.4
746.877	14959.25
747.216	15069.08
747.556	14984.56
747.895	15051.68
748.234	15060.27
748.573	15000.38
748.911	15133.71
749.25	15196.76
749.589	15259.58
749.928	15412.12
750.267	15475.4
750.605	15504.78
750.944	15551.55
751.283	15506.81
751.621	15662.51
751.96	15684.43
752.298	15820.47
752.636	15864.54
752.975	15899.34
753.313	15985.44
753.651	16149.28
753.989	16167.58
754.327	16287.13
754.666	16342.72
755.004	16456.39
755.342	16600.11
755.679	16688.7
756.017	16755.82
756.355	16861.8
756.693	17056.83
757.031	17112.64
757.368	17175.24
757.706	17318.74
758.044	17313.77
758.381	17458.4
758.719	17539.75
759.056	17667.43
759.394	17756.92
759.731	17747.88
760.068	17851.38
