Data from hue_100_FLMS001491_00061.txt Node
Date: Tue Feb 07 17:03:29 GMT 2017
User: dcchb
Spectrometer: FLMS00149
Trigger mode: 0
Integration Time (sec): 2.000000E-2
Scans to average: 10
Electric dark correction enabled: true
Nonlinearity correction enabled: false
Boxcar width: 0
XAxis mode: Wavelengths
Number of Pixels in Spectrum: 2048
>>>>>Begin Spectral Data<<<<<
341.393	-21.44
341.776	-21.44
342.16	-21.44
342.543	-55.11
342.927	-72.51
343.31	-57.37
343.693	-76.81
344.077	-66.18
344.46	-69.12
344.843	-63.7
345.226	-43.59
345.61	-27.99
345.993	-20.54
346.376	9.29
346.759	3.42
347.142	22.85
347.525	37.09
347.908	73.25
348.291	75.51
348.674	74.15
349.057	129.74
349.44	149.85
349.823	134.49
350.206	177.42
350.588	199.12
350.971	203.86
351.354	226.91
351.737	253.35
352.119	224.43
352.502	271.43
352.884	270.98
353.267	303.07
353.65	290.42
354.032	322.96
354.414	318.66
354.797	300.36
355.179	356.18
355.562	335.16
355.944	345.33
356.326	341.71
356.709	339
357.091	346.91
357.473	340.13
357.855	362.05
358.238	342.17
358.62	332.22
359.002	332.9
359.384	329.51
359.766	320.92
360.148	342.39
360.53	343.97
360.912	333.13
361.294	324.31
361.676	343.3
362.057	314.82
362.439	336.06
362.821	350.3
363.203	323.86
363.584	322.28
363.966	335.39
364.348	325.44
364.729	322.51
365.111	353.92
365.493	305.56
365.874	356.63
366.256	311.21
366.637	318.66
367.019	309.17
367.4	310.08
367.781	333.8
368.163	326.57
368.544	333.35
368.925	317.99
369.306	330.19
369.688	337.42
370.069	318.21
370.45	331.77
370.831	316.18
371.212	336.74
371.593	317.53
371.974	329.06
372.355	311.21
372.736	324.99
373.117	311.88
373.498	318.89
373.879	329.74
374.26	349.85
374.641	321.83
375.021	327.48
375.402	319.79
375.783	318.21
376.163	326.8
376.544	323.18
376.925	343.97
377.305	327.48
377.686	335.61
378.066	346.91
378.447	336.29
378.827	322.73
379.208	346.91
379.588	331.09
379.968	346.23
380.349	348.49
380.729	339
381.109	344.43
381.489	334.71
381.87	350.08
382.25	365.22
382.63	355.95
383.01	348.95
383.39	355.95
383.77	359.34
384.15	345.1
384.53	357.08
384.91	353.01
385.29	359.11
385.67	362.05
386.049	373.8
386.429	361.15
386.809	344.88
387.189	348.04
387.568	361.37
387.948	370.19
388.328	382.17
388.707	354.37
389.087	376.06
389.466	374.03
389.846	391.88
390.225	376.06
390.605	379
390.984	369.96
391.363	376.52
391.743	390.07
392.122	398.21
392.501	361.6
392.881	390.98
393.26	411.54
393.639	390.75
394.018	387.14
394.397	382.62
394.776	397.31
395.155	398.89
395.534	386.68
395.913	402.73
396.292	409.73
396.671	413.12
397.05	406.8
397.429	399.79
397.808	404.76
398.186	400.7
398.565	393.46
398.944	415.16
399.323	423.07
399.701	434.14
400.08	419
400.458	418.1
400.837	402.05
401.215	427.36
401.594	415.38
401.972	431.66
402.351	406.8
402.729	430.53
403.107	436.63
403.486	441.82
403.864	422.84
404.242	447.25
404.62	438.21
404.999	425.78
405.377	447.7
405.755	425.1
406.133	430.3
406.511	461.49
406.889	444.54
407.267	450.41
407.645	450.19
408.023	426.46
408.401	489.96
408.779	468.94
409.156	442.73
409.534	475.95
409.912	482.5
410.29	484.08
410.667	499.45
411.045	487.25
411.422	510.07
411.8	499
412.178	509.17
412.555	500.35
412.933	510.52
413.31	511.65
413.687	496.06
414.065	533.12
414.442	529.05
414.819	534.7
415.197	529.96
415.574	528.83
415.951	527.25
416.328	548.94
416.705	531.99
417.082	546.45
417.46	553.91
417.837	548.04
418.214	566.12
418.591	560.47
418.967	551.2
419.344	564.99
419.721	552.78
420.098	563.4
420.475	562.73
420.852	577.19
421.228	578.54
421.605	570.86
421.982	577.19
422.358	590.52
422.735	594.81
423.111	601.59
423.488	599.56
423.864	610.63
424.241	611.99
424.617	619.9
424.994	620.8
425.37	639.11
425.746	607.7
426.123	629.16
426.499	630.97
426.875	623.29
427.251	649.28
427.627	658.09
428.003	667.36
428.379	659.67
428.756	667.36
429.132	665.1
429.507	669.84
429.883	688.6
430.259	680.91
430.635	665.32
431.011	720.24
431.387	698.09
431.763	721.59
432.138	747.81
432.514	720.24
432.89	733.34
433.265	738.54
433.641	748.71
434.016	749.16
434.392	764.75
434.767	768.14
435.143	764.3
435.518	779.67
435.894	763.62
436.269	806.79
436.644	798.88
437.02	806.33
437.395	821.93
437.77	821.25
438.145	845.43
438.52	842.72
438.895	843.17
439.271	843.17
439.646	876.62
440.021	850.18
440.395	866.67
440.77	861.7
441.145	875.71
441.52	869.61
441.895	873.9
442.27	893.79
442.645	903.28
443.019	908.25
443.394	886.78
443.769	914.13
444.143	905.09
444.518	929.95
444.892	942.83
445.267	939.21
445.641	966.33
446.016	966.78
446.39	960.91
446.764	951.19
447.139	974.47
447.513	969.72
447.887	961.58
448.262	975.82
448.636	971.08
449.01	988.25
449.384	989.38
449.758	1011.08
450.132	1014.46
450.506	1032.09
450.88	1040.9
451.254	1045.2
451.628	1066.21
452.002	1082.71
452.376	1072.77
452.75	1074.8
453.123	1088.81
453.497	1078.42
453.871	1112.77
454.244	1145.99
454.618	1140.11
454.992	1120.9
455.365	1166.78
455.739	1166.55
456.112	1181.69
456.486	1167.68
456.859	1236.38
457.232	1240
457.606	1219.66
457.979	1277.73
458.352	1255.36
458.725	1281.8
459.099	1297.85
459.472	1301.01
459.845	1361.8
460.218	1355.92
460.591	1364.29
460.964	1360.22
461.337	1397.96
461.71	1420.56
462.083	1424.85
462.456	1441.8
462.829	1460.33
463.201	1496.26
463.574	1480.44
463.947	1502.36
464.32	1532.19
464.692	1545.98
465.065	1568.35
465.438	1626.43
465.81	1630.04
466.183	1655.13
466.555	1698.74
466.928	1686.76
467.3	1698.51
467.672	1723.6
468.045	1788.68
468.417	1800.21
468.789	1804.5
469.161	1861.67
469.534	1891.73
469.906	1966.53
470.278	1943.25
470.65	1975.34
471.022	2014.21
471.394	2083.82
471.766	2095.34
472.138	2130.82
472.51	2172.17
472.882	2238.39
473.253	2299.4
473.625	2321.32
473.997	2374.43
474.369	2426.41
474.74	2466.63
475.112	2524.71
475.484	2564.25
475.855	2647.87
476.227	2711.82
476.598	2794.31
476.97	2854.42
477.341	2915.66
477.713	2998.82
478.084	3071.13
478.455	3191.36
478.827	3262.09
479.198	3350
479.569	3406.27
479.94	3523.1
480.311	3577.11
480.682	3673.15
481.053	3858.01
481.424	3929.19
481.795	3995.63
482.166	4091.9
482.537	4220.71
482.908	4339.35
483.279	4446.92
483.65	4604.88
484.021	4722.84
484.391	4841.26
484.762	4967.36
485.133	5050.97
485.503	5152.21
485.874	5421.35
486.244	5523.95
486.615	5665.64
486.985	5767.11
487.356	5975.24
487.726	6077.61
488.097	6238.96
488.467	6334.32
488.837	6570.7
489.207	6749.91
489.578	6868.77
489.948	7045.72
490.318	7231.48
490.688	7356.9
491.058	7551.47
491.428	7720.96
491.798	7857.22
492.168	8098.8
492.538	8206.37
492.908	8375.63
493.278	8616.07
493.648	8661.72
494.017	8892
494.387	9014.48
494.757	9181.48
495.126	9299.9
495.496	9474.58
495.866	9592.54
496.235	9817.85
496.605	9883.16
496.974	10115.24
497.344	10213.55
497.713	10315.69
498.082	10545.51
498.452	10757.26
498.821	10839.29
499.19	10870.93
499.559	11032.73
499.928	11151.15
500.298	11331.48
500.667	11482.44
501.036	11594.98
501.405	11759.72
501.774	11829.77
502.143	11957.23
502.512	12034.97
502.88	12170.78
503.249	12184.11
503.618	12406.71
503.987	12478.8
504.356	12550.43
504.724	12673.37
505.093	12795.62
505.462	12900.03
505.83	12948.16
506.199	13036.75
506.567	13270.87
506.936	13234.03
507.304	13386.12
507.672	13502.5
508.041	13577.3
508.409	13684.87
508.777	13818.2
509.145	13905.88
509.514	13877.63
509.882	13964.41
510.25	14069.26
510.618	14264.29
510.986	14231.97
511.354	14321.23
511.722	14455.24
512.09	14529.36
512.458	14523.49
512.826	14740.66
513.193	14674.22
513.561	14749.92
513.929	14790.37
514.297	15006.64
514.664	15054.1
515.032	15075.34
515.4	15165.51
515.767	15085.73
516.135	15135
516.502	15149.69
516.869	15360.98
517.237	15341.77
517.604	15314.43
517.972	15496.12
518.339	15580.64
518.706	15621.31
519.073	15580.86
519.44	15595.55
519.808	15764.13
520.175	15717.81
520.542	15841.42
520.909	15867.18
521.276	15818.37
521.643	15942.43
522.009	15979.5
522.376	16044.8
522.743	16154.86
523.11	16157.34
523.477	16252.26
523.843	16350.56
524.21	16403.44
524.577	16516.88
524.943	16506.94
525.31	16479.14
525.676	16560.04
526.043	16652.02
526.409	16636.43
526.776	16746.93
527.142	16793.26
527.508	16731.11
527.874	16863.54
528.241	16840.49
528.607	16823.31
528.973	16950.32
529.339	16822.64
529.705	17030.54
530.071	17010.2
530.437	17069.64
530.803	16967.49
531.169	17132.23
531.535	16925.46
531.901	16947.15
532.267	17067.6
532.632	17037.32
532.998	17046.13
533.364	17068.51
533.73	17074.83
534.095	17102.18
534.461	17023.99
534.826	17109.63
535.192	17021.05
535.557	17095.62
535.923	17050.2
536.288	17016.98
536.653	16984.67
537.019	16888.85
537.384	16916.19
537.749	16908.51
538.114	16883.65
538.479	16838.91
538.845	16791.45
539.21	16700.83
539.575	16772.24
539.94	16775.86
540.305	16776.31
540.67	16621.06
541.034	16710.32
541.399	16638.01
541.764	16599.59
542.129	16541.29
542.494	16553.72
542.858	16593.72
543.223	16496.32
543.587	16504.45
543.952	16413.16
544.316	16385.36
544.681	16269.88
545.045	16361.86
545.41	16367.28
545.774	16320.5
546.138	16217
546.503	16185.14
546.867	16077.57
547.231	16175.42
547.595	16127.51
547.959	16205.25
548.324	16032.38
548.688	15989.21
549.052	16059.94
549.416	15960.51
549.779	15887.07
550.143	15867.86
550.507	15857.24
550.871	15854.75
551.235	15749.67
551.599	15932.49
551.962	15810.23
552.326	15827.41
552.689	15838.93
553.053	15660.63
553.417	15692.05
553.78	15730.01
554.143	15634.42
554.507	15640.07
554.87	15580.64
555.234	15642.78
555.597	15522.78
555.96	15562.1
556.323	15538.15
556.686	15447.53
557.05	15618.15
557.413	15514.87
557.776	15489.56
558.139	15495.89
558.502	15521.88
558.865	15501.99
559.228	15502.9
559.59	15561.65
559.953	15492.5
560.316	15578.6
560.679	15565.04
561.041	15610.69
561.404	15630.8
561.767	15588.54
562.129	15490.92
562.492	15586.74
562.854	15538.6
563.217	15562.1
563.579	15609.11
563.941	15640.07
564.304	15615.89
564.666	15622.22
565.028	15615.21
565.39	15629.9
565.753	15638.71
566.115	15636.68
566.477	15638.49
566.839	15750.12
567.201	15841.42
567.563	15664.48
567.925	15768.88
568.287	15818.37
568.648	15814.75
569.01	15897.92
569.372	15868.54
569.734	15801.87
570.095	15849.33
570.457	15862.21
570.819	15944.92
571.18	15846.39
571.542	15840.97
571.903	15861.31
572.265	15927.52
572.626	15950.57
572.987	15998.48
573.349	15968.65
573.71	16037.12
574.071	16008.19
574.432	16106.05
574.794	16134.29
575.155	16063.56
575.516	16062.88
575.877	16033.5
576.238	16069.89
576.599	16095.88
576.96	16184.01
577.32	16083.45
577.681	16126.16
578.042	16140.62
578.403	16107.4
578.763	16095.88
579.124	16026.27
579.485	16050.45
579.845	16152.15
580.206	16136.1
580.566	16066.95
580.927	16127.97
581.287	16117.34
581.648	16140.62
582.008	16115.31
582.368	16102.43
582.728	16148.08
583.089	16090
583.449	16054.3
583.809	16031.47
584.169	16043.22
584.529	16083.45
584.889	16177
585.249	16039.61
585.609	16031.47
585.969	16136.33
586.329	15967.29
586.688	16062.2
587.048	15947.86
587.408	16011.58
587.768	15962.55
588.127	15887.75
588.487	15835.09
588.846	16043.9
589.206	15944.47
589.565	15871.48
589.925	16036.89
590.284	15915.32
590.643	15932.72
591.003	15925.26
591.362	15942.66
591.721	15993.51
592.08	15907.86
592.44	15891.14
592.799	15891.81
593.158	15858.37
593.517	15908.54
593.876	15826.73
594.235	15883.23
594.593	15889.1
594.952	15758.94
595.311	15711.03
595.67	15813.85
596.029	15843.91
596.387	15857.24
596.746	15875.09
597.104	15824.24
597.463	15776.34
597.822	15811.14
598.18	15786.28
598.538	15698.15
598.897	15861.98
599.255	15608.66
599.613	15907.86
599.972	15714.87
600.33	15759.84
600.688	15694.3
601.046	15738.82
601.404	15789.9
601.762	15724.59
602.12	15825.37
602.478	15859.72
602.836	15845.26
603.194	15791.93
603.552	15715.77
603.91	15676.68
604.268	15794.87
604.625	15710.35
604.983	15809.33
605.341	15706.51
605.698	15741.08
606.056	15846.17
606.413	15781.08
606.771	15868.99
607.128	15824.47
607.485	15754.87
607.843	15805.71
608.2	15854.07
608.557	15843.23
608.914	15921.64
609.272	15866.28
609.629	15910.8
609.986	16033.5
610.343	15859.05
610.7	16060.4
611.057	15960.06
611.414	16056.56
611.771	15993.05
612.127	16038.02
612.484	16012.94
612.841	16063.33
613.198	15891.14
613.554	15956.9
613.911	16113.05
614.267	16091.58
614.624	15966.39
614.98	15963.68
615.337	16143.11
615.693	16058.14
616.05	16056.1
616.406	16117.12
616.762	16062.88
617.118	16012.04
617.475	16147.85
617.831	16170
618.187	16165.7
618.543	16131.81
618.899	16240.96
619.255	16294.52
619.611	16247.06
619.967	16276.21
620.323	16332.71
620.678	16197.12
621.034	16152.6
621.39	16206.83
621.746	16174.29
622.101	16365.25
622.457	16195.53
622.812	16239.6
623.168	16315.31
623.523	16271.92
623.879	16314.18
624.234	16236.44
624.589	16221.07
624.945	16249.54
625.3	16299.03
625.655	16259.26
626.01	16248.41
626.365	16292.48
626.72	16209.55
627.075	16225.82
627.43	16198.25
627.785	16178.81
628.14	16172.26
628.495	16207.51
628.85	16259.04
629.205	16190.34
629.559	16234.63
629.914	16138.81
630.269	16122.77
630.623	16128.42
630.978	16049.32
631.332	16089.77
631.687	16133.16
632.041	16013.62
632.396	16187.63
632.75	16006.61
633.104	16042.54
633.459	16050.23
633.813	15973.85
634.167	15988.76
634.521	15984.47
634.875	15979.5
635.229	16000.96
635.583	15880.51
635.937	15871.25
636.291	15918.25
636.645	15846.39
636.999	15927.97
637.352	15846.17
637.706	15775.66
638.06	15855.88
638.413	15814.98
638.767	15810.01
639.121	15747.64
639.474	15549
639.828	15664.93
640.181	15708.54
640.534	15662.67
640.888	15665.38
641.241	15650.92
641.594	15528.21
641.947	15621.54
642.301	15509.68
642.654	15610.92
643.007	15693.4
643.36	15558.72
643.713	15591.93
644.066	15560.07
644.419	15489.79
644.771	15474.42
645.124	15302.22
645.477	15283.24
645.83	15167.54
646.182	15187.2
646.535	15184.94
646.888	15017.49
647.24	15035.11
647.593	15087.32
647.945	15087.09
648.298	14994.44
648.65	15028.11
649.002	14959.63
649.355	15043.7
649.707	15009.13
650.059	15035.57
650.411	15272.17
650.763	15228.33
651.115	15485.27
651.467	15411.37
651.819	15315.56
652.171	15307.65
652.523	15282.56
652.875	15270.59
653.227	15170.48
653.578	15344.94
653.93	15360.08
654.282	15252.51
654.633	15208.89
654.985	15233.98
655.337	15295.22
655.688	15375.22
656.039	15443.01
656.391	15248.67
656.742	15327.76
657.094	15412.28
657.445	15376.57
657.796	15384.71
658.147	15376.35
658.498	15310.13
658.849	15451.15
659.2	15409.57
659.551	15328.66
659.902	15458.83
660.253	15348.1
660.604	15439.62
660.955	15248.44
661.306	15381.09
661.656	15310.13
662.007	15365.95
662.358	15377.93
662.708	15460.19
663.059	15423.35
663.409	15320.98
663.76	15438.27
664.11	15381.54
664.461	15423.13
664.811	15429.45
665.161	15434.88
665.511	15450.24
665.862	15363.69
666.212	15530.24
666.562	15431.26
666.912	15436.91
667.262	15388.32
667.612	15429
667.962	15548.77
668.312	15490.24
668.662	15451.83
669.011	15399.17
669.361	15413.86
669.711	15413.18
670.06	15352.17
670.41	15339.96
670.76	15296.58
671.109	15430.36
671.459	15396.69
671.808	15339.74
672.157	15338.16
672.507	15211.38
672.856	15277.14
673.205	15311.49
673.554	15331.15
673.904	15227.42
674.253	15336.8
674.602	15311.94
674.951	15048.9
675.3	15013.64
675.649	15182
675.998	15113.76
676.346	15175.67
676.695	15170.48
677.044	15102.68
677.393	15170.25
677.741	15149.69
678.09	15170.25
678.438	15039.86
678.787	15133.87
679.135	15157.14
679.484	14929.35
679.832	15088.67
680.181	14940.88
680.529	15013.87
680.877	14950.82
681.225	14998.28
681.573	15038.95
681.922	14867.21
682.27	14854.78
682.618	14887.09
682.966	14715.8
683.314	14808.68
683.661	14807.32
684.009	14672.64
684.357	14693.88
684.705	14631.96
685.053	14640.32
685.4	14639.42
685.748	14571.4
686.095	14575.46
686.443	14445.98
686.79	14363.27
687.138	14461.12
687.485	14427.9
687.832	14410.5
688.18	14384.51
688.527	14178.86
688.874	14307.22
689.221	14136.15
689.568	14285.98
689.915	14208.02
690.262	14153.1
690.609	14027
690.956	14048.25
691.303	14010.06
691.65	13912.43
691.997	13917.18
692.344	13888.7
692.69	13835.14
693.037	13831.08
693.383	13683.06
693.73	13724.87
694.077	13733.68
694.423	13578.43
694.769	13516.28
695.116	13504.98
695.462	13430.64
695.808	13436.96
696.155	13420.92
696.501	13366
696.847	13305.89
697.193	13218.44
697.539	13179.79
697.885	13112
698.231	13146.58
698.577	13082.62
698.923	13111.1
699.269	13061.83
699.614	12900.25
699.96	12872.91
700.306	12925.56
700.651	12844.44
700.997	12771.9
701.342	12711.33
701.688	12669.98
702.033	12712.91
702.379	12626.14
702.724	12550.88
703.069	12590.21
703.415	12365.35
703.76	12422.53
704.105	12413.49
704.45	12407.61
704.795	12304.56
705.14	12260.27
705.485	12192.93
705.83	12170.33
706.175	12157.67
706.52	12094.4
706.865	12089.2
707.209	12099.6
707.554	11943.89
707.899	11928.75
708.243	11939.15
708.588	11879.04
708.932	11816.44
709.277	11808.31
709.621	11790
709.966	11692.83
710.31	11776.44
710.654	11596.11
710.998	11670
711.342	11708.87
711.687	11581.87
712.031	11591.14
712.375	11544.81
712.719	11497.35
713.063	11566.5
713.407	11541.65
713.75	11500.97
714.094	11425.04
714.438	11397.69
714.782	11464.59
715.125	11334.19
715.469	11343.23
715.812	11252.84
716.156	11200.19
716.499	11272.5
716.843	11206.06
717.186	11139.4
717.53	11278.83
717.873	11242.67
718.216	11222.11
718.559	11070.02
718.902	11102.56
719.246	11191.15
719.589	11029.34
719.932	11014.2
720.275	11033.64
720.617	11049.23
720.96	10983.02
721.303	11036.8
721.646	11065.73
721.989	10943.02
722.331	10987.31
722.674	10959.97
723.016	10943.47
723.359	10897.82
723.701	10991.38
724.044	10815.11
724.386	10857.14
724.729	10877.93
725.071	10943.7
725.413	10889.01
725.755	10899.85
726.097	10815.79
726.439	10790.03
726.782	10739.63
727.124	10835.22
727.465	10749.58
727.807	10786.64
728.149	10763.81
728.491	10746.64
728.833	10862.34
729.175	10743.25
729.516	10761.33
729.858	10706.19
730.199	10753.87
730.541	10730.82
730.882	10711.84
731.224	10749.58
731.565	10677.49
731.906	10689.24
732.248	10738.05
732.589	10644.72
732.93	10633.87
733.271	10693.53
733.612	10729.46
733.953	10759.29
734.294	10665.51
734.635	10665.74
734.976	10712.06
735.317	10702.35
735.658	10704.61
735.999	10745.06
736.339	10668.22
736.68	10751.84
737.021	10725.17
737.361	10727.43
737.702	10751.84
738.042	10699.41
738.383	10696.24
738.723	10728.33
739.063	10749.8
739.404	10839.29
739.744	10754.1
740.084	10759.52
740.424	10786.19
740.764	10813.3
741.104	10878.39
741.444	10824.15
741.784	10880.87
742.124	10881.78
742.464	10883.81
742.804	10887.88
743.143	10947.76
743.483	10998.84
743.823	10937.59
744.162	11003.13
744.502	11073.86
744.841	11062.11
745.181	11109.11
745.52	11147.98
745.86	11187.76
746.199	11213.97
746.538	11285.16
746.877	11420.74
747.216	11410.12
747.556	11470.46
747.895	11542.32
748.234	11582.32
748.573	11710.23
748.911	11650.57
749.25	11766.05
749.589	11827.97
749.928	11973.72
750.267	12013.72
750.605	12117.45
750.944	12145.7
751.283	12209.65
751.621	12389.31
751.96	12443.32
752.298	12533.03
752.636	12710.2
752.975	12718.11
753.313	12840.14
753.651	13029.06
753.989	13066.8
754.327	13220.47
754.666	13240.58
755.004	13494.59
755.342	13642.38
755.679	13708.37
756.017	13906.56
756.355	14146.55
756.693	14184.51
