Data from hue_30_FLMS001491_65.txt Node
Date: Mon Feb 06 15:05:46 GMT 2017
User: dcchb
Spectrometer: FLMS00149
Trigger mode: 0
Integration Time (sec): 2.000000E-2
Scans to average: 10
Electric dark correction enabled: true
Nonlinearity correction enabled: false
Boxcar width: 0
XAxis mode: Wavelengths
Number of Pixels in Spectrum: 2048
>>>>>Begin Spectral Data<<<<<
341.393	-1.92
341.776	-1.92
342.16	-1.92
342.543	-61.81
342.927	-51.41
343.31	-72.2
343.693	-65.65
344.077	-66.55
344.46	-59.77
344.843	-46.89
345.226	-46.21
345.61	-26.55
345.993	-19.32
346.376	3.05
346.759	20.23
347.142	15.71
347.525	47.34
347.908	47.12
348.291	93.67
348.674	74.24
349.057	101.81
349.44	118.53
349.823	146.1
350.206	166.44
350.588	192.2
350.971	194.91
351.354	233.33
351.737	256.15
352.119	233.33
352.502	268.13
352.884	277.17
353.267	283.5
353.65	309.03
354.032	290.27
354.414	308.58
354.797	313.55
355.179	308.35
355.562	311.07
355.944	324.85
356.326	351.74
356.709	330.5
357.091	338.18
357.473	320.33
357.855	330.73
358.238	346.54
358.62	351.06
359.002	336.6
359.384	325.75
359.766	345.19
360.148	309.26
360.53	345.64
360.912	330.27
361.294	332.76
361.676	319.43
362.057	339.09
362.439	342.48
362.821	325.08
363.203	332.99
363.584	329.37
363.966	313.33
364.348	338.41
364.729	318.97
365.111	313.1
365.493	336.38
365.874	313.78
366.256	307.9
366.637	310.16
367.019	309.48
367.4	317.17
367.781	305.87
368.163	315.36
368.544	316.94
368.925	336.6
369.306	328.92
369.688	306.32
370.069	317.17
370.45	326.43
370.831	309.26
371.212	331.86
371.593	332.31
371.974	331.18
372.355	307.22
372.736	305.42
373.117	319.43
373.498	342.25
373.879	324.62
374.26	306.55
374.641	312.42
375.021	314.91
375.402	320.56
375.783	324.62
376.163	339.54
376.544	336.15
376.925	333.66
377.305	298.18
377.686	316.26
378.066	341.35
378.447	330.27
378.827	328.24
379.208	342.25
379.588	336.38
379.968	323.49
380.349	336.83
380.729	326.43
381.109	340.89
381.489	342.02
381.87	325.98
382.25	334.57
382.63	358.07
383.01	337.05
383.39	343.15
383.77	329.82
384.15	345.64
384.53	367.11
384.91	354.45
385.29	340.22
385.67	358.97
386.049	368.69
386.429	345.64
386.809	366.88
387.189	375.24
387.568	348.35
387.948	363.49
388.328	377.96
388.707	370.95
389.087	370.95
389.466	360.33
389.846	375.24
390.225	364.17
390.605	358.75
390.984	358.07
391.363	385.64
391.743	392.65
392.122	368.01
392.501	382.25
392.881	374.11
393.26	365.3
393.639	384.06
394.018	372.31
394.397	374.34
394.776	379.99
395.155	389.71
395.534	391.97
395.913	386.32
396.292	395.58
396.671	389.48
397.05	373.21
397.429	394.23
397.808	394
398.186	397.39
398.565	401.68
398.944	400.55
399.323	417.05
399.701	405.53
400.08	384.51
400.458	390.39
400.837	401.91
401.215	390.39
401.594	402.59
401.972	398.97
402.351	414.34
402.729	437.84
403.107	428.8
403.486	401.91
403.864	418.41
404.242	409.82
404.62	423.83
404.999	419.09
405.377	448.24
405.755	422.47
406.133	416.15
406.511	438.97
406.889	441.68
407.267	443.94
407.645	469.25
408.023	429.93
408.401	435.36
408.779	459.08
409.156	452.3
409.534	440.1
409.912	465.41
410.29	465.64
410.667	451.85
411.045	474.9
411.422	461.8
411.8	465.19
412.178	472.19
412.555	476.71
412.933	470.16
413.31	481
413.687	471.29
414.065	486.65
414.442	481
414.819	491.4
415.197	489.59
415.574	485.98
415.951	499.76
416.328	521
416.705	501.57
417.082	501.34
417.46	505.86
417.837	531.17
418.214	518.29
418.591	523.94
418.967	527.33
419.344	544.05
419.721	519.42
420.098	547.44
420.475	513.77
420.852	544.05
421.228	544.96
421.605	556.93
421.982	544.05
422.358	546.54
422.735	538.18
423.111	559.19
423.488	546.54
423.864	587.89
424.241	558.29
424.617	553.32
424.994	570.04
425.37	568.23
425.746	576.37
426.123	585.86
426.499	573.21
426.875	559.42
427.251	584.96
427.627	608.23
428.003	594.67
428.379	626.54
428.756	594.67
429.132	623.37
429.507	607.55
429.883	638.29
430.259	613.66
430.635	660.89
431.011	628.35
431.387	652.75
431.763	663.82
432.138	681.45
432.514	695.46
432.89	659.76
433.265	668.57
433.641	692.3
434.016	688.23
434.392	696.37
434.767	685.97
435.143	721
435.518	699.08
435.894	735.46
436.269	724.84
436.644	733.88
437.02	729.81
437.395	740.88
437.77	741.11
438.145	730.49
438.52	747.21
438.895	761.45
439.271	760.09
439.646	786.53
440.021	763.93
440.395	785.63
440.77	789.7
441.145	774.56
441.52	787.89
441.895	775.91
442.27	798.06
442.645	817.27
443.019	798.96
443.394	812.3
443.769	818.4
444.143	837.61
444.518	842.12
444.892	843.71
445.267	843.48
445.641	837.61
446.016	829.24
446.39	832.18
446.764	863.59
447.139	832.86
447.513	848.9
447.887	862.69
448.262	881.45
448.636	871.5
449.01	900.65
449.384	891.84
449.758	880.77
450.132	903.59
450.506	910.6
450.88	912.41
451.254	930.94
451.628	900.88
452.002	948.79
452.376	933.42
452.75	928.68
453.123	930.94
453.497	970.26
453.871	969.35
454.244	978.39
454.618	975.68
454.992	1013.42
455.365	1004.15
455.739	1037.15
456.112	1024.04
456.486	1009.8
456.859	1030.37
457.232	1071.95
457.606	1054.77
457.979	1074.89
458.352	1068.11
458.725	1081.21
459.099	1104.49
459.472	1131.83
459.845	1155.79
460.218	1127.31
460.591	1138.16
460.964	1148.56
461.337	1157.14
461.71	1190.14
462.083	1198.95
462.456	1217.48
462.829	1209.35
463.201	1249.35
463.574	1255
463.947	1273.07
464.32	1286.86
464.692	1311.26
465.065	1295.67
465.438	1315.11
465.81	1358.27
466.183	1325.73
466.555	1390.81
466.928	1368.21
467.3	1380.42
467.672	1412.73
468.045	1401.88
468.417	1423.8
468.789	1478.72
469.161	1469.23
469.534	1523.46
469.906	1559.62
470.278	1549.45
470.65	1559.39
471.022	1592.84
471.394	1641.2
471.766	1626.96
472.138	1636.91
472.51	1635.55
472.882	1708.09
473.253	1742.67
473.625	1753.29
473.997	1807.3
474.369	1826.96
474.74	1838.71
475.112	1890.91
475.484	1936.56
475.855	1972.49
476.227	1993.28
476.598	2018.82
476.97	2046.39
477.341	2115.99
477.713	2132.94
478.084	2168.87
478.455	2231.92
478.827	2247.29
479.198	2336.32
479.569	2335.64
479.94	2369.32
480.311	2427.17
480.682	2494.06
481.053	2586.71
481.424	2596.88
481.795	2651.79
482.166	2688.4
482.537	2741.74
482.908	2819.7
483.279	2842.75
483.65	2920.71
484.021	2967.49
484.391	3029.19
484.762	3102.63
485.133	3157.09
485.503	3183.31
485.874	3253.36
486.244	3325.9
486.615	3363.64
486.985	3451.1
487.356	3532.22
487.726	3582.84
488.097	3655.38
488.467	3694.71
488.837	3811.09
489.207	3856.06
489.578	3913.68
489.948	3987.58
490.318	4041.36
490.688	4074.13
491.058	4127.91
491.428	4213.79
491.798	4238.87
492.168	4414.69
492.538	4355.7
492.908	4498.07
493.278	4545.98
493.648	4584.17
494.017	4641.8
494.387	4756.6
494.757	4811.51
495.126	4829.82
495.496	4853.32
495.866	4919.53
496.235	4990.49
496.605	5028.68
496.974	5125.63
497.344	5143.71
497.713	5259.18
498.082	5246.08
498.452	5298.28
498.821	5352.97
499.19	5392.06
499.559	5485.62
499.928	5486.97
500.298	5591.83
500.667	5572.17
501.036	5618.95
501.405	5701.66
501.774	5715.67
502.143	5755.67
502.512	5787.76
502.88	5885.83
503.249	5904.36
503.618	5951.37
503.987	5983.46
504.356	6056
504.724	6068.43
505.093	6104.13
505.462	6184.13
505.83	6147.52
506.199	6213.73
506.567	6347.29
506.936	6310
507.304	6335.09
507.672	6462.32
508.041	6432.49
508.409	6493.73
508.777	6568.08
509.145	6579.6
509.514	6622.54
509.882	6686.49
510.25	6719.94
510.618	6776.43
510.986	6808.52
511.354	6787.96
511.722	6846.26
512.09	6907.73
512.458	6939.59
512.826	6996.31
513.193	6983.21
513.561	6953.6
513.929	7041.06
514.297	7091.45
514.664	7117.89
515.032	7189.53
515.4	7251.45
515.767	7231.56
516.135	7275.18
516.502	7208.29
516.869	7336.19
517.237	7355.85
517.604	7323.54
517.972	7465.91
518.339	7492.8
518.706	7550.65
519.073	7544.1
519.44	7591.33
519.808	7603.53
520.175	7646.01
520.542	7726.01
520.909	7728.05
521.276	7718.55
521.643	7839.68
522.009	7841.04
522.376	7845.78
522.743	7942.5
523.11	8008.94
523.477	8032.67
523.843	8130.97
524.21	8130.97
524.577	8238.09
524.943	8256.62
525.31	8339.78
525.676	8373.45
526.043	8377.52
526.409	8446.22
526.776	8547.68
527.142	8528.48
527.508	8669.49
527.874	8618.42
528.241	8665.2
528.607	8760.33
528.973	8776.38
529.339	8831.07
529.705	8903.38
530.071	8908.58
530.437	8936.38
530.803	9023.6
531.169	9038.97
531.535	9106.31
531.901	9057.28
532.267	9119.2
532.632	9223.37
532.998	9241.23
533.364	9238.06
533.73	9302.92
534.095	9393.31
534.461	9450.71
534.826	9467.43
535.192	9581.56
535.557	9585.17
535.923	9598.05
536.288	9639.18
536.653	9682.8
537.019	9701.1
537.384	9633.98
537.749	9834.43
538.114	9732.74
538.479	9836.92
538.845	9855.45
539.21	9886.86
539.575	9927.31
539.94	9940.64
540.305	10073.07
540.67	9979.74
541.034	10056.57
541.399	10069.23
541.764	10142.45
542.129	10230.35
542.494	10215.44
542.858	10262.67
543.223	10294.98
543.587	10387.18
543.952	10399.16
544.316	10387.64
544.681	10396
545.045	10532.94
545.41	10549.89
545.774	10563.9
546.138	10606.16
546.503	10631.02
546.867	10700.4
547.231	10825.37
547.595	10785.59
547.959	10789.43
548.324	10830.34
548.688	10869.21
549.052	10936.77
549.416	10953.05
549.779	10990.78
550.143	10994.63
550.507	11143.77
550.871	11118.69
551.235	11126.37
551.599	11204.11
551.962	11266.94
552.326	11223.55
552.689	11410.89
553.053	11352.36
553.417	11350.1
553.78	11480.49
554.143	11495.63
554.507	11464.22
554.87	11506.48
555.234	11620.37
555.597	11609.53
555.96	11621.73
556.323	11720.26
556.686	11703.53
557.05	11799.8
557.413	11788.73
557.776	11873.47
558.139	11922.29
558.502	11878.44
558.865	11957.54
559.228	11991.66
559.59	12063.52
559.953	12074.15
560.316	12138.78
560.679	12225.33
561.041	12236.4
561.404	12294.7
561.767	12334.03
562.129	12320.47
562.492	12426.45
562.854	12450.86
563.217	12456.06
563.579	12539.44
563.941	12582.16
564.304	12589.39
564.666	12650.85
565.028	12714.58
565.39	12811.08
565.753	12774.24
566.115	12817.63
566.477	12959.77
566.839	12990.28
567.201	12996.38
567.563	13009.49
567.925	13120.9
568.287	13122.93
568.648	13109.15
569.01	13202.25
569.372	13359.54
569.734	13273.89
570.095	13407.44
570.457	13424.84
570.819	13405.86
571.18	13451.28
571.542	13598.63
571.903	13711.84
572.265	13756.36
572.626	13795
572.987	13804.27
573.349	13922.01
573.71	14003.59
574.071	14041.1
574.432	14163.13
574.794	14263.92
575.155	14265.05
575.516	14246.29
575.877	14381.43
576.238	14481.31
576.599	14579.62
576.96	14643.57
577.32	14710.23
577.681	14889.21
578.042	15002.88
578.403	14999.49
578.763	15161.52
579.124	15320.16
579.485	15455.07
579.845	15592.25
580.206	15670.89
580.566	15748.85
580.927	15962.63
581.287	16053.48
581.648	16236.97
582.008	16450.98
582.368	16567.36
582.728	16803.06
583.089	16869.27
583.449	17043.96
583.809	17203.95
584.169	17501.12
584.529	17598.29
584.889	17963.26
585.249	18071.05
585.609	18190.6
585.969	18509.23
586.329	18717.13
586.688	18941.08
587.048	19175.43
587.408	19379.26
587.768	19624.68
588.127	19861.51
588.487	20103.31
588.846	20387.83
589.206	20534.71
589.565	20739.68
589.925	21068.03
590.284	21259.89
590.643	21544.86
591.003	21952.98
591.362	22206.08
591.721	22396.13
592.08	22607.65
592.44	22843.81
592.799	23168.54
593.158	23432.04
593.517	23712.03
593.876	24087.84
594.235	24269.31
594.593	24527.38
594.952	24839.91
595.311	25101.15
595.67	25450.29
596.029	25744.75
596.387	26068.35
596.746	26414.79
597.104	26691.39
597.463	26938.39
597.822	27183.35
598.18	27367.08
598.538	27631.02
598.897	28057.91
599.255	28174.74
599.613	28698.57
599.972	28813.82
600.33	29082.06
600.688	29251.55
601.046	29716.62
601.404	30007.23
601.762	30054.69
602.12	30468.92
602.478	30718.18
602.836	31132.18
603.194	31035.23
603.552	31499.62
603.91	31435.9
604.268	31875.66
604.625	32065.48
604.983	32350
605.341	32393.61
605.698	32847.61
606.056	33002.86
606.413	33241.27
606.771	33542.96
607.128	33653.24
607.485	33757.64
607.843	34028.14
608.2	34316.05
608.557	34653.67
608.914	34598.98
609.272	34993.32
609.629	35292.97
609.986	35600.08
610.343	35531.16
610.7	35910.36
611.057	35967.3
611.414	36112.84
611.771	36298.14
612.127	36584.46
612.484	36693.61
612.841	36902.19
613.198	36885.24
613.554	36972.25
613.911	37380.37
614.267	37447.72
614.624	37536.3
614.98	37781.04
615.337	38052.9
615.693	38116.17
616.05	38153.23
616.406	38476.39
616.762	38437.29
617.118	38671.19
617.475	38705.54
617.831	38927.68
618.187	39188.91
618.543	39206.54
618.899	39524.5
619.255	39583.48
619.611	39611.5
619.967	39767.2
620.323	39964.94
620.678	39932.17
621.034	39952.06
621.39	39944.37
621.746	40177.81
622.101	40651.25
622.457	40310.24
622.812	40451.93
623.168	40601.31
623.523	40575.54
623.879	40789.1
624.234	40516.79
624.589	40769.21
624.945	40839.04
625.3	40984.12
625.655	40935.76
626.01	41079.26
626.365	41185.47
626.72	41323.32
627.075	41374.62
627.43	41289.65
627.785	41319.93
628.14	41400.38
628.495	41502.75
628.85	41609.19
629.205	41409.65
629.559	41676.31
629.914	41583.43
630.269	41537.55
630.623	41646.93
630.978	41405.58
631.332	41720.37
631.687	41606.48
632.041	41634.95
632.396	41712.01
632.75	41588.62
633.104	41727.6
633.459	41627.49
633.813	41616.19
634.167	41517.67
634.521	41698
634.875	41644.67
635.229	41681.28
635.583	41465.24
635.937	41544.56
636.291	41667.72
636.645	41655.74
636.999	41476.08
637.352	41692.35
637.706	41488.06
638.06	41700.94
638.413	41711.33
638.767	41514.95
639.121	41618.91
639.474	41359.48
639.828	41448.06
640.181	41436.76
640.534	41500.04
640.888	41399.48
641.241	41199.26
641.594	41423.88
641.947	41520.83
642.301	41332.13
642.654	41406.26
643.007	41343.43
643.36	41373.71
643.713	41294.85
644.066	41449.19
644.419	41176.88
644.771	40971.69
645.124	40597.92
645.477	40650.12
645.83	40363.35
646.182	40160.64
646.535	40153.63
646.888	40277.02
647.24	39999.97
647.593	40269.11
647.945	40163.8
648.298	39959.06
648.65	39938.5
649.002	39734.21
649.355	39937.14
649.707	40087.65
650.059	40162.9
650.411	40554.75
650.763	40634.98
651.115	41110.67
651.467	40950.9
651.819	40916.78
652.171	40924.69
652.523	40880.62
652.875	40826.16
653.227	40570.8
653.578	40866.61
653.93	40722.66
654.282	40637.24
654.633	40528.09
654.985	40576.67
655.337	40691.92
655.688	40726.73
656.039	40866.84
656.391	40350.69
656.742	40432.95
657.094	40519.27
657.445	40655.54
657.796	40474.53
658.147	40389.11
658.498	40476.11
658.849	40628.42
659.2	40393.63
659.551	40342.1
659.902	40520.63
660.253	40360.63
660.604	40501.19
660.955	40286.74
661.306	40523.57
661.656	40326.06
662.007	40490.12
662.358	40374.87
662.708	40381.2
663.059	40298.94
663.409	40115.67
663.76	40412.38
664.11	40394.76
664.461	40468.88
664.811	40386.62
665.161	40259.85
665.511	40319.28
665.862	40293.52
666.212	40411.93
666.562	40325.38
666.912	40481.08
667.262	40281.09
667.612	40215.55
667.962	40317.47
668.312	40225.72
668.662	40399.95
669.011	40227.76
669.361	40278.83
669.711	40209
670.06	40077.48
670.41	40106.4
670.76	40114.54
671.109	40290.58
671.459	40101.43
671.808	40104.6
672.157	40178.94
672.507	39951.83
672.856	39978.27
673.205	39904.37
673.554	39989.8
673.904	39945.28
674.253	40137.81
674.602	40033.18
674.951	39327.44
675.3	39210.16
675.649	39809.01
675.998	39787.99
676.346	39862.79
676.695	39902.79
677.044	39806.98
677.393	39743.25
677.741	39779.86
678.09	39758.62
678.438	39702.8
678.787	39713.42
679.135	39802.68
679.484	39500.77
679.832	39604.72
680.181	39468.23
680.529	39538.51
680.877	39379.42
681.225	39411.73
681.573	39556.36
681.922	39267.33
682.27	39195.24
682.618	39085.41
682.966	39073.89
683.314	39193.43
683.661	39203.83
684.009	38830.05
684.357	38815.36
684.705	38690.85
685.053	38684.29
685.4	38667.34
685.748	38557.07
686.095	38457.41
686.443	38360.91
686.79	38348.03
687.138	38423.28
687.485	38426.22
687.832	38249.73
688.18	38225.55
688.527	38028.94
688.874	38182.84
689.221	38080.92
689.568	37908.49
689.915	37812.23
690.262	37916.63
690.609	37637.32
690.956	37653.13
691.303	37577.66
691.65	37453.14
691.997	37386.7
692.344	37292.47
692.69	37294.05
693.037	37269.19
693.383	36908.75
693.73	37122.53
694.077	36932.7
694.423	36798.24
694.769	36710.56
695.116	36579.04
695.462	36530.23
695.808	36396.44
696.155	36484.8
696.501	36253.4
696.847	36193.29
697.193	35997.36
697.539	36183.79
697.885	35781.32
698.231	35723.69
698.577	35784.71
698.923	35549.23
699.269	35462.23
699.614	35393.98
699.96	35386.53
700.306	35289.35
700.651	35227.89
700.997	35090.49
701.342	35102.47
701.688	34997.61
702.033	34880.1
702.379	34767.56
702.724	34693.44
703.069	34782.7
703.415	34406.67
703.76	34384.29
704.105	34430.39
704.45	34357.18
704.795	34077.41
705.14	34140.91
705.485	34042.61
705.83	33985.21
706.175	33991.76
706.52	33890.3
706.865	33756.06
707.209	33723.97
707.554	33561.94
707.899	33625.44
708.243	33410.31
708.588	33306.13
708.932	33173.48
709.277	33135.51
709.621	33256.19
709.966	32832.47
710.31	33114.95
710.654	32737.33
710.998	32771.23
711.342	32775.97
711.687	32535.3
712.031	32558.35
712.375	32371.47
712.719	32523.1
713.063	32427.96
713.407	32651.23
713.75	32427.06
714.094	32194.75
714.438	32169.44
714.782	32291.24
715.125	32024.13
715.469	32196.55
715.812	31853.51
716.156	31708.88
716.499	31808.32
716.843	31739.17
717.186	31663.91
717.53	31719.05
717.873	31819.84
718.216	31631.15
718.559	31570.36
718.902	31288.1
719.246	31501.43
719.589	31308.89
719.932	31185.06
720.275	31230.7
720.617	31097.6
720.96	31058.05
721.303	31116.58
721.646	31067.09
721.989	30924.27
722.331	30866.19
722.674	30785.29
723.016	30829.81
723.359	30671.4
723.701	30845.86
724.044	30649.93
724.386	30529.25
724.729	30661.91
725.071	30478.86
725.413	30418.75
725.755	30429.14
726.097	30282.93
726.439	30219.88
726.782	30244.52
727.124	30374.91
727.465	30076.38
727.807	30168.13
728.149	30100.56
728.491	30021.24
728.833	30084.75
729.175	29764.75
729.516	29826.45
729.858	29806.11
730.199	29794.13
730.541	29766.79
730.882	29703.96
731.224	29782.61
731.565	29584.65
731.906	29565.44
732.248	29590.97
732.589	29386.91
732.93	29391.88
733.271	29415.16
733.612	29320.47
733.953	29343.75
734.294	29193.47
734.635	29187.59
734.976	29300.13
735.317	29035.96
735.658	29080.25
735.999	29073.92
736.339	29060.14
736.68	28999.35
737.021	28909.86
737.361	28920.93
737.702	29018.33
738.042	28957.32
738.383	28732.69
738.723	28753.71
739.063	28723.2
739.404	28665.57
739.744	28628.29
740.084	28558.46
740.424	28702.86
740.764	28537.89
741.104	28525.69
741.444	28431
741.784	28429.65
742.124	28452.92
742.464	28268.3
742.804	28275.98
743.143	28258.8
743.483	28329.31
743.823	28119.6
744.162	28171.8
744.502	28064.69
744.841	27994.63
745.181	28141.52
745.52	27987.4
745.86	28090.22
746.199	27987.17
746.538	27947.63
746.877	27905.82
747.216	27833.96
747.556	27712.83
747.895	27903.56
748.234	27797.57
748.573	27703.34
748.911	27529.33
749.25	27582.21
749.589	27594.64
749.928	27540.41
750.267	27453.63
750.605	27438.04
750.944	27436.45
751.283	27421.09
751.621	27431.71
751.96	27221.09
752.298	27257.7
752.636	27247.53
752.975	27148.55
753.313	27010.48
753.651	27108.55
753.989	26911.72
754.327	27021.1
754.666	26727.32
755.004	26730.71
755.342	26880.54
755.679	26780.88
756.017	26550.15
756.355	26714.66
756.693	26583.82
757.031	26572.97
757.368	26499.76
757.706	26473.99
758.044	26336.6
758.381	26314.68
758.719	26277.16
