Data from hue_190_FLMS001491_00046.txt Node
Date: Tue Feb 07 16:45:20 GMT 2017
User: dcchb
Spectrometer: FLMS00149
Trigger mode: 0
Integration Time (sec): 2.000000E-2
Scans to average: 10
Electric dark correction enabled: true
Nonlinearity correction enabled: false
Boxcar width: 0
XAxis mode: Wavelengths
Number of Pixels in Spectrum: 2048
>>>>>Begin Spectral Data<<<<<
341.393	-33.29
341.776	-33.29
342.16	-33.29
342.543	-78.26
342.927	-77.81
343.31	-61.76
343.693	-52.95
344.077	-68.77
344.46	-49.11
344.843	-41.88
345.226	-42.78
345.61	-35.1
345.993	-52.72
346.376	1.06
346.759	16.65
347.142	14.62
347.525	30.21
347.908	49.87
348.291	76.99
348.674	104.56
349.057	111.11
349.44	110.21
349.823	135.75
350.206	164.44
350.588	177.33
350.971	200.6
351.354	234.05
351.737	230.43
352.119	252.35
352.502	254.61
352.884	265.91
353.267	280.15
353.65	291.9
354.032	304.33
354.414	288.51
354.797	290.77
355.179	322.18
355.562	295.74
355.944	315.85
356.326	319.02
356.709	337.32
357.091	349.75
357.473	337.1
357.855	342.97
358.238	324.21
358.62	354.04
359.002	319.47
359.384	333.93
359.766	334.16
360.148	330.77
360.53	324.89
360.912	322.63
361.294	306.81
361.676	339.36
362.057	322.63
362.439	313.82
362.821	302.75
363.203	323.54
363.584	314.95
363.966	302.52
364.348	314.95
364.729	307.04
365.111	324.67
365.493	304.33
365.874	316.08
366.256	304.55
366.637	290.54
367.019	308.62
367.4	304.33
367.781	301.84
368.163	318.34
368.544	302.07
368.925	304.78
369.306	302.29
369.688	301.62
370.069	283.09
370.45	307.04
370.831	294.16
371.212	303.88
371.593	285.8
371.974	300.94
372.355	316.76
372.736	303.42
373.117	333.03
373.498	301.62
373.879	299.13
374.26	310.2
374.641	278.34
375.021	294.61
375.402	315.4
375.783	293.71
376.163	310.66
376.544	309.53
376.925	317.89
377.305	329.86
377.686	323.08
378.066	307.94
378.447	298.9
378.827	319.02
379.208	315.85
379.588	314.27
379.968	321.5
380.349	340.94
380.729	312.24
381.109	321.05
381.489	322.41
381.87	341.62
382.25	324.89
382.63	318.11
383.01	341.16
383.39	309.75
383.77	311.79
384.15	323.31
384.53	339.36
384.91	331.9
385.29	337.55
385.67	326.7
386.049	349.98
386.429	345.46
386.809	327.15
387.189	335.06
387.568	334.38
387.948	337.77
388.328	316.76
388.707	349.3
389.087	350.2
389.466	336.87
389.846	357.66
390.225	362.63
390.605	349.75
390.984	347.94
391.363	363.54
391.743	366.02
392.122	353.14
392.501	364.67
392.881	358.34
393.26	337.1
393.639	360.6
394.018	368.96
394.397	373.03
394.776	372.35
395.155	350.43
395.534	386.13
395.913	370.54
396.292	375.51
396.671	374.16
397.05	356.76
397.429	367.83
397.808	385
398.186	387.26
398.565	375.51
398.944	385.91
399.323	373.7
399.701	400.6
400.08	382.97
400.458	414.83
400.837	401.27
401.215	410.09
401.594	388.17
401.972	391.56
402.351	413.03
402.729	396.3
403.107	427.26
403.486	424.1
403.864	418.22
404.242	429.52
404.62	418.45
404.999	414.38
405.377	427.04
405.755	431.33
406.133	430.88
406.511	451.89
406.889	444.44
407.267	449.41
407.645	458
408.023	446.02
408.401	478.56
408.779	467.04
409.156	485.34
409.534	467.94
409.912	484.21
410.29	494.38
410.667	501.16
411.045	520.82
411.422	502.29
411.8	534.6
412.178	533.25
412.555	527.6
412.933	537.32
413.31	537.77
413.687	571.67
414.065	588.39
414.442	574.83
414.819	578.67
415.197	588.61
415.574	620.7
415.951	604.21
416.328	610.53
416.705	614.15
417.082	623.42
417.46	639.69
417.837	629.07
418.214	657.77
418.591	654.6
418.967	668.39
419.344	670.87
419.721	661.61
420.098	693.02
420.475	700.48
420.852	717.88
421.228	713.36
421.605	703.87
421.982	738.44
422.358	733.24
422.735	777.99
423.111	799.91
423.488	812.56
423.864	777.76
424.241	823.41
424.617	833.81
424.994	827.48
425.37	857.76
425.746	865.9
426.123	858.44
426.499	872
426.875	894.14
427.251	914.48
427.627	914.03
428.003	934.59
428.379	938.21
428.756	973.01
429.132	956.74
429.507	984.99
429.883	975.72
430.259	1005.55
430.635	1002.16
431.011	982.28
431.387	1054.14
431.763	1052.11
432.138	1086.91
432.514	1080.8
432.89	1102.5
433.265	1158.99
433.641	1149.05
434.016	1145.89
434.392	1175.04
434.767	1199.9
435.143	1199.9
435.518	1228.15
435.894	1281.48
436.269	1273.12
436.644	1282.61
437.02	1339.56
437.395	1354.24
437.77	1370.74
438.145	1389.95
438.52	1404.41
438.895	1431.08
439.271	1435.82
439.646	1487.8
440.021	1507.23
440.395	1521.7
440.77	1515.14
441.145	1548.36
441.52	1592.66
441.895	1592.88
442.27	1621.81
442.645	1596.72
443.019	1634.69
443.394	1636.04
443.769	1665.87
444.143	1669.94
444.518	1714.46
444.892	1720.56
445.267	1751.75
445.641	1746.78
446.016	1753.78
446.39	1784.74
446.764	1805.76
447.139	1786.1
447.513	1819.09
447.887	1831.75
448.262	1850.28
448.636	1853.67
449.01	1859.77
449.384	1875.81
449.758	1907.45
450.132	1892.08
450.506	1929.37
450.88	1975.7
451.254	1928.47
451.628	1998.07
452.002	2045.75
452.376	2043.04
452.75	2095.69
453.123	2073.32
453.497	2113.09
453.871	2106.09
454.244	2175.69
454.618	2174.56
454.992	2185.18
455.365	2246.65
455.739	2269.47
456.112	2278.74
456.486	2339.53
456.859	2352.41
457.232	2367.1
457.606	2376.36
457.979	2433.09
458.352	2438.74
458.725	2484.38
459.099	2492.29
459.472	2556.7
459.845	2549.69
460.218	2589.01
460.591	2642.57
460.964	2636.02
461.337	2684.38
461.71	2724.6
462.083	2807.31
462.456	2759.63
462.829	2771.16
463.201	2875.56
463.574	2842.11
463.947	2866.07
464.32	2942.9
464.692	2941.32
465.065	3024.03
465.438	3023.58
465.81	3090.02
466.183	3140.19
466.555	3226.06
466.928	3264.7
467.3	3220.41
467.672	3299.5
468.045	3371.59
468.417	3412.04
468.789	3447.75
469.161	3501.98
469.534	3541.76
469.906	3628.76
470.278	3619.95
470.65	3673.05
471.022	3751.47
471.394	3850
471.766	3842.54
472.138	3935.87
472.51	3945.36
472.882	4008.41
473.253	4039.15
473.625	4146.26
473.997	4233.26
474.369	4274.85
474.74	4281.17
475.112	4366.82
475.484	4444.11
475.855	4525.91
476.227	4569.3
476.598	4670.77
476.97	4721.39
477.341	4838.22
477.713	4847.49
478.084	4962.06
478.455	5093.81
478.827	5120.25
479.198	5308.26
479.569	5279.56
479.94	5410.18
480.311	5440.01
480.682	5612.21
481.053	5747.35
481.424	5812.21
481.795	5815.37
482.166	5932.88
482.537	6051.3
482.908	6166.09
483.279	6218.52
483.65	6309.37
484.021	6496.93
484.391	6498.52
484.762	6656.03
485.133	6673.2
485.503	6818.06
485.874	6917.94
486.244	6976.02
486.615	7063.25
486.985	7180.76
487.356	7363.13
487.726	7421.43
488.097	7557.7
488.467	7566.74
488.837	7653.29
489.207	7736.9
489.578	7871.36
489.948	8010.57
490.318	8035.42
490.688	8058.7
491.058	8228.64
491.428	8346.6
491.798	8392.7
492.168	8498.91
492.538	8589.99
492.908	8690.1
493.278	8768.29
493.648	8803.99
494.017	8846.7
494.387	8966.7
494.757	9036.98
495.126	9102.51
495.496	9130.54
495.866	9185.22
496.235	9326.01
496.605	9377.31
496.974	9362.62
497.344	9488.49
497.713	9479.23
498.082	9558.55
498.452	9658.43
498.821	9653.01
499.19	9657.08
499.559	9734.36
499.928	9799.67
500.298	9817.75
500.667	9882.61
501.036	9869.27
501.405	10002.6
501.774	9911.08
502.143	10058.42
502.512	10090.74
502.88	10181.81
503.249	10150.85
503.618	10201.7
503.987	10251.19
504.356	10233.78
504.724	10300.9
505.093	10245.99
505.462	10325.99
505.83	10370.28
506.199	10343.16
506.567	10549.93
506.936	10462.93
507.304	10478.98
507.672	10480.33
508.041	10537.51
508.409	10623.38
508.777	10652.98
509.145	10694.56
509.514	10639.88
509.882	10681.46
510.25	10679.87
510.618	10752.42
510.986	10739.76
511.354	10756.71
511.722	10876.48
512.09	10871.51
512.458	10848.01
512.826	10913.09
513.193	10907.21
513.561	10951.28
513.929	10939.75
514.297	11014.1
514.664	11063.59
515.032	11036.25
515.4	11104.27
515.767	11053.88
516.135	11065.18
516.502	11034.67
516.869	11095
517.237	11090.71
517.604	10977.72
517.972	11118.06
518.339	11168.45
518.706	11066.98
519.073	11129.81
519.44	11059.75
519.808	11176.58
520.175	11089.36
520.542	11215.23
520.909	11212.52
521.276	11208.45
521.643	11177.49
522.009	11237.83
522.376	11250.71
522.743	11270.59
523.11	11279.63
523.477	11357.82
523.843	11348.78
524.21	11363.02
524.577	11383.81
524.943	11313.3
525.31	11340.2
525.676	11345.39
526.043	11415.45
526.409	11417.71
526.776	11351.5
527.142	11349.01
527.508	11366.41
527.874	11389.46
528.241	11408.89
528.607	11350.37
528.973	11365.51
529.339	11286.86
529.705	11363.25
530.071	11407.77
530.437	11342
530.803	11296.58
531.169	11282.8
531.535	11233.31
531.901	11232.85
532.267	11199.18
532.632	11184.72
532.998	11123.7
533.364	11095.23
533.73	11081.45
534.095	11090.49
534.461	11042.35
534.826	11038.28
535.192	10974.78
535.557	11028.79
535.923	10902.02
536.288	10875.12
536.653	10845.75
537.019	10807.55
537.384	10790.83
537.749	10723.72
538.114	10700.21
538.479	10632.64
538.845	10684.39
539.21	10592.65
539.575	10573.66
539.94	10497.96
540.305	10467.22
540.67	10419.54
541.034	10417.28
541.399	10333.89
541.764	10255.03
542.129	10315.14
542.494	10209.6
542.858	10175.93
543.223	10127.8
543.587	10062.72
543.952	10027.69
544.316	9958.09
544.681	9901.36
545.045	9897.3
545.41	9847.35
545.774	9862.04
546.138	9755.15
546.503	9640.13
546.867	9649.62
547.231	9645.55
547.595	9609.62
547.959	9582.95
548.324	9542.28
548.688	9396.52
549.052	9421.6
549.416	9406.91
549.779	9374.82
550.143	9291.66
550.507	9350.87
550.871	9273.13
551.235	9208.73
551.599	9198.11
551.962	9106.81
552.326	9097.09
552.689	8996.08
553.053	8917.21
553.417	8956.3
553.78	8980.71
554.143	8841.73
554.507	8895.51
554.87	8846.02
555.234	8881.05
555.597	8812.35
555.96	8716.99
556.323	8721.06
556.686	8685.35
557.05	8658.46
557.413	8666.82
557.776	8604.67
558.139	8612.13
558.502	8601.51
558.865	8501.17
559.228	8534.85
559.59	8477.67
559.953	8480.38
560.316	8519.71
560.679	8455.53
561.041	8486.49
561.404	8432.25
561.767	8496.2
562.129	8377.34
562.492	8394.28
562.854	8398.58
563.217	8319.48
563.579	8380.95
563.941	8388.86
564.304	8335.76
564.666	8366.04
565.028	8349.09
565.39	8323.1
565.753	8383.44
566.115	8323.78
566.477	8371.69
566.839	8367.39
567.201	8332.14
567.563	8253.05
567.925	8352.03
568.287	8322.42
568.648	8322.2
569.01	8372.59
569.372	8343.66
569.734	8306.38
570.095	8329.65
570.457	8271.58
570.819	8339.82
571.18	8268.41
571.542	8321.52
571.903	8258.7
572.265	8343.44
572.626	8309.54
572.987	8336.21
573.349	8309.54
573.71	8304.34
574.071	8328.07
574.432	8340.95
574.794	8376.21
575.155	8313.84
575.516	8313.38
575.877	8284.23
576.238	8295.3
576.599	8356.09
576.96	8284.01
577.32	8298.69
577.681	8349.77
578.042	8300.5
578.403	8275.87
578.763	8294.17
579.124	8268.64
579.485	8293.95
579.845	8237.9
580.206	8282.42
580.566	8290.78
580.927	8280.84
581.287	8263.44
581.648	8206.27
582.008	8271.12
582.368	8205.82
582.728	8257.57
583.089	8213.95
583.449	8245.81
583.809	8239.71
584.169	8227.74
584.529	8187.74
584.889	8239.71
585.249	8164.69
585.609	8140.51
585.969	8185.02
586.329	8202.65
586.688	8168.53
587.048	8146.16
587.408	8118.36
587.768	8127.63
588.127	8070.68
588.487	8098.93
588.846	8117.46
589.206	8071.81
589.565	8060.51
589.925	8045.82
590.284	8042.2
590.643	8065.25
591.003	8039.49
591.362	8063.45
591.721	8009.21
592.08	8048.98
592.44	7973.96
592.799	8028.87
593.158	7981.64
593.517	8036.78
593.876	7961.08
594.235	7943
594.593	7981.87
594.952	7939.83
595.311	7970.34
595.67	7935.99
596.029	7956.1
596.387	7923.11
596.746	7974.41
597.104	7878.14
597.463	7890.57
597.822	7980.74
598.18	7865.49
598.538	7889.44
598.897	7963.79
599.255	7817.35
599.613	7964.69
599.972	7913.62
600.33	7882.43
600.688	7821.19
601.046	7863.9
601.404	7861.64
601.762	7853.06
602.12	7887.18
602.478	7928.31
602.836	7939.83
603.194	7844.24
603.552	7865.94
603.91	7793.4
604.268	7805.37
604.625	7833.17
604.983	7845.15
605.341	7787.07
605.698	7864.81
606.056	7886.95
606.413	7842.44
606.771	7844.24
607.128	7905.71
607.485	7815.77
607.843	7809.22
608.2	7861.19
608.557	7843.34
608.914	7877.46
609.272	7894.19
609.629	7897.57
609.986	7921.53
610.343	7845.6
610.7	7928.08
611.057	7907.29
611.414	7924.92
611.771	7909.55
612.127	7899.61
612.484	7976.22
612.841	7965.82
613.198	7892.15
613.554	7949.78
613.911	7918.37
614.267	7940.96
614.624	7922.43
614.98	7935.54
615.337	7996.33
615.693	7916.56
616.05	7907.07
616.406	7988.19
616.762	7945.71
617.118	7879.27
617.475	7968.76
617.831	7988.42
618.187	7998.82
618.543	7986.16
618.899	7977.57
619.255	8009.66
619.611	7942.55
619.967	7943.9
620.323	8027.29
620.678	8005.14
621.034	7967.63
621.39	7961.75
621.746	7994.07
622.101	8032.49
622.457	7982.54
622.812	7972.38
623.168	8019.15
623.523	8004.46
623.879	8013.5
624.234	8008.98
624.589	7941.87
624.945	8018.7
625.3	7990.91
625.655	7973.51
626.01	7954.07
626.365	7976.22
626.72	7938.48
627.075	7982.77
627.43	7976.67
627.785	7935.54
628.14	7964.69
628.495	7950.45
628.85	7891.7
629.205	7957.01
629.559	7944.13
629.914	7918.37
630.269	7934.41
630.623	7897.8
630.978	7893.96
631.332	7884.92
631.687	7905.94
632.041	7865.49
632.396	7881.76
632.75	7854.64
633.104	7842.21
633.459	7803.79
633.813	7798.82
634.167	7807.63
634.521	7712.72
634.875	7819.38
635.229	7784.36
635.583	7748.43
635.937	7762.66
636.291	7763.12
636.645	7769.89
636.999	7687.18
637.352	7735.09
637.706	7637.02
638.06	7728.77
638.413	7638.15
638.767	7643.34
639.121	7716.79
639.474	7716.56
639.828	7657.81
640.181	7664.59
640.534	7648.09
640.888	7584.81
641.241	7584.81
641.594	7578.04
641.947	7606.06
642.301	7638.6
642.654	7596.11
643.007	7663
643.36	7596.34
643.713	7548.66
644.066	7578.71
644.419	7560.41
644.771	7519.05
645.124	7450.35
645.477	7428.66
645.83	7379.85
646.182	7415.78
646.535	7355.89
646.888	7338.95
647.24	7294.65
647.593	7379.85
647.945	7373.29
648.298	7336.69
648.65	7298.72
649.002	7331.26
649.355	7313.86
649.707	7301.21
650.059	7389.79
650.411	7469.34
650.763	7473.86
651.115	7542.33
651.467	7539.84
651.819	7581.65
652.171	7507.53
652.523	7540.97
652.875	7486.06
653.227	7493.97
653.578	7553.86
653.93	7539.62
654.282	7528.09
654.633	7479.96
654.985	7532.16
655.337	7500.98
655.688	7453.97
656.039	7488.77
656.391	7484.93
656.742	7497.81
657.094	7515.66
657.445	7562.67
657.796	7550.47
658.147	7524.93
658.498	7518.15
658.849	7541.43
659.2	7530.35
659.551	7509.79
659.902	7607.64
660.253	7548.21
660.604	7547.3
660.955	7491.48
661.306	7526.06
661.656	7522.9
662.007	7588.88
662.358	7617.81
662.708	7585.27
663.059	7598.6
663.409	7556.79
663.76	7623.01
664.11	7659.84
664.461	7594.53
664.811	7545.95
665.161	7592.72
665.511	7567.19
665.862	7554.08
666.212	7606.96
666.562	7617.13
666.912	7576.91
667.262	7602.89
667.612	7587.53
667.962	7609.67
668.312	7528.54
668.662	7626.62
669.011	7614.87
669.361	7625.72
669.711	7516.12
670.06	7608.54
670.41	7542.56
670.76	7528.77
671.109	7574.19
671.459	7589.33
671.808	7551.37
672.157	7510.69
672.507	7507.98
672.856	7491.26
673.205	7556.79
673.554	7575.55
673.904	7502.11
674.253	7560.41
674.602	7476.79
674.951	7423.69
675.3	7374.2
675.649	7521.99
675.998	7578.49
676.346	7426.63
676.695	7536
677.044	7415.1
677.393	7521.99
677.741	7486.51
678.09	7444.48
678.438	7399.73
678.787	7440.41
679.135	7395.89
679.484	7364.93
679.832	7423.91
680.181	7369.91
680.529	7373.52
680.877	7340.98
681.225	7398.6
681.573	7322.45
681.922	7334.65
682.27	7336.23
682.618	7349.79
682.966	7271.38
683.314	7278.16
683.661	7245.84
684.009	7131.27
684.357	7199.97
684.705	7218.72
685.053	7208.55
685.4	7143.7
685.748	7149.35
686.095	7093.08
686.443	7101.44
686.79	7118.39
687.138	7121.78
687.485	7032.51
687.832	7063.7
688.18	7037.26
688.527	7019.41
688.874	6907.32
689.221	6954.55
689.568	6934.21
689.915	6963.14
690.262	6902.8
690.609	6907.54
690.956	6877.49
691.303	6893.08
691.65	6767.89
691.997	6864.61
692.344	6821.67
692.69	6766.53
693.037	6742.35
693.383	6723.82
693.73	6679.98
694.077	6708.91
694.423	6697.61
694.769	6620.77
695.116	6568.34
695.462	6586.65
695.808	6540.55
696.155	6528.35
696.501	6498.06
696.847	6528.8
697.193	6438.18
697.539	6447.22
697.885	6434.56
698.231	6393.66
698.577	6382.13
698.923	6335.58
699.269	6355.69
699.614	6336.94
699.96	6279.31
700.306	6238.64
700.651	6266.43
700.997	6255.58
701.342	6175.59
701.688	6176.26
702.033	6166.77
702.379	6164.51
702.724	6144.63
703.069	6153.44
703.415	6049.04
703.76	6088.36
704.105	6091.75
704.45	5972.88
704.795	5964.97
705.14	5965.87
705.485	5934.69
705.83	5903.95
706.175	5924.52
706.52	5908.7
706.865	5841.36
707.209	5837.74
707.554	5887.23
707.899	5883.39
708.243	5797.52
708.588	5795.48
708.932	5723.62
709.277	5773.34
709.621	5765.2
709.966	5679.33
710.31	5683.17
710.654	5631.42
710.998	5582.61
711.342	5628.71
711.687	5648.14
712.031	5635.04
712.375	5632.55
712.719	5598.88
713.063	5583.06
713.407	5610.4
713.75	5573.12
714.094	5594.36
714.438	5588.03
714.782	5552.55
715.125	5515.26
715.469	5563.4
715.812	5543.96
716.156	5510.07
716.499	5527.92
716.843	5493.12
717.186	5437.75
717.53	5530.41
717.873	5466.45
718.216	5503.74
718.559	5429.17
718.902	5456.51
719.246	5397.08
719.589	5446.34
719.932	5427.58
720.275	5394.82
720.617	5431.88
720.96	5423.29
721.303	5388.94
721.646	5394.36
721.989	5362.5
722.331	5388.71
722.674	5352.33
723.016	5335.38
723.359	5361.82
723.701	5382.84
724.044	5300.13
724.386	5298.77
724.729	5287.25
725.071	5377.87
725.413	5366.79
725.755	5303.97
726.097	5357.75
726.439	5308.94
726.782	5305.33
727.124	5350.52
727.465	5300.35
727.807	5313.46
728.149	5307.59
728.491	5221.94
728.833	5313.91
729.175	5294.93
729.516	5271.66
729.858	5342.16
730.199	5287.25
730.541	5301.71
730.882	5243.63
731.224	5282.95
731.565	5308.04
731.906	5285.21
732.248	5327.7
732.589	5291.32
732.93	5258.55
733.271	5306.23
733.612	5285.21
733.953	5344.2
734.294	5313.01
734.635	5269.62
734.976	5295.84
735.317	5307.59
735.658	5269.62
735.999	5321.37
736.339	5355.04
736.68	5338.77
737.021	5352.78
737.361	5292.9
737.702	5379
738.042	5344.42
738.383	5340.58
738.723	5369.28
739.063	5393.01
739.404	5354.59
739.744	5342.84
740.084	5357.3
740.424	5423.29
740.764	5423.06
741.104	5416.28
741.444	5506.68
741.784	5400.69
742.124	5527.92
742.464	5491.54
742.804	5508.71
743.143	5494.25
743.483	5542.38
743.823	5577.86
744.162	5559.78
744.502	5561.82
744.841	5595.26
745.181	5664.64
745.52	5625.09
745.86	5748.93
746.199	5745.77
746.538	5799.1
746.877	5810.17
747.216	5878.19
747.556	5882.94
747.895	5901.02
748.234	5930.62
748.573	6002.94
748.911	6031.86
749.25	6098.3
749.589	6102.14
749.928	6199.99
750.267	6270.72
750.605	6369.03
750.944	6443.15
751.283	6447.9
751.621	6567.21
751.96	6602.02
752.298	6686.31
752.636	6783.25
752.975	6855.12
753.313	6990.71
753.651	7072.74
753.989	7150.7
754.327	7261.66
754.666	7349.11
755.004	7478.6
755.342	7592.72
755.679	7724.25
756.017	7787.3
756.355	7997.91
756.693	8069.55
757.031	8313.38
757.368	8376.88
757.706	8515.41
758.044	8666.82
758.381	8816.19
758.719	8962.18
759.056	9079.46
759.394	9265.22
759.731	9400.36
760.068	9562.84
760.405	9687.58
760.743	9792.67
761.08	10046.67
761.417	10176.61
761.754	10355.36
762.091	10597.62
762.428	10659.08
762.765	10914.9
763.102	11041.22
763.438	11189.92
763.775	11335.22
764.112	11533.86
764.449	11710.58
764.785	11770.92
765.122	12086.39
765.458	12177.91
765.795	12332.49
766.131	12539.26
766.467	12607.73
766.804	12755.3
