Data from hue_10_FLMS001491_48.txt Node
Date: Mon Feb 06 15:31:59 GMT 2017
User: dcchb
Spectrometer: FLMS00149
Trigger mode: 0
Integration Time (sec): 2.000000E-2
Scans to average: 10
Electric dark correction enabled: true
Nonlinearity correction enabled: false
Boxcar width: 0
XAxis mode: Wavelengths
Number of Pixels in Spectrum: 2048
>>>>>Begin Spectral Data<<<<<
341.393	-14.93
341.776	-14.93
342.16	-14.93
342.543	-60.8
342.927	-67.81
343.31	-76.17
343.693	-63.52
344.077	-77.98
344.46	-70.07
344.843	-44.53
345.226	-24.87
345.61	-40.24
345.993	-21.48
346.376	-9.73
346.759	13.09
347.142	23.26
347.525	48.12
347.908	50.38
348.291	89.93
348.674	78.18
349.057	125.63
349.44	118.63
349.823	151.17
350.206	165.63
350.588	202.47
350.971	192.3
351.354	237.27
351.737	237.72
352.119	248.57
352.502	267.78
352.884	269.13
353.267	281.11
353.65	287.21
354.032	309.58
354.414	310.49
354.797	316.59
355.179	306.87
355.562	333.99
355.944	330.37
356.326	344.16
356.709	334.21
357.091	331.05
357.473	336.93
357.855	345.51
358.238	368.56
358.62	336.93
359.002	351.39
359.384	333.54
359.766	340.54
360.148	334.44
360.53	351.39
360.912	330.6
361.294	340.09
361.676	320.43
362.057	321.33
362.439	331.5
362.821	330.37
363.203	331.73
363.584	311.39
363.966	311.84
364.348	333.31
364.729	319.3
365.111	306.64
365.493	317.04
365.874	320.43
366.256	309.58
366.637	345.74
367.019	308.68
367.4	307.77
367.781	312.97
368.163	330.37
368.544	324.72
368.925	287.66
369.306	290.6
369.688	303.48
370.069	316.59
370.45	303.93
370.831	327.66
371.212	319.07
371.593	292.86
371.974	301.67
372.355	311.84
372.736	312.52
373.117	322.01
373.498	316.59
373.879	321.79
374.26	330.6
374.641	318.4
375.021	325.63
375.402	309.13
375.783	336.7
376.163	323.82
376.544	314.55
376.925	331.05
377.305	323.59
377.686	323.59
378.066	321.79
378.447	329.47
378.827	322.01
379.208	327.43
379.588	318.4
379.968	333.31
380.349	327.43
380.729	324.95
381.109	326.98
381.489	304.16
381.87	337.38
382.25	345.06
382.63	350.26
383.01	330.37
383.39	336.47
383.77	322.92
384.15	330.15
384.53	313.2
384.91	341.22
385.29	354.1
385.67	338.73
386.049	334.89
386.429	347.77
386.809	340.77
387.189	339.19
387.568	332.86
387.948	340.09
388.328	339.86
388.707	338.06
389.087	340.99
389.466	358.85
389.846	360.43
390.225	346.87
390.605	358.39
390.984	328.56
391.363	353.65
391.743	350.26
392.122	347.32
392.501	364.95
392.881	376.25
393.26	383.48
393.639	363.82
394.018	348.68
394.397	373.76
394.776	373.31
395.155	369.92
395.534	361.33
395.913	368.34
396.292	360.43
396.671	372.18
397.05	358.62
397.429	359.3
397.808	368.79
398.186	374.44
398.565	370.15
398.944	378.73
399.323	400.2
399.701	390.03
400.08	395
400.458	360.43
400.837	385.96
401.215	393.42
401.594	366.08
401.972	388.9
402.351	395
402.729	363.14
403.107	412.63
403.486	387.77
403.864	378.96
404.242	385.06
404.62	404.5
404.999	400.43
405.377	399.3
405.755	393.87
406.133	393.42
406.511	404.5
406.889	399.07
407.267	419.86
407.645	388.22
408.023	398.62
408.401	402.24
408.779	422.57
409.156	421.22
409.534	419.64
409.912	422.35
410.29	414.66
410.667	435.91
411.045	436.81
411.422	412.4
411.8	433.87
412.178	429.81
412.555	436.13
412.933	442.01
413.31	446.75
413.687	466.19
414.065	444.04
414.442	445.4
414.819	440.43
415.197	470.71
415.574	454.44
415.951	447.88
416.328	450.14
416.705	445.17
417.082	481.78
417.46	476.36
417.837	482.91
418.214	452.63
418.591	469.8
418.967	475.45
419.344	455.12
419.721	471.39
420.098	490.14
420.475	483.81
420.852	501.44
421.228	494.89
421.605	499.63
421.982	486.07
422.358	509.13
422.735	506.19
423.111	492.18
423.488	499.41
423.864	512.97
424.241	480.65
424.617	528.11
424.994	533.53
425.37	516.58
425.746	533.76
426.123	523.14
426.499	532.63
426.875	513.64
427.251	538.5
427.627	548.45
428.003	538.05
428.379	557.03
428.756	569.24
429.132	566.98
429.507	567.43
429.883	551.38
430.259	571.27
430.635	580.54
431.011	565.17
431.387	584.6
431.763	588.22
432.138	578.05
432.514	583.25
432.89	594.55
433.265	613.08
433.641	597.71
434.016	599.07
434.392	616.92
434.767	614.43
435.143	598.61
435.518	619.63
435.894	632.29
436.269	634.55
436.644	642.68
437.02	650.82
437.395	644.49
437.77	648.1
438.145	651.49
438.52	676.35
438.895	652.62
439.271	653.3
439.646	677.71
440.021	689.23
440.395	691.72
440.77	662.12
441.145	679.74
441.52	699.4
441.895	710.93
442.27	691.04
442.645	707.54
443.019	698.27
443.394	721.77
443.769	705.05
444.143	717.03
444.518	713.87
444.892	712.28
445.267	726.75
445.641	723.58
446.016	723.58
446.39	716.13
446.764	747.31
447.139	743.02
447.513	724.49
447.887	739.85
448.262	767.88
448.636	738.5
449.01	749.12
449.384	766.52
449.758	762
450.132	754.32
450.506	776.01
450.88	780.98
451.254	783.69
451.628	766.52
452.002	776.69
452.376	775.33
452.75	800.64
453.123	786.41
453.497	823.24
453.871	833.18
454.244	817.14
454.618	823.69
454.992	800.19
455.365	827.53
455.739	847.65
456.112	856.69
456.486	863.69
456.859	864.6
457.232	865.73
457.606	887.65
457.979	879.96
458.352	894.2
458.725	890.81
459.099	936.01
459.472	950.02
459.845	915.22
460.218	933.97
460.591	925.39
460.964	936.23
461.337	944.37
461.71	986.17
462.083	992.5
462.456	949.11
462.829	1013.29
463.201	1015.55
463.574	992.95
463.947	1028.21
464.32	1047.64
464.692	1041.77
465.065	1033.86
465.438	1047.19
465.81	1074.76
466.183	1077.47
466.555	1105.95
466.928	1091.48
467.3	1121.31
467.672	1121.99
468.045	1148.88
468.417	1151.82
468.789	1140.52
469.161	1163.12
469.534	1195.43
469.906	1218.26
470.278	1240.86
470.65	1233.63
471.022	1251.03
471.394	1289.9
471.766	1303.45
472.138	1326.5
472.51	1349.1
472.882	1342.32
473.253	1365.15
473.625	1392.04
473.997	1419.61
474.369	1421.19
474.74	1438.59
475.112	1467.97
475.484	1512.26
475.855	1533.73
476.227	1554.75
476.598	1579.83
476.97	1586.38
477.341	1626.38
477.713	1640.39
478.084	1645.14
478.455	1704.35
478.827	1718.13
479.198	1758.36
479.569	1796.32
479.94	1828.41
480.311	1868.41
480.682	1915.42
481.053	1950.22
481.424	1975.75
481.795	2004.45
482.166	2017.11
482.537	2083.55
482.908	2107.5
483.279	2132.36
483.65	2197.22
484.021	2236.54
484.391	2258.91
484.762	2270.43
485.133	2297.55
485.503	2360.83
485.874	2367.83
486.244	2398.57
486.615	2478.34
486.985	2522.86
487.356	2552.01
487.726	2575.96
488.097	2641.72
488.467	2655.06
488.837	2736.41
489.207	2770.31
489.578	2791.1
489.948	2834.26
490.318	2875.39
490.688	2922.17
491.058	2935.05
491.428	2959.46
491.798	3032
492.168	3053.24
492.538	3123.52
492.908	3147.02
493.278	3185.89
493.648	3232.22
494.017	3232.22
494.387	3300.92
494.757	3277.64
495.126	3340.91
495.496	3359.67
495.866	3410.97
496.235	3445.77
496.605	3510.85
496.974	3493.23
497.344	3513.79
497.713	3556.95
498.082	3575.71
498.452	3662.49
498.821	3621.59
499.19	3667.69
499.559	3699.32
499.928	3759.44
500.298	3780.9
500.667	3716.05
501.036	3785.88
501.405	3822.94
501.774	3823.84
502.143	3850.05
502.512	3877.62
502.88	3933.67
503.249	3933.22
503.618	4015.25
503.987	3942.03
504.356	4012.99
504.724	4004.63
505.093	4033.33
505.462	4095.02
505.83	4040.56
506.199	4086.88
506.567	4153.55
506.936	4163.94
507.304	4209.37
507.672	4180.89
508.041	4217.28
508.409	4251.85
508.777	4265.64
509.145	4269.93
509.514	4305.41
509.882	4346.31
510.25	4323.04
510.618	4365.97
510.986	4322.58
511.354	4356.48
511.722	4412.3
512.09	4469.7
512.458	4465.63
512.826	4461.11
513.193	4467.21
513.561	4494.1
513.929	4515.8
514.297	4505.86
514.664	4527.1
515.032	4544.05
515.4	4581.56
515.767	4594.44
516.135	4636.7
516.502	4569.36
516.869	4648.68
517.237	4669.02
517.604	4640.54
517.972	4712.4
518.339	4703.82
518.706	4737.04
519.073	4731.39
519.44	4695
519.808	4829.92
520.175	4778.39
520.542	4846.64
520.909	4883.93
521.276	4866.07
521.643	4889.8
522.009	4934.55
522.376	4941.55
522.743	4915.56
523.11	4994.88
523.477	5024.26
523.843	4969.8
524.21	5094.54
524.577	5081.43
524.943	5101.77
525.31	5066.29
525.676	5141.77
526.043	5220.64
526.409	5207.53
526.776	5254.31
527.142	5237.81
527.508	5220.41
527.874	5286.85
528.241	5320.98
528.607	5357.81
528.973	5370.01
529.339	5388.32
529.705	5449.56
530.071	5462.44
530.437	5520.74
530.803	5461.54
531.169	5547.18
531.535	5493.63
531.901	5551.03
532.267	5605.04
532.632	5618.6
532.998	5610.69
533.364	5652.94
533.73	5684.13
534.095	5709.67
534.461	5681.87
534.826	5752.15
535.192	5741.76
535.557	5791.25
535.923	5801.87
536.288	5797.8
536.653	5879.61
537.019	5878.7
537.384	5935.2
537.749	5912.6
538.114	5947.63
538.479	5971.35
538.845	5995.53
539.21	6004.12
539.575	6008.42
539.94	6006.16
540.305	6064.91
540.67	6093.16
541.034	6057.23
541.399	6161.18
541.764	6144.91
542.129	6184.68
542.494	6197.79
542.858	6202.53
543.223	6242.53
543.587	6367.73
543.952	6310.33
544.316	6326.15
544.681	6358.01
545.045	6385.35
545.41	6421.06
545.774	6502.87
546.138	6463.77
546.503	6484.79
546.867	6508.52
547.231	6522.3
547.595	6518.68
547.959	6600.26
548.324	6634.16
548.688	6651.34
549.052	6727.94
549.416	6657.44
549.779	6690.21
550.143	6710.32
550.507	6748.28
550.871	6778.34
551.235	6755.97
551.599	6814.27
551.962	6807.72
552.326	6798.45
552.689	6881.39
553.053	6825.12
553.417	6906.47
553.78	6964.1
554.143	6979.01
554.507	6997.77
554.87	7028.28
555.234	7054.04
555.597	7043.87
555.96	7082.29
556.323	7167.93
556.686	7110.08
557.05	7160.7
557.413	7152.11
557.776	7167.26
558.139	7253.58
558.502	7185.33
558.865	7273.92
559.228	7260.36
559.59	7304.65
559.953	7314.6
560.316	7408.6
560.679	7359.57
561.041	7346.91
561.404	7406.34
561.767	7449.73
562.129	7430.98
562.492	7501.71
562.854	7500.35
563.217	7499
563.579	7601.14
563.941	7667.35
564.304	7609.73
564.666	7657.41
565.028	7704.87
565.39	7707.35
565.753	7732.89
566.115	7733.34
566.477	7778.99
566.839	7842.49
567.201	7862.38
567.563	7826.67
567.925	7907.57
568.287	7950.51
568.648	7938.99
569.01	7953
569.372	7974.47
569.734	7990.96
570.095	8077.06
570.457	8115.93
570.819	8204.52
571.18	8232.31
571.542	8223.95
571.903	8285.64
572.265	8328.81
572.626	8346.21
572.987	8441.8
573.349	8449.03
573.71	8520.44
574.071	8558.4
574.432	8581.68
574.794	8633.21
575.155	8685.18
575.516	8744.84
575.877	8801.11
576.238	8855.8
576.599	8907.1
576.96	9026.42
577.32	9075.91
577.681	9210.59
578.042	9216.24
578.403	9336.69
578.763	9482.9
579.124	9565.61
579.485	9623.24
579.845	9725.15
580.206	9826.85
580.566	9969.67
580.927	9990.01
581.287	10230.23
581.648	10338.02
582.008	10454.85
582.368	10558.13
582.728	10694.62
583.089	10861.4
583.449	11095.29
583.809	11181.84
584.169	11405.56
584.529	11500.7
584.889	11816.85
585.249	11960.8
585.609	12131.87
585.969	12471.07
586.329	12619.32
586.688	12798.97
587.048	13007.55
587.408	13305.4
587.768	13483.93
588.127	13650.7
588.487	14067.64
588.846	14352.6
589.206	14452.26
589.565	14751.69
589.925	15072.36
590.284	15376.08
590.643	15713.92
591.003	15983.97
591.362	16318.88
591.721	16508.03
592.08	16874.57
592.44	17233.88
592.799	17521.33
593.158	17762.46
593.517	18133.07
593.876	18446.28
594.235	18668.42
594.593	19114.06
594.952	19471.56
595.311	19749.98
595.67	20175.05
596.029	20617.3
596.387	20953.33
596.746	21191.75
597.104	21322.14
597.463	21900.2
597.822	22182.68
598.18	22484.82
598.538	22782.66
598.897	23235.53
599.255	23375.19
599.613	23943.31
599.972	24255.85
600.33	24645.44
600.688	24762.72
601.046	25115.48
601.404	25618.07
601.762	25803.83
602.12	26227.32
602.478	26593.86
602.836	26924.25
603.194	27170.34
603.552	27434.97
603.91	27774.17
604.268	28116.08
604.625	28281.5
604.983	28692.79
605.341	28862.5
605.698	29452.09
606.056	29669.49
606.413	29875.58
606.771	30163.49
607.128	30459.3
607.485	30628.79
607.843	30912.85
608.2	31426.73
608.557	31694.07
608.914	31796.66
609.272	32210.66
609.629	32576.53
609.986	32727.71
610.343	33061.26
610.7	33445.43
611.057	33611.53
611.414	33719.33
611.771	34034.12
612.127	34390.27
612.484	34487.21
612.841	34769.47
613.198	34749.58
613.554	35045.39
613.911	35453.52
614.267	35607.41
614.624	35798.37
614.98	35922.43
615.337	36326.04
615.693	36355.64
616.05	36497.33
616.406	36950.43
616.762	36814.16
617.118	37111.1
617.475	37301.38
617.831	37421.37
618.187	37660.01
618.543	37821.14
618.899	38285.76
619.255	38242.6
619.611	38264.06
619.967	38587.9
620.323	38808.01
620.678	38742.02
621.034	38908.34
621.39	38886.65
621.746	38999.86
622.101	39564.14
622.457	39323.7
622.812	39500.19
623.168	39852.5
623.523	39732.27
623.879	40002.1
624.234	39870.8
624.589	40046.16
624.945	40261.53
625.3	40367.06
625.655	40314.18
626.01	40622.42
626.365	40656.09
626.72	40650.89
627.075	40711.68
627.43	40896.54
627.785	40820.83
628.14	40985.12
628.495	41045.01
628.85	41031.68
629.205	41050.21
629.559	41211.78
629.914	41092.69
630.269	41239.58
630.623	41189.86
630.978	41149.19
631.332	41550.98
631.687	41527.71
632.041	41409.74
632.396	41470.31
632.75	41390.54
633.104	41594.37
633.459	41406.35
633.813	41577.42
634.167	41548.5
634.521	41444.32
634.875	41612.68
635.229	41628.72
635.583	41414.94
635.937	41495.84
636.291	41501.49
636.645	41516.41
636.999	41505.34
637.352	41753.46
637.706	41564.99
638.06	41662.17
638.413	41518.22
638.767	41534.26
639.121	41515.73
639.474	41273.7
639.828	41520.48
640.181	41449.97
640.534	41590.08
640.888	41453.59
641.241	41214.95
641.594	41397.99
641.947	41660.59
642.301	41409.52
642.654	41531.1
643.007	41532.68
643.36	41461.04
643.713	41428.28
644.066	41586.46
644.419	41285
644.771	41057.44
645.124	40647.73
645.477	40730.44
645.83	40487.51
646.182	40331.35
646.535	40306.72
646.888	40301.3
647.24	40181.08
647.593	40400.96
647.945	40214.75
648.298	40048.65
648.65	40078.03
649.002	40063.57
649.355	40149.44
649.707	40113.73
650.059	40179.04
650.411	40691.57
650.763	40823.32
651.115	41206.59
651.467	41094.27
651.819	41082.3
652.171	40915.29
652.523	40939.7
652.875	40943.54
653.227	40834.17
653.578	41177.66
653.93	40916.88
654.282	40920.72
654.633	40779.93
654.985	40846.14
655.337	40979.02
655.688	40819.93
656.039	40888.4
656.391	40596.66
656.742	40659.93
657.094	40697.22
657.445	40821.06
657.796	40675.3
658.147	40522.08
658.498	40672.81
658.849	40675.75
659.2	40768.18
659.551	40788.07
659.902	40836.2
660.253	40613.61
660.604	40762.76
660.955	40594.85
661.306	40765.24
661.656	40755.98
662.007	40592.14
662.358	40554.4
662.708	40538.35
663.059	40648.86
663.409	40407.74
663.76	40708.29
664.11	40626.26
664.461	40738.35
664.811	40591.01
665.161	40645.02
665.511	40571.57
665.862	40577.68
666.212	40729.76
666.562	40652.02
666.912	40507.17
667.262	40460.39
667.612	40535.87
667.962	40551.69
668.312	40572.48
668.662	40704
669.011	40555.98
669.361	40463.55
669.711	40367.29
670.06	40412.71
670.41	40449.32
670.76	40264.92
671.109	40437.11
671.459	40349.66
671.808	40359.15
672.157	40415.87
672.507	40215.65
672.856	40231.47
673.205	40200.51
673.554	40379.26
673.904	40314.63
674.253	40373.16
674.602	40294.52
674.951	39658.15
675.3	39628.77
675.649	40156.9
675.998	40123.68
676.346	40108.76
676.695	40283.9
677.044	39870.12
677.393	40056.33
677.741	40133.62
678.09	39944.47
678.438	39908.77
678.787	39871.93
679.135	39976.56
679.484	39674.65
679.832	39966.39
680.181	39748.77
680.529	39695.44
680.877	39694.08
681.225	39512.17
681.573	39959.61
681.922	39377.93
682.27	39461.77
682.618	39565.73
682.966	39284.83
683.314	39520.98
683.661	39366.63
684.009	39224.27
684.357	39143.36
684.705	38977.49
685.053	39150.14
685.4	38920.32
685.748	38909.92
686.095	38856.59
686.443	38730.27
686.79	38786.76
687.138	38798.51
687.485	38674.68
687.832	38544.96
688.18	38646.65
688.527	38373.89
688.874	38333.22
689.221	38305.19
689.568	38256.83
689.915	38092.32
690.262	38136.61
690.609	37960.57
690.956	38044.64
691.303	37912.44
691.65	37658.2
691.997	37754.7
692.344	37587.25
692.69	37477.42
693.037	37548.15
693.383	37296.86
693.73	37277.42
694.077	37150.42
694.423	37047.37
694.769	37013.02
695.116	36870.88
695.462	36860.49
695.808	36720.38
696.155	36879.24
696.501	36486.48
696.847	36572.81
697.193	36300.05
697.539	36441.06
697.885	36118.36
698.231	36081.97
698.577	36047.63
698.923	36007.63
699.269	35860.29
699.614	35640.4
699.96	35692.83
700.306	35772.6
700.651	35514.08
700.997	35349.79
701.342	35324.03
701.688	35363.58
702.033	35154.32
702.379	35150.25
702.724	34943.47
703.069	35057.37
703.415	34731.05
703.76	34778.96
704.105	34694.44
704.45	34613.09
704.795	34439.08
705.14	34189.14
705.485	34346.43
705.83	34153.44
706.175	34151.63
706.52	34108.47
706.865	33947.79
707.209	33984.18
707.554	33905.31
707.899	33802.94
708.243	33820.79
708.588	33615.37
708.932	33484.08
709.277	33491.08
709.621	33465.09
709.966	33117.99
710.31	33348.04
710.654	32965.22
710.998	33159.11
711.342	33084.31
711.687	33064.43
712.031	32828.5
712.375	32707.83
712.719	32901.72
713.063	32819.91
713.407	32757.09
713.75	32627.83
714.094	32638.9
714.438	32541.5
714.782	32482.97
715.125	32256.09
715.469	32414.73
715.812	32219.93
716.156	32005.25
716.499	32165.24
716.843	32088.86
717.186	31903.1
717.53	32098.12
717.873	32059.48
718.216	32006.83
718.559	31948.07
718.902	31605.26
719.246	31761.64
719.589	31598.48
719.932	31479.38
720.275	31605.48
720.617	31405.26
720.96	31534.98
721.303	31452.27
721.646	31395.54
721.989	31239.39
722.331	31245.94
722.674	31200.07
723.016	31151.94
723.359	31063.58
723.701	31042.79
724.044	30917.14
724.386	30711.04
724.729	30872.39
725.071	30718.05
725.413	30697.03
725.755	30703.59
726.097	30497.72
726.439	30380.2
726.782	30370.03
727.124	30536.81
727.465	30294.1
727.807	30402.58
728.149	30265.18
728.491	30242.35
728.833	30382.46
729.175	30186.99
729.516	30155.13
729.858	30045.52
730.199	30077.16
730.541	30041.46
730.882	30042.36
731.224	30076.48
731.565	29821.8
731.906	29844.17
732.248	29970.27
732.589	29697.96
732.93	29533.22
733.271	29632.43
733.612	29596.27
733.953	29649.83
734.294	29627.68
734.635	29375.26
734.976	29589.49
735.317	29368.71
735.658	29338.88
735.999	29413.22
736.339	29230.18
736.68	29432.88
737.021	29241.25
737.361	29065.66
737.702	29328.48
738.042	29123.06
738.383	29039.22
738.723	29083.29
739.063	29035.61
739.404	28966.68
739.744	28838.1
740.084	28818.21
740.424	28826.35
740.764	28735.73
741.104	28780.7
741.444	28617.09
741.784	28667.93
742.124	28562.85
742.464	28572.57
742.804	28482.4
743.143	28394.95
743.483	28366.25
743.823	28321.73
744.162	28415.96
744.502	28423.42
744.841	28152.01
745.181	28256.87
745.52	28188.4
745.86	28213.71
746.199	28118.34
746.538	28226.36
746.877	28180.71
747.216	28296.87
747.556	28008.74
747.895	28002.19
748.234	28038.34
748.573	27886.26
748.911	27823.44
749.25	27930.55
749.589	27710.44
749.928	27795.19
750.267	27821.85
750.605	27606.27
750.944	27716.09
751.283	27419.15
751.621	27642.87
751.96	27390.68
752.298	27498.25
752.636	27457.34
752.975	27345.71
753.313	27236.56
753.651	27321.53
753.989	27170.8
754.327	27183
754.666	26977.36
755.004	27065.71
755.342	27114.75
755.679	26931.71
756.017	26744.59
756.355	26902.56
756.693	26745.72
757.031	26770.36
757.368	26634.54
757.706	26778.26
758.044	26554.99
758.381	26590.02
758.719	26498.72
759.056	26515.45
759.394	26426.41
759.731	26141.67
760.068	26264.38
760.405	26103.48
760.743	25932.41
761.08	26155.46
