Data from hue_10_FLMS001491_74.txt Node
Date: Mon Feb 06 15:32:31 GMT 2017
User: dcchb
Spectrometer: FLMS00149
Trigger mode: 0
Integration Time (sec): 2.000000E-2
Scans to average: 10
Electric dark correction enabled: true
Nonlinearity correction enabled: false
Boxcar width: 0
XAxis mode: Wavelengths
Number of Pixels in Spectrum: 2048
>>>>>Begin Spectral Data<<<<<
341.393	-10.51
341.776	-10.51
342.16	-10.51
342.543	-59.32
342.927	-63.39
343.31	-61.13
343.693	-64.74
344.077	-70.85
344.46	-80.56
344.843	-49.6
345.226	-52.09
345.61	-35.82
345.993	1.24
346.376	-6.67
346.759	0.11
347.142	27.46
347.525	29.94
347.908	57.96
348.291	80.56
348.674	112.2
349.057	111.97
349.44	123.5
349.823	143.39
350.206	171.18
350.588	182.26
350.971	204.63
351.354	225.42
351.737	229.71
352.119	243.5
352.502	251.86
352.884	290.95
353.267	300.22
353.65	297.96
354.032	287.34
354.414	316.04
354.797	309.71
355.179	312.87
355.562	319.43
355.944	323.49
356.326	327.11
356.709	337.28
357.091	344.28
357.473	347.67
357.855	335.25
358.238	351.06
358.62	330.73
359.002	333.44
359.384	345.87
359.766	336.15
360.148	337.05
360.53	331.18
360.912	338.64
361.294	364.4
361.676	335.92
362.057	331.18
362.439	301.8
362.821	319.43
363.203	316.71
363.584	319.2
363.966	318.3
364.348	327.34
364.729	316.94
365.111	322.82
365.493	333.89
365.874	311.07
366.256	332.31
366.637	334.34
367.019	288.47
367.4	307.22
367.781	299.77
368.163	314.91
368.544	318.97
368.925	284.85
369.306	311.97
369.688	293.89
370.069	293.44
370.45	314.68
370.831	327.34
371.212	305.64
371.593	306.32
371.974	302.03
372.355	311.52
372.736	297.96
373.117	311.74
373.498	311.29
373.879	292.53
374.26	311.29
374.641	295.92
375.021	338.86
375.402	307.22
375.783	320.1
376.163	310.61
376.544	324.62
376.925	321.23
377.305	321.23
377.686	314.68
378.066	317.84
378.447	305.87
378.827	319.88
379.208	326.21
379.588	327.11
379.968	325.98
380.349	324.4
380.729	342.02
381.109	335.47
381.489	330.05
381.87	334.12
382.25	329.82
382.63	331.63
383.01	335.7
383.39	347.22
383.77	345.19
384.15	329.6
384.53	321.46
384.91	311.52
385.29	344.06
385.67	324.17
386.049	356.04
386.429	328.24
386.809	332.08
387.189	346.77
387.568	329.14
387.948	361.46
388.328	335.47
388.707	351.06
389.087	341.12
389.466	340.22
389.846	349.93
390.225	341.8
390.605	344.96
390.984	342.7
391.363	361.23
391.743	359.43
392.122	355.58
392.501	347.67
392.881	361.46
393.26	371.63
393.639	354.68
394.018	381.35
394.397	332.31
394.776	348.35
395.155	363.95
395.534	372.08
395.913	362.36
396.292	377.28
396.671	353.32
397.05	369.37
397.429	357.84
397.808	356.71
398.186	358.52
398.565	374.79
398.944	342.25
399.323	364.62
399.701	377.28
400.08	358.3
400.458	363.95
400.837	361.91
401.215	377.96
401.594	385.19
401.972	376.6
402.351	388.58
402.729	367.79
403.107	371.85
403.486	396.49
403.864	388.58
404.242	366.43
404.62	378.41
404.999	401.46
405.377	371.18
405.755	384.51
406.133	382.48
406.511	398.97
406.889	383.83
407.267	388.58
407.645	389.71
408.023	382.48
408.401	405.98
408.779	382.93
409.156	409.82
409.534	396.49
409.912	431.06
410.29	413.21
410.667	408.24
411.045	415.02
411.422	444.85
411.8	415.02
412.178	420.21
412.555	428.8
412.933	434.23
413.31	429.48
413.687	411.4
414.065	412.76
414.442	426.09
414.819	415.47
415.197	427.22
415.574	435.81
415.951	436.71
416.328	453.66
416.705	453.89
417.082	434.68
417.46	452.98
417.837	450.95
418.214	445.75
418.591	464.73
418.967	438.75
419.344	465.64
419.721	447.78
420.098	469.48
420.475	471.51
420.852	471.96
421.228	458.86
421.605	480.1
421.982	485.52
422.358	497.73
422.735	455.69
423.111	468.12
423.488	463.6
423.864	484.62
424.241	494.79
424.617	492.76
424.994	490.72
425.37	485.98
425.746	452.53
426.123	498.18
426.499	512.64
426.875	501.12
427.251	523.26
427.627	501.12
428.003	498.18
428.379	500.66
428.756	517.39
429.132	495.02
429.507	512.64
429.883	522.36
430.259	547.22
430.635	547.22
431.011	541.34
431.387	555.58
431.763	548.8
432.138	538.18
432.514	541.34
432.89	543.83
433.265	542.02
433.641	561.91
434.016	571.62
434.392	546.99
434.767	558.52
435.143	566.88
435.518	568.69
435.894	574.56
436.269	577.27
436.644	562.58
437.02	582.47
437.395	572.53
437.77	586.31
438.145	595.58
438.52	585.86
438.895	615.69
439.271	617.27
439.646	604.39
440.021	626.09
440.395	621.34
440.77	610.72
441.145	615.92
441.52	626.54
441.895	622.02
442.27	622.92
442.645	617.72
443.019	645.97
443.394	639.19
443.769	659.76
444.143	639.64
444.518	618.63
444.892	659.08
445.267	653.2
445.641	673.09
446.016	688.91
446.39	670.15
446.764	670.83
447.139	685.52
447.513	670.6
447.887	688.23
448.262	665.63
448.636	673.32
449.01	684.61
449.384	691.17
449.758	685.74
450.132	663.37
450.506	687.55
450.88	698.85
451.254	678.74
451.628	705.86
452.002	718.06
452.376	714.9
452.75	705.63
453.123	717.38
453.497	719.87
453.871	714.22
454.244	742.47
454.618	745.4
454.992	738.4
455.365	735.46
455.739	754.22
456.112	777.04
456.486	746.08
456.859	776.82
457.232	784.95
457.606	781.56
457.979	786.08
458.352	777.72
458.725	788.11
459.099	777.72
459.472	836.48
459.845	834.89
460.218	824.05
460.591	824.72
460.964	832.18
461.337	839.86
461.71	844.61
462.083	887.55
462.456	862.01
462.829	861.56
463.201	883.71
463.574	895.46
463.947	920.31
464.32	913.99
464.692	923.48
465.065	920.99
465.438	931.16
465.81	932.97
466.183	936.13
466.555	995.12
466.928	969.58
467.3	963.25
467.672	994.66
468.045	1012.06
468.417	1029.24
468.789	997.83
469.161	1051.16
469.534	1064.72
469.906	1068.79
470.278	1079.41
470.65	1075.56
471.022	1110.59
471.394	1120.54
471.766	1129.35
472.138	1126.64
472.51	1180.87
472.882	1207.99
473.253	1190.14
473.625	1229.23
473.997	1242.79
474.369	1229.91
474.74	1298.16
475.112	1287.54
475.484	1324.15
475.855	1325.5
476.227	1375.22
476.598	1395.1
476.97	1392.84
477.341	1439.62
477.713	1466.74
478.084	1462.9
478.455	1504.25
478.827	1538.38
479.198	1572.05
479.569	1554.65
479.94	1624.25
480.311	1659.28
480.682	1694.08
481.053	1736.34
481.424	1770.91
481.795	1772.04
482.166	1836.67
482.537	1856.56
482.908	1850.01
483.279	1922.1
483.65	1924.58
484.021	1975.65
484.391	2008.42
484.762	2045.03
485.133	2070.34
485.503	2103.11
485.874	2137.46
486.244	2186.95
486.615	2213.61
486.985	2256.32
487.356	2322.31
487.726	2325.48
488.097	2403.44
488.467	2396.66
488.837	2464.68
489.207	2464.91
489.578	2534.06
489.948	2575.86
490.318	2648.86
490.688	2632.36
491.058	2702.87
491.428	2700.83
491.798	2750.32
492.168	2801.62
492.538	2816.99
492.908	2862.86
493.278	2898.12
493.648	2894.05
494.017	2975.4
494.387	3024.89
494.757	3052.69
495.126	3067.83
495.496	3120.93
495.866	3153.93
496.235	3149.86
496.605	3186.47
496.974	3229.18
497.344	3237.32
497.713	3261.27
498.082	3283.87
498.452	3328.61
498.821	3345.11
499.19	3378.78
499.559	3388.27
499.928	3420.36
500.298	3448.61
500.667	3464.2
501.036	3495.84
501.405	3527.7
501.774	3531.32
502.143	3560.92
502.512	3543.52
502.88	3602.05
503.249	3634.82
503.618	3668.27
503.987	3604.76
504.356	3644.76
504.724	3733.57
505.093	3696.29
505.462	3727.47
505.83	3710.75
506.199	3769.28
506.567	3810.86
506.936	3852.22
507.304	3851.54
507.672	3877.75
508.041	3849.96
508.409	3925.89
508.777	3894.02
509.145	3916.62
509.514	3953.68
509.882	3924.98
510.25	3991.65
510.618	3990.74
510.986	3967.01
511.354	4053.79
511.722	4054.02
512.09	4055.83
512.458	4011.08
512.826	4036.62
513.193	4063.73
513.561	4044.07
513.929	4091.76
514.297	4096.28
514.664	4159.1
515.032	4166.11
515.4	4158.87
515.767	4190.96
516.135	4218.99
516.502	4121.13
516.869	4212.21
517.237	4250.85
517.604	4201.58
517.972	4247.68
518.339	4274.12
518.706	4242.49
519.073	4275.93
519.44	4270.28
519.808	4289.94
520.175	4261.24
520.542	4362.94
520.909	4359.77
521.276	4341.24
521.643	4389.83
522.009	4411.07
522.376	4336.95
522.743	4395.93
523.11	4462.82
523.477	4477.28
523.843	4468.24
524.21	4481.13
524.577	4525.19
524.943	4518.64
525.31	4545.98
525.676	4559.77
526.043	4571.74
526.409	4624.17
526.776	4670.27
527.142	4710.95
527.508	4705.53
527.874	4736.49
528.241	4779.65
528.607	4722.47
528.973	4737.62
529.339	4805.64
529.705	4810.38
530.071	4821.68
530.437	4848.8
530.803	4879.53
531.169	4927.44
531.535	4905.29
531.901	4893.77
532.267	4960.43
532.632	5003.15
532.998	4956.82
533.364	5019.19
533.73	4981.68
534.095	5072.97
534.461	5000.89
534.826	5085.18
535.192	5124.72
535.557	5110.26
535.923	5153.42
536.288	5140.99
536.653	5170.15
537.019	5216.7
537.384	5188.68
537.749	5208.11
538.114	5213.31
538.479	5240.2
538.845	5303.7
539.21	5290.14
539.575	5297.83
539.94	5325.62
540.305	5359.29
540.67	5338.73
541.034	5410.59
541.399	5395
541.764	5454.43
542.129	5453.75
542.494	5499.63
542.858	5501.66
543.223	5531.27
543.587	5525.62
543.952	5575.33
544.316	5632.28
544.681	5618.5
545.045	5604.26
545.41	5656.46
545.774	5648.1
546.138	5682.22
546.503	5694.2
546.867	5721.54
547.231	5774.65
547.595	5785.27
547.959	5797.02
548.324	5803.12
548.688	5847.64
549.052	5858.72
549.416	5870.02
549.779	5889.9
550.143	5922.22
550.507	5981.42
550.871	5938.04
551.235	5927.19
551.599	6018.94
551.962	6003.8
552.326	6049.22
552.689	6034.3
553.053	6108.65
553.417	6008.54
553.78	6157.24
554.143	6160.85
554.507	6127.41
554.87	6176.67
555.234	6232.72
555.597	6165.37
555.96	6182.78
556.323	6212.15
556.686	6247.41
557.05	6261.64
557.413	6324.24
557.776	6318.59
558.139	6283.79
558.502	6328.53
558.865	6395.88
559.228	6385.26
559.59	6392.94
559.953	6436.1
560.316	6447.63
560.679	6405.59
561.041	6485.14
561.404	6495.54
561.767	6501.86
562.129	6485.37
562.492	6536.21
562.854	6539.83
563.217	6563.33
563.579	6652.37
563.941	6660.28
564.304	6635.42
564.666	6666.15
565.028	6673.38
565.39	6750.9
565.753	6742.08
566.115	6776.21
566.477	6827.05
566.839	6764.91
567.201	6867.28
567.563	6873.6
567.925	6943.43
568.287	6921.74
568.648	6903.21
569.01	6945.02
569.372	6938.46
569.734	6954.73
570.095	7055.29
570.457	7070.44
570.819	7148.63
571.18	7147.95
571.542	7160.83
571.903	7208.06
572.265	7289.86
572.626	7247.38
572.987	7377.32
573.349	7409.64
573.71	7359.69
574.071	7422.29
574.432	7535.73
574.794	7627.03
575.155	7590.42
575.516	7688.72
575.877	7819.79
576.238	7828.16
576.599	7903.18
576.96	7968.27
577.32	8016.85
577.681	8083.29
578.042	8240.12
578.403	8316.5
578.763	8422.72
579.124	8484.64
579.485	8602.6
579.845	8742.93
580.206	8822.71
580.566	8996.94
580.927	9069.71
581.287	9241.23
581.648	9318.29
582.008	9517.6
582.368	9692.29
582.728	9771.16
583.089	9994.65
583.449	10123.69
583.809	10379.5
584.169	10506.73
584.529	10710.34
584.889	11040.27
585.249	11196.65
585.609	11396.88
585.969	11740.82
586.329	11916.86
586.688	12155.5
587.048	12391.43
587.408	12657.18
587.768	12959.32
588.127	13150.28
588.487	13443.83
588.846	13850.37
589.206	14112.51
589.565	14361.09
589.925	14657.13
590.284	14909.33
590.643	15355.42
591.003	15579.36
591.362	16024.1
591.721	16373.69
592.08	16644.42
592.44	16999.67
592.799	17451.18
593.158	17779.98
593.517	18073.08
593.876	18466.29
594.235	18810.92
594.593	19063.11
594.952	19608.18
595.311	19882.3
595.67	20245
596.029	20789.4
596.387	21132.21
596.746	21590.51
597.104	21799.99
597.463	22143.71
597.822	22518.62
598.18	22869.79
598.538	23267.52
598.897	23730.56
599.255	23888.3
599.613	24531.22
599.972	24698.22
600.33	25205.33
600.688	25485.77
601.046	25961.92
601.404	26384.73
601.762	26704.72
602.12	27190.58
602.478	27405.49
602.836	27658.14
603.194	28032.37
603.552	28331.8
603.91	28589.64
604.268	29141.49
604.625	29517.3
604.983	29755.04
605.341	29882.49
605.698	30450.84
606.056	30756.59
606.413	31112.06
606.771	31507.08
607.128	31906.17
607.485	32100.74
607.843	32305.48
608.2	32755.64
608.557	33105.91
608.914	33230.65
609.272	33652.56
609.629	33853.01
609.986	34310.62
610.343	34452.09
610.7	34881
611.057	35083.94
611.414	35357.83
611.771	35767.99
612.127	35960.52
612.484	36154.87
612.841	36513.05
613.198	36614.74
613.554	36815.87
613.911	37176.31
614.267	37438.22
614.624	37654.94
614.98	37790.76
615.337	38062.39
615.693	38293.34
616.05	38407.24
616.406	38767.68
616.762	38738.3
617.118	38927.9
617.475	39197.5
617.831	39589.13
618.187	39635.91
618.543	39830.48
618.899	40224.82
619.255	40225.27
619.611	40421.65
619.967	40653.96
620.323	40864.12
620.678	40917.46
621.034	40870.45
621.39	41045.36
621.746	41142.53
622.101	41865.45
622.457	41511.79
622.812	41728.73
623.168	41913.36
623.523	41917.65
623.879	42279
624.234	42101.6
624.589	42315.38
624.945	42458.88
625.3	42640.12
625.655	42439.68
626.01	42713.57
626.365	42795.37
626.72	42830.63
627.075	42879.21
627.43	43057.29
627.785	43000.56
628.14	43242.37
628.495	43191.07
628.85	43259.77
629.205	43267.9
629.559	43643.94
629.914	43437.61
630.269	43566.2
630.623	43609.14
630.978	43551.74
631.332	43808.9
631.687	43864.72
632.041	43721
632.396	43979.3
632.75	43740.21
633.104	43823.59
633.459	43824.72
633.813	43731.39
634.167	43792.41
634.521	43804.38
634.875	43912.18
635.229	44014.77
635.583	43675.12
635.937	43798.28
636.291	43810.71
636.645	43908.56
636.999	43885.06
637.352	43935
637.706	43751.73
638.06	44003.7
638.413	43926.87
638.767	43858.39
639.121	43962.57
639.474	43692.52
639.828	43886.42
640.181	43965.74
640.534	43824.95
640.888	43755.57
641.241	43723.94
641.594	43773.43
641.947	43996.92
642.301	43814.33
642.654	43961.22
643.007	43823.37
643.36	43899.3
643.713	43687.78
644.066	43959.18
644.419	43782.01
644.771	43474.45
645.124	43235.81
645.477	43130.5
645.83	42864.07
646.182	42762.6
646.535	42640.12
646.888	42693.91
647.24	42545.89
647.593	42814.58
647.945	42635.6
648.298	42540.69
648.65	42431.99
649.002	42379.79
649.355	42624.75
649.707	42453.46
650.059	42704.3
650.411	43095.93
650.763	43190.62
651.115	43559.87
651.467	43450.04
651.819	43344.96
652.171	43401.46
652.523	43257.05
652.875	43405.07
653.227	43270.84
653.578	43456.15
653.93	43354.68
654.282	43253.44
654.633	42968.02
654.985	43269.03
655.337	43245.76
655.688	43299.99
656.039	43269.94
656.391	43000.56
656.742	43181.12
657.094	43288.24
657.445	43243.27
657.796	43111.97
658.147	43047.57
658.498	43084.86
658.849	43265.64
659.2	43109.94
659.551	42926.89
659.902	43198.98
660.253	42964.18
660.604	43133.22
660.955	42868.82
661.306	43053.44
661.656	42968.02
662.007	42873.56
662.358	42990.4
662.708	43011.41
663.059	42922.15
663.409	42785.43
663.76	43116.04
664.11	42970.28
664.461	43020.68
664.811	42903.39
665.161	42923.5
665.511	42957.4
665.862	42840.12
666.212	43180.9
666.562	43110.62
666.912	42989.94
667.262	42847.8
667.612	42834.69
667.962	43042.6
668.312	42900.23
668.662	43024.07
669.011	42827.46
669.361	42831.98
669.711	42802.6
670.06	42809.38
670.41	42763.96
670.76	42610.52
671.109	42883.05
671.459	42808.03
671.808	42709.5
672.157	42805.77
672.507	42549.5
672.856	42546.79
673.205	42614.36
673.554	42630.18
673.904	42573.46
674.253	42836.73
674.602	42723.96
674.951	42086.46
675.3	41800.6
675.649	42484.42
675.998	42538.43
676.346	42706.11
676.695	42536.62
677.044	42403.29
677.393	42415.95
677.741	42453.01
678.09	42371.88
678.438	42292.11
678.787	42293.92
679.135	42358.32
679.484	42062.96
679.832	42189.51
680.181	41992
680.529	42056.18
680.877	42005.34
681.225	41990.42
681.573	42261.83
681.922	41764.66
682.27	41831.33
682.618	41848.96
682.966	41601.28
683.314	41785
683.661	41559.02
684.009	41486.93
684.357	41522.64
684.705	41442.41
685.053	41346.14
685.4	41270.21
685.748	41246.03
686.095	41045.14
686.443	40982.31
686.79	41118.81
687.138	40985.02
687.485	40988.19
687.832	40822.54
688.18	40965.59
688.527	40683.79
688.874	40706.84
689.221	40531.7
689.568	40483.12
689.915	40330.13
690.262	40371.03
690.609	40415.77
690.956	40178.04
691.303	40090.81
691.65	39982.56
691.997	39928.55
692.344	39877.26
692.69	39773.98
693.037	39652.4
693.383	39341
693.73	39575.8
694.077	39439.3
694.423	39299.42
694.769	39168.57
695.116	39139.65
695.462	39020.56
695.808	38909.15
696.155	39085.64
696.501	38788.92
696.847	38775.82
697.193	38552.09
697.539	38625.54
697.885	38308.26
698.231	38246.56
698.577	38336.73
698.923	38101.48
699.269	37949.4
699.614	37880.02
699.96	37784.88
700.306	37835.5
700.651	37677.09
700.997	37491.1
701.342	37477.55
701.688	37352.35
702.033	37160.49
702.379	37278.45
702.724	37095.41
703.069	37264.44
703.415	36742.88
703.76	36767.96
704.105	36807.73
704.45	36680.96
704.795	36646.38
705.14	36607.96
705.485	36451.13
705.83	36325.71
706.175	36267.41
706.52	36111.71
706.865	36085.04
707.209	36079.16
707.554	36034.42
707.899	36072.61
708.243	35865.61
708.588	35731.83
708.932	35604.37
709.277	35579.74
709.621	35736.12
709.966	35351.05
710.31	35431.05
710.654	35203.48
710.998	35239.64
711.342	35250.71
711.687	35064.95
712.031	34940.89
712.375	34816.15
712.719	34905.64
713.063	34833.55
713.407	34914.9
713.75	34709.71
714.094	34690.5
714.438	34485.53
714.782	34519.43
715.125	34364.18
715.469	34471.97
715.812	34320.57
716.156	33967.58
716.499	34020.24
716.843	34109.5
717.186	33940.92
717.53	34024.98
717.873	34135.94
718.216	33969.84
718.559	33809.39
718.902	33577.76
719.246	33684.65
719.589	33608.04
719.932	33368.28
720.275	33536.86
720.617	33347.94
720.96	33201.95
721.303	33200.14
721.646	33319.46
721.989	33046.25
722.331	33220.71
722.674	33073.82
723.016	33166.92
723.359	33116.76
723.701	33017.55
724.044	32865.24
724.386	32693.72
724.729	32775.52
725.071	32724.68
725.413	32590.89
725.755	32730.33
726.097	32546.38
726.439	32428.86
726.782	32278.81
727.124	32474.29
727.465	32310.22
727.807	32471.35
728.149	32241.07
728.491	32315.87
728.833	32272.94
729.175	32150.45
729.516	31977.58
729.858	31942.32
730.199	32023.23
730.541	31905.94
730.882	31837.24
731.224	31997.01
731.565	31736.68
731.906	31677.7
732.248	31681.99
732.589	31537.59
732.93	31471.38
733.271	31533.52
733.612	31553.63
733.953	31538.72
734.294	31484.71
734.635	31343.47
734.976	31235.45
735.317	31126.75
735.658	31130.37
735.999	31179.86
736.339	31152.97
736.68	31146.86
737.021	31061.44
737.361	30910.03
737.702	31181.21
738.042	30941.22
738.383	30853.99
738.723	30891.28
739.063	30832.3
739.404	30942.35
739.744	30614.22
740.084	30561.12
740.424	30775.8
740.764	30567.9
741.104	30688.12
741.444	30505.75
741.784	30536.49
742.124	30478.63
742.464	30403.16
742.804	30377.85
743.143	30228.92
743.483	30289.26
743.823	30216.04
744.162	29960.91
744.502	30127.91
744.841	29960.91
745.181	30096.72
745.52	29939.44
745.86	29949.38
746.199	29830.29
746.538	29915.03
746.877	29914.35
747.216	29798.88
747.556	29781.25
747.895	29839.33
748.234	29699.67
748.573	29615.38
748.911	29585.78
749.25	29541.94
749.589	29424.88
749.928	29417.42
750.267	29488.38
750.605	29285.67
750.944	29294.03
751.283	29210.87
751.621	29147.6
751.96	28987.15
752.298	29042.97
752.636	29006.81
752.975	28894.04
753.313	28820.6
753.651	29089.52
753.989	28839.81
754.327	28703.54
754.666	28724.78
755.004	28658.12
755.342	28630.55
755.679	28531.34
756.017	28400.5
756.355	28459.7
756.693	28330.44
757.031	28237.11
757.368	28266.94
757.706	28141.75
758.044	28155.53
758.381	28098.13
758.719	27905.59
759.056	27966.38
759.394	27944.46
759.731	27819.04
760.068	27703.34
760.405	27647.97
760.743	27583.79
761.08	27646.62
761.417	27455.44
