Data from hue_340_FLMS001491_37.txt Node
Date: Mon Feb 06 15:43:02 GMT 2017
User: dcchb
Spectrometer: FLMS00149
Trigger mode: 0
Integration Time (sec): 2.000000E-2
Scans to average: 10
Electric dark correction enabled: true
Nonlinearity correction enabled: false
Boxcar width: 0
XAxis mode: Wavelengths
Number of Pixels in Spectrum: 2048
>>>>>Begin Spectral Data<<<<<
341.393	-27.5
341.776	-27.5
342.16	-27.5
342.543	-65.01
342.927	-46.48
343.31	-70.66
343.693	-76.31
344.077	-55.52
344.46	-53.94
344.843	-72.47
345.226	-42.87
345.61	-38.57
345.993	-6.03
346.376	-9.42
346.759	-8.06
347.142	21.54
347.525	58.83
347.908	57.02
348.291	73.97
348.674	98.15
349.057	124.36
349.44	122.33
349.823	134.3
350.206	151.25
350.588	163
350.971	193.29
351.354	201.65
351.737	237.35
352.119	247.52
352.502	254.3
352.884	276.45
353.267	274.87
353.65	266.5
354.032	294.07
354.414	301.76
354.797	285.94
355.179	315.54
355.562	334.75
355.944	293.17
356.326	333.85
356.709	315.77
357.091	330.68
357.473	326.62
357.855	316.22
358.238	328.42
358.62	345.82
359.002	341.98
359.384	329.1
359.766	341.3
360.148	329.55
360.53	337.91
360.912	326.84
361.294	329.1
361.676	307.41
362.057	314.41
362.439	329.33
362.821	313.28
363.203	319.38
363.584	302.44
363.966	333.4
364.348	308.09
364.729	295.66
365.111	323
365.493	311.25
365.874	309.89
366.256	295.43
366.637	309.44
367.019	304.24
367.4	314.86
367.781	305.15
368.163	313.06
368.544	306.05
368.925	317.8
369.306	307.63
369.688	298.59
370.069	311.93
370.45	325.49
370.831	311.93
371.212	311.25
371.593	302.66
371.974	301.98
372.355	286.62
372.736	294.07
373.117	316.22
373.498	316.22
373.879	308.54
374.26	304.7
374.641	296.79
375.021	297.24
375.402	312.83
375.783	306.28
376.163	318.25
376.544	305.6
376.925	325.03
377.305	304.92
377.686	318.48
378.066	325.94
378.447	306.73
378.827	326.84
379.208	311.02
379.588	328.2
379.968	328.65
380.349	327.07
380.729	317.8
381.109	320.74
381.489	308.76
381.87	322.77
382.25	320.74
382.63	329.55
383.01	322.55
383.39	324.81
383.77	329.33
384.15	330.23
384.53	340.85
384.91	318.48
385.29	327.75
385.67	331.81
386.049	349.89
386.429	333.4
386.809	346.95
387.189	346.28
387.568	337.91
387.948	315.99
388.328	337.01
388.707	336.33
389.087	339.27
389.466	356.22
389.846	356.22
390.225	344.24
390.605	353.73
390.984	361.42
391.363	347.63
391.743	347.86
392.122	361.64
392.501	343.34
392.881	354.86
393.26	366.39
393.639	364.35
394.018	349.21
394.397	350.8
394.776	364.81
395.155	351.7
395.534	372.26
395.913	343.79
396.292	381.98
396.671	381.08
397.05	380.17
397.429	368.42
397.808	371.13
398.186	374.98
398.565	379.04
398.944	373.39
399.323	371.59
399.701	371.13
400.08	379.04
400.458	376.56
400.837	389.21
401.215	382.43
401.594	394.64
401.972	390.12
402.351	393.73
402.729	371.13
403.107	390.79
403.486	366.16
403.864	401.42
404.242	400.96
404.62	385.82
404.999	383.34
405.377	411.81
405.755	406.61
406.133	412.04
406.511	412.26
406.889	392.38
407.267	404.81
407.645	410.91
408.023	423.11
408.401	434.86
408.779	440.96
409.156	431.92
409.534	438.03
409.912	440.51
410.29	435.09
410.667	427.4
411.045	442.32
411.422	452.49
411.8	458.14
412.178	454.97
412.555	471.92
412.933	454.3
413.31	458.59
413.687	480.28
414.065	458.59
414.442	485.93
414.819	470.79
415.197	509.89
415.574	498.36
415.951	479.83
416.328	506.95
416.705	501.3
417.082	511.24
417.46	503.11
417.837	502.88
418.214	525.03
418.591	506.05
418.967	512.6
419.344	536.78
419.721	525.25
420.098	520.06
420.475	549.43
420.852	527.74
421.228	555.08
421.605	558.93
421.982	567.29
422.358	555.54
422.735	544.69
423.111	577.91
423.488	587.17
423.864	593.05
424.241	589.21
424.617	586.72
424.994	562.32
425.37	602.54
425.746	579.49
426.123	592.15
426.499	610.22
426.875	613.84
427.251	612.94
427.627	635.31
428.003	629.21
428.379	644.57
428.756	641.64
429.132	635.53
429.507	643.67
429.883	651.13
430.259	648.64
430.635	679.6
431.011	673.95
431.387	667.62
431.763	700.84
432.138	673.27
432.514	688.19
432.89	700.39
433.265	699.94
433.641	708.75
434.016	727.06
434.392	741.97
434.767	739.26
435.143	740.62
435.518	751.01
435.894	760.73
436.269	774.06
436.644	763.67
437.02	779.94
437.395	774.51
437.77	789.43
438.145	766.83
438.52	762.76
438.895	813.61
439.271	791.01
439.646	805.25
440.021	800.28
440.395	819.94
440.77	820.39
441.145	822.87
441.52	831.01
441.895	841.18
442.27	841.4
442.645	861.74
443.019	874.17
443.394	860.84
443.769	863.1
444.143	874.17
444.518	882.99
444.892	863.1
445.267	872.36
445.641	884.79
446.016	876.21
446.39	884.79
446.764	885.25
447.139	872.82
447.513	900.39
447.887	888.41
448.262	905.36
448.636	873.49
449.01	909.43
449.384	925.92
449.758	926.15
450.132	916.88
450.506	918.69
450.88	933.15
451.254	937.67
451.628	948.52
452.002	937.67
452.376	943.1
452.75	951.23
453.123	965.24
453.497	974.73
453.871	966.6
454.244	991.91
454.618	1007.5
454.992	1008.63
455.365	996.65
455.739	1006.6
456.112	1000.95
456.486	1031.23
456.859	1061.29
457.232	1045.47
457.606	1038.69
457.979	1075.3
458.352	1095.64
458.725	1089.53
459.099	1092.02
459.472	1069.65
459.845	1091.79
460.218	1116.65
460.591	1126.59
460.964	1131.57
461.337	1152.81
461.71	1150.1
462.083	1169.98
462.456	1177.67
462.829	1172.47
463.201	1190.77
463.574	1214.05
463.947	1202.98
464.32	1223.32
464.692	1232.58
465.065	1212.02
465.438	1251.11
465.81	1281.39
466.183	1276.65
466.555	1286.59
466.928	1294.05
467.3	1328.17
467.672	1353.26
468.045	1353.48
468.417	1368.62
468.789	1386.93
469.161	1404.1
469.534	1425.34
469.906	1421.28
470.278	1425.34
470.65	1405.46
471.022	1464.44
471.394	1482.74
471.766	1482.52
472.138	1483.42
472.51	1541.5
472.882	1542.85
473.253	1541.95
473.625	1590.54
473.997	1588.05
474.369	1613.36
474.74	1622.17
475.112	1645.45
475.484	1660.37
475.855	1691.78
476.227	1708.05
476.598	1755.96
476.97	1763.64
477.341	1800.48
477.713	1820.59
478.084	1844.77
478.455	1869.17
478.827	1899
479.198	1922.73
479.569	1941.94
479.94	1973.8
480.311	1963.63
480.682	1990.3
481.053	2051.54
481.424	2073.24
481.795	2101.26
482.166	2140.81
482.537	2168.83
482.908	2229.39
483.279	2260.58
483.65	2231.2
484.021	2285.89
484.391	2312.78
484.762	2346.68
485.133	2349.61
485.503	2368.82
485.874	2442.27
486.244	2435.71
486.615	2505.54
486.985	2492.21
487.356	2541.92
487.726	2548.48
488.097	2623.73
488.467	2626.89
488.837	2668.25
489.207	2714.35
489.578	2764.74
489.948	2818.53
490.318	2829.37
490.688	2775.14
491.058	2848.36
491.428	2841.8
491.798	2896.04
492.168	2949.37
492.538	2952.31
492.908	3006.55
493.278	3028.92
493.648	3038.86
494.017	3119.54
494.387	3113.66
494.757	3124.06
495.126	3174.22
495.496	3130.61
495.866	3162.25
496.235	3210.16
496.605	3233.21
496.974	3260.32
497.344	3324.73
497.713	3319.08
498.082	3329.25
498.452	3395.24
498.821	3413.09
499.19	3372.41
499.559	3397.04
499.928	3406.99
500.298	3425.97
500.667	3433.65
501.036	3430.94
501.405	3460.54
501.774	3502.8
502.143	3550.94
502.512	3572.41
502.88	3586.87
503.249	3592.97
503.618	3609.47
503.987	3583.71
504.356	3628
504.724	3675.23
505.093	3659.41
505.462	3665.96
505.83	3693.76
506.199	3737.83
506.567	3738.05
506.936	3746.19
507.304	3764.94
507.672	3781.89
508.041	3800.2
508.409	3841.78
508.777	3833.42
509.145	3855.11
509.514	3872.06
509.882	3870.93
510.25	3876.58
510.618	3893.75
510.986	3869.12
511.354	3937.37
511.722	3942.34
512.09	3964.94
512.458	3959.29
512.826	4009.46
513.193	3994.54
513.561	3970.81
513.929	4019.17
514.297	4055.56
514.664	4057.82
515.032	4068.89
515.4	4124.93
515.767	4104.6
516.135	4105.27
516.502	4118.61
516.869	4124.48
517.237	4140.07
517.604	4159.28
517.972	4207.64
518.339	4166.74
518.706	4199.06
519.073	4210.81
519.44	4255.78
519.808	4197.47
520.175	4247.42
520.542	4322.22
520.909	4300.52
521.276	4304.14
521.643	4352.95
522.009	4348.43
522.376	4356.34
522.743	4388.66
523.11	4366.74
523.477	4422.55
523.843	4442.89
524.21	4511.14
524.577	4468.43
524.943	4485.15
525.31	4513.62
525.676	4505.49
526.043	4589.1
526.409	4626.62
526.776	4652.83
527.142	4611.7
527.508	4647.86
527.874	4684.24
528.241	4713.39
528.607	4746.84
528.973	4768.53
529.339	4748.42
529.705	4824.58
530.071	4830.9
530.437	4830.23
530.803	4874.74
531.169	4840.17
531.535	4913.39
531.901	4915.42
532.267	4953.16
532.632	4953.61
532.998	4988.41
533.364	5008.75
533.73	5009.43
534.095	5072.25
534.461	5085.36
534.826	5082.2
535.192	5080.84
535.557	5142.31
535.923	5121.74
536.288	5195.64
536.653	5196.09
537.019	5205.36
537.384	5165.13
537.749	5273.83
538.114	5259.82
538.479	5271.57
538.845	5265.24
539.21	5336.43
539.575	5317.22
539.94	5308.18
540.305	5365.13
540.67	5380.95
541.034	5403.77
541.399	5430.21
541.764	5453.03
542.129	5484.67
542.494	5477.89
542.858	5500.72
543.223	5584.78
543.587	5530.55
543.952	5584.56
544.316	5577.55
544.681	5598.79
545.045	5588.85
545.41	5703.42
545.774	5658.45
546.138	5688.06
546.503	5755.85
546.867	5768.73
547.231	5801.95
547.595	5740.71
547.959	5814.38
548.324	5840.37
548.688	5833.82
549.052	5847.15
549.416	5879.92
549.779	5866.13
550.143	5922.85
550.507	5970.08
550.871	5990.42
551.235	5961.5
551.599	5992.68
551.962	6019.35
552.326	6020.93
552.689	6019.12
553.053	6015.73
553.417	6066.8
553.78	6108.61
554.143	6119.23
554.507	6171.43
554.87	6171.43
555.234	6199.46
555.597	6205.56
555.96	6231.09
556.323	6236.52
556.686	6268.61
557.05	6300.02
557.413	6303.18
557.776	6350.19
558.139	6323.97
558.502	6384.54
558.865	6404.2
559.228	6414.82
559.59	6428.6
559.953	6445.78
560.316	6468.6
560.679	6478.09
561.041	6494.59
561.404	6556.73
561.767	6549.28
562.129	6572.33
562.492	6630.86
562.854	6603.06
563.217	6629.5
563.579	6616.39
563.941	6716.5
564.304	6702.95
564.666	6733.9
565.028	6686
565.39	6734.36
565.753	6766.9
566.115	6819.55
566.477	6789.27
566.839	6845.09
567.201	6889.16
567.563	6883.51
567.925	6944.75
568.287	6960.11
568.648	6935.03
569.01	6981.36
569.372	7092.09
569.734	7034.91
570.095	7113.78
570.457	7092.54
570.819	7137.74
571.18	7179.99
571.542	7210.05
571.903	7212.31
572.265	7284.4
572.626	7320.78
572.987	7351.74
573.349	7366.66
573.71	7413.89
574.071	7410.95
574.432	7533.43
574.794	7530.49
575.155	7624.5
575.516	7594.45
575.877	7664.05
576.238	7765.97
576.599	7846.87
576.96	7893.87
577.32	7893.42
577.681	8008.67
578.042	8095.9
578.403	8197.6
578.763	8188.33
579.124	8247.99
579.485	8443.46
579.845	8501.77
580.206	8555.55
580.566	8654.53
580.927	8773.17
581.287	8928.88
581.648	9019.27
582.008	9188.3
582.368	9324.8
582.728	9423.78
583.089	9555.98
583.449	9692.25
583.809	9828.51
584.169	10006.36
584.529	10068.96
584.889	10288.61
585.249	10423.53
585.609	10603.41
585.969	10884.53
586.329	10960.91
586.688	11225.99
587.048	11298.3
587.408	11464.4
587.768	11839.76
588.127	11899.87
588.487	12127.44
588.846	12321.1
589.206	12517.93
589.565	12736.68
589.925	13126.05
590.284	13262.77
590.643	13450.79
591.003	13832.93
591.362	14041.96
591.721	14230.2
592.08	14486.92
592.44	14796.97
592.799	15054.82
593.158	15246
593.517	15510.62
593.876	15791.29
594.235	16059.08
594.593	16376.59
594.952	16572.74
595.311	16807.09
595.67	17207.53
596.029	17544.24
596.387	17863.78
596.746	18090.22
597.104	18277.1
597.463	18573.37
597.822	18857.2
598.18	19122.51
598.538	19348.94
598.897	19737.18
599.255	19716.39
599.613	20323.6
599.972	20438.63
600.33	20743.03
600.688	20917.03
601.046	21273.18
601.404	21601.99
601.762	21856.22
602.12	22102.77
602.478	22423.21
602.836	22617.56
603.194	22773.94
603.552	23048.5
603.91	23255.96
604.268	23579.34
604.625	23741.14
604.983	24078.99
605.341	24150.62
605.698	24499.99
606.056	24882.13
606.413	24973.65
606.771	25247.54
607.128	25455.9
607.485	25710.58
607.843	25824.7
608.2	26175.65
608.557	26354.41
608.914	26559.82
609.272	26843.66
609.629	26941.51
609.986	27331.33
610.343	27323.42
610.7	27717.31
611.057	27868.49
611.414	28049.95
611.771	28261.93
612.127	28546.44
612.484	28587.79
612.841	28883.6
613.198	28910.72
613.554	29040.44
613.911	29439.52
614.267	29496.02
614.624	29664.15
614.98	29834.31
615.337	30102.33
615.693	30163.12
616.05	30191.82
616.406	30494.64
616.762	30576.44
617.118	30691.02
617.475	30833.84
617.831	30997
618.187	31124.22
618.543	31322.64
618.899	31566.7
619.255	31654.38
619.611	31714.26
619.967	31925.33
620.323	31986.8
620.678	31954.94
621.034	32021.6
621.39	32131.2
621.746	32283.74
622.101	32549.05
622.457	32465.43
622.812	32738.19
623.168	32770.73
623.523	32793.11
623.879	32981.58
624.234	32979.32
624.589	33145.41
624.945	33175.7
625.3	33398.97
625.655	33380.89
626.01	33441.9
626.365	33535.01
626.72	33502.01
627.075	33575.91
627.43	33640.77
627.785	33597.38
628.14	33759.18
628.495	33822.01
628.85	33739.52
629.205	33685.96
629.559	34015.9
629.914	33847.54
630.269	33949.01
630.623	33941.33
630.978	34045.28
631.332	34149.91
631.687	34222
632.041	34174.99
632.396	34241.88
632.75	34117.14
633.104	34183.58
633.459	34024.26
633.813	34109.23
634.167	34290.02
634.521	34230.36
634.875	34242.33
635.229	34236.68
635.583	33985.84
635.937	34179.96
636.291	34261.99
636.645	34207.53
636.999	34173.41
637.352	34327.98
637.706	34090.7
638.06	34335.66
638.413	34326.17
638.767	34160.53
639.121	34269.9
639.474	34040.53
639.828	34035.11
640.181	34225.16
640.534	34247.98
640.888	34071.27
641.241	33911.95
641.594	34111.26
641.947	34196.69
642.301	33995.79
642.654	34153.3
643.007	34245.72
643.36	34198.72
643.713	34071.27
644.066	34245.72
644.419	34038.05
644.771	33724.38
645.124	33591.73
645.477	33452.3
645.83	33260.89
646.182	33205.3
646.535	32918.08
646.888	33177.5
647.24	33047.11
647.593	33207.79
647.945	33094.57
648.298	32956.27
648.65	32881.24
649.002	32922.37
649.355	33033.78
649.707	32922.59
650.059	33047.79
650.411	33568.23
650.763	33482.13
651.115	33826.75
651.467	33759.18
651.819	33707.88
652.171	33647.55
652.523	33621.33
652.875	33716.92
653.227	33493.2
653.578	33806.19
653.93	33660.88
654.282	33546.99
654.633	33518.29
654.985	33492.3
655.337	33519.87
655.688	33410.27
656.039	33714.66
656.391	33375.46
656.742	33438.97
657.094	33497.49
657.445	33551.28
657.796	33392.64
658.147	33377.72
658.498	33469.7
658.849	33461.79
659.2	33470.83
659.551	33357.84
659.902	33390.83
660.253	33532.52
660.604	33474.67
660.955	33277.39
661.306	33411.4
661.656	33345.86
662.007	33276.71
662.358	33322.81
662.708	33399.19
663.059	33360.32
663.409	33190.38
663.76	33402.81
664.11	33318.97
664.461	33410.72
664.811	33313.54
665.161	33384.28
665.511	33196.94
665.862	33191.74
666.212	33274.22
666.562	33253.21
666.912	33265.41
667.262	33240.33
667.612	33272.19
667.962	33261.57
668.312	33234
668.662	33316.48
669.011	33231.06
669.361	33190.84
669.711	33090.73
670.06	33112.19
670.41	33090.05
670.76	33179.09
671.109	33264.51
671.459	33203.94
671.808	33156.26
672.157	33256.15
672.507	33001.24
672.856	32900.45
673.205	33078.3
673.554	33120.1
673.904	33109.26
674.253	33277.39
674.602	32965.31
674.951	32536.39
675.3	32486.22
675.649	33059.54
675.998	32911.97
676.346	33013.21
676.695	32904.06
677.044	32795.14
677.393	32821.35
677.741	32985.64
678.09	32862.71
678.438	32656.84
678.787	32827
679.135	32806.67
679.484	32605.77
679.832	32650.96
680.181	32546.11
680.529	32618.65
680.877	32462.04
681.225	32523.28
681.573	32670.62
681.922	32474.7
682.27	32425.88
682.618	32252.33
682.966	32197.64
683.314	32340.01
683.661	32171.2
684.009	32055.05
684.357	32048.72
684.705	31950.42
685.053	31995.61
685.4	31945.9
685.748	31925.11
686.095	31839.91
686.443	31671.33
686.79	31707.94
687.138	31653.7
687.485	31692.8
687.832	31641.72
688.18	31769.18
688.527	31492.35
688.874	31462.75
689.221	31494.16
689.568	31362.64
689.915	31222.3
690.262	31232.7
690.609	31239.7
690.956	31061.63
691.303	31074.06
691.65	30858.02
691.997	30806.04
692.344	30898.69
692.69	30642.43
693.037	30705.7
693.383	30442.43
693.73	30578.25
694.077	30319.27
694.423	30369.89
694.769	30297.81
695.116	30202.67
695.462	30160.18
695.808	30026.85
696.155	30123.12
696.501	29838.16
696.847	29893.97
697.193	29586.86
697.539	29828.66
697.885	29549.58
698.231	29429.58
698.577	29486.3
698.923	29490.14
699.269	29324.5
699.614	29132.41
699.96	29166.54
700.306	29069.36
700.651	28936.94
700.997	28948.01
701.342	28870.95
701.688	28830.27
702.033	28858.97
702.379	28749.15
702.724	28690.62
703.069	28649.49
703.415	28369.95
703.76	28487.68
704.105	28375.82
704.45	28340.34
704.795	28075.72
705.14	28070.52
705.485	28107.58
705.83	27943.97
706.175	27903.97
706.52	27980.8
706.865	27842.5
707.209	27870.75
707.554	27649.74
707.899	27640.93
708.243	27622.85
708.588	27635.95
708.932	27346.02
709.277	27308.51
709.621	27321.16
709.966	27189.86
710.31	27262.86
710.654	27048.85
710.998	26958.68
711.342	26954.62
711.687	26988.74
712.031	26901.96
712.375	26748.75
712.719	26811.57
713.063	26762.53
713.407	26871.68
713.75	26544.91
714.094	26595.53
714.438	26554.85
714.782	26575.19
715.125	26498.81
715.469	26419.49
715.812	26339.72
716.156	26159.83
716.499	26203.68
716.843	26168.42
717.186	26010.23
717.53	26172.94
717.873	26077.35
718.216	26107.41
718.559	25882.78
718.902	25716.23
719.246	25786.74
719.589	25735.44
719.932	25692.95
720.275	25633.97
720.617	25774.76
720.96	25704.93
721.303	25599.62
721.646	25598.95
721.989	25498.38
722.331	25522.34
722.674	25445.5
723.016	25538.38
723.359	25383.58
723.701	25291.83
724.044	25140.65
724.386	25082.57
724.729	25233.08
725.071	25111.95
725.413	25087.77
725.755	25131.39
726.097	25014.78
726.439	24846.65
726.782	24940.43
727.124	25003.93
727.465	24850.94
727.807	24734.56
728.149	24742.24
728.491	24698.18
728.833	24685.3
729.175	24605.3
729.516	24524.4
729.858	24541.12
730.199	24484.4
730.541	24573.89
730.882	24509.93
731.224	24512.19
731.565	24329.15
731.906	24411.86
732.248	24437.62
732.589	24271.97
732.93	24244.86
733.271	24144.29
733.612	24264.97
733.953	24204.63
734.294	24189.72
734.635	24138.42
734.976	24178.42
735.317	24083.51
735.658	24101.36
735.999	23898.43
736.339	23903.85
736.68	23988.37
737.021	24000.8
737.361	23880.8
737.702	24001.25
738.042	23790.63
738.383	23827.47
738.723	23841.25
739.063	23711.99
739.404	23803.96
739.744	23675.61
740.084	23510.86
740.424	23608.94
740.764	23472.67
741.104	23631.09
741.444	23469.06
741.784	23420.02
742.124	23454.14
742.464	23396.74
742.804	23335.28
743.143	23387.25
743.483	23333.24
743.823	23213.92
744.162	23229.06
744.502	23222.51
744.841	23102.51
745.181	23170.08
745.52	23069.07
745.86	23143.19
746.199	23095.28
746.538	22999.47
746.877	23080.37
747.216	23102.29
747.556	22945.23
747.895	22991.56
748.234	22905.91
748.573	22870.66
748.911	22825.69
749.25	22813.93
749.589	22681.96
749.928	22723.31
750.267	22707.72
750.605	22681.28
750.944	22600.61
751.283	22543.21
751.621	22544.34
751.96	22533.04
752.298	22398.58
752.636	22448.75
752.975	22243.55
753.313	22307.05
753.651	22335.75
753.989	22175.98
754.327	22266.83
754.666	22062.32
755.004	22122.65
755.342	22111.58
755.679	22037.01
756.017	21962.66
756.355	22015.08
756.693	21811.02
757.031	21947.06
757.368	21707.97
757.706	21754.3
758.044	21676.79
758.381	21606.28
758.719	21590.24
759.056	21591.14
759.394	21383.92
759.731	21335.78
760.068	21366.74
760.405	21246.97
760.743	21200.87
