Data from hue_280_FLMS001491_00050.txt Node
Date: Tue Feb 07 15:55:20 GMT 2017
User: dcchb
Spectrometer: FLMS00149
Trigger mode: 0
Integration Time (sec): 2.000000E-2
Scans to average: 10
Electric dark correction enabled: true
Nonlinearity correction enabled: false
Boxcar width: 0
XAxis mode: Wavelengths
Number of Pixels in Spectrum: 2048
>>>>>Begin Spectral Data<<<<<
341.393	-12.99
341.776	-12.99
342.16	-12.99
342.543	-60.45
342.927	-55.25
343.31	-82.37
343.693	-76.5
344.077	-48.02
344.46	-52.99
344.843	-32.65
345.226	-34.46
345.61	-25.65
345.993	-15.25
346.376	-12.77
346.759	-0.56
347.142	2.82
347.525	48.7
347.908	57.74
348.291	72.65
348.674	96.16
349.057	103.16
349.44	118.75
349.823	175.25
350.206	172.99
350.588	189.03
350.971	199.88
351.354	222.25
351.737	218.86
352.119	229.94
352.502	242.82
352.884	280.33
353.267	269.03
353.65	293.89
354.032	276.49
354.414	274.23
354.797	297.96
355.179	298.18
355.562	327.79
355.944	312.87
356.326	314.68
356.709	317.17
357.091	323.72
357.473	329.37
357.855	351.29
358.238	344.96
358.62	340.22
359.002	342.48
359.384	340.22
359.766	322.82
360.148	316.49
360.53	326.66
360.912	326.66
361.294	314.68
361.676	343.83
362.057	311.97
362.439	339.31
362.821	299.09
363.203	320.1
363.584	329.14
363.966	312.2
364.348	311.97
364.729	303.16
365.111	321.69
365.493	313.78
365.874	314.91
366.256	314
366.637	295.7
367.019	304.74
367.4	315.36
367.781	297.28
368.163	313.55
368.544	309.48
368.925	311.52
369.306	304.96
369.688	299.31
370.069	305.19
370.45	309.94
370.831	299.09
371.212	301.12
371.593	300.67
371.974	299.09
372.355	316.94
372.736	331.86
373.117	304.96
373.498	314.23
373.879	310.16
374.26	306.09
374.641	295.25
375.021	309.71
375.402	323.49
375.783	315.13
376.163	308.58
376.544	322.14
376.925	327.34
377.305	328.92
377.686	318.3
378.066	311.74
378.447	308.81
378.827	321.01
379.208	320.78
379.588	325.08
379.968	320.78
380.349	329.6
380.729	324.17
381.109	317.84
381.489	328.24
381.87	336.83
382.25	322.82
382.63	339.77
383.01	338.18
383.39	351.29
383.77	334.34
384.15	326.43
384.53	340.67
384.91	352.19
385.29	330.05
385.67	341.8
386.049	337.05
386.429	348.35
386.809	357.39
387.189	363.49
387.568	354
387.948	361.69
388.328	337.51
388.707	340.67
389.087	361.69
389.466	361.91
389.846	346.32
390.225	336.38
390.605	367.56
390.984	335.7
391.363	352.19
391.743	361.69
392.122	362.59
392.501	358.07
392.881	374.11
393.26	373.66
393.639	362.59
394.018	368.24
394.397	380.89
394.776	389.03
395.155	390.84
395.534	384.51
395.913	384.51
396.292	377.73
396.671	402.59
397.05	392.19
397.429	388.8
397.808	395.58
398.186	371.85
398.565	383.83
398.944	381.35
399.323	406.2
399.701	393.32
400.08	412.76
400.458	389.93
400.837	382.93
401.215	387.22
401.594	427.45
401.972	397.84
402.351	424.06
402.729	412.31
403.107	407.11
403.486	402.81
403.864	408.69
404.242	428.58
404.62	440.33
404.999	427.67
405.377	417.73
405.755	432.87
406.133	447.78
406.511	442.59
406.889	435.81
407.267	433.77
407.645	448.91
408.023	463.38
408.401	487.11
408.779	474.68
409.156	469.25
409.534	479.42
409.912	511.74
410.29	462.93
410.667	490.27
411.045	510.61
411.422	499.31
411.8	520.33
412.178	523.49
412.555	534.11
412.933	513.55
413.31	540.21
413.687	536.6
414.065	569.36
414.442	560.32
414.819	552.41
415.197	574.34
415.574	591.74
415.951	571.4
416.328	567.33
416.705	603.94
417.082	603.03
417.46	593.09
417.837	573.66
418.214	615.24
418.591	626.54
418.967	631.96
419.344	657.04
419.721	632.64
420.098	659.3
420.475	655.24
420.852	661.34
421.228	664.5
421.605	711.05
421.982	680.55
422.358	703.6
422.735	690.49
423.111	697.04
423.488	737.27
423.864	743.82
424.241	754.44
424.617	734.33
424.994	775.69
425.37	766.19
425.746	771.62
426.123	775.23
426.499	768.45
426.875	791.96
427.251	784.27
427.627	811.62
428.003	826.98
428.379	855.46
428.756	841.22
429.132	845.51
429.507	873.54
429.883	859.53
430.259	869.02
430.635	892.07
431.011	897.94
431.387	939.98
431.763	929.13
432.138	948.79
432.514	953.76
432.89	967.09
433.265	996.02
433.641	1001.67
434.016	1030.82
434.392	1013.87
434.767	1042.8
435.143	1049.58
435.518	1048.67
435.894	1050.25
436.269	1079.18
436.644	1103.13
437.02	1120.76
437.395	1100.2
437.77	1113.76
438.145	1131.16
438.52	1171.16
438.895	1166.64
439.271	1187.43
439.646	1226.75
440.021	1203.25
440.395	1221.55
440.77	1198.95
441.145	1216.35
441.52	1240.98
441.895	1258.84
442.27	1257.03
442.645	1247.76
443.019	1278.27
443.394	1276.69
443.769	1318.5
444.143	1299.29
444.518	1297.93
444.892	1309.68
445.267	1342
445.641	1327.31
446.016	1361.21
446.39	1332.96
446.764	1304.03
447.139	1385.84
447.513	1402.79
447.887	1373.64
448.262	1373.18
448.636	1359.4
449.01	1396.91
449.384	1392.17
449.758	1394.88
450.132	1427.65
450.506	1431.49
450.88	1436.01
451.254	1429.23
451.628	1484.59
452.002	1439.4
452.376	1485.05
452.75	1495.67
453.123	1503.58
453.497	1504.93
453.871	1515.55
454.244	1537.25
454.618	1554.87
454.992	1568.21
455.365	1577.7
455.739	1589.45
456.112	1602.78
456.486	1616.34
456.859	1632.16
457.232	1642.78
457.606	1631.26
457.979	1678.94
458.352	1677.36
458.725	1708.54
459.099	1677.81
459.472	1711.93
459.845	1759.84
460.218	1757.58
460.591	1752.61
460.964	1784.7
461.337	1800.29
461.71	1824.25
462.083	1819.73
462.456	1857.92
462.829	1825.38
463.201	1882.32
463.574	1854.3
463.947	1877.35
464.32	1929.33
464.692	1947.86
465.065	1945.15
465.438	1952.83
465.81	1995.09
466.183	2017.46
466.555	2046.84
466.928	2056.56
467.3	2057.23
467.672	2073.05
468.045	2119.15
468.417	2144.01
468.789	2115.31
469.161	2135.65
469.534	2170.68
469.906	2206.38
470.278	2204.12
470.65	2211.35
471.022	2247.06
471.394	2286.38
471.766	2299.26
472.138	2331.8
472.51	2335.42
472.882	2383.33
473.253	2398.69
473.625	2425.81
473.997	2458.13
474.369	2501.29
474.74	2489.54
475.112	2484.57
475.484	2526.15
475.855	2594.85
476.227	2611.8
476.598	2659.03
476.97	2689.99
477.341	2706.71
477.713	2746.26
478.084	2751
478.455	2868.51
478.827	2847.95
479.198	2859.7
479.569	2905.8
479.94	2950.77
480.311	2979.7
480.682	3055.17
481.053	3067.6
481.424	3100.14
481.795	3143.08
482.166	3151.89
482.537	3165.23
482.908	3233.93
483.279	3229.18
483.65	3326.58
484.021	3350.53
484.391	3380.14
484.762	3405.22
485.133	3400.48
485.503	3475.28
485.874	3509.63
486.244	3557.08
486.615	3603.18
486.985	3586.01
487.356	3668.49
487.726	3699.22
488.097	3735.38
488.467	3748.04
488.837	3801.37
489.207	3819.9
489.578	3842.05
489.948	3877.75
490.318	3887.24
490.688	3932.66
491.058	3963.85
491.428	4005.88
491.798	4056.05
492.168	4098.54
492.538	4090.4
492.908	4127.91
493.278	4182.38
493.648	4176.95
494.017	4238.65
494.387	4263.28
494.757	4301.02
495.126	4305.54
495.496	4340.56
495.866	4376.72
496.235	4417.4
496.605	4467.79
496.974	4445.65
497.344	4476.83
497.713	4470.96
498.082	4475.48
498.452	4563.16
498.821	4540.78
499.19	4550.28
499.559	4602.7
499.928	4597.96
500.298	4592.53
500.667	4639.99
501.036	4607.9
501.405	4670.5
501.774	4662.36
502.143	4713.66
502.512	4693.77
502.88	4750.95
503.249	4744.85
503.618	4799.08
503.987	4755.47
504.356	4820.1
504.724	4880.21
505.093	4878.85
505.462	4901.45
505.83	4834.34
506.199	4908.91
506.567	4919.31
506.936	4921.79
507.304	4963.37
507.672	4995.46
508.041	4990.49
508.409	5009.02
508.777	4999.53
509.145	5041.34
509.514	4998.17
509.882	5051.51
510.25	5065.74
510.618	5103.03
510.986	5064.39
511.354	5126.76
511.722	5140.32
512.09	5224.83
512.458	5164.5
512.826	5225.06
513.193	5219.86
513.561	5227.09
513.929	5232.29
514.297	5246.75
514.664	5279.3
515.032	5235
515.4	5274.32
515.767	5283.36
516.135	5309.8
516.502	5290.82
516.869	5338.28
517.237	5373.76
517.604	5362.23
517.972	5425.51
518.339	5424.6
518.706	5420.54
519.073	5437.94
519.44	5394.32
519.808	5503.02
520.175	5484.26
520.542	5499.4
520.909	5470.93
521.276	5542.11
521.643	5528.33
522.009	5588.21
522.376	5597.03
522.743	5596.58
523.11	5613.52
523.477	5670.92
523.843	5672.73
524.21	5681.09
524.577	5707.76
524.943	5731.26
525.31	5721.77
525.676	5717.93
526.043	5823.24
526.409	5830.24
526.776	5874.76
527.142	5856.46
527.508	5917.25
527.874	5901.65
528.241	5923.8
528.607	5931.03
528.973	5938.94
529.339	5975.55
529.705	5953.85
530.071	6065.72
530.437	6062.55
530.803	6074.98
531.169	6051.03
531.535	6051.71
531.901	6110.91
532.267	6100.07
532.632	6162.44
532.998	6110.01
533.364	6187.52
533.73	6186.39
534.095	6207.18
534.461	6252.15
534.826	6224.13
535.192	6246.5
535.557	6241.08
535.923	6291.7
536.288	6287.41
536.653	6283.11
537.019	6250.12
537.384	6316.11
537.749	6326.05
538.114	6316.56
538.479	6354.97
538.845	6361.53
539.21	6374.41
539.575	6421.64
539.94	6414.18
540.305	6443.56
540.67	6399.04
541.034	6464.12
541.399	6450.34
541.764	6435.2
542.129	6470.9
542.494	6494.41
542.858	6525.37
543.223	6522.43
543.587	6557.91
543.952	6533.5
544.316	6610.33
544.681	6590.67
545.045	6576.21
545.41	6627.96
545.774	6599.26
546.138	6625.48
546.503	6596.55
546.867	6648.3
547.231	6648.07
547.595	6655.98
547.959	6659.6
548.324	6656.21
548.688	6668.41
549.052	6719.71
549.416	6718.13
549.779	6693.27
550.143	6735.76
550.507	6791.12
550.871	6727.39
551.235	6733.95
551.599	6759.48
551.962	6801.29
552.326	6778.47
552.689	6862.53
553.053	6811.91
553.417	6777.79
553.78	6930.1
554.143	6836.09
554.507	6892.81
554.87	6871.57
555.234	6942.3
555.597	6906.37
555.96	6884.9
556.323	6985.69
556.686	6967.39
557.05	7016.43
557.413	6968.52
557.776	7024.56
558.139	7002.19
558.502	7017.56
558.865	7056.42
559.228	7072.92
559.59	7107.72
559.953	7125.58
560.316	7168.51
560.679	7125.35
561.041	7227.72
561.404	7235.85
561.767	7237.66
562.129	7225.01
562.492	7301.84
562.854	7253.48
563.217	7288.96
563.579	7274.95
563.941	7305.46
564.304	7429.07
564.666	7362.63
565.028	7419.13
565.39	7401.05
565.753	7425.23
566.115	7487.15
566.477	7520.14
566.839	7532.34
567.201	7531.89
567.563	7564.89
567.925	7557.43
568.287	7610.08
568.648	7688.95
569.01	7702.06
569.372	7762.17
569.734	7733.47
570.095	7732.34
570.457	7821.83
570.819	7837.65
571.18	7775.95
571.542	7894.82
571.903	7874.71
572.265	7866.12
572.626	7947.47
572.987	7935.05
573.349	7951.54
573.71	8013.24
574.071	8053.46
574.432	8061.14
574.794	8129.16
575.155	8122.84
575.516	8147.7
575.877	8225.66
576.238	8168.03
576.599	8267.69
576.96	8278.31
577.32	8280.8
577.681	8367.58
578.042	8424.75
578.403	8342.04
578.763	8490.51
579.124	8528.02
579.485	8509.95
579.845	8639.43
580.206	8581.36
580.566	8599.89
580.927	8621.58
581.287	8698.19
581.648	8701.13
582.008	8855.93
582.368	8858.86
582.728	8935.7
583.089	8914.45
583.449	8982.7
583.809	9055.02
584.169	9111.29
584.529	9111.06
584.889	9178.85
585.249	9195.13
585.609	9231.96
585.969	9267.21
586.329	9368.23
586.688	9380.66
587.048	9456.81
587.408	9530.48
587.768	9582.91
588.127	9658.16
588.487	9717.37
588.846	9801.21
589.206	9756.01
589.565	9829.46
589.925	9999.62
590.284	9997.82
590.643	10022.45
591.003	10123.01
591.362	10236.23
591.721	10205.95
592.08	10238.71
592.44	10339.73
592.799	10445.04
593.158	10440.74
593.517	10541.53
593.876	10567.29
594.235	10681.87
594.593	10687.29
594.952	10750.79
595.311	10812.48
595.67	10881.41
596.029	10965.02
596.387	11066.71
596.746	11085.47
597.104	11080.73
597.463	11173.6
597.822	11225.58
598.18	11285.69
598.538	11221.06
598.897	11438.46
599.255	11386.25
599.613	11448.4
599.972	11405.01
600.33	11553.26
600.688	11515.74
601.046	11613.82
601.404	11741.05
601.762	11724.32
602.12	11745.57
602.478	11910.99
602.836	11939.69
603.194	11816.75
603.552	11951.21
603.91	11966.8
604.268	12004.54
604.625	12020.81
604.983	12082.06
605.341	12030.31
605.698	12191.88
606.056	12187.59
606.413	12159.34
606.771	12310.3
607.128	12324.99
607.485	12252.45
607.843	12288.6
608.2	12394.14
608.557	12446.79
608.914	12482.5
609.272	12501.71
609.629	12613.34
609.986	12600.23
610.343	12562.95
610.7	12717.74
611.057	12689.72
611.414	12716.16
611.771	12656.5
612.127	12777.86
612.484	12693.56
612.841	12899.21
613.198	12844.97
613.554	12791.42
613.911	12950.96
614.267	12935.59
614.624	12948.93
614.98	13055.59
615.337	13028.02
615.693	13062.37
616.05	13015.82
616.406	13137.85
616.762	13113.44
617.118	13087.68
617.475	13090.62
617.831	13142.59
618.187	13181.46
618.543	13213.78
618.899	13268.46
619.255	13302.36
619.611	13130.39
619.967	13206.55
620.323	13258.07
620.678	13258.07
621.034	13329.71
621.39	13310.72
621.746	13291.74
622.101	13388.46
622.457	13254.68
622.812	13376.71
623.168	13372.64
623.523	13390.04
623.879	13490.83
624.234	13268.92
624.589	13441.12
624.945	13433.88
625.3	13428.23
625.655	13426.88
626.01	13440.44
626.365	13371.29
626.72	13410.61
627.075	13471.17
627.43	13329.25
627.785	13409.03
628.14	13413.09
628.495	13449.93
628.85	13395.69
629.205	13359.99
629.559	13402.47
629.914	13374.68
630.269	13420.78
630.623	13310.05
630.978	13330.84
631.332	13510.04
631.687	13390.72
632.041	13368.12
632.396	13339.42
632.75	13362.47
633.104	13379.42
633.459	13347.33
633.813	13308.92
634.167	13325.41
634.521	13355.24
634.875	13406.77
635.229	13257.17
635.583	13235.25
635.937	13283.61
636.291	13289.26
636.645	13308.01
636.999	13281.35
637.352	13260.33
637.706	13207.68
638.06	13152.54
638.413	13234.79
638.767	13194.34
639.121	13217.62
639.474	13118.19
639.828	13162.93
640.181	13135.36
640.534	13048.13
640.888	13076.38
641.241	13091.52
641.594	13095.14
641.947	13198.64
642.301	13104.18
642.654	13077.51
643.007	13122.93
643.36	13071.63
643.713	13058.07
644.066	13082.25
644.419	13059.66
644.771	12922.26
645.124	12873.9
645.477	12809.27
645.83	12772.66
646.182	12749.83
646.535	12727.69
646.888	12742.38
647.24	12678.65
647.593	12697.86
647.945	12769.95
648.298	12605.88
648.65	12581.7
649.002	12630.29
649.355	12654.7
649.707	12655.37
650.059	12699.89
650.411	12862.15
650.763	12946.89
651.115	13009.04
651.467	12995.03
651.819	13032.09
652.171	12991.18
652.523	12963.61
652.875	12910.06
653.227	12945.31
653.578	12964.74
653.93	13037.28
654.282	12928.81
654.633	12819.21
654.985	12927.46
655.337	12855.37
655.688	12926.33
656.039	13042.48
656.391	12872.99
656.742	12928.13
657.094	13004.06
657.445	13056.94
657.796	12926.78
658.147	13003.61
658.498	13026.21
658.849	12976.95
659.2	13026.21
659.551	12987.12
659.902	13019.21
660.253	12984.4
660.604	13028.47
660.955	12964.97
661.306	13054.01
661.656	12939.66
662.007	13028.25
662.358	13004.52
662.708	13053.78
663.059	13051.3
663.409	12961.58
663.76	13077.06
664.11	13060.11
664.461	13087.23
664.811	13084.06
665.161	13163.16
665.511	13046.1
665.862	13056.94
666.212	13089.94
666.562	13091.75
666.912	13075.93
667.262	13030.05
667.612	13068.02
667.962	13074.35
668.312	13085.19
668.662	13105.31
669.011	13127.9
669.361	13002.48
669.711	13043.39
670.06	13057.17
670.41	13102.82
670.76	13028.47
671.109	13073.67
671.459	13054.91
671.808	13041.8
672.157	13068.24
672.507	12936.04
672.856	13024.4
673.205	12968.36
673.554	13032.54
673.904	13023.5
674.253	13120.67
674.602	12954.8
674.951	12768.36
675.3	12690.17
675.649	12958.19
675.998	12910.96
676.346	12886.78
676.695	12904.41
677.044	12846.33
677.393	12896.05
677.741	12788.25
678.09	12802.04
678.438	12782.15
678.787	12787.8
679.135	12840.91
679.484	12690.63
679.832	12770.4
680.181	12698.08
680.529	12663.06
680.877	12599.1
681.225	12672.55
681.573	12665.99
681.922	12539.9
682.27	12573.79
682.618	12512.1
682.966	12559.1
683.314	12567.69
683.661	12574.02
684.009	12480.69
684.357	12441.37
684.705	12501.03
685.053	12443.85
685.4	12419.67
685.748	12357.75
686.095	12364.08
686.443	12313.91
686.79	12247.02
687.138	12337.64
687.485	12304.2
687.832	12234.37
688.18	12245.67
688.527	12139.91
688.874	12129.74
689.221	12096.29
689.568	12092.9
689.915	12047.03
690.262	11968.39
690.609	11957.54
690.956	12026.24
691.303	11859.69
691.65	11778.11
691.997	11755.06
692.344	11700.82
692.69	11738.79
693.037	11769.3
693.383	11579.47
693.73	11616.3
694.077	11561.39
694.423	11562.75
694.769	11516.42
695.116	11463.09
695.462	11417.67
695.808	11468.51
696.155	11387.61
696.501	11355.52
696.847	11269.65
697.193	11269.42
697.539	11141.51
697.885	11169.08
698.231	11108.75
698.577	11142.42
698.923	11099.71
699.269	11052.48
699.614	10962.54
699.96	10857
700.306	10839.6
700.651	10747.18
700.997	10828.08
701.342	10795.76
701.688	10834.63
702.033	10733.39
702.379	10762.77
702.724	10682.54
703.069	10664.69
703.415	10558.48
703.76	10502.89
704.105	10513.06
704.45	10509.67
704.795	10422.66
705.14	10388.77
705.485	10377.02
705.83	10278.49
706.175	10303.57
706.52	10295.21
706.865	10255.89
707.209	10245.27
707.554	10177.47
707.899	10154.42
708.243	10113.97
708.588	10097.93
708.932	10053.18
709.277	10039.4
709.621	10090.47
709.966	10018.38
710.31	9983.81
710.654	9884.15
710.998	9942.9
711.342	9930.02
711.687	9874.88
712.031	9828.56
712.375	9845.05
712.719	9840.31
713.063	9791.72
713.407	9840.76
713.75	9734.77
714.094	9772.51
714.438	9678.05
714.782	9685.28
715.125	9686.41
715.469	9722.12
715.812	9631.72
716.156	9535.68
716.499	9577.71
716.843	9539.75
717.186	9544.04
717.53	9592.18
717.873	9602.57
718.216	9497.04
718.559	9467.43
718.902	9397.38
719.246	9446.42
719.589	9406.87
719.932	9380.66
720.275	9353.31
720.617	9459.98
720.96	9283.71
721.303	9351.96
721.646	9314.44
721.989	9281.22
722.331	9384.05
722.674	9348.34
723.016	9340.66
723.359	9315.35
723.701	9330.72
724.044	9313.54
724.386	9222.24
724.729	9265.63
725.071	9251.85
725.413	9323.26
725.755	9260.89
726.097	9210.72
726.439	9229.7
726.782	9167.78
727.124	9255.46
727.465	9191.74
727.807	9156.93
728.149	9124.17
728.491	9181.11
728.833	9233.77
729.175	9205.29
729.516	9087.56
729.858	9111.74
730.199	9121.23
730.541	9161.68
730.882	9158.29
731.224	9101.34
731.565	9197.61
731.906	9102.7
732.248	9162.81
732.589	9149.48
732.93	9147.22
733.271	9109.25
733.612	9123.49
733.953	9173.66
734.294	9110.83
734.635	9103.6
734.976	9109.48
735.317	9169.59
735.658	9130.95
735.999	9200.55
736.339	9119.42
736.68	9146.77
737.021	9128.01
737.361	9101.79
737.702	9165.97
738.042	9094.11
738.383	9175.46
738.723	9137.95
739.063	9107.9
739.404	9201.68
739.744	9208.46
740.084	9168.46
740.424	9154.9
740.764	9231.28
741.104	9214.56
741.444	9234.9
741.784	9211.85
742.124	9302.47
742.464	9310.15
742.804	9293.88
743.143	9351.96
743.483	9405.29
743.823	9364.84
744.162	9427.21
744.502	9478.96
744.841	9486.87
745.181	9536.81
745.52	9564.61
745.86	9608.45
746.199	9622.91
746.538	9627.66
746.877	9706.07
747.216	9735
747.556	9767.54
747.895	9830.14
748.234	9856.8
748.573	9913.98
748.911	10011.6
749.25	10083.46
749.589	10137.47
749.928	10186.74
750.267	10204.36
750.605	10237.81
750.944	10386.96
751.283	10460.85
751.621	10512.6
751.96	10593.28
752.298	10686.39
752.636	10777.91
752.975	10862.43
753.313	10873.95
753.651	10992.59
753.989	11119.59
754.327	11201.17
754.666	11358.01
755.004	11429.64
755.342	11590.99
755.679	11717.55
756.017	11740.37
756.355	11937.65
756.693	11998.22
757.031	12234.59
757.368	12272.56
757.706	12405.44
758.044	12499.22
758.381	12637.07
758.719	12836.61
759.056	12987.79
759.394	13078.41
759.731	13136.04
760.068	13406.77
760.405	13393.89
760.743	13507.55
761.08	13870.03
761.417	13830.26
761.754	14069.8
