Data from hue_22_FLMS001491_00093.txt Node
Date: Tue Feb 07 17:10:57 GMT 2017
User: dcchb
Spectrometer: FLMS00149
Trigger mode: 0
Integration Time (sec): 2.000000E-2
Scans to average: 10
Electric dark correction enabled: true
Nonlinearity correction enabled: false
Boxcar width: 0
XAxis mode: Wavelengths
Number of Pixels in Spectrum: 2048
>>>>>Begin Spectral Data<<<<<
341.393	-9.77
341.776	-9.77
342.16	-9.77
342.543	-60.39
342.927	-77.79
343.31	-72.6
343.693	-77.79
344.077	-59.94
344.46	-54.29
344.843	-57.46
345.226	-43.9
345.61	-42.09
345.993	-17.68
346.376	-6.84
346.759	19.83
347.142	47.4
347.525	57.12
347.908	55.08
348.291	61.64
348.674	91.01
349.057	100.51
349.44	135.53
349.823	131.69
350.206	154.97
350.588	182.54
350.971	204.01
351.354	211.92
351.737	223.21
352.119	253.5
352.502	270.67
352.884	256.66
353.267	291.69
353.65	276.09
354.032	293.95
354.414	293.95
354.797	300.73
355.179	326.04
355.562	306.6
355.944	326.26
356.326	318.35
356.709	350.67
357.091	318.35
357.473	347.96
357.855	352.02
358.238	303.89
358.62	338.01
359.002	340.05
359.384	336.43
359.766	338.69
360.148	340.95
360.53	325.36
360.912	347.28
361.294	329.2
361.676	318.58
362.057	333.27
362.439	331.69
362.821	328.75
363.203	337.11
363.584	338.69
363.966	309.77
364.348	319.48
364.729	321.07
365.111	308.18
365.493	315.42
365.874	316.32
366.256	317.9
366.637	318.35
367.019	297.56
367.4	300.5
367.781	321.97
368.163	308.18
368.544	312.48
368.925	320.39
369.306	311.12
369.688	303.89
370.069	312.93
370.45	294.4
370.831	328.97
371.212	299.6
371.593	296.88
371.974	297.34
372.355	308.86
372.736	300.27
373.117	315.19
373.498	312.7
373.879	329.2
374.26	315.42
374.641	309.09
375.021	309.99
375.402	316.32
375.783	323.1
376.163	316.55
376.544	326.26
376.925	330.33
377.305	317.68
377.686	303.66
378.066	322.42
378.447	305.02
378.827	316.09
379.208	345.25
379.588	335.75
379.968	334.4
380.349	315.64
380.729	338.01
381.109	324
381.489	325.36
381.87	328.07
382.25	344.12
382.63	321.29
383.01	316.55
383.39	334.85
383.77	347.73
384.15	343.66
384.53	318.13
384.91	333.27
385.29	333.72
385.67	337.56
386.049	345.02
386.429	355.19
386.809	361.74
387.189	340.27
387.568	354.74
387.948	346.83
388.328	338.47
388.707	333.95
389.087	344.57
389.466	352.7
389.846	347.05
390.225	359.48
390.605	362.87
390.984	347.73
391.363	352.48
391.743	357
392.122	362.42
392.501	378.01
392.881	359.48
393.26	381.18
393.639	365.36
394.018	361.29
394.397	373.94
394.776	393.61
395.155	399.48
395.534	346.6
395.913	365.81
396.292	387.05
396.671	378.01
397.05	386.6
397.429	364.91
397.808	375.07
398.186	385.24
398.565	391.57
398.944	371.01
399.323	383.66
399.701	373.72
400.08	380.27
400.458	373.72
400.837	379.14
401.215	386.83
401.594	385.02
401.972	379.37
402.351	395.64
402.729	397.45
403.107	365.58
403.486	383.21
403.864	394.06
404.242	406.26
404.62	400.84
404.999	403.1
405.377	399.26
405.755	406.03
406.133	397.22
406.511	413.72
406.889	430.44
407.267	427.73
407.645	410.78
408.023	424.34
408.401	432.47
408.779	429.99
409.156	445.36
409.534	418.46
409.912	439.48
410.29	422.53
410.667	446.49
411.045	426.6
411.422	426.15
411.8	428.41
412.178	435.19
412.555	451.23
412.933	443.55
413.31	451.68
413.687	447.39
414.065	480.83
414.442	465.24
414.819	453.04
415.197	459.37
415.574	452.81
415.951	473.6
416.328	476.32
416.705	467.73
417.082	458.69
417.46	462.76
417.837	476.09
418.214	473.38
418.591	458.69
418.967	458.01
419.344	512.47
419.721	475.19
420.098	494.62
420.475	492.36
420.852	496.65
421.228	504.79
421.605	503.89
421.982	515.18
422.358	512.02
422.735	514.51
423.111	526.94
423.488	510.66
423.864	520.16
424.241	530.1
424.617	528.74
424.994	509.99
425.37	543.88
425.746	531.68
426.123	536.88
426.499	550.89
426.875	539.82
427.251	555.18
427.627	549.08
428.003	565.8
428.379	538.01
428.756	554.05
429.132	572.13
429.507	551.34
429.883	571.68
430.259	592.24
430.635	587.72
431.011	581.62
431.387	566.93
431.763	591.79
432.138	599.25
432.514	608.97
432.89	618.91
433.265	613.26
433.641	620.94
434.016	611.45
434.392	647.16
434.767	636.76
435.143	653.26
435.518	661.62
435.894	631.57
436.269	660.72
436.644	644.67
437.02	668.17
437.395	663.65
437.77	662.52
438.145	682.19
438.52	675.63
438.895	697.33
439.271	670.89
439.646	700.72
440.021	706.14
440.395	693.48
440.77	678.57
441.145	689.87
441.52	717.44
441.895	723.54
442.27	721.28
442.645	705.24
443.019	735.07
443.394	726.7
443.769	715.63
444.143	736.2
444.518	755.18
444.892	735.29
445.267	747.72
445.641	751.11
446.016	759.7
446.39	754.95
446.764	764.67
447.139	765.8
447.513	732.81
447.887	770.09
448.262	805.8
448.636	799.7
449.01	782.07
449.384	801.96
449.758	789.3
450.132	808.51
450.506	805.8
450.88	826.81
451.254	813.93
451.628	823.2
452.002	823.65
452.376	832.46
452.75	825.01
453.123	856.42
453.497	874.5
453.871	833.59
454.244	869.75
454.618	870.66
454.992	878.34
455.365	884.89
455.739	906.36
456.112	945.68
456.486	901.16
456.859	938
457.232	935.06
457.606	940.03
457.979	940.26
458.352	941.39
458.725	957.66
459.099	978.67
459.472	969.18
459.845	994.72
460.218	982.74
460.591	1017.54
460.964	1003.08
461.337	1029.97
461.71	1027.04
462.083	1043.31
462.456	1066.13
462.829	1028.62
463.201	1053.7
463.574	1091.44
463.947	1105.68
464.32	1113.81
464.692	1108.39
465.065	1122.4
465.438	1137.99
465.81	1133.25
466.183	1204.21
466.555	1214.6
466.928	1193.81
467.3	1210.53
467.672	1207.14
468.045	1210.08
468.417	1239.46
468.789	1266.58
469.161	1286.24
469.534	1277.2
469.906	1324.43
470.278	1358.78
470.65	1327.59
471.022	1357.65
471.394	1361.04
471.766	1400.36
472.138	1416.86
472.51	1451.43
472.882	1472
473.253	1474.48
473.625	1518.1
473.997	1547.7
474.369	1546.34
474.74	1570.52
475.112	1614.14
475.484	1634.48
475.855	1643.29
476.227	1692.33
476.598	1741.14
476.97	1746.34
477.341	1783.4
477.713	1789.27
478.084	1848.71
478.455	1879.67
478.827	1911.31
479.198	1952.43
479.569	1936.84
479.94	2022.72
480.311	2030.4
480.682	2090.96
481.053	2140.9
481.424	2173.45
481.795	2211.41
482.166	2219.55
482.537	2267.23
482.908	2335.48
483.279	2359.88
483.65	2390.62
484.021	2463.38
484.391	2480.56
484.762	2520.33
485.133	2549.71
485.503	2576.15
485.874	2663.83
486.244	2710.83
486.615	2748.57
486.985	2800.1
487.356	2847.33
487.726	2860.43
488.097	2958.51
488.467	2983.82
488.837	3053.2
489.207	3046.19
489.578	3104.04
489.948	3165.51
490.318	3210.03
490.688	3217.49
491.058	3302.46
491.428	3336.8
491.798	3393.07
492.168	3464.03
492.538	3484.82
492.908	3557.14
493.278	3598.72
493.648	3577.25
494.017	3674.42
494.387	3704.7
494.757	3728.21
495.126	3780.18
495.496	3814.76
495.866	3819.96
496.235	3857.47
496.605	3921.87
496.974	3918.48
497.344	3977.01
497.713	4031.25
498.082	4051.81
498.452	4101.98
498.821	4132.49
499.19	4136.11
499.559	4206.84
499.928	4212.26
500.298	4194.64
500.667	4287.74
501.036	4298.81
501.405	4322.77
501.774	4327.06
502.143	4373.61
502.512	4413.84
502.88	4426.72
503.249	4457.91
503.618	4478.02
503.987	4560.05
504.356	4536.1
504.724	4555.08
505.093	4548.75
505.462	4595.53
505.83	4640.95
506.199	4692.93
506.567	4740.16
506.936	4686.15
507.304	4748.29
507.672	4800.95
508.041	4811.12
508.409	4879.36
508.777	4846.6
509.145	4852.25
509.514	4911.45
509.882	4853.38
510.25	4918.23
510.618	4990.09
510.986	4958.46
511.354	4985.58
511.722	5073.93
512.09	5054.95
512.458	5048.17
512.826	5146.93
513.193	5120.03
513.561	5155.06
513.929	5196.87
514.297	5242.97
514.664	5227.15
515.032	5216.76
515.4	5282.06
515.767	5249.97
516.135	5306.92
516.502	5310.76
516.869	5399.35
517.237	5376.3
517.604	5346.92
517.972	5431.89
518.339	5471.21
518.706	5458.56
519.073	5515.73
519.44	5488.39
519.808	5457.43
520.175	5550.53
520.542	5578.1
520.909	5587.59
521.276	5620.36
521.643	5625.56
522.009	5703.3
522.376	5663.75
522.743	5724.54
523.11	5703.97
523.477	5804.54
523.843	5840.69
524.21	5855.61
524.577	5868.72
524.943	5943.74
525.31	5901.71
525.676	5997.3
526.043	6015.38
526.409	6049.73
526.776	6057.86
527.142	6114.58
527.508	6156.84
527.874	6172.89
528.241	6198.42
528.607	6212.66
528.973	6230.97
529.339	6219.89
529.705	6320
530.071	6356.16
530.437	6324.52
530.803	6397.29
531.169	6466.67
531.535	6407.46
531.901	6469.6
532.267	6510.51
532.632	6484.52
532.998	6563.16
533.364	6574.46
533.73	6580.11
534.095	6647.9
534.461	6729.71
534.826	6747.11
535.192	6817.39
535.557	6795.47
535.923	6736.49
536.288	6827.79
536.653	6879.76
537.019	6866.2
537.384	6879.31
537.749	6954.34
538.114	6872.31
538.479	6910.5
538.845	6942.81
539.21	6929.93
539.575	7003.15
539.94	7047.67
540.305	7096.48
540.67	7057.84
541.034	7137.61
541.399	7165.4
541.764	7157.27
542.129	7206.08
542.494	7231.39
542.858	7254.44
543.223	7314.33
543.587	7278.85
543.952	7332.18
544.316	7426.87
544.681	7376.47
545.045	7449.92
545.41	7488.33
545.774	7488.79
546.138	7497.15
546.503	7560.2
546.867	7607.88
547.231	7658.05
547.595	7601.33
547.959	7654.21
548.324	7767.87
548.688	7708.44
549.052	7712.96
549.416	7747.08
549.779	7839.06
550.143	7786.41
550.507	7893.75
550.871	7875.67
551.235	7934.65
551.599	7967.87
551.962	7966.51
552.326	7949.34
552.689	8026.17
553.053	7970.36
553.417	8017.59
553.78	8140.29
554.143	8047.19
554.507	8140.07
554.87	8178.26
555.234	8223.68
555.597	8252.61
555.96	8218.94
556.323	8296.9
556.686	8267.97
557.05	8353.85
557.413	8367.86
557.776	8353.85
558.139	8417.8
558.502	8434.52
558.865	8424.81
559.228	8496.67
559.59	8474.52
559.953	8515.2
560.316	8576.44
560.679	8653.05
561.041	8610.34
561.404	8613.73
561.767	8721.07
562.129	8672.03
562.492	8778.7
562.854	8732.6
563.217	8759.49
563.579	8842.87
563.941	8825.7
564.304	8874.96
564.666	8957.67
565.028	8978.69
565.39	9022.31
565.753	8992.93
566.115	9027.5
566.477	9127.84
566.839	9193.15
567.201	9153.6
567.563	9213.71
567.925	9200.38
568.287	9206.93
568.648	9324.67
569.01	9342.52
569.372	9414.84
569.734	9406.7
570.095	9479.92
570.457	9545.23
570.819	9558.11
571.18	9549.52
571.542	9554.27
571.903	9640.59
572.265	9686.02
572.626	9730.99
572.987	9758.78
573.349	9773.02
573.71	9920.81
574.071	9876.97
574.432	10015.05
574.794	10101.6
575.155	10131.43
575.516	10229.96
575.877	10268.83
576.238	10278.32
576.599	10355.83
576.96	10462.04
577.32	10488.48
577.681	10661.36
578.042	10684.18
578.403	10790.17
578.763	10878.98
579.124	10968.92
579.485	11135.24
579.845	11177.5
580.206	11326.43
580.566	11460.66
580.927	11573.88
581.287	11831.95
581.648	11799.18
582.008	12005.05
582.368	12145.61
582.728	12276
583.089	12530.91
583.449	12644.13
583.809	12827.4
584.169	13003.67
584.529	13124.12
584.889	13427.39
585.249	13473.71
585.609	13756.64
585.969	14017.65
586.329	14211.1
586.688	14459.68
587.048	14691.76
587.408	14820.34
587.768	15086.1
588.127	15438.41
588.487	15705.07
588.846	16028.67
589.206	16127.43
589.565	16580.98
589.925	16850.8
590.284	17103.9
590.643	17381.41
591.003	17768.52
591.362	18060.26
591.721	18300.25
592.08	18632.45
592.44	19081.7
592.799	19367.57
593.158	19676.94
593.517	19883.26
593.876	20325.96
594.235	20664.26
594.593	20972.95
594.952	21297.46
595.311	21626.72
595.67	22000.49
596.029	22447.04
596.387	22729.74
596.746	23169.5
597.104	23346.22
597.463	23722.48
597.822	24173.55
598.18	24395.69
598.538	24759.29
598.897	25299.62
599.255	25367.64
599.613	26049.2
599.972	26244.23
600.33	26572.58
600.688	26970.08
601.046	27371.2
601.404	27736.16
601.762	27894.8
602.12	28378.86
602.478	28743.37
602.836	29088.9
603.194	29148.1
603.552	29579.73
603.91	29836.45
604.268	30237.79
604.625	30470.1
604.983	30843.88
605.341	31036.87
605.698	31421.94
606.056	31759.79
606.413	32016.95
606.771	32541.01
607.128	32918.4
607.485	32839.53
607.843	33158.62
608.2	33643.58
608.557	33994.08
608.914	34069.56
609.272	34444.69
609.629	34763.1
609.986	35123.54
610.343	35143.88
610.7	35623.64
611.057	35745.67
611.414	36011.2
611.771	36098.66
612.127	36551.52
612.484	36819.54
612.841	37158.97
613.198	37047.78
613.554	37388.11
613.911	37650.03
614.267	37861.55
614.624	38077.36
614.98	38236.23
615.337	38562.77
615.693	38737.91
616.05	38917.79
616.406	39216.09
616.762	39260.83
617.118	39406.82
617.475	39550.54
617.831	39887.48
618.187	40134.26
618.543	40234.14
618.899	40559.33
619.255	40535.15
619.611	40725.43
619.967	40897.63
620.323	41206.54
620.678	40994.8
621.034	41138.52
621.39	41364.96
621.746	41314.11
622.101	41915.68
622.457	41726.53
622.812	41924.49
623.168	42024.6
623.523	42215.78
623.879	42531.93
624.234	42359.06
624.589	42442.44
624.945	42614.19
625.3	42625.04
625.655	42748.2
626.01	42927.63
626.365	43022.09
626.72	42962.43
627.075	43001.07
627.43	42869.55
627.785	43077.68
628.14	43277.45
628.495	43330.1
628.85	43394.73
629.205	43292.36
629.559	43648.97
629.914	43397.67
630.269	43653.26
630.623	43530.1
630.978	43298.47
631.332	43782.3
631.687	43725.12
632.041	43566.03
632.396	43809.87
632.75	43700.72
633.104	43716.31
633.459	43667.04
633.813	43724.44
634.167	43809.41
634.521	43774.84
634.875	43925.57
635.229	43821.16
635.583	43803.76
635.937	43768.74
636.291	43789.3
636.645	43700.94
636.999	43773.03
637.352	43771
637.706	43760.15
638.06	43709.08
638.413	43775.74
638.767	43764.22
639.121	43779.58
639.474	43630.89
639.828	43660.94
640.181	43846.7
640.534	43796.08
640.888	43686.48
641.241	43542.53
641.594	43563.54
641.947	43743.65
642.301	43569.87
642.654	43594.96
643.007	43698.91
643.36	43627.95
643.713	43661.39
644.066	43856.87
644.419	43625.92
644.771	43121.52
645.124	42952.49
645.477	42817.57
645.83	42677.24
646.182	42542.55
646.535	42460.52
646.888	42582.1
647.24	42262.79
647.593	42638.82
647.945	42522.67
648.298	42382.11
648.65	42320.64
649.002	42104.83
649.355	42303.92
649.707	42365.84
650.059	42454.87
650.411	43071.81
650.763	42999.26
651.115	43366.49
651.467	43285.36
651.819	43316.32
652.171	43226.83
652.523	43073.61
652.875	43091.47
653.227	42920.4
653.578	43152.48
653.93	43058.47
654.282	42959.04
654.633	42928.08
654.985	43094.63
655.337	43065.48
655.688	43093.05
656.039	43235.64
656.391	42860.96
656.742	43026.61
657.094	42903.9
657.445	42983.45
657.796	42914.07
658.147	42814.86
658.498	42803.34
658.849	42915.2
659.2	42847.18
659.551	42738.25
659.902	42944.58
660.253	42861.64
660.604	42829.1
660.955	42659.39
661.306	42959.72
661.656	42781.42
662.007	42885.14
662.358	42729.67
662.708	42888.08
663.059	42705.26
663.409	42599.28
663.76	42883.56
664.11	42732.83
664.461	42787.75
664.811	42890.34
665.161	42703.68
665.511	42579.39
665.862	42604.7
666.212	42773.51
666.562	42739.61
666.912	42655.55
667.262	42760.18
667.612	42657.13
667.962	42794.07
668.312	42701.42
668.662	42775.09
669.011	42769.67
669.361	42602.67
669.711	42513.63
670.06	42623.23
670.41	42443.35
670.76	42539.16
671.109	42608.09
671.459	42372.39
671.808	42506.17
672.157	42555.43
672.507	42306.85
672.856	42354.54
673.205	42316.34
673.554	42490.35
673.904	42373.07
674.253	42648.31
674.602	42388.89
674.951	41855.11
675.3	41750.71
675.649	42435.44
675.998	42346.17
676.346	42355.21
676.695	42543.23
677.044	41980.31
677.393	42279.06
677.741	42404.48
678.09	42218.49
678.438	42032.28
678.787	42045.84
679.135	42124.26
679.484	41872.97
679.832	41995.22
680.181	41699.86
680.529	41858.28
680.877	41697.6
681.225	41659.19
681.573	41944.38
681.922	41527.89
682.27	41536.03
682.618	41558.4
682.966	41407.89
683.314	41406.99
683.661	41333.55
684.009	41254
684.357	41070.5
684.705	41128.81
685.053	41158.64
685.4	41070.28
685.748	40863.73
686.095	40935.14
686.443	40846.33
686.79	40747.35
687.138	40827.34
687.485	40744.41
687.832	40700.12
688.18	40630.29
688.527	40489.27
688.874	40446.56
689.221	40412.89
689.568	40349.62
689.915	40418.32
690.262	40336.74
690.609	40162.96
690.956	39975.39
691.303	39985.33
691.65	39804.55
691.997	39824.43
692.344	39461.28
692.69	39492.01
693.037	39513.48
693.383	39234.17
693.73	39446.14
694.077	39132.02
694.423	39162.76
694.769	38964.34
695.116	38902.88
695.462	38884.8
695.808	38612.49
696.155	38779.94
696.501	38419.95
696.847	38544.24
697.193	38419.95
697.539	38307.18
697.885	38061.32
698.231	38001.88
698.577	38179.96
698.923	38098.38
699.269	37847.31
699.614	37530.03
699.96	37716.47
700.306	37589.46
700.651	37552.63
700.997	37438.51
701.342	37282.13
701.688	37191.51
702.033	37106.99
702.379	37205.97
702.724	36901.35
703.069	37043.26
703.415	36662.93
703.76	36604.4
704.105	36726.21
704.45	36622.94
704.795	36395.82
705.14	36370.06
705.485	36245.77
705.83	36095.94
706.175	36087.58
706.52	35941.82
706.865	35975.72
707.209	35957.19
707.554	35775.05
707.899	35851.2
708.243	35694.15
708.588	35589.74
708.932	35162.63
709.277	35322.18
709.621	35332.8
709.966	35083.77
710.31	35226.36
710.654	34972.81
710.998	34978.01
711.342	34995.41
711.687	34820.27
712.031	34782.76
712.375	34667.51
712.719	34721.06
713.063	34614.17
713.407	34714.51
713.75	34489.21
714.094	34471.81
714.438	34341.41
714.782	34378.25
715.125	34107.3
715.469	34268.87
715.812	34048.99
716.156	33838.38
716.499	33893.74
716.843	33983.91
717.186	33732.39
717.53	33722.45
717.873	33718.6
718.216	33662.34
718.559	33513.86
718.902	33376.47
719.246	33501.89
719.589	33275.68
719.932	33158.85
720.275	33209.47
720.617	33239.52
720.96	33129.69
721.303	33153.2
721.646	33233.19
721.989	32904.84
722.331	32964.5
722.674	32811.74
723.016	32875.46
723.359	32799.99
723.701	32820.1
724.044	32601.8
724.386	32529.48
724.729	32677.5
725.071	32596.83
725.413	32528.13
725.755	32483.38
726.097	32267.57
726.439	32149.83
726.782	32201.36
727.124	32315.25
727.465	32123.39
727.807	32125.43
728.149	32111.87
728.491	31919.56
728.833	31975.6
729.175	31840.24
729.516	31885.66
729.858	31877.98
730.199	31881.14
730.541	31733.12
730.882	31684.76
731.224	31712.56
731.565	31569.28
731.906	31454.03
732.248	31523.18
732.589	31287.48
732.93	31366.12
733.271	31350.08
733.612	31253.81
733.953	31434.82
734.294	31139.69
734.635	31095.62
734.976	31199.58
735.317	31029.41
735.658	31039.81
735.999	31071.89
736.339	30977.66
736.68	31032.12
737.021	31070.09
737.361	30760.94
737.702	30871
738.042	30833.94
738.383	30731.79
738.723	30768.17
739.063	30557.33
739.404	30668.06
739.744	30525.47
740.084	30415.41
740.424	30569.54
740.764	30542.64
741.104	30522.53
741.444	30350.56
741.784	30212.48
742.124	30353.72
742.464	30336.32
742.804	30303.1
743.143	30100.85
743.483	30175.87
743.823	29989.66
744.162	30061.75
744.502	30082.99
744.841	29994.64
745.181	30056.1
745.52	29922.32
745.86	29972.49
746.199	29833.74
746.538	29756.68
746.877	29904.47
747.216	29733.62
747.556	29695.66
747.895	29843.9
748.234	29661.76
748.573	29467.42
748.911	29509.22
749.25	29519.62
749.589	29419.73
749.928	29374.09
750.267	29376.8
750.605	29238.04
750.944	29095.45
751.283	29116.92
751.621	29193.75
751.96	28799.64
752.298	29020.88
752.636	29051.83
752.975	28750.37
753.313	28704.05
753.651	28926.41
753.989	28647.33
754.327	28702.92
754.666	28395.13
755.004	28546.76
755.342	28589.25
755.679	28550.83
756.017	28467.22
756.355	28410.04
756.693	28324.62
757.031	28277.17
757.368	28248.01
757.706	28195.13
758.044	28110.16
758.381	28117.17
758.719	28000.34
759.056	27947.01
759.394	27808.93
759.731	27734.36
760.068	27599.9
760.405	27585.88
760.743	27499.56
