Data from hue_170_FLMS001491_00028.txt Node
Date: Tue Feb 07 16:48:28 GMT 2017
User: dcchb
Spectrometer: FLMS00149
Trigger mode: 0
Integration Time (sec): 2.000000E-2
Scans to average: 10
Electric dark correction enabled: true
Nonlinearity correction enabled: false
Boxcar width: 0
XAxis mode: Wavelengths
Number of Pixels in Spectrum: 2048
>>>>>Begin Spectral Data<<<<<
341.393	-15.85
341.776	-15.85
342.16	-15.85
342.543	-66.47
342.927	-64.43
343.31	-85
343.693	-63.76
344.077	-74.15
344.46	-66.92
344.843	-53.81
345.226	-53.59
345.61	-36.64
345.993	-17.88
346.376	-1.38
346.759	12.63
347.142	32.06
347.525	44.49
347.908	54.43
348.291	83.81
348.674	99.63
349.057	126.07
349.44	129.91
349.823	126.97
350.206	147.54
350.588	186.41
350.971	206.07
351.354	207.2
351.737	234.54
352.119	240.87
352.502	252.85
352.884	292.85
353.267	252.62
353.65	276.8
354.032	277.93
354.414	284.48
354.797	288.1
355.179	310.02
355.562	314.31
355.944	314.31
356.326	319.74
356.709	332.39
357.091	336.69
357.473	358.15
357.855	310.47
358.238	319.74
358.62	336.46
359.002	323.58
359.384	314.09
359.766	318.61
360.148	349.57
360.53	332.62
360.912	329.45
361.294	333.97
361.676	319.96
362.057	320.42
362.439	303.69
362.821	323.81
363.203	319.51
363.584	322.22
363.966	313.18
364.348	284.71
364.729	326.97
365.111	310.02
365.493	306.63
365.874	300.53
366.256	291.26
366.637	320.64
367.019	305.95
367.4	314.09
367.781	310.25
368.163	291.26
368.544	320.64
368.925	307.76
369.306	296.01
369.688	325.16
370.069	310.02
370.45	308.21
370.831	316.8
371.212	299.85
371.593	306.86
371.974	308.66
372.355	285.84
372.736	297.37
373.117	296.69
373.498	306.86
373.879	330.13
374.26	312.96
374.641	323.35
375.021	303.24
375.402	310.02
375.783	323.35
376.163	335.78
376.544	316.57
376.925	310.25
377.305	321.55
377.686	341.43
378.066	310.47
378.447	304.6
378.827	319.96
379.208	317.03
379.588	331.49
379.968	310.92
380.349	320.42
380.729	312.73
381.109	310.92
381.489	326.97
381.87	325.16
382.25	342.34
382.63	330.81
383.01	333.75
383.39	350.92
383.77	337.82
384.15	348.89
384.53	335.78
384.91	330.13
385.29	331.26
385.67	357.7
386.049	332.17
386.429	351.83
386.809	354.09
387.189	341.88
387.568	333.75
387.948	348.66
388.328	336.69
388.707	342.79
389.087	340.53
389.466	377.81
389.846	361.77
390.225	362.22
390.605	355.44
390.984	357.7
391.363	365.61
391.743	366.06
392.122	361.32
392.501	345.95
392.881	370.36
393.26	371.94
393.639	379.62
394.018	383.46
394.397	360.41
394.776	378.49
395.155	374.2
395.534	361.77
395.913	371.49
396.292	396.35
396.671	417.36
397.05	385.5
397.429	382.33
397.808	359.28
398.186	385.95
398.565	390.47
398.944	377.59
399.323	391.37
399.701	379.4
400.08	385.72
400.458	390.47
400.837	381.66
401.215	399.28
401.594	402
401.972	396.12
402.351	400.41
402.729	410.13
403.107	426.4
403.486	405.16
403.864	420.75
404.242	421.88
404.62	433.41
404.999	423.46
405.377	431.15
405.755	429.79
406.133	440.86
406.511	443.8
406.889	428.89
407.267	427.76
407.645	437.93
408.023	443.58
408.401	461.43
408.779	466.85
409.156	441.99
409.534	433.41
409.912	476.12
410.29	475.44
410.667	474.31
411.045	468.66
411.422	462.78
411.8	481.09
412.178	490.13
412.555	503.01
412.933	503.69
413.31	509.34
413.687	525.38
414.065	526.51
414.442	521.31
414.819	518.83
415.197	532.84
415.574	529.22
415.951	549.11
416.328	545.72
416.705	562.44
417.082	543.69
417.46	555.21
417.837	561.76
418.214	544.82
418.591	567.64
418.967	575.1
419.344	583.23
419.721	590.24
420.098	576.23
420.475	610.8
420.852	611.93
421.228	602.44
421.605	605.38
421.982	593.63
422.358	632.5
422.735	644.25
423.111	634.76
423.488	651.71
423.864	656.9
424.241	654.87
424.617	672.72
424.994	667.3
425.37	691.48
425.746	685.15
426.123	698.03
426.499	706.62
426.875	698.03
427.251	716.56
427.627	714.98
428.003	722.66
428.379	731.93
428.756	739.39
429.132	738.94
429.507	766.96
429.883	749.33
430.259	777.13
430.635	771.25
431.011	773.74
431.387	802.21
431.763	803.34
432.138	832.94
432.514	819.61
432.89	838.14
433.265	828.88
433.641	832.94
434.016	885.15
434.392	873.17
434.767	887.41
435.143	858.93
435.518	880.85
435.894	914.98
436.269	898.25
436.644	945.48
437.02	958.14
437.395	947.74
437.77	971.92
438.145	980.74
438.52	992.26
438.895	987.29
439.271	1018.7
439.646	1019.38
440.021	1036.78
440.395	1046.72
440.77	1053.73
441.145	1066.16
441.52	1059.83
441.895	1055.54
442.27	1078.81
442.645	1099.6
443.019	1108.87
443.394	1124.01
443.769	1120.39
444.143	1127.63
444.518	1142.99
444.892	1138.92
445.267	1163.11
445.641	1164.91
446.016	1167.62
446.39	1179.6
446.764	1172.14
447.139	1196.78
447.513	1217.57
447.887	1219.83
448.262	1213.27
448.636	1226.15
449.01	1265.93
449.384	1273.61
449.758	1251.01
450.132	1275.42
450.506	1290.79
450.88	1272.71
451.254	1295.3
451.628	1290.33
452.002	1324.23
452.376	1357
452.75	1358.58
453.123	1382.53
453.497	1389.09
453.871	1428.86
454.244	1446.94
454.618	1448.75
454.992	1432.7
455.365	1460.05
455.739	1485.58
456.112	1501.18
456.486	1536.43
456.859	1528.97
457.232	1545.69
457.606	1570.78
457.979	1566.94
458.352	1598.12
458.725	1641.96
459.099	1637.89
459.472	1677.67
459.845	1705.69
460.218	1721.06
460.591	1730.77
460.964	1749.98
461.337	1768.06
461.71	1821.84
462.083	1849.64
462.456	1837.89
462.829	1853.93
463.201	1893.48
463.574	1921.73
463.947	1933.71
464.32	1964.44
464.692	1971.45
465.065	2027.49
465.438	2046.25
465.81	2067.71
466.183	2121.05
466.555	2137.32
466.928	2170.08
467.3	2204.21
467.672	2225.45
468.045	2276.07
468.417	2324.43
468.789	2326.46
469.161	2352.9
469.534	2394.03
469.906	2461.6
470.278	2510.87
470.65	2482.84
471.022	2597.87
471.394	2652.11
471.766	2680.81
472.138	2721.93
472.51	2800.8
472.882	2847.35
473.253	2886.9
473.625	2902.49
473.997	3013.68
474.369	2963.51
474.74	3123.73
475.112	3180.23
475.484	3233.33
475.855	3283.95
476.227	3377.28
476.598	3492.76
476.97	3542.7
477.341	3593.55
477.713	3689.37
478.084	3773.88
478.455	3839.64
478.827	3919.64
479.198	4012.3
479.569	4060.2
479.94	4222.23
480.311	4226.08
480.682	4371.83
481.053	4488.22
481.424	4625.84
481.795	4647.08
482.166	4812.5
482.537	4842.56
482.908	4989.45
483.279	5062.21
483.65	5213.39
484.021	5321.64
484.391	5425.82
484.762	5508.53
485.133	5583.33
485.503	5746.94
485.874	5857.9
486.244	5929.08
486.615	6098.12
486.985	6261.28
487.356	6361.16
487.726	6453.59
488.097	6665.79
488.467	6663.75
488.837	6880.92
489.207	6937.87
489.578	7071.2
489.948	7188.03
490.318	7398.42
490.688	7317.07
491.058	7541.24
491.428	7712.99
491.798	7873.44
492.168	8048.57
492.538	8140.55
492.908	8268.68
493.278	8421.9
493.648	8400.88
494.017	8552.06
494.387	8595.9
494.757	8786.63
495.126	8875.9
495.496	8939.85
495.866	9075.67
496.235	9075.89
496.605	9240.18
496.974	9345.49
497.344	9416.67
497.713	9505.48
498.082	9608.98
498.452	9764.69
498.821	9731.24
499.19	9896.89
499.559	9913.84
499.928	10015.08
500.298	10120.61
500.667	10194.05
501.036	10267.05
501.405	10343.65
501.774	10268.18
502.143	10456.65
502.512	10457.1
502.88	10538.23
503.249	10629.52
503.618	10742.74
503.987	10729.41
504.356	10763.3
504.724	10886.24
505.093	10962.85
505.462	10988.16
505.83	10988.61
506.199	11105.67
506.567	11261.14
506.936	11214.37
507.304	11361.93
507.672	11307.25
508.041	11417.07
508.409	11440.57
508.777	11533.68
509.145	11617.52
509.514	11565.09
509.882	11696.39
510.25	11696.61
510.618	11716.27
510.986	11808.25
511.354	11894.57
511.722	11946.32
512.09	12059.32
512.458	11911.07
512.826	12016.15
513.193	12089.37
513.561	12105.64
513.929	12117.39
514.297	12186.77
514.664	12338.63
515.032	12364.62
515.4	12334.56
515.767	12349.93
516.135	12422.02
516.502	12317.84
516.869	12523.94
517.237	12466.76
517.604	12357.84
517.972	12529.81
518.339	12556.03
518.706	12558.96
519.073	12557.61
519.44	12698.85
519.808	12650.94
520.175	12673.31
520.542	12769.58
520.909	12781.33
521.276	12767.32
521.643	12877.15
522.009	12850.71
522.376	12901.55
522.743	12932.74
523.11	13075.33
523.477	13077.59
523.843	13031.95
524.21	13174.31
524.577	13167.99
524.943	13138.16
525.31	13220.42
525.676	13215.22
526.043	13285.5
526.409	13367.98
526.776	13337.47
527.142	13315.1
527.508	13299.06
527.874	13397.81
528.241	13369.56
528.607	13372.95
528.973	13397.81
529.339	13336.12
529.705	13450.47
530.071	13480.52
530.437	13428.77
530.803	13409.79
531.169	13450.47
531.535	13400.07
531.901	13378.38
532.267	13487.07
532.632	13402.56
532.998	13395.33
533.364	13392.16
533.73	13423.12
534.095	13410.69
534.461	13419.05
534.826	13374.76
535.192	13437.58
535.557	13366.63
535.923	13402.78
536.288	13324.14
536.653	13207.99
537.019	13224.03
537.384	13219.51
537.749	13197.59
538.114	13165.73
538.479	13189.68
538.845	13186.97
539.21	13048.44
539.575	13071.94
539.94	13028.56
540.305	13061.32
540.67	12927.32
541.034	12898.39
541.399	12985.84
541.764	12908.78
542.129	12903.14
542.494	12850.03
542.858	12867.88
543.223	12742.91
543.587	12779.75
543.952	12677.6
544.316	12671.73
544.681	12641.9
545.045	12623.59
545.41	12680.99
545.774	12568.23
546.138	12586.31
546.503	12504.05
546.867	12556.25
547.231	12465.41
547.595	12484.39
547.959	12458.63
548.324	12368.69
548.688	12337.73
549.052	12363.49
549.416	12283.94
549.779	12278.52
550.143	12156.71
550.507	12162.59
550.871	12183.83
551.235	12078.07
551.599	12175.7
551.962	12086.89
552.326	12032.42
552.689	12052.54
553.053	12000.79
553.417	11942.48
553.78	12024.06
554.143	11939.32
554.507	11950.62
554.87	11867.91
555.234	11931.18
555.597	11831.75
555.96	11878.53
556.323	11898.87
556.686	11814.12
557.05	11817.74
557.413	11863.84
557.776	11742.94
558.139	11792.88
558.502	11813.67
558.865	11768.02
559.228	11779.55
559.59	11767.8
559.953	11791.07
560.316	11814.35
560.679	11812.32
561.041	11817.29
561.404	11815.25
561.767	11842.37
562.129	11676.05
562.492	11845.99
562.854	11727.8
563.217	11786.78
563.579	11731.64
563.941	11790.17
564.304	11764.86
564.666	11823.84
565.028	11840.34
565.39	11823.62
565.753	11826.78
566.115	11878.53
566.477	11881.69
566.839	11820.9
567.201	11889.6
567.563	11846.67
567.925	11896.16
568.287	11924.18
568.648	11860.68
569.01	11913.33
569.372	11981.58
569.734	11976.38
570.095	11982.71
570.457	11910.62
570.819	11985.87
571.18	11988.36
571.542	12011.41
571.903	12038.53
572.265	11991.29
572.626	12041.24
572.987	12123.49
573.349	12015.93
573.71	12050.5
574.071	12055.02
574.432	11978.19
574.794	12038.07
575.155	12100.67
575.516	12069.94
575.877	12081.69
576.238	12099.77
576.599	12177.73
576.96	12030.84
577.32	12107.68
577.681	12098.18
578.042	12177.5
578.403	12129.82
578.763	12075.59
579.124	12111.07
579.485	12210.72
579.845	12185.64
580.206	12184.74
580.566	12108.13
580.927	12105.87
581.287	12189.26
581.648	12141.8
582.008	12213.21
582.368	12108.81
582.728	12144.06
583.089	12123.95
583.449	12121.69
583.809	12084.4
584.169	12121.69
584.529	12030.62
584.889	12121.46
585.249	12048.69
585.609	12026.77
585.969	12069.94
586.329	12011.41
586.688	11992.42
587.048	12054.34
587.408	11998.3
587.768	11963.27
588.127	11929.15
588.487	11896.16
588.846	12031.52
589.206	11990.16
589.565	11890.96
589.925	11932.09
590.284	11988.81
590.643	11887.12
591.003	11921.24
591.362	11949.71
591.721	11961.24
592.08	11883.95
592.44	11941.13
592.799	11917.4
593.158	11881.02
593.517	11909.94
593.876	11888.92
594.235	11864.29
594.593	11879.89
594.952	11879.21
595.311	11799.44
595.67	11872.43
596.029	11879.89
596.387	11904.29
596.746	11922.82
597.104	11825.65
597.463	11806.44
597.822	11854.58
598.18	11775.03
598.538	11845.76
598.897	11792.2
599.255	11770.74
599.613	11836.5
599.972	11793.79
600.33	11863.16
600.688	11720.79
601.046	11796.95
601.404	11837.85
601.762	11839.66
602.12	11858.64
602.478	11794.24
602.836	11901.81
603.194	11801.92
603.552	11766.67
603.91	11742.71
604.268	11765.09
604.625	11800.57
604.983	11783.16
605.341	11748.14
605.698	11770.06
606.056	11808.02
606.413	11788.59
606.771	11874.46
607.128	11794.24
607.485	11765.76
607.843	11832.2
608.2	11904.07
608.557	11912.88
608.914	11837.85
609.272	11803.05
609.629	11865.42
609.986	11892.77
610.343	11898.64
610.7	11935.7
611.057	11877.4
611.414	11853.22
611.771	11922.37
612.127	11952.88
612.484	11986.1
612.841	11963.27
613.198	11946.1
613.554	11919.88
613.911	11991.07
614.267	11993.55
614.624	11944.97
614.98	11952.43
615.337	12064.06
615.693	12007.11
616.05	11986.1
616.406	12105.19
616.762	12084.85
617.118	12074
617.475	12047.11
617.831	12035.14
618.187	12126.88
618.543	12096.6
618.899	12145.64
619.255	12133.21
619.611	12116.49
619.967	12150.16
620.323	12148.8
620.678	12079.43
621.034	12113.1
621.39	12092.99
621.746	12013.44
622.101	12247.33
622.457	12212.76
622.812	12059.09
623.168	12104.51
623.523	12142.25
623.879	12179.76
624.234	12160.1
624.589	12123.95
624.945	12102.48
625.3	12133.21
625.655	12104.96
626.01	12114
626.365	12125.53
626.72	12115.13
627.075	12098.64
627.43	12063.38
627.785	12085.08
628.14	12023.84
628.495	12114
628.85	12095.47
629.205	12050.95
629.559	12085.98
629.914	12100.9
630.269	12128.47
630.623	12013.22
630.978	11969.37
631.332	12011.86
631.687	12052.54
632.041	11916.49
632.396	11967.34
632.75	11956.72
633.104	11916.72
633.459	11854.12
633.813	11863.84
634.167	11885.31
634.521	11861.13
634.875	11897.51
635.229	11861.58
635.583	11795.14
635.937	11872.43
636.291	11791.3
636.645	11834.69
636.999	11745.2
637.352	11726.67
637.706	11681.02
638.06	11831.75
638.413	11726.22
638.767	11709.95
639.121	11628.59
639.474	11597.41
639.828	11605.54
640.181	11705.65
640.534	11656.61
640.888	11614.36
641.241	11547.01
641.594	11615.71
641.947	11707.91
642.301	11625.65
642.654	11553.79
643.007	11541.14
643.36	11610.97
643.713	11498.65
644.066	11566.9
644.419	11525.32
644.771	11436.73
645.124	11412.1
645.477	11365.55
645.83	11274.03
646.182	11275.61
646.535	11190.64
646.888	11229.28
647.24	11183.86
647.593	11240.81
647.945	11212.11
648.298	11155.84
648.65	11133.46
649.002	11155.38
649.355	11182.28
649.707	11148.15
650.059	11151.32
650.411	11342.95
650.763	11320.35
651.115	11432.21
651.467	11397.64
651.819	11424.3
652.171	11343.63
652.523	11329.84
652.875	11346.79
653.227	11295.72
653.578	11443.74
653.93	11431.99
654.282	11334.81
654.633	11333.91
654.985	11404.42
655.337	11398.09
655.688	11326.23
656.039	11453.68
656.391	11321.48
656.742	11309.28
657.094	11430.86
657.445	11430.86
657.796	11433.8
658.147	11397.86
658.498	11432.44
658.849	11473.79
659.2	11462.27
659.551	11373.68
659.902	11475.38
660.253	11399.45
660.604	11517.64
660.955	11307.25
661.306	11493
661.656	11475.6
662.007	11494.58
662.358	11437.86
662.708	11422.5
663.059	11473.57
663.409	11441.48
663.76	11422.5
664.11	11429.95
664.461	11453.46
664.811	11482.38
665.161	11458.2
665.511	11473.79
665.862	11488.03
666.212	11522.15
666.562	11524.87
666.912	11486.45
667.262	11457.3
667.612	11446.68
667.962	11510.63
668.312	11454.36
668.662	11502.95
669.011	11502.95
669.361	11417.07
669.711	11452.55
670.06	11496.62
670.41	11412.78
670.76	11373.91
671.109	11455.49
671.459	11343.85
671.808	11414.59
672.157	11388.82
672.507	11374.36
672.856	11374.36
673.205	11324.87
673.554	11390.63
673.904	11380.69
674.253	11391.31
674.602	11432.67
674.951	11212.11
675.3	11190.64
675.649	11314.7
675.998	11303.4
676.346	11294.36
676.695	11396.28
677.044	11266.79
677.393	11257.75
677.741	11350.63
678.09	11259.11
678.438	11209.17
678.787	11214.14
679.135	11192.22
679.484	11115.16
679.832	11164.65
680.181	11080.13
680.529	11218.21
680.877	11133.46
681.225	11020.7
681.573	11182.95
681.922	11109.28
682.27	11008.04
682.618	11051.43
682.966	11028.83
683.314	11113.8
683.661	10956.97
684.009	10905.67
684.357	10885.79
684.705	10909.52
685.053	10885.11
685.4	10828.61
685.748	10763.08
686.095	10814.83
686.443	10777.99
686.79	10817.77
687.138	10819.12
687.485	10739.8
687.832	10708.39
688.18	10690.76
688.527	10641.05
688.874	10626.36
689.221	10650.54
689.568	10531.45
689.915	10500.94
690.262	10504.55
690.609	10472.01
690.956	10477.89
691.303	10275.86
691.65	10397.21
691.997	10341.17
692.344	10368.06
692.69	10186.6
693.037	10220.95
693.383	10133.94
693.73	10204.22
694.077	10061.63
694.423	10124
694.769	10088.07
695.116	10090.78
695.462	10030.89
695.808	9996.55
696.155	9984.57
696.501	9852.59
696.847	9913.84
697.193	9840.84
697.539	9754.97
697.885	9783.67
698.231	9706.16
698.577	9735.31
698.923	9680.17
699.269	9628.42
699.614	9626.61
699.96	9621.41
700.306	9577.12
700.651	9505.71
700.997	9440.18
701.342	9449.21
701.688	9434.98
702.033	9399.5
702.379	9369.22
702.724	9321.99
703.069	9294.64
703.415	9204.93
703.76	9160.86
704.105	9217.58
704.45	9246.28
704.795	9120.18
705.14	9073.63
705.485	9070.02
705.83	9037.47
706.175	9084.7
706.52	9055.1
706.865	8919.96
707.209	8988.89
707.554	8926.74
707.899	8931.49
708.243	8887.2
708.588	8749.57
708.932	8764.94
709.277	8714.09
709.621	8781.21
709.966	8732.4
710.31	8660.08
710.654	8615.34
710.998	8691.49
711.342	8600.2
711.687	8650.82
712.031	8579.41
712.375	8576.92
712.719	8570.82
713.063	8525.85
713.407	8511.39
713.75	8522.46
714.094	8547.54
714.438	8424.61
714.782	8445.4
715.125	8461.67
715.469	8395.46
715.812	8382.58
716.156	8348.23
716.499	8363.37
716.843	8321.11
717.186	8297.61
717.53	8327.44
717.873	8413.08
718.216	8313.43
718.559	8324.05
718.902	8215.57
719.246	8329.92
719.589	8177.38
719.932	8216.93
720.275	8222.58
720.617	8170.83
720.96	8199.53
721.303	8204.95
721.646	8234.78
721.989	8158.4
722.331	8149.59
722.674	8153.88
723.016	8227.33
723.359	8172.86
723.701	8190.94
724.044	8097.84
724.386	8110.04
724.729	8101.91
725.071	8106.65
725.413	8117.95
725.755	8113.2
726.097	8058.29
726.439	8016.03
726.782	8080.89
727.124	8091.28
727.465	8002.02
727.807	8090.38
728.149	7933.55
728.491	7979.65
728.833	8050.83
729.175	8013.55
729.516	8026.88
729.858	7962.47
730.199	7992.53
730.541	7977.84
730.882	8005.86
731.224	8003.38
731.565	8023.49
731.906	7955.02
732.248	8011.51
732.589	7966.54
732.93	7946.2
733.271	7939.65
733.612	7938.29
733.953	7923.61
734.294	7957.5
734.635	7978.07
734.976	7905.75
735.317	7923.83
735.658	7937.39
735.999	7980.55
736.339	7959.31
736.68	7985.75
737.021	7945.75
737.361	8014.45
737.702	8071.4
738.042	7971.97
738.383	8054.9
738.723	8035.01
739.063	7997.5
739.404	8041.12
739.744	8034.56
740.084	7997.5
740.424	8014.9
740.764	8027.33
741.104	8091.74
741.444	8047.67
741.784	8036.14
742.124	8143.49
742.464	8102.13
742.804	8098.06
743.143	8173.32
743.483	8149.14
743.823	8146.88
744.162	8196.82
744.502	8322.46
744.841	8214.9
745.181	8290.6
745.52	8341.45
745.86	8424.38
746.199	8384.61
746.538	8433.87
746.877	8505.74
747.216	8564.72
747.556	8522.69
747.895	8614.89
748.234	8650.14
748.573	8672.06
748.911	8783.7
749.25	8818.95
749.589	8847.87
749.928	8943.24
750.267	9028.43
750.605	9073.18
750.944	9062.33
751.283	9203.35
751.621	9313.17
751.96	9326.05
752.298	9422.77
752.636	9495.09
752.975	9577.57
753.313	9691.69
753.651	9859.15
753.989	9883.33
754.327	10041.29
754.666	10023.44
755.004	10201.51
755.342	10336.2
755.679	10392.47
756.017	10518.79
756.355	10721.72
756.693	10809.86
757.031	10951.55
757.368	11063.18
757.706	11222.5
758.044	11254.14
758.381	11467.01
758.719	11656.16
