Data from hue_330_FLMS001491_35.txt Node
Date: Mon Feb 06 15:45:18 GMT 2017
User: dcchb
Spectrometer: FLMS00149
Trigger mode: 0
Integration Time (sec): 2.000000E-2
Scans to average: 10
Electric dark correction enabled: true
Nonlinearity correction enabled: false
Boxcar width: 0
XAxis mode: Wavelengths
Number of Pixels in Spectrum: 2048
>>>>>Begin Spectral Data<<<<<
341.393	8.11
341.776	8.11
342.16	8.11
342.543	-52.68
342.927	-65.11
343.31	-81.16
343.693	-70.08
344.077	-71.44
344.46	-55.17
344.843	-54.26
345.226	-32.8
345.61	-23.76
345.993	-20.14
346.376	-2.74
346.759	6.3
347.142	8.33
347.525	37.26
347.908	64.38
348.291	79.74
348.674	96.69
349.057	118.84
349.44	127.2
349.823	150.48
350.206	153.64
350.588	201.32
350.971	192.74
351.354	230.7
351.737	241.55
352.119	251.49
352.502	282.45
352.884	268.67
353.267	282.9
353.65	298.49
354.032	296.69
354.414	298.95
354.797	304.37
355.179	316.57
355.562	331.26
355.944	325.16
356.326	320.64
356.709	329
357.091	335.1
357.473	364.48
357.855	343.47
358.238	332.62
358.62	344.82
359.002	326.74
359.384	312.96
359.766	338.72
360.148	340.3
360.53	329.91
360.912	345.05
361.294	331.26
361.676	312.96
362.057	328.78
362.439	337.59
362.821	324.71
363.203	331.26
363.584	324.48
363.966	324.71
364.348	315.9
364.729	321.32
365.111	313.64
365.493	291.04
365.874	318.16
366.256	313.18
366.637	311.15
367.019	311.15
367.4	318.61
367.781	299.85
368.163	310.7
368.544	310.92
368.925	291.72
369.306	304.6
369.688	301.43
370.069	306.63
370.45	297.37
370.831	299.62
371.212	292.39
371.593	280.42
371.974	327.65
372.355	303.69
372.736	307.31
373.117	286.07
373.498	312.51
373.879	327.19
374.26	309.57
374.641	337.59
375.021	313.86
375.402	300.3
375.783	319.06
376.163	300.98
376.544	314.09
376.925	300.98
377.305	342.56
377.686	326.97
378.066	337.59
378.447	325.39
378.827	314.09
379.208	328.55
379.588	326.97
379.968	332.84
380.349	324.03
380.729	344.82
381.109	310.25
381.489	338.04
381.87	314.77
382.25	337.14
382.63	324.48
383.01	324.26
383.39	356.8
383.77	338.72
384.15	336.69
384.53	335.56
384.91	345.95
385.29	331.71
385.67	340.75
386.049	350.92
386.429	330.36
386.809	351.15
387.189	337.36
387.568	346.18
387.948	363.13
388.328	340.53
388.707	353.41
389.087	349.57
389.466	351.6
389.846	332.17
390.225	366.74
390.605	360.87
390.984	373.3
391.363	366.97
391.743	325.61
392.122	369.91
392.501	354.54
392.881	347.99
393.26	373.75
393.639	376.91
394.018	356.8
394.397	349.79
394.776	373.75
395.155	371.94
395.534	359.74
395.913	384.14
396.292	364.03
396.671	362.45
397.05	376.46
397.429	380.98
397.808	390.7
398.186	380.07
398.565	397.25
398.944	382.56
399.323	398.15
399.701	392.05
400.08	381.43
400.458	407.87
400.837	391.15
401.215	406.51
401.594	410.13
401.972	405.61
402.351	399.28
402.729	390.47
403.107	391.83
403.486	401.54
403.864	389.11
404.242	414.42
404.62	430.02
404.999	423.46
405.377	406.74
405.755	426.4
406.133	417.81
406.511	424.37
406.889	427.53
407.267	450.13
407.645	419.4
408.023	430.02
408.401	447.19
408.779	454.42
409.156	442.45
409.534	448.55
409.912	454.2
410.29	471.37
410.667	443.8
411.045	469.34
411.422	484.25
411.8	476.34
412.178	478.15
412.555	482.67
412.933	479.51
413.31	479.51
413.687	484.03
414.065	500.75
414.442	510.47
414.819	542.78
415.197	515.44
415.574	515.89
415.951	541.88
416.328	525.38
416.705	528.09
417.082	536.68
417.46	554.76
417.837	554.08
418.214	551.6
418.591	565.38
418.967	566.96
419.344	579.17
419.721	601.76
420.098	567.64
420.475	572.84
420.852	605.38
421.228	609.22
421.605	625.49
421.982	615.55
422.358	652.16
422.735	646.96
423.111	638.6
423.488	634.31
423.864	636.34
424.241	636.79
424.617	631.82
424.994	638.6
425.37	645.15
425.746	671.14
426.123	657.36
426.499	677.02
426.875	709.78
427.251	704.36
427.627	693.74
428.003	708.43
428.379	712.95
428.756	705.04
429.132	749.78
429.507	752.49
429.883	732.38
430.259	750.01
430.635	734.87
431.011	746.84
431.387	792.27
431.763	785.26
432.138	779.84
432.514	816.22
432.89	812.38
433.265	815.77
433.641	841.76
434.016	827.97
434.392	841.76
434.767	809.67
435.143	850.8
435.518	844.7
435.894	871.36
436.269	866.39
436.644	876.78
437.02	890.34
437.395	885.15
437.77	899.16
438.145	915.88
438.52	915.43
438.895	909.33
439.271	925.15
439.646	922.66
440.021	940.29
440.395	959.04
440.77	967.18
441.145	964.01
441.52	984.58
441.895	995.88
442.27	985.93
442.645	991.36
443.019	997.46
443.394	1002.21
443.769	1013.05
444.143	1006.27
444.518	1014.41
444.892	1002.88
445.267	1004.24
445.641	1029.78
446.016	1024.8
446.39	1022.09
446.764	1020.96
447.139	1036.55
447.513	1043.33
447.887	1042.2
448.262	1025.71
448.636	1028.19
449.01	1030.23
449.384	1048.76
449.758	1055.09
450.132	1066.84
450.506	1083.11
450.88	1070.23
451.254	1080.4
451.628	1081.98
452.002	1083.79
452.376	1092.6
452.75	1110
453.123	1117
453.497	1125.14
453.871	1104.58
454.244	1145.03
454.618	1139.15
454.992	1184.8
455.365	1166.95
455.739	1176.44
456.112	1196.32
456.486	1210.34
456.859	1196.55
457.232	1201.52
457.606	1220.28
457.979	1221.86
458.352	1212.6
458.725	1244.23
459.099	1240.39
459.472	1259.6
459.845	1263.44
460.218	1269.54
460.591	1274.06
460.964	1288.53
461.337	1302.76
461.71	1308.86
462.083	1338.24
462.456	1330.11
462.829	1330.11
463.201	1373.27
463.574	1337.56
463.947	1353.83
464.32	1375.98
464.692	1382.99
465.065	1401.29
465.438	1413.49
465.81	1426.83
466.183	1415.08
466.555	1463.66
466.928	1477
467.3	1487.39
467.672	1489.2
468.045	1513.38
468.417	1521.06
468.789	1496.88
469.161	1541.4
469.534	1570.78
469.906	1584.11
470.278	1561.96
470.65	1587.95
471.022	1634.73
471.394	1647.16
471.766	1652.13
472.138	1631.34
472.51	1679.48
472.882	1700.94
473.253	1707.05
473.625	1743.65
473.997	1784.33
474.369	1758.8
474.74	1802.86
475.112	1801.96
475.484	1842.18
475.855	1848.28
476.227	1897.55
476.598	1906.14
476.97	1942.52
477.341	1976.87
477.713	1986.36
478.084	1967.38
478.455	2024.1
478.827	2022.52
479.198	2084.44
479.569	2094.61
479.94	2121.05
480.311	2128.96
480.682	2175.06
481.053	2215.96
481.424	2231.1
481.795	2267.48
482.166	2283.98
482.537	2296.18
482.908	2352.9
483.279	2367.82
483.65	2395.61
484.021	2448.95
484.391	2456.18
484.762	2453.47
485.133	2506.35
485.503	2518.55
485.874	2540.7
486.244	2542.28
486.615	2600.36
486.985	2628.6
487.356	2701.82
487.726	2667.47
488.097	2704.08
488.467	2744.53
488.837	2777.3
489.207	2813.91
489.578	2820.24
489.948	2883.74
490.318	2868.82
490.688	2888.94
491.058	2907.92
491.428	2968.71
491.798	2980.23
492.168	3037.86
492.538	3028.82
492.908	3097.74
493.278	3049.38
493.648	3090.51
494.017	3123.51
494.387	3199.21
494.757	3191.75
495.126	3203.73
495.496	3243.73
495.866	3215.03
496.235	3271.75
496.605	3250.73
496.974	3283.5
497.344	3302.94
497.713	3349.26
498.082	3361.01
498.452	3339.32
498.821	3413.22
499.19	3412.99
499.559	3431.29
499.928	3428.13
500.298	3469.03
500.667	3499.54
501.036	3469.26
501.405	3529.6
501.774	3509.26
502.143	3541.12
502.512	3504.29
502.88	3572.76
503.249	3557.17
503.618	3548.58
503.987	3604.17
504.356	3591.52
504.724	3640.78
505.093	3656.15
505.462	3628.35
505.83	3664.96
506.199	3719.42
506.567	3707.22
506.936	3699.99
507.304	3720.1
507.672	3724.39
508.041	3727.33
508.409	3777.5
508.777	3777.05
509.145	3810.04
509.514	3797.39
509.882	3826.99
510.25	3842.13
510.618	3839.42
510.986	3850.49
511.354	3896.59
511.722	3841.68
512.09	3910.15
512.458	3885.52
512.826	3922.13
513.193	3894.11
513.561	3906.54
513.929	3952.64
514.297	3993.54
514.664	3974.78
515.032	3990.15
515.4	4017.27
515.767	4008.91
516.135	4010.04
516.502	4013.43
516.869	4025.85
517.237	4045.06
517.604	4022.92
517.972	4068.79
518.339	4069.47
518.706	4069.02
519.073	4082.12
519.44	4090.94
519.808	4158.51
520.175	4074.44
520.542	4157.83
520.909	4178.39
521.276	4182.69
521.643	4176.36
522.009	4194.89
522.376	4192.4
522.743	4253.42
523.11	4243.93
523.477	4281.67
523.843	4291.16
524.21	4289.58
524.577	4376.58
524.943	4364.38
525.31	4306.53
525.676	4379.07
526.043	4388.56
526.409	4423.36
526.776	4474.43
527.142	4481.44
527.508	4542
527.874	4526.41
528.241	4514.66
528.607	4533.64
528.973	4565.28
529.339	4553.3
529.705	4569.8
530.071	4654.09
530.437	4666.74
530.803	4631.04
531.169	4709.23
531.535	4696.57
531.901	4697.93
532.267	4698.61
532.632	4742.45
532.998	4728.89
533.364	4819.05
533.73	4801.88
534.095	4826.74
534.461	4834.87
534.826	4861.31
535.192	4843.91
535.557	4926.17
535.923	4901.99
536.288	4919.39
536.653	4952.84
537.019	4942.67
537.384	4973.63
537.749	4978.37
538.114	5022.89
538.479	5032.61
538.845	5096.11
539.21	5072.38
539.575	5057.01
539.94	5095.43
540.305	5130.91
540.67	5137.24
541.034	5165.71
541.399	5189.67
541.764	5239.38
542.129	5251.59
542.494	5252.71
542.858	5285.48
543.223	5313.73
543.587	5309.21
543.952	5346.27
544.316	5346.27
544.681	5367.51
545.045	5424.01
545.41	5432.15
545.774	5441.41
546.138	5470.34
546.503	5530.9
546.867	5496.55
547.231	5528.64
547.595	5514.4
547.959	5587.85
548.324	5556.66
548.688	5620.39
549.052	5585.14
549.416	5596.21
549.779	5641.86
550.143	5635.08
550.507	5679.6
550.871	5709.65
551.235	5728.86
551.599	5797.79
551.962	5763.66
552.326	5807.28
552.689	5802.76
553.053	5815.41
553.417	5828.97
553.78	5874.85
554.143	5881.17
554.507	5881.17
554.87	5895.86
555.234	5942.41
555.597	5950.78
555.96	5904.45
556.323	5955.52
556.686	5986.48
557.05	5999.81
557.413	6113.48
557.776	6074.61
558.139	6093.14
558.502	6054.28
558.865	6136.31
559.228	6118
559.59	6149.19
559.953	6150.54
560.316	6212.92
560.679	6198.68
561.041	6180.37
561.404	6200.49
561.767	6251.78
562.129	6298.34
562.492	6345.79
562.854	6333.14
563.217	6332.23
563.579	6314.83
563.941	6316.64
564.304	6381.27
564.666	6426.92
565.028	6452.68
565.39	6422.63
565.753	6454.49
566.115	6470.99
566.477	6514.15
566.839	6534.26
567.201	6561.61
567.563	6581.04
567.925	6584.88
568.287	6581.95
568.648	6660.81
569.01	6652.9
569.372	6709.63
569.734	6707.82
570.095	6764.54
570.457	6776.52
570.819	6802.96
571.18	6865.33
571.542	6858.77
571.903	6920.69
572.265	6965.89
572.626	6937.19
572.987	6997.3
573.349	6987.13
573.71	7129.28
574.071	7121.82
574.432	7200.01
574.794	7237.97
575.155	7305.77
575.516	7348.48
575.877	7442.04
576.238	7486.78
576.599	7482.49
576.96	7532.2
577.32	7601.81
577.681	7687.45
578.042	7843.38
578.403	7809.94
578.763	7954.34
579.124	7978.07
579.485	8161.11
579.845	8229.59
580.206	8304.61
580.566	8403.59
580.927	8551.84
581.287	8696.24
581.648	8806.07
582.008	8925.16
582.368	9014.88
582.728	9162.89
583.089	9316.34
583.449	9523.56
583.809	9661.41
584.169	9870.67
584.529	9995.42
584.889	10184.79
585.249	10275.18
585.609	10479.02
585.969	10741.61
586.329	10926.46
586.688	11153.35
587.048	11305.44
587.408	11518.31
587.768	11697.74
588.127	11964.63
588.487	12069.94
588.846	12505.86
589.206	12685.51
589.565	12949.91
589.925	13218.16
590.284	13416.57
590.643	13657.24
591.003	13975.42
591.362	14229.88
591.721	14451.57
592.08	14793.03
592.44	15147.14
592.799	15299
593.158	15633.01
593.517	15880.68
593.876	16191.64
594.235	16365.19
594.593	16695.58
594.952	17044.27
595.311	17327.2
595.67	17616.46
596.029	17979.84
596.387	18196.33
596.746	18532.37
597.104	18699.59
597.463	19043.99
597.822	19416.86
598.18	19644.88
598.538	19905.44
598.897	20327.35
599.255	20501.35
599.613	20970.95
599.972	21053.88
600.33	21454.55
600.688	21664.03
601.046	22026.29
601.404	22208.2
601.762	22598.25
602.12	22895.64
602.478	23152.81
602.836	23393.03
603.194	23479.81
603.552	23780.36
603.91	23987.14
604.268	24323.85
604.625	24568.14
604.983	24807.23
605.341	24986.21
605.698	25315.01
606.056	25629.81
606.413	25827.99
606.771	26162.67
607.128	26413.74
607.485	26480.86
607.843	26800.4
608.2	27092.59
608.557	27452.58
608.914	27525.8
609.272	27750.88
609.629	28110.87
609.986	28415.72
610.343	28370.3
610.7	28656.17
611.057	28986.55
611.414	29085.08
611.771	29278.98
612.127	29530.27
612.484	29649.81
612.841	30031.95
613.198	30092.51
613.554	30207.31
613.911	30477.36
614.267	30610.92
614.624	30765.04
614.98	30872.61
615.337	31205.25
615.693	31353.72
616.05	31498.35
616.406	31871.22
616.762	31871.68
617.118	31848.85
617.475	32031.9
617.831	32325.45
618.187	32491.55
618.543	32653.8
618.899	32847.02
619.255	32917.75
619.611	32967.24
619.967	33181.47
620.323	33330.39
620.678	33294.92
621.034	33341.47
621.39	33426.21
621.746	33527.9
622.101	34052.41
622.457	33724.73
622.812	34114.55
623.168	34110.26
623.523	34216.7
623.879	34360.88
624.234	34226.19
624.589	34536.92
624.945	34665.5
625.3	34733.75
625.655	34729.45
626.01	34859.62
626.365	34836.12
626.72	34878.6
627.075	34985.27
627.43	35089.44
627.785	35095.55
628.14	35289.44
628.495	35195.43
628.85	35242.89
629.205	35299.38
629.559	35513.39
629.914	35427.29
630.269	35467.29
630.623	35541.18
630.978	35521.3
631.332	35744.79
631.687	35810.1
632.041	35641.29
632.396	35867.28
632.75	35718.35
633.104	35801.52
633.459	35700.28
633.813	35712.25
634.167	35799.48
634.521	35703.44
634.875	35891.01
635.229	35714.51
635.583	35638.81
635.937	35717.45
636.291	35663.89
636.645	35755.42
636.999	35637.9
637.352	35815.3
637.706	35683.55
638.06	35860.95
638.413	35799.93
638.767	35717.45
639.121	35725.59
639.474	35445.82
639.828	35695.98
640.181	35738.69
640.534	35818.24
640.888	35664.34
641.241	35621.86
641.594	35592.93
641.947	35860.95
642.301	35784.34
642.654	35788.18
643.007	35771.69
643.36	35596.78
643.713	35672.71
644.066	35716.09
644.419	35649.66
644.771	35368.99
645.124	35077.02
645.477	35058.03
645.83	34867.08
646.182	34654.88
646.535	34518.39
646.888	34769.9
647.24	34503.25
647.593	34769.45
647.945	34715.44
648.298	34559.97
648.65	34434.32
649.002	34404.26
649.355	34612.17
649.707	34493.98
650.059	34651.94
650.411	35142.1
650.763	35039.73
651.115	35600.39
651.467	35404.92
651.819	35404.24
652.171	35363.11
652.523	35247.86
652.875	35257.35
653.227	35048.09
653.578	35384.13
653.93	35326.05
654.282	35114.08
654.633	35183.68
654.985	35047.41
655.337	35206.5
655.688	35215.54
656.039	35242.66
656.391	34931.71
656.742	35070.01
657.094	34985.04
657.445	35161.53
657.796	35063.91
658.147	34923.12
658.498	35112.04
658.849	35084.02
659.2	35027.07
659.551	35148.65
659.902	35070.69
660.253	35048.32
660.604	35204.92
660.955	34808.1
661.306	35012.61
661.656	34984.81
662.007	34980.75
662.358	35033.4
662.708	34965.15
663.059	35021.65
663.409	34737.36
663.76	35068.43
664.11	35036.34
664.461	35080.63
664.811	34983.46
665.161	35059.61
665.511	34982.33
665.862	34921.99
666.212	35121.08
666.562	35064.59
666.912	35055.77
667.262	34890.81
667.612	34886.96
667.962	34878.6
668.312	34826.4
668.662	34975.78
669.011	34903.46
669.361	34844.71
669.711	34875.89
670.06	34924.25
670.41	34915.44
670.76	34684.48
671.109	34955.89
671.459	34732.84
671.808	34891.48
672.157	34824.59
672.507	34669.34
672.856	34596.8
673.205	34711.15
673.554	34785.5
673.904	34613.75
674.253	34840.64
674.602	34760.64
674.951	34122.69
675.3	34075.01
675.649	34607.42
675.998	34540.76
676.346	34623.47
676.695	34721.32
677.044	34397.49
677.393	34528.33
677.741	34632.28
678.09	34562.9
678.438	34418.28
678.787	34547.76
679.135	34448.78
679.484	34296.92
679.832	34431.83
680.181	34219.41
680.529	34374.21
680.877	34077.27
681.225	34093.54
681.573	34361.33
681.922	34197.72
682.27	34079.08
682.618	34136.25
682.966	33872.53
683.314	33994.56
683.661	33862.13
684.009	33828.01
684.357	33708.46
684.705	33688.58
685.053	33725.86
685.4	33669.59
685.748	33501.92
686.095	33530.62
686.443	33479.77
686.79	33371.98
687.138	33315.93
687.485	33426.21
687.832	33258.08
688.18	33247.01
688.527	33220.12
688.874	33139.21
689.221	33037.07
689.568	33007.24
689.915	32933.34
690.262	32879.56
690.609	32689.51
690.956	32674.37
691.303	32638.44
691.65	32581.49
691.997	32398.22
692.344	32383.75
692.69	32341.72
693.037	32262.17
693.383	32164.55
693.73	32154.61
694.077	31980.15
694.423	32089.75
694.769	31994.16
695.116	31745.8
695.462	31778.12
695.808	31621.97
696.155	31851.79
696.501	31505.58
696.847	31573.6
697.193	31356.44
697.539	31445.25
697.885	31346.72
698.231	31120.96
698.577	31168.42
698.923	31182.65
699.269	30945.6
699.614	30798.26
699.96	30709.45
700.306	30743.8
700.651	30657.24
700.997	30626.96
701.342	30494.09
701.688	30457.48
702.033	30424.26
702.379	30355.33
702.724	30330.7
703.069	30230.82
703.415	29959.18
703.76	30014.32
704.105	29982.91
704.45	29846.42
704.795	29680.1
705.14	29708.8
705.485	29746.53
705.83	29516.03
706.175	29678.06
706.52	29474
706.865	29365.98
707.209	29328.92
707.554	29262.03
707.899	29274.91
708.243	29115.14
708.588	29088.7
708.932	28864.07
709.277	28895.48
709.621	28921.92
709.966	28782.04
710.31	28852.32
710.654	28651.42
710.998	28409.39
711.342	28642.83
711.687	28518.32
712.031	28480.35
712.375	28308.61
712.719	28326.23
713.063	28161.04
713.407	28335.95
713.75	28166.46
714.094	28120.36
714.438	28028.61
714.782	28153.13
715.125	27818.45
715.469	28048.73
715.812	27804.44
716.156	27591.79
716.499	27698.23
716.843	27692.35
717.186	27498.01
717.53	27764.89
717.873	27636.08
718.216	27502.3
718.559	27339.14
718.902	27241.06
719.246	27241.52
719.589	27224.11
719.932	27192.7
720.275	27190.67
720.617	27095.08
720.96	27103.21
721.303	27048.98
721.646	27106.6
721.989	26832.71
722.331	26917
722.674	26937.57
723.016	26920.17
723.359	26718.59
723.701	26869.1
724.044	26662.55
724.386	26547.07
724.729	26704.13
725.071	26473.63
725.413	26561.76
725.755	26598.82
726.097	26356.79
726.439	26276.79
726.782	26376.23
727.124	26462.78
727.465	26255.55
727.807	26242.67
728.149	26238.6
728.491	26206.74
728.833	26206.06
729.175	26046.07
729.516	26007.2
729.858	25957.26
730.199	26089.68
730.541	25931.27
730.882	25875
731.224	25897.37
731.565	25758.39
731.906	25836.35
732.248	25823.02
732.589	25763.36
732.93	25664.16
733.271	25554.1
733.612	25619.41
733.953	25727.88
734.294	25500.54
734.635	25496.48
734.976	25508.91
735.317	25439.08
735.658	25422.58
735.999	25409.93
736.339	25252.19
736.68	25244.51
737.021	25259.65
737.361	25195.92
737.702	25296.26
738.042	25233.66
738.383	25233.21
738.723	25222.13
739.063	25032.31
739.404	25139.42
739.744	24970.39
740.084	24905.98
740.424	25054.23
740.764	24909.6
741.104	24979.43
741.444	24741.47
741.784	24648.59
742.124	24634.8
742.464	24722.26
742.804	24657.4
743.143	24685.65
743.483	24644.75
743.823	24490.85
744.162	24492.44
744.502	24513.45
744.841	24428.93
745.181	24447.92
745.52	24343.51
745.86	24367.47
746.199	24319.78
746.538	24173.57
746.877	24236.4
747.216	24273.68
747.556	24166.79
747.895	24224.19
748.234	24054.25
748.573	24068.27
748.911	24049.96
749.25	24009.51
749.589	23785.34
749.928	23945.33
750.267	23897.87
750.605	23856.29
750.944	23801.61
751.283	23731.55
751.621	23765.9
751.96	23637.54
752.298	23605.23
752.636	23602.29
752.975	23436.19
753.313	23468.73
753.651	23512.8
753.989	23340.37
754.327	23276.2
754.666	23211.56
755.004	23238.23
755.342	23226.03
755.679	23077.11
756.017	23014.51
756.355	23095.18
756.693	22967.96
757.031	22963.89
757.368	22922.08
757.706	22848.18
758.044	22878.47
758.381	22912.82
758.719	22743.78
759.056	22725.25
759.394	22633.05
759.731	22492.71
760.068	22473.51
760.405	22316.9
