Data from hue_34_FLMS001491_00090.txt Node
Date: Tue Feb 07 17:26:20 GMT 2017
User: dcchb
Spectrometer: FLMS00149
Trigger mode: 0
Integration Time (sec): 2.000000E-2
Scans to average: 10
Electric dark correction enabled: true
Nonlinearity correction enabled: false
Boxcar width: 0
XAxis mode: Wavelengths
Number of Pixels in Spectrum: 2048
>>>>>Begin Spectral Data<<<<<
341.393	-12.12
341.776	-12.12
342.16	-12.12
342.543	-77.43
342.927	-80.14
343.31	-67.26
343.693	-64.77
344.077	-51.67
344.46	-50.08
344.843	-49.41
345.226	-40.37
345.61	-24.32
345.993	-40.59
346.376	-4.66
346.759	-9.18
347.142	27.88
347.525	36.02
347.908	44.83
348.291	76.69
348.674	107.43
349.057	109.46
349.44	111.72
349.823	135
350.206	176.8
350.588	200.08
350.971	208.89
351.354	229.91
351.737	244.37
352.119	264.71
352.502	258.84
352.884	288.21
353.267	289.57
353.65	293.18
354.032	287.76
354.414	283.47
354.797	312.17
355.179	323.24
355.562	323.69
355.944	308.1
356.326	312.84
356.709	325.73
357.091	342.9
357.473	327.53
357.855	325.95
358.238	327.99
358.62	346.52
359.002	332.28
359.384	339.51
359.766	345.39
360.148	336.57
360.53	352.17
360.912	350.58
361.294	337.03
361.676	360.08
362.057	334.31
362.439	327.53
362.821	365.72
363.203	326.18
363.584	332.28
363.966	303.58
364.348	332.51
364.729	332.96
365.111	337.7
365.493	334.77
365.874	315.1
366.256	308.78
366.637	320.75
367.019	314.43
367.4	311.71
367.781	318.72
368.163	297.93
368.544	331.83
368.925	302.22
369.306	321.43
369.688	317.59
370.069	299.74
370.45	318.95
370.831	310.81
371.212	299.29
371.593	317.14
371.974	309.68
372.355	339.06
372.736	329.79
373.117	334.09
373.498	310.13
373.879	314.43
374.26	315.1
374.641	320.3
375.021	315.78
375.402	319.62
375.783	309.68
376.163	317.82
376.544	327.31
376.925	330.02
377.305	344.03
377.686	339.28
378.066	319.62
378.447	321.88
378.827	328.66
379.208	328.44
379.588	324.37
379.968	318.49
380.349	323.24
380.729	344.71
381.109	323.92
381.489	337.48
381.87	346.06
382.25	326.18
382.63	349.68
383.01	330.02
383.39	332.51
383.77	340.19
384.15	337.25
384.53	350.36
384.91	351.04
385.29	336.57
385.67	342
386.049	347.19
386.429	355.1
386.809	362.34
387.189	347.19
387.568	367.08
387.948	341.77
388.328	357.14
388.707	367.98
389.087	354.2
389.466	357.36
389.846	354.88
390.225	379.51
390.605	353.75
390.984	365.5
391.363	362.11
391.743	365.5
392.122	367.31
392.501	353.3
392.881	367.08
393.26	364.14
393.639	372.05
394.018	386.52
394.397	373.86
394.776	379.06
395.155	400.3
395.534	374.99
395.913	400.98
396.292	414.54
396.671	379.06
397.05	384.03
397.429	375.67
397.808	390.58
398.186	387.19
398.565	394.42
398.944	384.93
399.323	386.06
399.701	396.46
400.08	394.88
400.458	392.62
400.837	411.83
401.215	415.89
401.594	408.44
401.972	396.01
402.351	400.3
402.729	387.87
403.107	396.01
403.486	390.13
403.864	387.87
404.242	399.62
404.62	416.8
404.999	420.19
405.377	428.55
405.755	421.09
406.133	422.67
406.511	425.61
406.889	425.84
407.267	422.22
407.645	435.78
408.023	420.41
408.401	427.42
408.779	427.19
409.156	436.91
409.534	417.25
409.912	433.29
410.29	462.67
410.667	437.59
411.045	447.08
411.422	475.78
411.8	421.77
412.178	466.74
412.555	472.61
412.933	449.11
413.31	480.98
413.687	473.07
414.065	457.93
414.442	471.48
414.819	482.33
415.197	480.07
415.574	487.53
415.951	494.54
416.328	513.74
416.705	486.4
417.082	485.72
417.46	514.42
417.837	518.94
418.214	503.57
418.591	491.15
418.967	494.76
419.344	500.86
419.721	514.2
420.098	501.99
420.475	507.64
420.852	504.7
421.228	541.09
421.605	523.91
421.982	535.44
422.358	542.44
422.735	534.08
423.111	513.52
423.488	544.03
423.864	551.93
424.241	560.3
424.617	561.43
424.994	535.66
425.37	545.16
425.746	551.03
426.123	540.41
426.499	582.22
426.875	584.93
427.251	573.63
427.627	578.83
428.003	568.43
428.379	609.56
428.756	578.83
429.132	576.57
429.507	610.24
429.883	639.84
430.259	607.75
430.635	601.42
431.011	613.85
431.387	599.84
431.763	636.9
432.138	633.29
432.514	632.38
432.89	639.62
433.265	646.17
433.641	667.64
434.016	662.89
434.392	652.72
434.767	666.51
435.143	676.45
435.518	670.35
435.894	689.78
436.269	692.04
436.644	694.3
437.02	696.34
437.395	719.39
437.77	694.76
438.145	707.64
438.52	728.88
438.895	734.98
439.271	733.62
439.646	695.66
440.021	743.12
440.395	736.11
440.77	724.81
441.145	751.03
441.52	743.57
441.895	764.58
442.27	761.65
442.645	777.01
443.019	754.42
443.394	756
443.769	792.61
444.143	761.65
444.518	775.66
444.892	794.41
445.267	794.19
445.641	785.6
446.016	771.36
446.39	807.97
446.764	836.9
447.139	814.75
447.513	806.84
447.887	822.66
448.262	820.63
448.636	815.43
449.01	821.76
449.384	847.97
449.758	828.99
450.132	861.76
450.506	828.09
450.88	859.5
451.254	881.87
451.628	869.21
452.002	879.61
452.376	876.67
452.75	889.1
453.123	889.33
453.497	891.13
453.871	918.7
454.244	921.42
454.618	915.31
454.992	932.04
455.365	946.73
455.739	949.21
456.112	954.18
456.486	962.55
456.859	985.14
457.232	975.65
457.606	1011.58
457.979	1013.62
458.352	1003
458.725	1042.09
459.099	1033.73
459.472	1030.57
459.845	1062.43
460.218	1077.57
460.591	1088.87
460.964	1070.57
461.337	1089.32
461.71	1092.71
462.083	1120.06
462.456	1120.73
462.829	1162.54
463.201	1167.96
463.574	1164.12
463.947	1185.36
464.32	1204.8
464.692	1194.4
465.065	1220.84
465.438	1239.83
465.81	1263.78
466.183	1286.6
466.555	1282.76
466.928	1315.3
467.3	1307.62
467.672	1329.54
468.045	1342.2
468.417	1363.44
468.789	1362.53
469.161	1393.72
469.534	1459.26
469.906	1427.84
470.278	1482.08
470.65	1454.51
471.022	1491.12
471.394	1544.68
471.766	1551.91
472.138	1549.87
472.51	1614.96
472.882	1665.35
473.253	1670.55
473.625	1676.42
473.997	1709.87
474.369	1722.07
474.74	1806.82
475.112	1775.18
475.484	1863.09
475.855	1867.15
476.227	1883.43
476.598	1980.6
476.97	1993.03
477.341	2018.79
477.713	2081.61
478.084	2106.24
478.455	2199.8
478.827	2179.01
479.198	2290.42
479.569	2253.13
479.94	2357.54
480.311	2416.52
480.682	2493.58
481.053	2552.11
481.424	2597.3
481.795	2640.24
482.166	2714.59
482.537	2768.6
482.908	2868.71
483.279	2867.35
483.65	2990.97
484.021	3046.33
484.391	3115.94
484.762	3149.15
485.133	3235.71
485.503	3332.43
485.874	3417.4
486.244	3487.45
486.615	3550.73
486.985	3635.7
487.356	3670.95
487.726	3762.47
488.097	3884.5
488.467	3969.47
488.837	4013.31
489.207	4131.5
489.578	4237.04
489.948	4235.91
490.318	4377.82
490.688	4402.45
491.058	4537.82
491.428	4616.69
491.798	4676.35
492.168	4835.89
492.538	4847.19
492.908	4942.55
493.278	5056.9
493.648	5093.51
494.017	5179.61
494.387	5290.57
494.757	5405.37
495.126	5465.48
495.496	5525.59
495.866	5549.32
496.235	5695.3
496.605	5726.94
496.974	5771.91
497.344	5892.36
497.713	5931
498.082	6046.48
498.452	6119.02
498.821	6233.37
499.19	6208.06
499.559	6372.35
499.928	6415.96
500.298	6373.25
500.667	6505.9
501.036	6518.11
501.405	6666.8
501.774	6699.8
502.143	6765.1
502.512	6828.61
502.88	6914.93
503.249	6928.72
503.618	7025.21
503.987	7066.11
504.356	7131.65
504.724	7195.38
505.093	7172.78
505.462	7289.61
505.83	7330.97
506.199	7381.13
506.567	7537.06
506.936	7520.11
507.304	7608.92
507.672	7641.01
508.041	7725.76
508.409	7793.78
508.777	7837.17
509.145	7876.71
509.514	7924.85
509.882	8023.6
510.25	8087.1
510.618	8151.06
510.986	8186.76
511.354	8241
511.722	8339.53
512.09	8377.27
512.458	8350.83
512.826	8502.91
513.193	8460.2
513.561	8530.48
513.929	8663.13
514.297	8682.57
514.664	8684.15
515.032	8755.56
515.4	8819.97
515.767	8855.22
516.135	8947.42
516.502	8865.61
516.869	9048.66
517.237	9054.08
517.604	9032.84
517.972	9099.51
518.339	9179.5
518.706	9214.76
519.073	9264.7
519.44	9346.73
519.808	9446.84
520.175	9390.12
520.542	9506.05
520.909	9586.27
521.276	9538.82
521.643	9725.03
522.009	9676.21
522.376	9742.88
522.743	9804.35
523.11	9898.13
523.477	9937.68
523.843	10025.13
524.21	10144.9
524.577	10156.88
524.943	10196.65
525.31	10216.09
525.676	10357.55
526.043	10460.83
526.409	10432.35
526.776	10610.43
527.142	10530.43
527.508	10677.54
527.874	10786.24
528.241	10750.08
528.607	10822.4
528.973	10921.83
529.339	10875.96
529.705	10994.15
530.071	11115.05
530.437	11196.17
530.803	11229.17
531.169	11228.04
531.535	11199.56
531.901	11293.8
532.267	11354.59
532.632	11385.77
532.998	11392.33
533.364	11517.97
533.73	11567.46
534.095	11727.69
534.461	11719.55
534.826	11747.57
535.192	11835.48
535.557	11935.14
535.923	11846.78
536.288	11953.44
536.653	11964.97
537.019	11965.19
537.384	12091.07
537.749	12147.34
538.114	12244.73
538.479	12278.63
538.845	12309.59
539.21	12232.31
539.575	12340.55
539.94	12390.49
540.305	12461.9
540.67	12448.35
541.034	12468.68
541.399	12650.6
541.764	12582.13
542.129	12670.71
542.494	12629.58
542.858	12746.42
543.223	12808.34
543.587	12899.41
543.952	12950.25
544.316	12915.23
544.681	12936.47
545.045	13065.73
545.41	13090.36
545.774	13170.81
546.138	13218.72
546.503	13219.4
546.867	13180.98
547.231	13351.6
547.595	13276.8
547.959	13411.48
548.324	13441.31
548.688	13532.84
549.052	13587.75
549.416	13576.22
549.779	13658.26
550.143	13688.54
550.507	13750.23
550.871	13800.4
551.235	13799.95
551.599	13883.79
551.962	13920.85
552.326	13953.16
552.689	14083.56
553.053	14020.51
553.417	14017.34
553.78	14208.07
554.143	14195.87
554.507	14249.65
554.87	14345.92
555.234	14437.9
555.597	14322.19
555.96	14459.14
556.323	14450.78
556.686	14525.8
557.05	14596.09
557.413	14566.93
557.776	14633.82
558.139	14682.86
558.502	14770.54
558.865	14828.62
559.228	14928.05
559.59	14929.86
559.953	14982.29
560.316	15125.34
560.679	15170.53
561.041	15236.75
561.404	15189.97
561.767	15309.06
562.129	15303.86
562.492	15506.34
562.854	15420.02
563.217	15446.01
563.579	15490.3
563.941	15604.65
564.304	15633.12
564.666	15677.86
565.028	15786.56
565.39	15828.14
565.753	15927.12
566.115	15847.13
566.477	15951.76
566.839	16064.07
567.201	16121.24
567.563	16109.94
567.925	16258.41
568.287	16208.02
568.648	16344.51
569.01	16387.68
569.372	16493.89
569.734	16522.14
570.095	16592.64
570.457	16573.89
570.819	16722.81
571.18	16748.12
571.542	16880.54
571.903	16909.92
572.265	17001.9
572.626	17079.64
572.987	17168.9
573.349	17266.98
573.71	17276.01
574.071	17386.97
574.432	17421.1
574.794	17676.23
575.155	17646.17
575.516	17565.5
575.877	17750.8
576.238	17921.65
576.599	18066.73
576.96	18148.99
577.32	18199.38
577.681	18429.66
578.042	18450.22
578.403	18569.77
578.763	18684.57
579.124	18899.25
579.485	18982.64
579.845	19263.08
580.206	19273.25
580.566	19389.86
580.927	19467.37
581.287	19668.27
581.648	19906.45
582.008	20120.69
582.368	20110.52
582.728	20402.71
583.089	20501.69
583.449	20709.6
583.809	20879.31
584.169	21169.7
584.529	21212.41
584.889	21526.98
585.249	21651.49
585.609	21827.08
585.969	22142.78
586.329	22312.27
586.688	22533.96
587.048	22719.49
587.408	22893.04
587.768	23043.32
588.127	23392.01
588.487	23560.82
588.846	23912.45
589.206	23949.06
589.565	24140.24
589.925	24555.37
590.284	24805.31
590.643	25024.29
591.003	25240.78
591.362	25509.47
591.721	25802.34
592.08	26012.28
592.44	26311.71
592.799	26534.3
593.158	26736.78
593.517	27052.25
593.876	27231.01
594.235	27435.07
594.593	27857.21
594.952	28083.64
595.311	28157.76
595.67	28508.04
596.029	28818.54
596.387	29115.7
596.746	29426.43
597.104	29510.72
597.463	29595.46
597.822	30030.03
598.18	30079.75
598.538	30228.67
598.897	30758.6
599.255	30780.97
599.613	31345.25
599.972	31400.16
600.33	31686.26
600.688	31777.33
601.046	32019.36
601.404	32362.62
601.762	32453.02
602.12	32646.68
602.478	32823.85
602.836	33220
603.194	33365.31
603.552	33411.86
603.91	33446.21
604.268	33728.01
604.625	33984.05
604.983	34316.47
605.341	34285.74
605.698	34546.52
606.056	34820.19
606.413	34873.07
606.771	35203.45
607.128	35417.01
607.485	35375.88
607.843	35407.06
608.2	35837.56
608.557	36100.15
608.914	36067.61
609.272	36302.41
609.629	36619.46
609.986	36728.84
610.343	36734.94
610.7	37217.41
611.057	37226.45
611.414	37250.86
611.771	37483.84
612.127	37621.69
612.484	37719.54
612.841	37858.98
613.198	37875.93
613.554	38141.91
613.911	38345.29
614.267	38432.97
614.624	38436.59
614.98	38654.89
615.337	38872.73
615.693	38810.36
616.05	39030.47
616.406	39289.45
616.762	39217.58
617.118	39380.29
617.475	39334.87
617.831	39663.9
618.187	39806.27
618.543	39900.73
618.899	40039.94
619.255	40192.93
619.611	40155.41
619.967	40281.96
620.323	40442.64
620.678	40434.05
621.034	40334.39
621.39	40478.12
621.746	40538.91
622.101	41006.01
622.457	40521.28
622.812	40871.1
623.168	40886.02
623.523	41058.21
623.879	41249.4
624.234	41081.26
624.589	41137.76
624.945	41263.86
625.3	41365.78
625.655	41426.34
626.01	41344.08
626.365	41416.62
626.72	41419.79
627.075	41478.32
627.43	41407.81
627.785	41473.34
628.14	41566.45
628.495	41573.23
628.85	41744.75
629.205	41583.62
629.559	41909.72
629.914	41797.63
630.269	41685.77
630.623	41655.26
630.978	41589.05
631.332	41852.32
631.687	41861.36
632.041	41791.3
632.396	41987.46
632.75	41720.34
633.104	41740.46
633.459	41601.25
633.813	41697.52
634.167	41646.9
634.521	41679.89
634.875	41817.06
635.229	41725.99
635.583	41679.44
635.937	41604.19
636.291	41631.31
636.645	41740
636.999	41708.14
637.352	41830.85
637.706	41454.59
638.06	41578.43
638.413	41549.5
638.767	41486.9
639.121	41607.13
639.474	41414.36
639.828	41423.18
640.181	41494.36
640.534	41406.23
640.888	41509.5
641.241	41227.02
641.594	41417.75
641.947	41653
642.301	41468.6
642.654	41480.12
643.007	41420.69
643.36	41399.45
643.713	41347.92
644.066	41502.72
644.419	41309.96
644.771	41061.38
645.124	40562.63
645.477	40505.69
645.83	40342.75
646.182	40187.95
646.535	40013.95
646.888	40164.9
647.24	40014.63
647.593	40316.54
647.945	40104.34
648.298	40023.21
648.65	39789.55
649.002	39849.88
649.355	40048.3
649.707	39892.82
650.059	40015.76
650.411	40587.27
650.763	40597.21
651.115	40943.41
651.467	40938.22
651.819	40927.37
652.171	40712.46
652.523	40835.85
652.875	40685.34
653.227	40513.82
653.578	40726.47
653.93	40776.64
654.282	40615.29
654.633	40556.31
654.985	40709.52
655.337	40570.32
655.688	40593.59
656.039	40776.19
656.391	40425.01
656.742	40511.79
657.094	40424.33
657.445	40650.32
657.796	40533.93
658.147	40471.79
658.498	40488.51
658.849	40581.62
659.2	40513.37
659.551	40379.14
659.902	40530.32
660.253	40430.66
660.604	40450.55
660.955	40252.59
661.306	40473.82
661.656	40412.36
662.007	40395.86
662.358	40368.74
662.708	40367.38
663.059	40451.45
663.409	40185.24
663.76	40552.24
664.11	40338.01
664.461	40397.89
664.811	40369.64
665.161	40314.5
665.511	40055.75
665.862	40248.74
666.212	40426.37
666.562	40447.83
666.912	40205.81
667.262	40093.27
667.612	40130.55
667.962	40227.5
668.312	40193.6
668.662	40406.25
669.011	40319.48
669.361	40193.83
669.711	40128.97
670.06	40053.27
670.41	40092.14
670.76	40031.35
671.109	40256.88
671.459	40103.21
671.808	40062.08
672.157	40150.89
672.507	39810.34
672.856	40087.39
673.205	40036.77
673.554	40075.87
673.904	40056.43
674.253	40161.74
674.602	39977.11
674.951	39347.98
675.3	39208.32
675.649	39765.14
675.998	39816.21
676.346	39857.34
676.695	40002.65
677.044	39557.91
677.393	39698.93
677.741	39788.64
678.09	39838.36
678.438	39714.07
678.787	39853.5
679.135	39748.19
679.484	39558.59
679.832	39736.44
680.181	39428.88
680.529	39525.6
680.877	39425.94
681.225	39473.85
681.573	39588.2
681.922	39275.44
682.27	39228.43
682.618	39219.39
682.966	39162.44
683.314	39387.3
683.661	39025.73
684.009	38957.48
684.357	38830.7
684.705	38897.14
685.053	38929.68
685.4	38727.65
685.748	38567.66
686.095	38664.38
686.443	38492.18
686.79	38375.12
687.138	38481.11
687.485	38441.33
687.832	38297.38
688.18	38330.15
688.527	38176.03
688.874	38250.83
689.221	38171.74
689.568	38043.6
689.915	37921.57
690.262	37993.44
690.609	37758.41
690.956	37571.53
691.303	37584.63
691.65	37505.99
691.997	37501.47
692.344	37197.75
692.69	37293.12
693.037	37208.82
693.383	36999.11
693.73	37013.12
694.077	36827.37
694.423	36846.8
694.769	36679.35
695.116	36591.21
695.462	36719.35
695.808	36580.59
696.155	36621.72
696.501	36230.77
696.847	36395.06
697.193	36067.16
697.539	36311.45
697.885	36080.04
698.231	35790.1
698.577	35801.63
698.923	35718.47
699.269	35688.64
699.614	35458.36
699.96	35415.42
700.306	35541.52
700.651	35305.37
700.997	35249.78
701.342	35166.17
701.688	34978.37
702.033	35014.53
702.379	34876.91
702.724	34878.26
703.069	34821.54
703.415	34473.75
703.76	34586.75
704.105	34515.56
704.45	34482.34
704.795	34255.23
705.14	34152.41
705.485	34106.53
705.83	33955.58
706.175	33983.15
706.52	33864.73
706.865	33926.42
707.209	33859.99
707.554	33712.64
707.899	33769.14
708.243	33497.51
708.588	33374.57
708.932	33262.04
709.277	33331.64
709.621	33329.83
709.966	33141.13
710.31	33132.77
710.654	32844.64
710.998	32984.3
711.342	32868.15
711.687	32864.08
712.031	32828.37
712.375	32635.16
712.719	32668.6
713.063	32647.36
713.407	32654.82
713.75	32535.27
714.094	32469.97
714.438	32319.23
714.782	32312.91
715.125	32197.66
715.469	32309.07
715.812	32088.96
716.156	31981.39
716.499	31823.2
716.843	31953.37
717.186	31693.49
717.53	31893.03
717.873	31785.24
718.216	31872.24
718.559	31609.88
718.902	31320.39
719.246	31444
719.589	31301.18
719.932	31246.27
720.275	31368.75
720.617	31213.28
720.96	31135.09
721.303	31074.3
721.646	31112.49
721.989	30995.43
722.331	30920.18
722.674	31092.15
723.016	30973.28
723.359	31035.2
723.701	30946.16
724.044	30709.11
724.386	30630.47
724.729	30921.08
725.071	30635.21
725.413	30619.17
725.755	30565.61
726.097	30466.63
726.439	30345.5
726.782	30345.5
727.124	30424.37
727.465	30196.58
727.807	30262.79
728.149	30185.05
728.491	30128.33
728.833	30200.42
729.175	30005.85
729.516	30121.55
729.858	29884.72
730.199	30091.72
730.541	29947.09
730.882	29801.79
731.224	29978.73
731.565	29813.54
731.906	29656.25
732.248	29834.33
732.589	29553.21
732.93	29666.88
733.271	29527.9
733.612	29535.81
733.953	29520.66
734.294	29466.65
734.635	29290.16
734.976	29469.59
735.317	29329.71
735.658	29287.45
735.999	29251.52
736.339	29278.64
736.68	29193.89
737.021	29117.74
737.361	28976.95
737.702	29127.23
738.042	29096.49
738.383	29008.59
738.723	29004.75
739.063	28878.87
739.404	28979.44
739.744	28861.7
740.084	28699.67
740.424	28812.43
740.764	28646.79
741.104	28847.24
741.444	28671.42
741.784	28584.64
742.124	28635.26
742.464	28604.76
742.804	28582.61
743.143	28418.55
743.483	28523.18
743.823	28277.99
744.162	28239.57
744.502	28369.73
744.841	28219.46
745.181	28294.03
745.52	28185.78
745.86	28187.59
746.199	28168.16
746.538	28203.18
746.877	28169.74
747.216	28125.9
747.556	28036.41
747.895	28104.2
748.234	27942.85
748.573	27895.85
748.911	27807.49
749.25	27797.32
749.589	27747.38
749.928	27655.85
750.267	27731.33
750.605	27695.63
750.944	27496.31
751.283	27554.39
751.621	27715.29
751.96	27420.38
752.298	27484.56
752.636	27457.89
752.975	27231.23
753.313	27158.24
753.651	27293.83
753.989	27208.41
754.327	27124.8
754.666	26999.15
755.004	27036.44
755.342	27031.92
755.679	26930.68
756.017	26752.6
756.355	26719.38
756.693	26632.38
757.031	26634.86
757.368	26548.09
757.706	26504.92
