Data from hue_28_FLMS001491_00005.txt Node
Date: Tue Feb 07 17:16:47 GMT 2017
User: dcchb
Spectrometer: FLMS00149
Trigger mode: 0
Integration Time (sec): 2.000000E-2
Scans to average: 10
Electric dark correction enabled: true
Nonlinearity correction enabled: false
Boxcar width: 0
XAxis mode: Wavelengths
Number of Pixels in Spectrum: 2048
>>>>>Begin Spectral Data<<<<<
341.393	-22.98
341.776	-22.98
342.16	-22.98
342.543	-68.4
342.927	-79.7
343.31	-60.94
343.693	-82.64
344.077	-72.92
344.46	-50.32
344.843	-50.32
345.226	-39.25
345.61	-38.57
345.993	-35.41
346.376	6.4
346.759	4.59
347.142	29.67
347.525	56.79
347.908	50.69
348.291	79.16
348.674	81.2
349.057	121.88
349.44	117.13
349.823	151.03
350.206	165.04
350.588	194.87
350.971	223.34
351.354	240.74
351.737	262.89
352.119	264.47
352.502	265.15
352.884	259.05
353.267	266.28
353.65	290.68
354.032	301.31
354.414	312.6
354.797	327.97
355.179	339.95
355.562	320.29
355.944	315.54
356.326	343.34
356.709	341.3
357.091	331.14
357.473	338.14
357.855	348.76
358.238	341.76
358.62	338.14
359.002	349.67
359.384	334.3
359.766	356.22
360.148	330.01
360.53	349.67
360.912	357.8
361.294	334.07
361.676	342.89
362.057	326.84
362.439	339.5
362.821	329.1
363.203	328.2
363.584	326.39
363.966	329.33
364.348	334.53
364.729	325.03
365.111	319.16
365.493	311.93
365.874	334.98
366.256	322.32
366.637	312.83
367.019	300.4
367.4	333.4
367.781	320.06
368.163	318.93
368.544	339.04
368.925	295.88
369.306	319.61
369.688	328.88
370.069	306.28
370.45	304.7
370.831	326.16
371.212	301.98
371.593	293.62
371.974	294.07
372.355	309.67
372.736	315.77
373.117	332.49
373.498	310.12
373.879	327.07
374.26	313.96
374.641	313.06
375.021	331.59
375.402	354.41
375.783	324.13
376.163	334.75
376.544	313.51
376.925	339.95
377.305	334.98
377.686	320.51
378.066	353.06
378.447	359.16
378.827	341.98
379.208	333.4
379.588	315.09
379.968	334.53
380.349	342.89
380.729	335.2
381.109	349.21
381.489	342.43
381.87	353.73
382.25	345.15
382.63	333.85
383.01	350.34
383.39	351.93
383.77	345.82
384.15	335.43
384.53	337.46
384.91	354.41
385.29	330.68
385.67	354.41
386.049	375.2
386.429	346.95
386.809	359.84
387.189	360.29
387.568	365.71
387.948	376.56
388.328	353.06
388.707	377.24
389.087	358.93
389.466	358.48
389.846	380.85
390.225	370.91
390.605	363.68
390.984	356.45
391.363	368.87
391.743	390.34
392.122	377.46
392.501	382.21
392.881	359.16
393.26	373.62
393.639	379.27
394.018	384.69
394.397	372.26
394.776	395.77
395.155	397.12
395.534	377.24
395.913	401.42
396.292	374.07
396.671	379.04
397.05	412.26
397.429	383.11
397.808	394.41
398.186	424.24
398.565	386.05
398.944	411.36
399.323	404.81
399.701	414.07
400.08	416.56
400.458	409.55
400.837	427.18
401.215	408.87
401.594	408.2
401.972	426.27
402.351	417.69
402.729	415.2
403.107	424.92
403.486	430.79
403.864	434.18
404.242	400.06
404.62	447.29
404.999	438.7
405.377	431.92
405.755	440.06
406.133	429.21
406.511	463.34
406.889	473.28
407.267	443
407.645	455.88
408.023	451.81
408.401	463.79
408.779	447.06
409.156	472.6
409.534	458.59
409.912	464.47
410.29	472.15
410.667	480.51
411.045	477.35
411.422	473.05
411.8	465.37
412.178	507.85
412.555	492.49
412.933	501.3
413.31	491.13
413.687	502.2
414.065	517.35
414.442	512.83
414.819	518.02
415.197	508.98
415.574	526.61
415.951	524.35
416.328	545.14
416.705	541.75
417.082	500.4
417.46	539.49
417.837	535.2
418.214	523.45
418.591	526.84
418.967	535.65
419.344	535.2
419.721	552.6
420.098	555.08
420.475	562.32
420.852	553.05
421.228	561.41
421.605	581.98
421.982	552.37
422.358	581.75
422.735	574.29
423.111	579.72
423.488	607.96
423.864	583.11
424.241	607.74
424.617	604.12
424.994	589.89
425.37	612.71
425.746	602.99
426.123	602.54
426.499	605.03
426.875	604.12
427.251	633.5
427.627	636.66
428.003	651.58
428.379	643.9
428.756	661.52
429.132	640.28
429.507	647.96
429.883	684.35
430.259	662.65
430.635	669.21
431.011	661.97
431.387	675.31
431.763	701.75
432.138	693.39
432.514	712.59
432.89	698.81
433.265	726.15
433.641	747.85
434.016	729.09
434.392	742.42
434.767	751.92
435.143	749.88
435.518	764.34
435.894	760.05
436.269	769.09
436.644	777.68
437.02	770.45
437.395	779.03
437.77	814.29
438.145	799.6
438.52	812.7
438.895	847.73
439.271	809.09
439.646	811.57
440.021	831.01
440.395	828.52
440.77	837.56
441.145	837.56
441.52	831.69
441.895	869.88
442.27	859.48
442.645	848.18
443.019	879.82
443.394	840.95
443.769	883.66
444.143	877.11
444.518	894.51
444.892	885.47
445.267	913.27
445.641	897.9
446.016	917.33
446.39	932.93
446.764	925.24
447.139	910.1
447.513	932.7
447.887	935.64
448.262	946.26
448.636	942.64
449.01	950.55
449.384	946.03
449.758	985.58
450.132	957.79
450.506	983.55
450.88	970.89
451.254	976.54
451.628	992.36
452.002	983.1
452.376	1024.9
452.75	1048.63
453.123	1032.13
453.497	1026.71
453.871	1046.37
454.244	1038.24
454.618	1066.71
454.992	1085.24
455.365	1093.15
455.739	1090.66
456.112	1104
456.486	1117.56
456.859	1141.96
457.232	1131.57
457.606	1128.18
457.979	1159.14
458.352	1181.28
458.725	1162.3
459.099	1211.79
459.472	1224.45
459.845	1236.2
460.218	1246.82
460.591	1235.52
460.964	1274.61
461.337	1268.29
461.71	1287.04
462.083	1319.13
462.456	1327.49
462.829	1312.58
463.201	1361.62
463.574	1359.13
463.947	1368.4
464.32	1398.9
464.692	1395.06
465.065	1406.59
465.438	1419.02
465.81	1427.83
466.183	1455.63
466.555	1501.27
466.928	1493.36
467.3	1539.47
467.672	1562.52
468.045	1582.4
468.417	1583.31
468.789	1558.45
469.161	1611.55
469.534	1640.25
469.906	1668.05
470.278	1670.08
470.65	1704.66
471.022	1712.12
471.394	1731.78
471.766	1769.29
472.138	1765
472.51	1820.14
472.882	1872.56
473.253	1896.07
473.625	1900.13
473.997	1928.16
474.369	1967.93
474.74	2020.58
475.112	2048.15
475.484	2042.05
475.855	2099
476.227	2145.32
476.598	2200.01
476.97	2192.78
477.341	2244.53
477.713	2298.99
478.084	2329.5
478.455	2399.56
478.827	2442.94
479.198	2494.47
479.569	2483.62
479.94	2582.38
480.311	2621.24
480.682	2695.59
481.053	2751.18
481.424	2752.77
481.795	2787.57
482.166	2829.15
482.537	2954.8
482.908	2971.29
483.279	3004.29
483.65	3090.38
484.021	3128.58
484.391	3228.69
484.762	3220.32
485.133	3299.87
485.503	3331.96
485.874	3419.87
486.244	3447.66
486.615	3561.33
486.985	3548
487.356	3649.01
487.726	3691.5
488.097	3808.78
488.467	3787.09
488.837	3887.65
489.207	3908.22
489.578	4015.56
489.948	4022.11
490.318	4116.12
490.688	4126.29
491.058	4241.77
491.428	4275.21
491.798	4340.97
492.168	4450.35
492.538	4476.79
492.908	4533.74
493.278	4594.53
493.648	4623.68
494.017	4657.12
494.387	4727.4
494.757	4751.13
495.126	4865.93
495.496	4844.69
495.866	4921.75
496.235	4950.67
496.605	5011.01
496.974	5050.56
497.344	5079.94
497.713	5100.5
498.082	5188.63
498.452	5259.82
498.821	5264.34
499.19	5343.88
499.559	5341.63
499.928	5436.54
500.298	5410.55
500.667	5491.23
501.036	5515.86
501.405	5538.23
501.774	5587.49
502.143	5655.74
502.512	5653.48
502.88	5727.15
503.249	5747.49
503.618	5813.7
503.987	5872.46
504.356	5852.57
504.724	5891.67
505.093	5886.24
505.462	5956.3
505.83	6017.77
506.199	6041.49
506.567	6130.76
506.936	6118.78
507.304	6169.85
507.672	6234.26
508.041	6225.67
508.409	6309.06
508.777	6368.94
509.145	6361.94
509.514	6383.63
509.882	6398.77
510.25	6417.53
510.618	6539.33
510.986	6501.82
511.354	6557.86
511.722	6601.93
512.09	6719.44
512.458	6695.49
512.826	6753.79
513.193	6736.62
513.561	6760.57
513.929	6761.25
514.297	6857.29
514.664	6936.16
515.032	6935.48
515.4	6983.16
515.767	6963.73
516.135	7005.99
516.502	6965.54
516.869	7140.45
517.237	7132.99
517.604	7088.92
517.972	7227.23
518.339	7206.43
518.706	7188.13
519.073	7284.62
519.44	7260.44
519.808	7316.04
520.175	7358.97
520.542	7422.7
520.909	7443.72
521.276	7444.62
521.643	7548.57
522.009	7593.09
522.376	7637.16
522.743	7657.72
523.11	7703.82
523.477	7796.02
523.843	7804.39
524.21	7825.18
524.577	7850.49
524.943	7931.84
525.31	7972.97
525.676	8050.71
526.043	8038.5
526.409	8178.84
526.776	8262.45
527.142	8137.94
527.508	8238.95
527.874	8357.14
528.241	8358.27
528.607	8400.98
528.973	8430.13
529.339	8450.47
529.705	8487.08
530.071	8603.23
530.437	8633.74
530.803	8632.61
531.169	8753.96
531.535	8709.45
531.901	8738.37
532.267	8809.78
532.632	8823.79
532.998	8915.77
533.364	8997.57
533.73	8928.42
534.095	8986.73
534.461	9073.73
534.826	9074.63
535.192	9040.51
535.557	9195.99
535.923	9178.13
536.288	9217.91
536.653	9334.51
537.019	9275.31
537.384	9359.6
537.749	9400.5
538.114	9360.95
538.479	9485.92
538.845	9420.16
539.21	9510.33
539.575	9506.71
539.94	9544.9
540.305	9630.55
540.67	9640.27
541.034	9745.35
541.399	9750.77
541.764	9763.88
542.129	9817.44
542.494	9865.12
542.858	9917.55
543.223	9910.09
543.587	10015.17
543.952	9983.31
544.316	10049.52
544.681	10021.95
545.045	10045.23
545.41	10161.16
545.774	10132.91
546.138	10181.5
546.503	10266.92
546.867	10240.25
547.231	10413.36
547.595	10364.77
547.959	10391.89
548.324	10373.81
548.688	10508.72
549.052	10548.95
549.416	10565.44
549.779	10515.05
550.143	10620.36
550.507	10665.78
550.871	10690.19
551.235	10741.71
551.599	10801.37
551.962	10792.1
552.326	10837.3
552.689	10857.86
553.053	10843.4
553.417	10875.94
553.78	11024.41
554.143	10989.16
554.507	10989.84
554.87	11057.41
555.234	11196.84
555.597	11071.42
555.96	11145.54
556.323	11220.57
556.686	11270.28
557.05	11286.1
557.413	11319.77
557.776	11359.09
558.139	11480.22
558.502	11471.63
558.865	11411.75
559.228	11522.48
559.59	11604.96
559.953	11632.31
560.316	11720.44
560.679	11673.66
561.041	11779.2
561.404	11800.44
561.767	11813.55
562.129	11835.69
562.492	11981.45
562.854	11999.98
563.217	11921.57
563.579	12009.7
563.941	12044.27
564.304	12162.01
564.666	12206.53
565.028	12164.04
565.39	12297.15
565.753	12368.11
566.115	12347.32
566.477	12440.2
566.839	12372.63
567.201	12517.26
567.563	12476.8
567.925	12625.95
568.287	12634.99
568.648	12663.92
569.01	12746.63
569.372	12801.32
569.734	12740.53
570.095	12904.82
570.457	12956.57
570.819	12956.11
571.18	13004.25
571.542	13017.58
571.903	13043.57
572.265	13161.98
572.626	13144.58
572.987	13249.21
573.349	13371.24
573.71	13441.98
574.071	13444.24
574.432	13502.09
574.794	13712.03
575.155	13702.99
575.516	13645.14
575.877	13799.93
576.238	13890.78
576.599	13901.85
576.96	14070.44
577.32	14122.86
577.681	14268.17
578.042	14327.6
578.403	14426.81
578.763	14531.44
579.124	14587.94
579.485	14767.82
579.845	14984.54
580.206	14980.24
580.566	15109.05
580.927	15281.7
581.287	15470.62
581.648	15507.23
582.008	15813.44
582.368	15849.6
582.728	16059.31
583.089	16197.61
583.449	16365.29
583.809	16590.82
584.169	16772.06
584.529	16854.54
584.889	17104.71
585.249	17240.75
585.609	17468.09
585.969	17730
586.329	18051.57
586.688	18158.24
587.048	18328.85
587.408	18584.44
587.768	18791.89
588.127	19103.52
588.487	19360.69
588.846	19672.32
589.206	19840.23
589.565	20134.46
589.925	20398.18
590.284	20588.91
590.643	21002
591.003	21243.58
591.362	21597.47
591.721	21734.41
592.08	22116.78
592.44	22457.79
592.799	22715.63
593.158	22874.72
593.517	23159.69
593.876	23509.06
594.235	23805.32
594.593	24107.69
594.952	24451.63
595.311	24608.92
595.67	24920.77
596.029	25433.3
596.387	25711.94
596.746	26083.68
597.104	26071.48
597.463	26407.29
597.822	26840.72
598.18	27036.2
598.538	27345.79
598.897	27734.03
599.255	27843.41
599.613	28537.17
599.972	28711.86
600.33	28982.36
600.688	29194.56
601.046	29635.68
601.404	29823.69
601.762	30207.64
602.12	30500.29
602.478	30729.66
602.836	30917.68
603.194	31147.05
603.552	31575.96
603.91	31638.33
604.268	32037.65
604.625	32275.61
604.983	32553.56
605.341	32712.43
605.698	32980.22
606.056	33428.34
606.413	33491.62
606.771	33806.19
607.128	34153.97
607.485	34115.56
607.843	34442.55
608.2	34800.74
608.557	35070.33
608.914	35166.83
609.272	35541.28
609.629	35716.65
609.986	36018.33
610.343	36189.4
610.7	36510.98
611.057	36771.76
611.414	36856.05
611.771	37072.09
612.127	37433.66
612.484	37527.45
612.841	37763.37
613.198	37791.39
613.554	38069.8
613.911	38332.62
614.267	38685.38
614.624	38679.28
614.98	38794.08
615.337	39185.93
615.693	39158.14
616.05	39404.91
616.406	39770.78
616.762	39798.8
617.118	39745.47
617.475	39819.81
617.831	40061.16
618.187	40328.28
618.543	40360.59
618.899	40647.82
619.255	40722.39
619.611	40835.61
619.967	40986.11
620.323	41248.7
620.678	41187.24
621.034	41160.12
621.39	41323.05
621.746	41337.29
622.101	41877.61
622.457	41673.55
622.812	41834.22
623.168	42083.94
623.523	42122.35
623.879	42295.46
624.234	42084.61
624.589	42446.41
624.945	42443.25
625.3	42647.99
625.655	42649.8
626.01	42645.28
626.365	42859.06
626.72	42907.64
627.075	42799.62
627.43	42904.93
627.785	42865.38
628.14	43090.01
628.495	43139.95
628.85	43100.18
629.205	43068.32
629.559	43324.36
629.914	43174.53
630.269	43178.6
630.623	43370.23
630.978	43263.11
631.332	43431.47
631.687	43564.57
632.041	43492.71
632.396	43487.51
632.75	43381.75
633.104	43455.2
633.459	43411.13
633.813	43414.3
634.167	43530
634.521	43363
634.875	43492.71
635.229	43445.26
635.583	43272.61
635.937	43397.35
636.291	43418.82
636.645	43468.31
636.999	43409.32
637.352	43621.75
637.706	43408.65
638.06	43633.95
638.413	43366.16
638.767	43313.96
639.121	43465.59
639.474	43341.08
639.828	43391.7
640.181	43499.72
640.534	43441.19
640.888	43371.36
641.241	43181.99
641.594	43382.21
641.947	43289.78
642.301	43351.7
642.654	43301.08
643.007	43325.49
643.36	43132.72
643.713	43271.93
644.066	43526.16
644.419	43214.53
644.771	42958.49
645.124	42568.22
645.477	42561.44
645.83	42327.77
646.182	42244.84
646.535	42073.54
646.888	42183.37
647.24	42055.46
647.593	42287.55
647.945	42243.03
648.298	41979.98
648.65	41871.74
649.002	41888.91
649.355	41991.73
649.707	41949.7
650.059	42186.53
650.411	42592.85
650.763	42549.69
651.115	43120.29
651.467	42845.5
651.819	42941.99
652.171	42821.32
652.523	42914.65
652.875	42676.91
653.227	42632.85
653.578	42820.64
653.93	42782.67
654.282	42663.36
654.633	42536.81
654.985	42662.68
655.337	42737.03
655.688	42687.54
656.039	42838.94
656.391	42430.82
656.742	42543.58
657.094	42638.72
657.445	42698.16
657.796	42676.91
658.147	42467.43
658.498	42404.83
658.849	42664.03
659.2	42569.12
659.551	42410.48
659.902	42660.64
660.253	42483.25
660.604	42677.37
660.955	42469.69
661.306	42465.17
661.656	42447.54
662.007	42457.26
662.358	42481.89
662.708	42386.3
663.059	42490.48
663.409	42361.89
663.76	42584.49
664.11	42500.65
664.461	42530.03
664.811	42522.57
665.161	42552.17
665.511	42439.41
665.862	42484.15
666.212	42624.26
666.562	42520.08
666.912	42377.94
667.262	42344.27
667.612	42552.17
667.962	42433.08
668.312	42246.19
668.662	42557.14
669.011	42504.04
669.361	42376.36
669.711	42411.61
670.06	42358.96
670.41	42243.03
670.76	42257.04
671.109	42337.94
671.459	42313.53
671.808	42114.22
672.157	42363.93
672.507	42113.54
672.856	42140.66
673.205	42179.75
673.554	42159.64
673.904	42137.72
674.253	42348.79
674.602	42123.03
674.951	41472.88
675.3	41350.17
675.649	41982.92
675.998	41972.53
676.346	41976.14
676.695	42154.67
677.044	41815.24
677.393	41923.71
677.741	42115.8
678.09	41965.75
678.438	41836.94
678.787	41862.92
679.135	41914.22
679.484	41580.22
679.832	41778.41
680.181	41616.6
680.529	41741.35
680.877	41547.9
681.225	41629.03
681.573	41841.23
681.922	41591.97
682.27	41324.86
682.618	41318.53
682.966	41283.05
683.314	41497.96
683.661	41293.45
684.009	40944.76
684.357	40954.25
684.705	40962.84
685.053	41137.29
685.4	40914.93
685.748	40735.04
686.095	40727.36
686.443	40686.46
686.79	40597.65
687.138	40677.19
687.485	40598.1
687.832	40443.3
688.18	40509.29
688.527	40399.69
688.874	40312.68
689.221	40277.2
689.568	40116.08
689.915	40026.36
690.262	39940.72
690.609	39958.34
690.956	39859.14
691.303	39744.56
691.65	39602.19
691.997	39691.91
692.344	39341.86
692.69	39364.23
693.037	39319.94
693.383	39041.08
693.73	39151.81
694.077	39074.75
694.423	38919.95
694.769	38884.25
695.116	38712.27
695.462	38541.88
695.808	38620.07
696.155	38703.46
696.501	38298.95
696.847	38338.05
697.193	38125.17
697.539	38142.8
697.885	38053.31
698.231	37730.38
698.577	37881.33
698.923	37856.02
699.269	37546.88
699.614	37459.65
699.96	37475.02
700.306	37486.99
700.651	37260.79
700.997	37177.4
701.342	37260.33
701.688	37013.79
702.033	36873
702.379	36900.12
702.724	36720.24
703.069	36969.49
703.415	36459.68
703.76	36509.85
704.105	36575.38
704.45	36470.75
704.795	36273.92
705.14	36205.22
705.485	36048.16
705.83	35963.42
706.175	35934.94
706.52	35870.77
706.865	35774.27
707.209	35696.99
707.554	35699.24
707.899	35800.26
708.243	35541.96
708.588	35565.24
708.932	35283.21
709.277	35364.56
709.621	35300.84
709.966	35031.69
710.31	35250.67
710.654	34785.14
710.998	34874.18
711.342	34945.59
711.687	34713.06
712.031	34595.77
712.375	34493.85
712.719	34541.76
713.063	34370.01
713.407	34701.31
713.75	34382.67
714.094	34366.62
714.438	34150.59
714.782	34252.73
715.125	34065.16
715.469	34127.53
715.812	33930.25
716.156	33944.49
716.499	33900.87
716.843	33927.31
717.186	33646.42
717.53	33728
717.873	33847.99
718.216	33701.11
718.559	33511.05
718.902	33225.19
719.246	33326.2
719.589	33208.01
719.932	33115.58
720.275	33158.29
720.617	33066.32
720.96	33003.72
721.303	33050.28
721.646	33010.28
721.989	32843.5
722.331	32937.06
722.674	32810.73
723.016	32739.77
723.359	32833.56
723.701	32750.62
724.044	32607.57
724.386	32452.1
724.729	32617.52
725.071	32410.52
725.413	32401.93
725.755	32416.62
726.097	32300.46
726.439	32201.03
726.782	32119
727.124	32333.23
727.465	32028.16
727.807	32207.13
728.149	32015.5
728.491	31957.65
728.833	32053.24
729.175	31939.8
729.516	31762.4
729.858	31739.8
730.199	31789.52
730.541	31684.66
730.882	31680.82
731.224	31739.12
731.565	31515.63
731.906	31604.44
732.248	31526.02
732.589	31335.07
732.93	31238.8
733.271	31258.91
733.612	31317.21
733.953	31346.14
734.294	31240.83
734.635	31097.56
734.976	31217.33
735.317	31029.99
735.658	31058.91
735.999	31061.17
736.339	30902.31
736.68	31023.44
737.021	30926.04
737.361	30801.07
737.702	30917.68
738.042	30827.51
738.383	30839.03
738.723	30827.28
739.063	30644.01
739.404	30856.89
739.744	30620.28
740.084	30509.55
740.424	30550
740.764	30418.48
741.104	30511.81
741.444	30398.82
741.784	30214.19
742.124	30342.55
742.464	30220.07
742.804	30222.1
743.143	30035.89
743.483	30197.24
743.823	30085.61
744.162	30041.77
744.502	30014.42
744.841	29936.68
745.181	30042.9
745.52	29847.2
745.86	29804.26
746.199	29922.22
746.538	29788.44
746.877	29804.48
747.216	29776.24
747.556	29807.2
747.895	29727.42
748.234	29626.86
748.573	29523.14
748.911	29569.91
749.25	29532.18
749.589	29299.19
749.928	29402.24
750.267	29377.83
750.605	29277.04
750.944	29220.55
751.283	29193.65
751.621	29287.66
751.96	29029.36
752.298	29122.02
752.636	29042.47
752.975	28950.5
753.313	28766.55
753.651	28936.48
753.989	28800.44
754.327	28765.87
754.666	28605.65
755.004	28663.27
755.342	28623.5
755.679	28541.24
756.017	28420.57
756.355	28534.01
756.693	28408.82
757.031	28408.82
757.368	28351.19
757.706	28304.41
758.044	28082.27
758.381	28113
758.719	28141.7
