Data from hue_30_FLMS001491_7.txt Node
Date: Mon Feb 06 15:04:34 GMT 2017
User: dcchb
Spectrometer: FLMS00149
Trigger mode: 0
Integration Time (sec): 2.000000E-2
Scans to average: 10
Electric dark correction enabled: true
Nonlinearity correction enabled: false
Boxcar width: 0
XAxis mode: Wavelengths
Number of Pixels in Spectrum: 2048
>>>>>Begin Spectral Data<<<<<
341.393	-22.17
341.776	-22.17
342.16	-22.17
342.543	-76.86
342.927	-44.09
343.31	-64.21
343.693	-62.85
344.077	-59.46
344.46	-71.44
344.843	-54.72
345.226	-44.09
345.61	-35.96
345.993	-42.51
346.376	6.3
346.759	12.63
347.142	12.17
347.525	47.43
347.908	53.98
348.291	93.75
348.674	99.86
349.057	109.12
349.44	146.18
349.823	127.88
350.206	147.31
350.588	183.47
350.971	200.19
351.354	202.45
351.737	210.81
352.119	239.06
352.502	262.11
352.884	257.14
353.267	262.11
353.65	288.78
354.032	305.27
354.414	313.18
354.797	311.6
355.179	329.23
355.562	308.66
355.944	324.48
356.326	327.42
356.709	335.56
357.091	345.73
357.473	356.57
357.855	338.49
358.238	347.53
358.62	342.34
359.002	331.04
359.384	348.89
359.766	356.12
360.148	326.06
360.53	326.74
360.912	350.25
361.294	334.65
361.676	336.23
362.057	319.06
362.439	311.6
362.821	330.36
363.203	326.52
363.584	329.91
363.966	308.66
364.348	329.68
364.729	320.87
365.111	307.99
365.493	347.53
365.874	315.22
366.256	308.89
366.637	306.4
367.019	308.44
367.4	303.47
367.781	305.95
368.163	326.52
368.544	295.56
368.925	307.76
369.306	305.5
369.688	303.24
370.069	316.35
370.45	302.79
370.831	305.5
371.212	312.28
371.593	331.94
371.974	298.04
372.355	297.37
372.736	314.54
373.117	305.5
373.498	291.72
373.879	331.94
374.26	316.57
374.641	318.61
375.021	292.85
375.402	319.06
375.783	292.39
376.163	324.03
376.544	325.39
376.925	326.52
377.305	344.82
377.686	313.86
378.066	309.12
378.447	310.47
378.827	315.9
379.208	310.02
379.588	337.59
379.968	335.1
380.349	323.35
380.729	329.45
381.109	330.58
381.489	341.43
381.87	336.91
382.25	344.6
382.63	338.72
383.01	331.94
383.39	333.3
383.77	345.95
384.15	334.88
384.53	338.49
384.91	328.1
385.29	360.41
385.67	333.52
386.049	324.71
386.429	322
386.809	343.01
387.189	343.24
387.568	332.62
387.948	338.04
388.328	330.13
388.707	356.8
389.087	350.7
389.466	345.27
389.846	321.32
390.225	354.54
390.605	349.79
390.984	359.74
391.363	352.96
391.743	347.99
392.122	359.28
392.501	367.19
392.881	368.55
393.26	349.12
393.639	368.55
394.018	351.6
394.397	341.88
394.776	362.9
395.155	384.14
395.534	357.02
395.913	375.33
396.292	373.3
396.671	374.65
397.05	365.39
397.429	357.48
397.808	366.74
398.186	383.46
398.565	382.11
398.944	386.85
399.323	385.5
399.701	397.48
400.08	384.59
400.458	366.52
400.837	376.69
401.215	376.23
401.594	387.53
401.972	390.02
402.351	394.76
402.729	391.83
403.107	412.39
403.486	390.02
403.864	400.19
404.242	408.77
404.62	405.84
404.999	425.27
405.377	399.96
405.755	414.88
406.133	397.02
406.511	401.32
406.889	408.77
407.267	390.7
407.645	405.61
408.023	419.4
408.401	399.51
408.779	417.59
409.156	413.52
409.534	420.53
409.912	421.88
410.29	423.69
410.667	427.08
411.045	433.18
411.422	443.12
411.8	442.67
412.178	449
412.555	422.56
412.933	449.68
413.31	439.06
413.687	454.42
414.065	451.94
414.442	431.37
414.819	445.16
415.197	461.65
415.574	452.84
415.951	475.67
416.328	462.11
416.705	459.39
417.082	466.63
417.46	457.81
417.837	459.85
418.214	468.89
418.591	485.16
418.967	478.83
419.344	482.22
419.721	472.73
420.098	466.63
420.475	498.04
420.852	499.62
421.228	491.48
421.605	506.17
421.982	513.18
422.358	509.79
422.735	493.52
423.111	500.07
423.488	506.4
423.864	495.55
424.241	492.39
424.617	497.13
424.994	523.57
425.37	530.58
425.746	505.04
426.123	530.13
426.499	517.47
426.875	538.94
427.251	545.95
427.627	545.72
428.003	537.13
428.379	541.43
428.756	551.82
429.132	555.21
429.507	563.57
429.883	569.45
430.259	584.36
430.635	563.8
431.011	576.68
431.387	573.52
431.763	574.19
432.138	585.49
432.514	592.05
432.89	603.12
433.265	611.93
433.641	609.9
434.016	607.64
434.392	611.71
434.767	588.88
435.143	615.1
435.518	611.93
435.894	639.73
436.269	632.27
436.644	648.09
437.02	647.86
437.395	647.19
437.77	668.88
438.145	648.09
438.52	643.34
438.895	658.26
439.271	656.68
439.646	650.35
440.021	658.94
440.395	676.34
440.77	674.76
441.145	667.98
441.52	709.33
441.895	682.67
442.27	672.95
442.645	700.74
443.019	681.76
443.394	728.31
443.769	702.1
444.143	692.16
444.518	709.11
444.892	730.8
445.267	724.47
445.641	719.05
446.016	747.97
446.39	711.14
446.764	747.75
447.139	740.97
447.513	739.39
447.887	727.41
448.262	751.82
448.636	747.75
449.01	760.18
449.384	758.37
449.758	760.63
450.132	801.53
450.506	760.18
450.88	769.67
451.254	753.4
451.628	778.03
452.002	802.21
452.376	798.59
452.75	806.05
453.123	794.3
453.497	793.4
453.871	821.65
454.244	835.2
454.618	832.72
454.992	850.34
455.365	865.26
455.739	851.7
456.112	853.73
456.486	870.91
456.859	867.52
457.232	875.65
457.606	885.6
457.979	875.65
458.352	909.1
458.725	917.01
459.099	931.02
459.472	943.9
459.845	933.96
460.218	947.29
460.591	983.45
460.964	976.67
461.337	976.9
461.71	1021.19
462.083	1030.23
462.456	1009.44
462.829	1003.79
463.201	1012.6
463.574	1021.64
463.947	1039.04
464.32	1051.47
464.692	1073.62
465.065	1107.74
465.438	1075.42
465.81	1078.14
466.183	1132.15
466.555	1141.18
466.928	1140.05
467.3	1170.34
467.672	1147.51
468.045	1199.26
468.417	1193.16
468.789	1194.29
469.161	1236.32
469.534	1223.67
469.906	1262.54
470.278	1303.67
470.65	1314.74
471.022	1293.72
471.394	1361.29
471.766	1347.28
472.138	1362.2
472.51	1373.04
472.882	1429.54
473.253	1449.43
473.625	1451.23
473.997	1500.95
474.369	1476.09
474.74	1527.39
475.112	1524.45
475.484	1568.52
475.855	1606.71
476.227	1640.61
476.598	1698.68
476.97	1670.21
477.341	1727.38
477.713	1740.72
478.084	1747.72
478.455	1810.55
478.827	1830.21
479.198	1886.48
479.569	1903.42
479.94	1958.79
480.311	1983.87
480.682	2048.73
481.053	2087.15
481.424	2131.89
481.795	2158.11
482.166	2229.07
482.537	2231.33
482.908	2299.35
483.279	2334.83
483.65	2432.68
484.021	2454.37
484.391	2492.11
484.762	2514.26
485.133	2571.43
485.503	2627.7
485.874	2687.36
486.244	2711.54
486.615	2797.19
486.985	2836.96
487.356	2890.74
487.726	2926.67
488.097	2996.73
488.467	3025.65
488.837	3093
489.207	3162.37
489.578	3234.46
489.948	3247.8
490.318	3315.14
490.688	3392.88
491.058	3439.2
491.428	3467.9
491.798	3549.48
492.168	3633.32
492.538	3646.43
492.908	3681.46
493.278	3762.58
493.648	3785.63
494.017	3854.33
494.387	3911.28
494.757	3949.7
495.126	3978.62
495.496	4006.42
495.866	4058.85
496.235	4128.9
496.605	4181.78
496.974	4222.23
497.344	4301.1
497.713	4348.33
498.082	4313.76
498.452	4436.92
498.821	4458.84
499.19	4474.66
499.559	4529.57
499.928	4559.17
500.298	4580.87
500.667	4626.74
501.036	4676.01
501.405	4718.04
501.774	4724.82
502.143	4797.36
502.512	4846.4
502.88	4895.21
503.249	4883.01
503.618	4923.46
503.987	4949.67
504.356	5031.03
504.724	5048.43
505.093	5035.09
505.462	5136.11
505.83	5151.7
506.199	5140.85
506.567	5268.76
506.936	5264.69
507.304	5337.23
507.672	5321.87
508.041	5400.96
508.409	5393.28
508.777	5430.79
509.145	5464.01
509.514	5450
509.882	5517.57
510.25	5536.78
510.618	5592.14
510.986	5589.43
511.354	5644.34
511.722	5700.84
512.09	5751.01
512.458	5722.08
512.826	5752.81
513.193	5767.96
513.561	5822.42
513.929	5861.74
514.297	5903.55
514.664	5918.69
515.032	5944.67
515.4	6008.63
515.767	6025.8
516.135	6056.08
516.502	6059.93
516.869	6117.33
517.237	6107.16
517.604	6069.64
517.972	6191.45
518.339	6193.26
518.706	6192.58
519.073	6220.83
519.44	6340.6
519.808	6331.33
520.175	6311.9
520.542	6431.44
520.909	6418.79
521.276	6402.29
521.643	6459.91
522.009	6525.9
522.376	6548.05
522.743	6601.38
523.11	6642.73
523.477	6678.89
523.843	6694.48
524.21	6753.92
524.577	6783.3
524.943	6831.66
525.31	6821.49
525.676	6915.27
526.043	6902.39
526.409	6970.86
526.776	7052.89
527.142	7034.82
527.508	7057.87
527.874	7102.61
528.241	7144.42
528.607	7131.99
528.973	7192.78
529.339	7213.34
529.705	7344.41
530.071	7388.7
530.437	7398.87
530.803	7446.56
531.169	7468.93
531.535	7454.92
531.901	7546.44
532.267	7583.5
532.632	7585.31
532.998	7623.05
533.364	7692.65
533.73	7679.32
534.095	7733.33
534.461	7732.88
534.826	7779.43
535.192	7770.16
535.557	7878.86
535.923	7899.43
536.288	7907.79
536.653	7969.93
537.019	7919.54
537.384	7976.03
537.749	8001.57
538.114	8016.71
538.479	8084.96
538.845	8129.93
539.21	8124.73
539.575	8169.7
539.94	8200.89
540.305	8188.46
540.67	8231.39
541.034	8251.28
541.399	8361.56
541.764	8385.74
542.129	8426.42
542.494	8432.74
542.858	8471.39
543.223	8517.49
543.587	8554.32
543.952	8567.2
544.316	8622.8
544.681	8611.95
545.045	8683.36
545.41	8745.5
545.774	8717.03
546.138	8770.81
546.503	8775.79
546.867	8804.71
547.231	8888.33
547.595	8956.35
547.959	8901.43
548.324	8893.3
548.688	8941.43
549.052	9029.56
549.416	9063.69
549.779	9070.24
550.143	9056.23
550.507	9189.56
550.871	9142.56
551.235	9144.36
551.599	9173.97
551.962	9307.3
552.326	9282.44
552.689	9352.72
553.053	9281.99
553.417	9342.32
553.78	9431.36
554.143	9429.55
554.507	9441.98
554.87	9524.24
555.234	9558.14
555.597	9580.06
555.96	9602.43
556.323	9650.79
556.686	9617.8
557.05	9691.69
557.413	9728.98
557.776	9785.93
558.139	9790.9
558.502	9816.44
558.865	9825.25
559.228	9834.74
559.59	9980.5
559.953	9982.76
560.316	10007.17
560.679	10017.11
561.041	9993.83
561.404	10107.5
561.767	10192.25
562.129	10197.44
562.492	10239.93
562.854	10201.96
563.217	10173.94
563.579	10277.89
563.941	10293.94
564.304	10358.57
564.666	10458.23
565.028	10368.74
565.39	10500.49
565.753	10522.63
566.115	10526.47
566.477	10545.91
566.839	10630.65
567.201	10709.29
567.563	10683.53
567.925	10725.34
568.287	10776.86
568.648	10875.62
569.01	10866.35
569.372	10898.67
569.734	10867.71
570.095	10967.59
570.457	11037.42
570.819	11049.4
571.18	11048.27
571.542	11145.89
571.903	11187.25
572.265	11282.61
572.626	11316.74
572.987	11368.94
573.349	11398.54
573.71	11511.31
574.071	11596.95
574.432	11613.9
574.794	11728.02
575.155	11758.98
575.516	11742.71
575.877	11746.78
576.238	11914.01
576.599	12004.18
576.96	12081.01
577.32	12158.97
577.681	12231.74
578.042	12363.49
578.403	12437.16
578.763	12537.5
579.124	12667.89
579.485	12781.56
579.845	12909.91
580.206	12982.46
580.566	13131.38
580.927	13232.62
581.287	13453.86
581.648	13416.79
582.008	13676.22
582.368	13768.42
582.728	13914.41
583.089	14107.4
583.449	14212.48
583.809	14430.55
584.169	14649.98
584.529	14780.37
584.889	15019.92
585.249	15068.95
585.609	15279.34
585.969	15530.41
586.329	15753.91
586.688	15911.64
587.048	16088.81
587.408	16205.2
587.768	16490.84
588.127	16697.84
588.487	16814.9
588.846	17216.24
589.206	17284.94
589.565	17546.4
589.925	17912.95
590.284	18131.92
590.643	18382.77
591.003	18597.45
591.362	18852.13
591.721	19003.31
592.08	19393.13
592.44	19656.63
592.799	19829.51
593.158	20015.72
593.517	20346.56
593.876	20611.18
594.235	20838.97
594.593	21052.53
594.952	21377.71
595.311	21666.52
595.67	21945.84
596.029	22280.29
596.387	22528.64
596.746	22812.03
597.104	22934.51
597.463	23147.16
597.822	23556.64
598.18	23653.14
598.538	23883.86
598.897	24230.97
599.255	24244.08
599.613	24958.86
599.972	24991.63
600.33	25363.82
600.688	25346.2
601.046	25754.55
601.404	26000.87
601.762	26172.16
602.12	26426.17
602.478	26703.45
602.836	26892.82
603.194	27055.98
603.552	27331.91
603.91	27491.68
604.268	27679.02
604.625	27918.11
604.983	28142.28
605.341	28212.79
605.698	28576.62
606.056	28804.64
606.413	29023.39
606.771	29300.9
607.128	29357.17
607.485	29573.21
607.843	29676.48
608.2	30070.37
608.557	30312.4
608.914	30322.79
609.272	30666.51
609.629	30811.59
609.986	31015.2
610.343	31212.48
610.7	31432.14
611.057	31490.9
611.414	31618.8
611.771	31839.59
612.127	31991.67
612.484	32179.92
612.841	32430.08
613.198	32445.67
613.554	32563.18
613.911	32807.02
614.267	32952.1
614.624	32999.56
614.98	33236.84
615.337	33465.53
615.693	33541.24
616.05	33431.41
616.406	33778.29
616.762	33760.44
617.118	33924.96
617.475	34095.57
617.831	34177.6
618.187	34349.35
618.543	34280.2
618.899	34679.06
619.255	34746.63
619.611	34772.16
619.967	34934.19
620.323	35113.85
620.678	35042.89
621.034	35003.12
621.39	35126.73
621.746	35187.75
622.101	35653.05
622.457	35377.35
622.812	35406.95
623.168	35660.95
623.523	35732.14
623.879	35984.79
624.234	35677.68
624.589	35956.99
624.945	36139.13
625.3	36127.38
625.655	36247.61
626.01	36274.27
626.365	36238.79
626.72	36374.38
627.075	36372.35
627.43	36340.03
627.785	36366.25
628.14	36565.11
628.495	36605.11
628.85	36614.83
629.205	36484.66
629.559	36804.2
629.914	36652.57
630.269	36561.5
630.623	36607.37
630.978	36543.87
631.332	36885.78
631.687	36927.14
632.041	36751.55
632.396	36792.45
632.75	36778.44
633.104	36606.47
633.459	36657.54
633.813	36712.68
634.167	36766.24
634.521	36710.19
634.875	36869.06
635.229	36800.36
635.583	36680.59
635.937	36743.19
636.291	36665
636.645	36723.98
636.999	36686.01
637.352	36674.04
637.706	36559.24
638.06	36799.91
638.413	36635.17
638.767	36620.25
639.121	36655.05
639.474	36617.09
639.828	36511.78
640.181	36655.05
640.534	36705.45
640.888	36502.51
641.241	36376.64
641.594	36494.61
641.947	36673.58
642.301	36385.23
642.654	36438.34
643.007	36501.84
643.36	36500.03
643.713	36459.35
644.066	36634.71
644.419	36452.35
644.771	36179.13
645.124	35835.41
645.477	35825.24
645.83	35597.23
646.182	35490.56
646.535	35399.72
646.888	35405.82
647.24	35378.02
647.593	35433.62
647.945	35308.87
648.298	35223.68
648.65	35230.46
649.002	35105.04
649.355	35220.06
649.707	35220.51
650.059	35315.65
650.411	35799.93
650.763	35821.4
651.115	36148.17
651.467	36042.19
651.819	36107.04
652.171	35975.3
652.523	35942.98
652.875	35811.69
653.227	35872.7
653.578	36001.06
653.93	35990.44
654.282	35684.68
654.633	35714.06
654.985	35697.56
655.337	35809.65
655.688	35900.27
656.039	35987.05
656.391	35629.09
656.742	35717.9
657.094	35639.26
657.445	35876.99
657.796	35739.6
658.147	35702.08
658.498	35647.17
658.849	35608.98
659.2	35658.7
659.551	35641.97
659.902	35700.05
660.253	35657.11
660.604	35723.55
660.955	35419.61
661.306	35626.38
661.656	35571.24
662.007	35621.63
662.358	35583.67
662.708	35595.87
663.059	35488.08
663.409	35353.17
663.76	35741.18
664.11	35618.7
664.461	35636.77
664.811	35685.14
665.161	35580.28
665.511	35482.88
665.862	35481.52
666.212	35745.25
666.562	35689.43
666.912	35504.57
667.262	35466.38
667.612	35538.7
667.962	35549.09
668.312	35502.99
668.662	35614.18
669.011	35542.99
669.361	35373.96
669.711	35359.95
670.06	35460.96
670.41	35246.73
670.76	35369.21
671.109	35421.87
671.459	35453.28
671.808	35318.82
672.157	35268.42
672.507	35114.53
672.856	35149.33
673.205	35185.26
673.554	35320.85
673.904	35221.19
674.253	35377.57
674.602	35240.63
674.951	34729.91
675.3	34598.61
675.649	35207.41
675.998	35061.65
676.346	35173.28
676.695	35232.27
677.044	35003.57
677.393	35166.28
677.741	35073.63
678.09	34970.13
678.438	34811.94
678.787	35033.4
679.135	34990.24
679.484	34763.13
679.832	34928.54
680.181	34754.99
680.529	34793.18
680.877	34603.36
681.225	34629.34
681.573	34855.1
681.922	34609.46
682.27	34476.58
682.618	34513.87
682.966	34504.15
683.314	34496.47
683.661	34385.96
684.009	34352.29
684.357	34104.84
684.705	34110.49
685.053	34209.92
685.4	34149.58
685.748	33950.27
686.095	33945.29
686.443	33817.39
686.79	33899.42
687.138	33835.92
687.485	33862.13
687.832	33681.57
688.18	33771.97
688.527	33607.9
688.874	33557.06
689.221	33475.25
689.568	33436.15
689.915	33307.57
690.262	33328.36
690.609	33361.35
690.956	33267.8
691.303	33109.61
691.65	32866.9
691.997	32928.15
692.344	32813.35
692.69	32747.13
693.037	32702.39
693.383	32500.13
693.73	32656.97
694.077	32373.36
694.423	32250.2
694.769	32377.88
695.116	32276.19
695.462	32096.3
695.808	32143.53
696.155	32023.76
696.501	31895.4
696.847	31808.63
697.193	31599.14
697.539	31759.14
697.885	31488.41
698.231	31472.82
698.577	31389.43
698.923	31476.21
699.269	31227.17
699.614	31084.13
699.96	31087.74
700.306	31017.91
700.651	30972.94
700.997	30844.36
701.342	30760.07
701.688	30664.93
702.033	30709.22
702.379	30701.31
702.724	30565.04
703.069	30610.01
703.415	30198.27
703.76	30323.47
704.105	30213.64
704.45	30159.63
704.795	30101.1
705.14	29881.9
705.485	29876.02
705.83	29775.69
706.175	29784.05
706.52	29743.82
706.865	29665.41
707.209	29617.5
707.554	29403.72
707.899	29656.59
708.243	29351.52
708.588	29337.73
708.932	28994.69
709.277	29124.4
709.621	29230.39
709.966	29064.07
710.31	29074.46
710.654	28800.8
710.998	28841.25
711.342	28815.26
711.687	28791.53
712.031	28690.06
712.375	28511.76
712.719	28574.14
713.063	28582.95
713.407	28515.38
713.75	28436.96
714.094	28348.38
714.438	28302.96
714.782	28272
715.125	28205.56
715.469	28309.51
715.812	28096.18
716.156	27865.91
716.499	28007.6
716.843	27900.48
717.186	27735.97
717.53	27939.8
717.873	27867.94
718.216	27819.13
718.559	27684.22
718.902	27527.61
719.246	27687.15
719.589	27430.44
719.932	27404.22
720.275	27423.43
720.617	27319.93
720.96	27537.33
721.303	27283.1
721.646	27311.34
721.989	27099.37
722.331	27173.49
722.674	27182.99
723.016	27266.37
723.359	27083.55
723.701	27107.28
724.044	26889.66
724.386	26729.66
724.729	26923.78
725.071	26796.1
725.413	26802.43
725.755	26716.56
726.097	26711.36
726.439	26457.58
726.782	26533.96
727.124	26703.68
727.465	26428.66
727.807	26398.6
728.149	26407.64
728.491	26322.67
728.833	26414.87
729.175	26233.86
729.516	26293.07
729.858	26182.11
730.199	26151.15
730.541	26112.51
730.882	26109.57
731.224	26155.44
731.565	26057.37
731.906	25916.58
732.248	25931.04
732.589	25832.06
732.93	25741.67
733.271	25976.92
733.612	25769.92
733.953	25829.8
734.294	25750.26
734.635	25719.07
734.976	25578.96
735.317	25524.05
735.658	25591.62
735.999	25592.75
736.339	25474.1
736.68	25580.54
737.021	25558.85
737.361	25304.17
737.702	25430.26
738.042	25378.06
738.383	25313.43
738.723	25412.41
739.063	25369.25
739.404	25278.4
739.744	25117.73
740.084	25160.67
740.424	25163.15
740.764	25224.39
741.104	25075.7
741.444	24918.19
741.784	25003.38
742.124	24961.8
742.464	24977.85
742.804	24906.66
743.143	24869.83
743.483	24909.83
743.823	24721.36
744.162	24733.56
744.502	24836.83
744.841	24628.48
745.181	24727.23
745.52	24661.92
745.86	24642.71
746.199	24668.48
746.538	24642.26
746.877	24571.76
747.216	24522.26
747.556	24470.51
747.895	24519.1
748.234	24321.14
748.573	24336.51
748.911	24320.24
749.25	24240.24
749.589	24193.69
749.928	24198.21
750.267	24278.66
750.605	24099.9
750.944	24071.43
751.283	24033.24
751.621	24005.89
751.96	23931.32
752.298	23984.2
752.636	23839.34
752.975	23869.17
753.313	23870.76
753.651	23846.12
753.989	23803.41
754.327	23726.35
754.666	23536.3
755.004	23742.17
755.342	23662.4
755.679	23557.32
756.017	23401.16
756.355	23519.35
756.693	23369.3
757.031	23527.94
757.368	23381.05
757.706	23285.69
758.044	23134.05
758.381	23240.72
758.719	23180.38
759.056	23037.56
759.394	22966.6
759.731	22921.18
760.068	22894.96
