Data from hue_340_FLMS001491_28.txt Node
Date: Mon Feb 06 15:42:42 GMT 2017
User: dcchb
Spectrometer: FLMS00149
Trigger mode: 0
Integration Time (sec): 2.000000E-2
Scans to average: 10
Electric dark correction enabled: true
Nonlinearity correction enabled: false
Boxcar width: 0
XAxis mode: Wavelengths
Number of Pixels in Spectrum: 2048
>>>>>Begin Spectral Data<<<<<
341.393	4.55
341.776	4.55
342.16	4.55
342.543	-66.41
342.927	-80.87
343.31	-77.48
343.693	-77.71
344.077	-55.11
344.46	-55.11
344.843	-65.05
345.226	-32.51
345.61	-27.54
345.993	-11.5
346.376	10.88
346.759	-7.43
347.142	18.78
347.525	54.26
347.908	64.21
348.291	70.31
348.674	85.9
349.057	105.11
349.44	141.49
349.823	134.04
350.206	162.96
350.588	202.73
350.971	210.19
351.354	208.84
351.737	219.68
352.119	233.24
352.502	267.14
352.884	282.73
353.267	292.45
353.65	289.29
354.032	309.17
354.414	299.91
354.797	310.98
355.179	322.51
355.562	312.79
355.944	319.57
356.326	332.9
356.709	345.33
357.091	341.71
357.473	339.68
357.855	335.61
358.238	370.41
358.62	323.18
359.002	333.8
359.384	343.3
359.766	335.16
360.148	363.18
360.53	339.91
360.912	333.58
361.294	340.13
361.676	320.92
362.057	342.62
362.439	326.57
362.821	341.49
363.203	329.06
363.584	317.99
363.966	337.87
364.348	323.64
364.729	305.56
365.111	312.34
365.493	301.49
365.874	334.03
366.256	312.11
366.637	312.11
367.019	305.78
367.4	296.52
367.781	337.19
368.163	316.18
368.544	313.24
368.925	310.75
369.306	326.57
369.688	303.75
370.069	318.66
370.45	289.74
370.831	326.35
371.212	309.85
371.593	310.98
371.974	310.53
372.355	307.36
372.736	305.56
373.117	299.91
373.498	309.4
373.879	313.69
374.26	325.44
374.641	300.81
375.021	301.26
375.402	323.86
375.783	319.79
376.163	317.99
376.544	330.42
376.925	306.46
377.305	322.51
377.686	331.32
378.066	317.76
378.447	332.45
378.827	322.51
379.208	323.64
379.588	324.77
379.968	325.44
380.349	308.27
380.729	329.74
381.109	341.71
381.489	318.89
381.87	337.42
382.25	337.65
382.63	337.42
383.01	339.45
383.39	352.34
383.77	346.46
384.15	334.48
384.53	365.22
384.91	341.94
385.29	342.39
385.67	331.32
386.049	349.4
386.429	349.4
386.809	351.21
387.189	351.88
387.568	344.88
387.948	367.02
388.328	361.37
388.707	346.69
389.087	370.64
389.466	352.56
389.846	344.2
390.225	373.8
390.605	373.8
390.984	353.47
391.363	388.04
391.743	353.69
392.122	362.96
392.501	371.54
392.881	351.88
393.26	375.16
393.639	383.97
394.018	371.09
394.397	362.28
394.776	372.22
395.155	379.23
395.534	376.74
395.913	366.12
396.292	378.32
396.671	381.49
397.05	374.71
397.429	362.5
397.808	368.61
398.186	380.36
398.565	390.07
398.944	400.47
399.323	370.41
399.701	373.13
400.08	364.54
400.458	396.85
400.837	390.75
401.215	392.79
401.594	388.27
401.972	421.49
402.351	397.98
402.729	408.38
403.107	393.24
403.486	416.29
403.864	406.8
404.242	417.42
404.62	418.1
404.999	403.86
405.377	419.45
405.755	409.06
406.133	417.87
406.511	418.32
406.889	439.34
407.267	426.91
407.645	433.46
408.023	444.54
408.401	428.27
408.779	451.77
409.156	433.92
409.534	445.44
409.912	445.67
410.29	465.1
410.667	467.13
411.045	457.19
411.422	456.29
411.8	469.39
412.178	468.04
412.555	484.76
412.933	475.95
413.31	467.59
413.687	491.09
414.065	504.42
414.442	492.22
414.819	485.67
415.197	488.15
415.574	499
415.951	511.43
416.328	537.19
416.705	512.11
417.082	536.29
417.46	534.03
417.837	513.01
418.214	539.45
418.591	545.1
418.967	539.22
419.344	557.98
419.721	572.44
420.098	546
420.475	568.6
420.852	548.26
421.228	556.62
421.605	573.57
421.982	551.88
422.358	563.63
422.735	581.48
423.111	582.16
423.488	604.76
423.864	619.67
424.241	606.11
424.617	596.85
424.994	593.01
425.37	611.54
425.746	609.28
426.123	587.58
426.499	635.04
426.875	606.79
427.251	630.97
427.627	648.6
428.003	634.36
428.379	647.69
428.756	640.24
429.132	674.13
429.507	641.14
429.883	670.29
430.259	694.25
430.635	690.86
431.011	679.11
431.387	676.62
431.763	686.56
432.138	703.06
432.514	707.81
432.89	715.72
433.265	729.5
433.641	743.06
434.016	722.5
434.392	735.83
434.767	769.27
435.143	774.47
435.518	780.12
435.894	767.92
436.269	764.75
436.644	800.91
437.02	770.86
437.395	799.56
437.77	795.71
438.145	795.26
438.52	801.14
438.895	819.89
439.271	822.83
439.646	823.06
440.021	830.97
440.395	832.55
440.77	821.7
441.145	842.72
441.52	825.54
441.895	865.09
442.27	880.46
442.645	870.97
443.019	877.29
443.394	876.39
443.769	885.43
444.143	885.88
444.518	903.28
444.892	890.4
445.267	891.53
445.641	890.85
446.016	898.76
446.39	919.78
446.764	905.99
447.139	932.66
447.513	913.45
447.887	923.62
448.262	928.59
448.636	927.24
449.01	948.25
449.384	956.84
449.758	945.77
450.132	945.99
450.506	937.63
450.88	972.88
451.254	959.55
451.628	965.88
452.002	976.27
452.376	989.83
452.75	983.28
453.123	991.64
453.497	1004.97
453.871	1018.98
454.244	1037.06
454.618	1002.71
454.992	1041.58
455.365	1048.14
455.739	1028.25
456.112	1066.21
456.486	1044.52
456.859	1042.49
457.232	1099.89
457.606	1111.19
457.979	1111.41
458.352	1127.68
458.725	1116.16
459.099	1141.69
459.472	1126.33
459.845	1123.84
460.218	1143.73
460.591	1167
460.964	1141.92
461.337	1167.46
461.71	1194.8
462.083	1214.91
462.456	1212.43
462.829	1218.08
463.201	1226.21
463.574	1218.75
463.947	1242.71
464.32	1296.04
464.692	1256.49
465.065	1279.32
465.438	1301.01
465.81	1273.44
466.183	1312.31
466.555	1338.98
466.928	1333.33
467.3	1366.32
467.672	1382.59
468.045	1378.98
468.417	1378.75
468.789	1411.97
469.161	1409.71
469.534	1431.63
469.906	1423.49
470.278	1446.09
470.65	1464.17
471.022	1474.11
471.394	1505.98
471.766	1528.12
472.138	1560.44
472.51	1566.31
472.882	1603.83
473.253	1625.3
473.625	1617.16
473.997	1635.01
474.369	1665.07
474.74	1673.66
475.112	1668.46
475.484	1721.79
475.855	1748.91
476.227	1769.93
476.598	1757.95
476.97	1830.49
477.341	1839.08
477.713	1890.15
478.084	1891.28
478.455	1936.02
478.827	1953.42
479.198	2013.08
479.569	1989.35
479.94	2070.71
480.311	2080.43
480.682	2104.61
481.053	2138.96
481.424	2154.77
481.795	2193.64
482.166	2222.79
482.537	2250.36
482.908	2259.4
483.279	2324.94
483.65	2319.74
484.021	2415.11
484.391	2396.12
484.762	2431.6
485.133	2435.9
485.503	2462.34
485.874	2508.66
486.244	2567.87
486.615	2535.33
486.985	2630.02
487.356	2651.48
487.726	2658.04
488.097	2706.62
488.467	2738.49
488.837	2746.17
489.207	2813.51
489.578	2865.26
489.948	2829.78
490.318	2889.67
490.688	2868.88
491.058	2926.28
491.428	2951.82
491.798	3018.93
492.168	3080.85
492.538	3059.16
492.908	3092.15
493.278	3140.28
493.648	3139.15
494.017	3180.74
494.387	3211.24
494.757	3234.97
495.126	3293.73
495.496	3290.79
495.866	3297.34
496.235	3319.49
496.605	3335.31
496.974	3354.97
497.344	3423.44
497.713	3423.44
498.082	3459.82
498.452	3450.11
498.821	3474.74
499.19	3484.91
499.559	3509.31
499.928	3547.96
500.298	3593.15
500.667	3572.14
501.036	3620.72
501.405	3615.07
501.774	3601.29
502.143	3685.81
502.512	3680.38
502.88	3750.89
503.249	3689.42
503.618	3719.7
503.987	3750.89
504.356	3718.8
504.724	3756.09
505.093	3741.62
505.462	3815.52
505.83	3846.71
506.199	3858.46
506.567	3876.99
506.936	3912.47
507.304	3879.02
507.672	3900.49
508.041	3934.39
508.409	3924.22
508.777	3966.03
509.145	3980.94
509.514	4029.07
509.882	4014.61
510.25	4072.24
510.618	4050.77
510.986	4042.86
511.354	4096.19
511.722	4124.67
512.09	4141.84
512.458	4107.94
512.826	4139.35
513.193	4128.06
513.561	4153.14
513.929	4204.89
514.297	4199.47
514.664	4241.72
515.032	4237.88
515.4	4265.9
515.767	4290.99
516.135	4311.55
516.502	4279.69
516.869	4322.63
517.237	4267.03
517.604	4302.29
517.972	4349.52
518.339	4370.53
518.706	4337.54
519.073	4387.03
519.44	4455.96
519.808	4392.46
520.175	4450.98
520.542	4500.7
520.909	4481.04
521.276	4511.77
521.643	4486.24
522.009	4566.69
522.376	4560.81
522.743	4612.79
523.11	4645.33
523.477	4626.8
523.843	4654.37
524.21	4709.06
524.577	4699.79
524.943	4730.75
525.31	4759
525.676	4734.82
526.043	4772.11
526.409	4772.78
526.776	4872.67
527.142	4846
527.508	4883.97
527.874	4935.72
528.241	4894.59
528.607	4963.51
528.973	4982.95
529.339	5003.06
529.705	5022.27
530.071	5055.04
530.437	5060.46
530.803	5115.37
531.169	5096.39
531.535	5128.03
531.901	5194.92
532.267	5189.5
532.632	5222.26
532.998	5225.2
533.364	5209.16
533.73	5289.15
534.095	5280.12
534.461	5328.02
534.826	5300.68
535.192	5338.42
535.557	5427.23
535.923	5414.8
536.288	5446.89
536.653	5481.47
537.019	5445.53
537.384	5448.92
537.749	5500.45
538.114	5506.55
538.479	5580.45
538.845	5566.89
539.21	5534.57
539.575	5569.83
539.94	5641.46
540.305	5665.42
540.67	5591.97
541.034	5633.78
541.399	5698.64
541.764	5687.56
542.129	5780.44
542.494	5763.04
542.858	5808.01
543.223	5810.5
543.587	5883.94
543.952	5819.76
544.316	5896.37
544.681	5889.14
545.045	5950.61
545.41	5969.81
545.774	5988.12
546.138	5932.08
546.503	6004.39
546.867	6002.13
547.231	6089.36
547.595	6095.91
547.959	6133.2
548.324	6113.09
548.688	6140.88
549.052	6176.59
549.416	6189.47
549.779	6201.22
550.143	6188.57
550.507	6236.93
550.871	6291.61
551.235	6257.72
551.599	6343.14
551.962	6331.16
552.326	6324.38
552.689	6401.89
553.053	6373.87
553.417	6382.01
553.78	6461.33
554.143	6410.71
554.507	6443.93
554.87	6510.14
555.234	6497.03
555.597	6539.29
555.96	6553.53
556.323	6532.96
556.686	6561.44
557.05	6599.63
557.413	6608.22
557.776	6657.71
558.139	6668.55
558.502	6699.06
558.865	6742.9
559.228	6753.75
559.59	6798.04
559.953	6775.67
560.316	6866.97
560.679	6850.02
561.041	6896.8
561.404	6831.26
561.767	6927.08
562.129	6923.91
562.492	6958.04
562.854	6986.06
563.217	6986.51
563.579	7036.68
563.941	7041.65
564.304	7092.95
564.666	7117.58
565.028	7117.58
565.39	7131.37
565.753	7115.77
566.115	7179.73
566.477	7208.43
566.839	7200.97
567.201	7268.31
567.563	7287.07
567.925	7356.44
568.287	7374.52
568.648	7377.01
569.01	7391.02
569.372	7461.98
569.734	7385.82
570.095	7552.82
570.457	7555.31
570.819	7513.28
571.18	7597.34
571.542	7564.12
571.903	7614.29
572.265	7720.73
572.626	7705.14
572.987	7792.82
573.349	7805.92
573.71	7806.83
574.071	7910.1
574.432	7923.21
574.794	7967.95
575.155	8080.72
575.516	8059.93
575.877	8146.71
576.238	8234.84
576.599	8291.79
576.96	8318.68
577.32	8382.86
577.681	8437.09
578.042	8529.52
578.403	8576.75
578.763	8704.88
579.124	8785.56
579.485	8814.03
579.845	8964.09
580.206	9004.09
580.566	9129.28
580.927	9250.86
581.287	9333.34
581.648	9448.37
582.008	9596.39
582.368	9659.66
582.728	9806.1
583.089	9899.2
583.449	10058.29
583.809	10141.46
584.169	10388.91
584.529	10421
584.889	10698.73
585.249	10762.91
585.609	10971.72
585.969	11199.96
586.329	11315.89
586.688	11592.72
587.048	11771.7
587.408	11892.6
587.768	12120.16
588.127	12265.24
588.487	12493.49
588.846	12904.32
589.206	13001.04
589.565	13187.48
589.925	13437.64
590.284	13611.42
590.643	13915.37
591.003	14165.08
591.362	14571.4
591.721	14672.18
592.08	14943.59
592.44	15243.7
592.799	15420.64
593.158	15760.74
593.517	15943.79
593.876	16211.58
594.235	16542.19
594.593	16785.58
594.952	17214.94
595.311	17247.48
595.67	17688.6
596.029	18021.25
596.387	18306.67
596.746	18534.23
597.104	18724.06
597.463	18992.75
597.822	19316.13
598.18	19501.66
598.538	19809
598.897	20190.01
599.255	20337.12
599.613	20833.15
599.972	20862.08
600.33	21211.45
600.688	21389.75
601.046	21822.73
601.404	22093.01
601.762	22378.65
602.12	22649.83
602.478	22933.89
602.836	23115.8
603.194	23286.42
603.552	23569.58
603.91	23720.53
604.268	24099.96
604.625	24332.04
604.983	24584.69
605.341	24666.95
605.698	25106.26
606.056	25334.28
606.413	25543.76
606.771	25736.07
607.128	25976.07
607.485	26163.41
607.843	26384.87
608.2	26767.91
608.557	27087.9
608.914	26966.32
609.272	27327.9
609.629	27587.1
609.986	28015.56
610.343	27888.33
610.7	28395.67
611.057	28501.2
611.414	28605.6
611.771	28868.42
612.127	29093.5
612.484	29291.01
612.841	29529.2
613.198	29510.44
613.554	29740.26
613.911	30011.67
614.267	30217.54
614.624	30139.12
614.98	30429.06
615.337	30606.23
615.693	30688.71
616.05	30942.04
616.406	31084.63
616.762	31198.98
617.118	31399.43
617.475	31388.81
617.831	31672.64
618.187	31706.77
618.543	32085.96
618.899	32255.23
619.255	32307.88
619.611	32349.46
619.967	32672.84
620.323	32739.28
620.678	32701.54
621.034	32798.49
621.39	32916.68
621.746	32977.01
622.101	33377.91
622.457	33230.11
622.812	33414.06
623.168	33550.78
623.523	33597.79
623.879	33638.01
624.234	33599.37
624.589	33829.65
624.945	33988.29
625.3	34003.2
625.655	34094.05
626.01	34180.82
626.365	34249.3
626.72	34165.91
627.075	34315.06
627.43	34405
627.785	34429.41
628.14	34529.97
628.495	34534.26
628.85	34541.94
629.205	34458.11
629.559	34734.26
629.914	34663.07
630.269	34743.75
630.623	34739
630.978	34731.09
631.332	34925.89
631.687	34967.47
632.041	34851.32
632.396	35068.94
632.75	34851.99
633.104	34975.15
633.459	34866.91
633.813	34981.26
634.167	34983.74
634.521	35013.8
634.875	35087.02
635.229	34945.78
635.583	34880.92
635.937	34983.29
636.291	35045.43
636.645	34982.61
636.999	34945.55
637.352	35159.1
637.706	34868.72
638.06	35073.46
638.413	34938.09
638.767	34863.07
639.121	35012.89
639.474	34835.04
639.828	34944.65
640.181	35023.97
640.534	35033.91
640.888	34844.31
641.241	34724.09
641.594	34861.03
641.947	35020.58
642.301	34789.62
642.654	34963.63
643.007	34804.54
643.36	34791.43
643.713	34764.99
644.066	34945.32
644.419	34824.42
644.771	34475.28
645.124	34097.44
645.477	34249.98
645.83	34036.2
646.182	33911
646.535	33748.97
646.888	33982.41
647.24	33687.73
647.593	33767.05
647.945	33783.77
648.298	33695.41
648.65	33722.08
649.002	33666.71
649.355	33754.85
649.707	33788.07
650.059	33722.98
650.411	34175.85
650.763	34162.29
651.115	34569.97
651.467	34487.48
651.819	34496.52
652.171	34427.15
652.523	34483.64
652.875	34438.44
653.227	34279.8
653.578	34496.97
653.93	34452.23
654.282	34216.3
654.633	34190.32
654.985	34314.15
655.337	34329.07
655.688	34402.97
656.039	34430.76
656.391	34230.77
656.742	34251.78
657.094	34284.1
657.445	34362.06
657.796	34160.71
658.147	34130.88
658.498	34177.66
658.849	34316.41
659.2	34310.31
659.551	34044.1
659.902	34235.96
660.253	34187.38
660.604	34295.4
660.955	34053.82
661.306	34184.21
661.656	34058.57
662.007	34123.2
662.358	34068.96
662.708	34195.06
663.059	34161.62
663.409	33979.47
663.76	34171.79
664.11	34131.33
664.461	34230.77
664.811	34182.41
665.161	34146.7
665.511	34019.25
665.862	34136.08
666.212	34192.12
666.562	34135.85
666.912	34004.56
667.262	34148.51
667.612	34146.93
667.962	34148.73
668.312	34065.12
668.662	34214.72
669.011	34184.89
669.361	34118
669.711	34014.73
670.06	34044.33
670.41	34006.82
670.76	33888.85
671.109	34092.69
671.459	33932.47
671.808	33842.75
672.157	33941.73
672.507	33685.7
672.856	33685.47
673.205	33813.38
673.554	33865.13
673.904	33724.11
674.253	33865.8
674.602	33687.28
674.951	33350.34
675.3	33320.06
675.649	33773.6
675.998	33634.17
676.346	33770.89
676.695	33790.33
677.044	33563.44
677.393	33686.15
677.741	33750.1
678.09	33640.73
678.438	33570.9
678.787	33564.8
679.135	33612.93
679.484	33417
679.832	33548.52
680.181	33444.57
680.529	33350.11
680.877	33417.91
681.225	33431.92
681.573	33559.6
681.922	33336.1
682.27	33235.54
682.618	33208.19
682.966	33112.15
683.314	33254.3
683.661	33050.91
684.009	33036.22
684.357	32895.43
684.705	32816.11
685.053	32997.8
685.4	32775.21
685.748	32711.03
686.095	32639.17
686.443	32457.03
686.79	32555.33
687.138	32614.99
687.485	32583.58
687.832	32446.41
688.18	32415
688.527	32203.48
688.874	32203.93
689.221	32151.73
689.568	32168.67
689.915	32059.98
690.262	32109.69
690.609	32051.84
690.956	31867.44
691.303	31889.81
691.65	31690.95
691.997	31689.59
692.344	31501.35
692.69	31484.85
693.037	31590.61
693.383	31229.26
693.73	31367.11
694.077	31203.73
694.423	31247.34
694.769	31173.22
695.116	31069.04
695.462	30984.52
695.808	30927.8
696.155	30998.08
696.501	30608.26
696.847	30780.91
697.193	30462.05
697.539	30548.6
697.885	30321.04
698.231	30317.65
698.577	30274.03
698.923	30243.07
699.269	30123.3
699.614	29885.12
699.96	29925.34
700.306	29926.47
700.651	29747.04
700.997	29743.88
701.342	29729.19
701.688	29686.93
702.033	29559.93
702.379	29455.98
702.724	29421.18
703.069	29459.37
703.415	29156.32
703.76	29229.54
704.105	29175.98
704.45	29096.66
704.795	28927.18
705.14	28838.14
705.485	28874.98
705.83	28679.27
706.175	28853.73
706.52	28697.8
706.865	28603.57
707.209	28511.14
707.554	28362.22
707.899	28489
708.243	28451.94
708.588	28272.96
708.932	28065.96
709.277	28140.31
709.621	28050.82
709.966	28002.68
710.31	28021.44
710.654	27783.48
710.998	27709.13
711.342	27761.11
711.687	27690.6
712.031	27635.01
712.375	27536.03
712.719	27445.41
713.063	27437.72
713.407	27626.19
713.75	27429.59
714.094	27324.51
714.438	27297.62
714.782	27257.62
715.125	27144.4
715.469	27204.51
715.812	27094.46
716.156	26928.81
716.499	26917.74
716.843	26895.37
717.186	26912.99
717.53	26964.29
717.873	26956.16
718.216	26974.91
718.559	26747.12
718.902	26613.57
719.246	26547.35
719.589	26538.54
719.932	26476.62
720.275	26381.48
720.617	26384.65
720.96	26296.51
721.303	26361.37
721.646	26318.66
721.989	26197.76
722.331	26221.94
722.674	26108.04
723.016	26106.91
723.359	26169.74
723.701	25983.98
724.044	25933.13
724.386	25830.54
724.729	25840.25
725.071	25700.6
725.413	25709.41
725.755	25743.08
726.097	25725.23
726.439	25532.01
726.782	25605.68
727.124	25708.05
727.465	25548.74
727.807	25539.24
728.149	25402.98
728.491	25358.23
728.833	25457.66
729.175	25298.8
729.516	25254.28
729.858	25331.11
730.199	25246.82
730.541	25213.38
730.882	25243.43
731.224	25219.03
731.565	25077.11
731.906	25087.5
732.248	25163.66
732.589	24898.13
732.93	24901.52
733.271	24896.1
733.612	25003.44
733.953	24991.69
734.294	24832.82
734.635	24704.01
734.976	24682.77
735.317	24624.92
735.658	24561.19
735.999	24659.94
736.339	24519.38
736.68	24612.94
737.021	24575.2
737.361	24427.86
737.702	24633.5
738.042	24512.15
738.383	24416.11
738.723	24453.85
739.063	24380.63
739.404	24399.39
739.744	24282.1
740.084	24146.29
740.424	24289.33
740.764	24140.86
741.104	24251.14
741.444	24096.34
741.784	23976.35
742.124	23955.33
742.464	24052.05
742.804	24092.5
743.143	24034.65
743.483	23994.2
743.823	23886.63
744.162	23762.34
744.502	23857.25
744.841	23848.67
745.181	23847.31
745.52	23742.91
745.86	23767.54
746.199	23751.04
746.538	23702.46
746.877	23636.92
747.216	23693.42
747.556	23533.65
747.895	23533.65
748.234	23610.03
748.573	23482.35
748.911	23449.36
749.25	23439.41
749.589	23361.9
749.928	23232.41
750.267	23325.97
750.605	23311.73
750.944	23226.99
751.283	23198.29
751.621	23185.18
751.96	23025.86
752.298	23085.52
752.636	22949.93
752.975	22922.82
753.313	22848.02
753.651	22887.11
753.989	22822.7
754.327	22838.3
754.666	22760.33
755.004	22761.24
755.342	22702.48
755.679	22670.84
756.017	22442.6
756.355	22588.13
756.693	22500.45
757.031	22561.02
757.368	22393.11
757.706	22309.05
758.044	22304.98
758.381	22198.31
758.719	22163.74
759.056	22204.64
759.394	22110.18
759.731	21993.35
760.068	21919.23
760.405	21852.56
760.743	21737.54
