Data from hue_120_FLMS001491_00005.txt Node
Date: Tue Feb 07 16:58:51 GMT 2017
User: dcchb
Spectrometer: FLMS00149
Trigger mode: 0
Integration Time (sec): 2.000000E-2
Scans to average: 10
Electric dark correction enabled: true
Nonlinearity correction enabled: false
Boxcar width: 0
XAxis mode: Wavelengths
Number of Pixels in Spectrum: 2048
>>>>>Begin Spectral Data<<<<<
341.393	-0.96
341.776	-0.96
342.16	-0.96
342.543	-58.36
342.927	-48.19
343.31	-64.01
343.693	-83.44
344.077	-58.59
344.46	-47.06
344.843	-51.13
345.226	-18.81
345.61	-26.72
345.993	-7.51
346.376	-8.64
346.759	-16.33
347.142	16.44
347.525	29.32
347.908	45.37
348.291	94.18
348.674	84.91
349.057	112.03
349.44	121.3
349.823	158.81
350.206	164.01
350.588	206.27
350.971	222.99
351.354	221.18
351.737	236.55
352.119	244.91
352.502	286.72
352.884	267.06
353.267	287.39
353.65	296.66
354.032	292.59
354.414	306.38
354.797	297.79
355.179	343.21
355.562	324.23
355.944	331.91
356.326	335.3
356.709	323.78
357.091	348.18
357.473	362.42
357.855	338.24
358.238	352.93
358.62	355.41
359.002	317.45
359.384	339.6
359.766	342.99
360.148	350.44
360.53	342.99
360.912	341.86
361.294	337.11
361.676	339.6
362.057	330.56
362.439	340.27
362.821	337.79
363.203	321.74
363.584	335.53
363.966	347.5
364.348	333.04
364.729	340.27
365.111	312.48
365.493	325.13
365.874	312.03
366.256	315.64
366.637	329.88
367.019	322.65
367.4	326.49
367.781	323.1
368.163	329.43
368.544	325.58
368.925	323.1
369.306	320.84
369.688	344.79
370.069	316.32
370.45	314.29
370.831	308.86
371.212	333.72
371.593	343.44
371.974	310.9
372.355	336.66
372.736	333.27
373.117	313.61
373.498	336.66
373.879	304.12
374.26	302.31
374.641	337.79
375.021	312.25
375.402	310.44
375.783	322.87
376.163	336.88
376.544	321.52
376.925	321.97
377.305	340.05
377.686	351.8
378.066	339.37
378.447	321.07
378.827	334.85
379.208	318.13
379.588	314.06
379.968	333.95
380.349	330.78
380.729	356.54
381.109	349.76
381.489	335.53
381.87	346.83
382.25	330.78
382.63	345.92
383.01	364.68
383.39	339.14
383.77	350.44
384.15	346.38
384.53	342.53
384.91	351.12
385.29	365.36
385.67	345.47
386.049	349.99
386.429	349.76
386.809	352.7
387.189	366.49
387.568	372.14
387.948	370.1
388.328	353.61
388.707	388.41
389.087	351.8
389.466	366.26
389.846	381.4
390.225	377.79
390.605	383.44
390.984	395.19
391.363	359.71
391.743	358.8
392.122	374.85
392.501	369.2
392.881	378.69
393.26	379.14
393.639	382.08
394.018	366.04
394.397	370.1
394.776	387.73
395.155	386.15
395.534	406.71
395.913	394.51
396.292	404
396.671	405.81
397.05	394.74
397.429	413.49
397.808	398.35
398.186	410.33
398.565	398.58
398.944	395.64
399.323	391.8
399.701	420.5
400.08	392.7
400.458	425.92
400.837	426.82
401.215	400.16
401.594	419.37
401.972	433.83
402.351	427.28
402.729	425.02
403.107	413.04
403.486	446.03
403.864	426.82
404.242	401.97
404.62	445.13
404.999	425.02
405.377	424.79
405.755	452.59
406.133	451.46
406.511	440.16
406.889	442.19
407.267	442.64
407.645	461.63
408.023	443.77
408.401	451.01
408.779	454.17
409.156	452.14
409.534	467.28
409.912	483.09
410.29	466.82
410.667	486.48
411.045	471.34
411.422	474.28
411.8	473.15
412.178	509.99
412.555	483.55
412.933	481.96
413.31	505.92
413.687	502.08
414.065	501.63
414.442	519.7
414.819	513.15
415.197	517.67
415.574	524.68
415.951	497.56
416.328	523.32
416.705	531
417.082	536.88
417.46	512.47
417.837	539.82
418.214	546.14
418.591	535.07
418.967	546.37
419.344	559.7
419.721	546.37
420.098	556.77
420.475	567.61
420.852	558.12
421.228	551.34
421.605	583.21
421.982	578.69
422.358	562.64
422.735	606.03
423.111	570.32
423.488	594.73
423.864	598.12
424.241	599.25
424.617	607.84
424.994	626.59
425.37	615.75
425.746	595.86
426.123	600.61
426.499	632.7
426.875	618.91
427.251	633.15
427.627	624.79
428.003	621.17
428.379	649.64
428.756	627.72
429.132	640.6
429.507	671.79
429.883	666.59
430.259	669.76
430.635	653.26
431.011	658.46
431.387	692.81
431.763	713.82
432.138	702.3
432.514	705.24
432.89	710.21
433.265	738.68
433.641	737.1
434.016	721.73
434.392	745.23
434.767	742.52
435.143	744.1
435.518	751.34
435.894	777.78
436.269	740.94
436.644	771.45
437.02	785.46
437.395	787.04
437.77	782.97
438.145	820.49
438.52	799.02
438.895	822.75
439.271	813.71
439.646	838.11
440.021	830.43
440.395	839.47
440.77	841.05
441.145	845.8
441.52	860.03
441.895	846.93
442.27	872.24
442.645	850.54
443.019	876.53
443.394	861.39
443.769	878.11
444.143	881.95
444.518	886.47
444.892	902.07
445.267	921.28
445.641	907.26
446.016	914.72
446.39	934.61
446.764	938.22
447.139	938.45
447.513	940.71
447.887	952.23
448.262	952.91
448.636	958.34
449.01	971.22
449.384	965.12
449.758	980.71
450.132	987.71
450.506	974.83
450.88	984.55
451.254	994.27
451.628	1023.42
452.002	1034.27
452.376	1033.81
452.75	1033.14
453.123	1034.27
453.497	1056.41
453.871	1070.42
454.244	1073.59
454.618	1073.81
454.992	1102.74
455.365	1116.75
455.739	1154.26
456.112	1141.38
456.486	1156.75
456.859	1176.18
457.232	1158.56
457.606	1187.03
457.979	1206.69
458.352	1215.28
458.725	1237.43
459.099	1236.52
459.472	1226.13
459.845	1238.78
460.218	1297.31
460.591	1298.44
460.964	1288.95
461.337	1320.81
461.71	1359.68
462.083	1362.17
462.456	1368.27
462.829	1387.03
463.201	1398.32
463.574	1407.82
463.947	1449.17
464.32	1483.75
464.692	1491.43
465.065	1504.99
465.438	1538.21
465.81	1549.51
466.183	1568.26
466.555	1610.75
466.928	1613.01
467.3	1638.09
467.672	1661.14
468.045	1696.85
468.417	1710.63
468.789	1729.39
469.161	1794.02
469.534	1816.62
469.906	1827.24
470.278	1886.22
470.65	1874.02
471.022	1938.42
471.394	1962.6
471.766	1985.88
472.138	2013.45
472.51	2069.72
472.882	2141.58
473.253	2177.06
473.625	2203.73
473.997	2232.2
474.369	2279.88
474.74	2360.11
475.112	2387.68
475.484	2481.69
475.855	2529.14
476.227	2582.02
476.598	2679.2
476.97	2712.41
477.341	2782.02
477.713	2832.41
478.084	2918.74
478.455	3040.99
478.827	3049.13
479.198	3175.23
479.569	3201.89
479.94	3369.8
480.311	3422
480.682	3531.38
481.053	3604.82
481.424	3716.68
481.795	3824.93
482.166	3910.35
482.537	3985.83
482.908	4121.19
483.279	4160.06
483.65	4382.65
484.021	4482.76
484.391	4588.98
484.762	4688.41
485.133	4781.29
485.503	4890.21
485.874	5045.91
486.244	5174.04
486.615	5353.7
486.985	5439.8
487.356	5591.21
487.726	5737.87
488.097	5909.84
488.467	5964.31
488.837	6152.32
489.207	6359.78
489.578	6474.12
489.948	6561.58
490.318	6790.95
490.688	6865.75
491.058	7047.44
491.428	7237.27
491.798	7326.08
492.168	7598.16
492.538	7676.35
492.908	7898.94
493.278	8038.15
493.648	8151.59
494.017	8284.7
494.387	8413.51
494.757	8514.07
495.126	8731.01
495.496	8823.44
495.866	8901.18
496.235	9125.35
496.605	9214.62
496.974	9377.1
497.344	9591.1
497.713	9724.66
498.082	9770.99
498.452	10002.62
498.821	10101.37
499.19	10154.03
499.559	10295.27
499.928	10409.61
500.298	10524.41
500.667	10664.52
501.036	10698.42
501.405	10904.06
501.774	10890.96
502.143	11139.99
502.512	11168.46
502.88	11281.68
503.249	11359.64
503.618	11496.82
503.987	11600.99
504.356	11597.38
504.724	11808.45
505.093	11868.78
505.462	11916.01
505.83	12066.97
506.199	12140.19
506.567	12342.22
506.936	12329.11
507.304	12415.44
507.672	12518.03
508.041	12611.36
508.409	12773.84
508.777	12817.91
509.145	12915.54
509.514	12897.46
509.882	13085.02
510.25	13104.01
510.618	13185.81
510.986	13120.5
511.354	13283.44
511.722	13409.31
512.09	13435.52
512.458	13541.51
512.826	13595.52
513.193	13588.74
513.561	13668.06
513.929	13689.3
514.297	13807.49
514.664	13865.12
515.032	13943.31
515.4	14073.02
515.767	13989.41
516.135	14182.62
516.502	14051.33
516.869	14207.48
517.237	14271.43
517.604	14235.5
517.972	14373.58
518.339	14428.72
518.706	14373.12
519.073	14417.19
519.44	14446.34
519.808	14571.31
520.175	14460.35
520.542	14623.51
520.909	14731.08
521.276	14614.47
521.643	14744.19
522.009	14777.41
522.376	14855.82
522.743	14852.66
523.11	14979.66
523.477	15101.47
523.843	15072.77
524.21	15062.6
524.577	15189.37
524.943	15222.59
525.31	15165.19
525.676	15238.86
526.043	15308.92
526.409	15303.27
526.776	15405.19
527.142	15393.44
527.508	15345.75
527.874	15404.28
528.241	15462.14
528.607	15474.11
528.973	15517.28
529.339	15529.25
529.705	15492.64
530.071	15653.32
530.437	15553.66
530.803	15555.92
531.169	15562.02
531.535	15511.85
531.901	15560.44
532.267	15483.83
532.632	15636.59
532.998	15504.17
533.364	15638.18
533.73	15533.55
534.095	15597.05
534.461	15509.59
534.826	15518.41
535.192	15495.36
535.557	15534.68
535.923	15425.75
536.288	15511.63
536.653	15518.86
537.019	15339.43
537.384	15398.86
537.749	15293.78
538.114	15322.25
538.479	15252.2
538.845	15242.25
539.21	15247.23
539.575	15279.54
539.94	15133.33
540.305	15174.46
540.67	14994.58
541.034	15125.87
541.399	15107.34
541.764	15014.46
542.129	15101.47
542.494	15027.34
542.858	14910.74
543.223	14927.69
543.587	14946.9
543.952	14789.39
544.316	14793.45
544.681	14759.56
545.045	14778.09
545.41	14747.13
545.774	14755.49
546.138	14630.29
546.503	14558.2
546.867	14547.58
547.231	14586
547.595	14535.61
547.959	14487.02
548.324	14518.66
548.688	14327.7
549.052	14345.33
549.416	14318.66
549.779	14332.9
550.143	14264.2
550.507	14261.04
550.871	14273.92
551.235	14084.54
551.599	14278.21
551.962	14162.28
552.326	14136.29
552.689	14171.32
553.053	13950.09
553.417	14076.41
553.78	14045.9
554.143	13961.38
554.507	13990.76
554.87	13965.9
555.234	14082.51
555.597	13861.05
555.96	13906.7
556.323	13952.8
556.686	13789.19
557.05	13868.05
557.413	13815.63
557.776	13897.88
558.139	13804.33
558.502	13809.3
558.865	13761.39
559.228	13835.96
559.59	13737.66
559.953	13826.25
560.316	13901.05
560.679	13906.02
561.041	13877.54
561.404	13830.54
561.767	13816.98
562.129	13770.65
562.492	13868.96
562.854	13838.45
563.217	13755.74
563.579	13756.64
563.941	13791.9
564.304	13937.88
564.666	13888.17
565.028	13876.64
565.39	13821.5
565.753	13955.73
566.115	13901.27
566.477	13946.47
566.839	13920.71
567.201	14037.77
567.563	13962.97
567.925	14041.61
568.287	14018.33
568.648	13987.82
569.01	14102.62
569.372	14073.02
569.734	14000.25
570.095	14057.88
570.457	14180.59
570.819	14061.04
571.18	14061.27
571.542	14183.53
571.903	14108.73
572.265	14208.16
572.626	14163.41
572.987	14177.65
573.349	14184.88
573.71	14260.81
574.071	14193.02
574.432	14201.15
574.794	14308.27
575.155	14301.71
575.516	14206.12
575.877	14230.08
576.238	14262.85
576.599	14260.59
576.96	14259.68
577.32	14256.97
577.681	14387.81
578.042	14333.8
578.403	14347.81
578.763	14357.08
579.124	14281.6
579.485	14323.63
579.845	14327.25
580.206	14357.31
580.566	14305.56
580.927	14318.66
581.287	14340.36
581.648	14267.59
582.008	14338.78
582.368	14219.46
582.728	14283.64
583.089	14205.67
583.449	14237.08
583.809	14353.24
584.169	14231.66
584.529	14177.65
584.889	14363.86
585.249	14263.75
585.609	14187.59
585.969	14261.49
586.329	14216.74
586.688	14247.93
587.048	14181.27
587.408	14165.9
587.768	14102.85
588.127	14112.57
588.487	14158.89
588.846	14237.99
589.206	14106.24
589.565	14141.27
589.925	14201.15
590.284	14045.22
590.643	14116.63
591.003	14199.8
591.362	14088.84
591.721	14116.41
592.08	14037.99
592.44	14075.05
592.799	14126.58
593.158	14098.78
593.517	14066.24
593.876	14097.65
594.235	14075.28
594.593	14023.53
594.952	14075.05
595.311	13990.08
595.67	14019.69
596.029	14096.52
596.387	14110.76
596.746	14015.62
597.104	14048.16
597.463	14005.22
597.822	14118.89
598.18	14013.81
598.538	13957.54
598.897	14033.25
599.255	13818.34
599.613	14097.2
599.972	13938.79
600.33	13981.04
600.688	13919.13
601.046	14027.15
601.404	14111.66
601.762	13953.7
602.12	14066.69
602.478	14103.08
602.836	14080.25
603.194	13973.36
603.552	13962.97
603.91	13896.98
604.268	13989.41
604.625	13992.12
604.983	14012.91
605.341	14014.04
605.698	14065.56
606.056	14067.6
606.413	14059.69
606.771	14012.68
607.128	14041.61
607.485	13999.8
607.843	14033.25
608.2	14125.9
608.557	14121.83
608.914	14082.29
609.272	14204.54
609.629	14150.53
609.986	14146.01
610.343	14089.29
610.7	14218.55
611.057	14184.88
611.414	14179.68
611.771	14103.98
612.127	14176.29
612.484	14142.85
612.841	14266.24
613.198	14221.94
613.554	14187.59
613.911	14210.87
614.267	14244.31
614.624	14148.5
614.98	14188.05
615.337	14336.29
615.693	14281.15
616.05	14237.76
616.406	14407.93
616.762	14341.71
617.118	14289.06
617.475	14353.46
617.831	14410.19
618.187	14311.21
618.543	14412.67
618.899	14421.94
619.255	14403.86
619.611	14471.88
619.967	14510.07
620.323	14433.91
620.678	14374.93
621.034	14342.39
621.39	14380.81
621.746	14446.12
622.101	14509.39
622.457	14332.22
622.812	14397.31
623.168	14441.6
623.523	14372.9
623.879	14517.75
624.234	14383.29
624.589	14399.34
624.945	14396.4
625.3	14433.91
625.655	14428.04
626.01	14450.86
626.365	14524.99
626.72	14422.84
627.075	14409.73
627.43	14393.01
627.785	14347.36
628.14	14438.43
628.495	14428.49
628.85	14410.64
629.205	14372.9
629.559	14339
629.914	14371.99
630.269	14329.96
630.623	14303.97
630.978	14349.62
631.332	14373.58
631.687	14433.46
632.041	14268.27
632.396	14364.31
632.75	14143.3
633.104	14261.04
633.459	14160.02
633.813	14216.97
634.167	14230.08
634.521	14148.72
634.875	14183.3
635.229	14125.45
635.583	14059.46
635.937	14054.72
636.291	14080.03
636.645	14116.41
636.999	14141.27
637.352	14089.74
637.706	13998.22
638.06	14102.85
638.413	14008.16
638.767	14032.12
639.121	14019.01
639.474	13948.5
639.828	13983.98
640.181	13971.55
640.534	13894.95
640.888	13868.73
641.241	13922.97
641.594	13934.72
641.947	13871.67
642.301	13844.33
642.654	13901.95
643.007	13852.69
643.36	13884.78
643.713	13850.43
644.066	13872.57
644.419	13829.86
644.771	13707.61
645.124	13531.79
645.477	13590.55
645.83	13391.91
646.182	13368.63
646.535	13414.51
646.888	13369.99
647.24	13290.67
647.593	13384
647.945	13354.39
648.298	13348.75
648.65	13278.92
649.002	13296.32
649.355	13321.85
649.707	13376.77
650.059	13426.71
650.411	13515.07
650.763	13531.11
651.115	13736.53
651.467	13612.47
651.819	13655.86
652.171	13623.09
652.523	13616.08
652.875	13668.96
653.227	13588.74
653.578	13656.99
653.93	13644.1
654.282	13609.53
654.633	13660.15
654.985	13647.04
655.337	13623.99
655.688	13669.64
656.039	13720.26
656.391	13603.2
656.742	13600.04
657.094	13617.21
657.445	13735.18
657.796	13727.04
658.147	13651.56
658.498	13641.62
658.849	13641.17
659.2	13671
659.551	13592.58
659.902	13693.37
660.253	13659.92
660.604	13719.13
660.955	13549.19
661.306	13619.02
661.656	13661.28
662.007	13710.09
662.358	13678.45
662.708	13687.72
663.059	13641.84
663.409	13632.81
663.76	13648.17
664.11	13634.61
664.461	13669.41
664.811	13641.39
665.161	13678.45
665.511	13540.6
665.862	13756.19
666.212	13635.07
666.562	13729.98
666.912	13738.57
667.262	13701.28
667.612	13738.79
667.962	13765.01
668.312	13663.99
668.662	13758.9
669.011	13715.74
669.361	13691.11
669.711	13739.92
670.06	13646.14
670.41	13658.34
670.76	13591.68
671.109	13721.84
671.459	13625.35
671.808	13651.34
672.157	13649.08
672.507	13594.39
672.856	13645.01
673.205	13605.69
673.554	13655.86
673.904	13588.96
674.253	13675.29
674.602	13593.03
674.951	13398.91
675.3	13285.92
675.649	13515.52
675.998	13477.1
676.346	13434.17
676.695	13538.8
677.044	13451.12
677.393	13395.98
677.741	13522.98
678.09	13356.43
678.438	13365.69
678.787	13412.92
679.135	13422.19
679.484	13358.91
679.832	13379.7
680.181	13252.93
680.529	13311.01
680.877	13306.94
681.225	13203.89
681.573	13370.67
681.922	13210.22
682.27	13128.41
682.618	13224.45
682.966	13140.39
683.314	13158.92
683.661	13091.35
684.009	13085.48
684.357	13076.21
684.705	13042.76
685.053	13012.03
685.4	13030.34
685.748	12876.89
686.095	12919.6
686.443	12817.23
686.79	12831.24
687.138	12839.15
687.485	12826.27
687.832	12709.21
688.18	12832.83
688.527	12731.13
688.874	12654.07
689.221	12624.92
689.568	12578.37
689.915	12591.02
690.262	12545.6
690.609	12570.91
690.956	12422.67
691.303	12404.59
691.65	12415.44
691.997	12429.67
692.344	12334.53
692.69	12236.46
693.037	12296.57
693.383	12174.31
693.73	12255.89
694.077	12087.76
694.423	12112.39
694.769	11994.88
695.116	12025.16
695.462	11934.32
695.808	11876.47
696.155	11882.12
696.501	11821.33
696.847	11795.11
697.193	11747.21
697.539	11788.56
697.885	11695
698.231	11602.35
698.577	11657.94
698.923	11635.12
699.269	11520.32
699.614	11452.75
699.96	11485.97
700.306	11429.02
700.651	11433.77
700.997	11394.45
701.342	11346.76
701.688	11263.15
702.033	11283.04
702.379	11206.88
702.724	11096.6
703.069	11190.84
703.415	11087.34
703.76	11063.16
704.105	10969.82
704.45	11052.08
704.795	10936.15
705.14	10867.91
705.485	10857.51
705.83	10849.38
706.175	10817.51
706.52	10754.46
706.865	10673.56
707.209	10702.71
707.554	10621.36
707.899	10724.86
708.243	10572.55
708.588	10568.71
708.932	10528.71
709.277	10553.34
709.621	10532.1
709.966	10510.85
710.31	10431.31
710.654	10378.2
710.998	10365.32
711.342	10411.65
711.687	10398.54
712.031	10347.92
712.375	10250.3
712.719	10243.29
713.063	10332.78
713.407	10300.92
713.75	10258.2
714.094	10182.5
714.438	10239.9
714.782	10182.05
715.125	10142.05
715.469	10145.21
715.812	10059.57
716.156	10057.08
716.499	10053.69
716.843	10075.16
717.186	9994.48
717.53	10000.13
717.873	10033.35
718.216	9971.66
718.559	9983.18
718.902	9879.46
719.246	9879.23
719.589	9918.78
719.932	9873.36
720.275	9834.71
720.617	9876.75
720.96	9848.95
721.303	9849.85
721.646	9825.22
721.989	9798.33
722.331	9817.54
722.674	9816.63
723.016	9791.78
723.359	9794.71
723.701	9754.94
724.044	9771.44
724.386	9676.98
724.729	9762.4
725.071	9712.68
725.413	9731.67
725.755	9682.4
726.097	9620.03
726.439	9563.53
726.782	9608.28
727.124	9633.14
727.465	9585.68
727.807	9649.86
728.149	9674.94
728.491	9587.26
728.833	9631.78
729.175	9585.45
729.516	9606.7
729.858	9531.9
730.199	9588.17
730.541	9559.01
730.882	9585.68
731.224	9549.97
731.565	9547.49
731.906	9581.61
732.248	9615.06
732.589	9588.17
732.93	9495.51
733.271	9541.61
733.612	9484.21
733.953	9600.37
734.294	9540.71
734.635	9530.77
734.976	9571.9
735.317	9544.33
735.658	9625
735.999	9528.73
736.339	9521.28
736.68	9624.32
737.021	9542.07
737.361	9527.6
737.702	9633.36
738.042	9557.66
738.383	9556.98
738.723	9626.36
739.063	9619.13
739.404	9671.78
739.744	9612.12
740.084	9651.89
740.424	9648.05
740.764	9657.09
741.104	9665.45
741.444	9645.57
741.784	9669.97
742.124	9712
742.464	9766.69
742.804	9768.95
743.143	9705.45
743.483	9758.33
743.823	9832.68
744.162	9777.31
744.502	9869.06
744.841	9823.64
745.181	9919
745.52	9883.98
745.86	9937.99
746.199	9989.29
746.538	10018.89
746.877	10105.67
747.216	10154.7
747.556	10194.93
747.895	10216.17
748.234	10256.4
748.573	10278.32
748.911	10376.17
749.25	10504.07
749.589	10547.24
749.928	10593.34
750.267	10645.77
750.605	10683.96
750.944	10788.36
751.283	10923.27
751.621	10996.94
751.96	11065.64
752.298	11112.65
752.636	11256.14
752.975	11306.09
753.313	11414.56
753.651	11596.93
753.989	11591.96
754.327	11754.44
754.666	11860.2
755.004	12012.73
755.342	12217.93
755.679	12301.31
756.017	12410.46
756.355	12575.21
756.693	12711.25
757.031	12912.82
757.368	13055.87
757.706	13239.37
