Data from hue_140_FLMS001491_00007.txt Node
Date: Tue Feb 07 16:55:17 GMT 2017
User: dcchb
Spectrometer: FLMS00149
Trigger mode: 0
Integration Time (sec): 2.000000E-2
Scans to average: 10
Electric dark correction enabled: true
Nonlinearity correction enabled: false
Boxcar width: 0
XAxis mode: Wavelengths
Number of Pixels in Spectrum: 2048
>>>>>Begin Spectral Data<<<<<
341.393	0
341.776	0
342.16	0
342.543	-52.43
342.927	-49.72
343.31	-69.6
343.693	-63.95
344.077	-69.83
344.46	-65.08
344.843	-46.1
345.226	-41.35
345.61	-18.53
345.993	-23.95
346.376	1.81
346.759	-12.2
347.142	26.67
347.525	33.9
347.908	55.14
348.291	79.32
348.674	87.91
349.057	125.87
349.44	145.31
349.823	149.83
350.206	161.58
350.588	213.55
350.971	219.2
351.354	236.6
351.737	244.74
352.119	269.6
352.502	246.1
352.884	289.26
353.267	265.08
353.65	308.69
354.032	299.2
354.414	299.65
354.797	301.69
355.179	314.57
355.562	327.67
355.944	323.61
356.326	340.78
356.709	326.09
357.091	343.27
357.473	334.23
357.855	331.74
358.238	332.65
358.62	334
359.002	346.21
359.384	349.6
359.766	335.81
360.148	325.42
360.53	333.32
360.912	350.73
361.294	325.19
361.676	342.14
362.057	345.08
362.439	338.52
362.821	316.15
363.203	343.72
363.584	323.16
363.966	316.38
364.348	304.85
364.729	314.57
365.111	322.03
365.493	334.68
365.874	328.8
366.256	338.3
366.637	325.64
367.019	333.78
367.4	324.06
367.781	343.27
368.163	313.66
368.544	344.4
368.925	302.36
369.306	334
369.688	321.12
370.069	316.15
370.45	315.25
370.831	318.41
371.212	314.79
371.593	321.8
371.974	329.48
372.355	316.6
372.736	326.77
373.117	320.9
373.498	326.55
373.879	319.09
374.26	322.48
374.641	315.47
375.021	327.22
375.402	318.64
375.783	324.29
376.163	336.26
376.544	340.1
376.925	326.32
377.305	320.67
377.686	331.74
378.066	344.62
378.447	340.56
378.827	340.56
379.208	336.26
379.588	329.03
379.968	318.86
380.349	350.95
380.729	321.35
381.109	335.81
381.489	350.27
381.87	331.74
382.25	359.76
382.63	346.43
383.01	343.72
383.39	351.18
383.77	357.28
384.15	360.44
384.53	342.59
384.91	365.87
385.29	331.06
385.67	342.36
386.049	342.82
386.429	360.89
386.809	369.26
387.189	376.26
387.568	350.5
387.948	369.48
388.328	353.44
388.707	359.99
389.087	360.67
389.466	347.34
389.846	356.37
390.225	371.52
390.605	371.97
390.984	373.1
391.363	379.88
391.743	385.53
392.122	376.04
392.501	382.36
392.881	390.5
393.26	386.88
393.639	393.21
394.018	388.46
394.397	388.69
394.776	371.06
395.155	376.26
395.534	389.59
395.913	366.09
396.292	400.22
396.671	389.37
397.05	427.11
397.429	409.71
397.808	369.48
398.186	381.01
398.565	411.74
398.944	416.49
399.323	424.4
399.701	399.76
400.08	411.29
400.458	402.93
400.837	406.54
401.215	396.37
401.594	378.75
401.972	421.68
402.351	399.76
402.729	416.26
403.107	418.07
403.486	423.94
403.864	454.23
404.242	431.18
404.62	414
404.999	452.64
405.377	427.11
405.755	432.53
406.133	435.24
406.511	437.95
406.889	428.24
407.267	448.8
407.645	444.28
408.023	440.89
408.401	450.84
408.779	453.55
409.156	451.51
409.534	449.71
409.912	460.33
410.29	452.64
410.667	454.9
411.045	479.99
411.422	467.78
411.8	462.13
412.178	475.47
412.555	469.59
412.933	473.66
413.31	510.04
413.687	494.45
414.065	495.81
414.442	499.2
414.819	512.98
415.197	510.95
415.574	508.91
415.951	512.98
416.328	525.64
416.705	524.05
417.082	521.79
417.46	501
417.837	513.66
418.214	514.34
418.591	519.08
418.967	534.45
419.344	524.05
419.721	545.75
420.098	545.97
420.475	548.69
420.852	550.95
421.228	541.68
421.605	543.94
421.982	559.99
422.358	557.73
422.735	536.94
423.111	550.95
423.488	559.31
423.864	581.91
424.241	582.13
424.617	571.96
424.994	583.71
425.37	581.91
425.746	596.37
426.123	609.25
426.499	586.43
426.875	606.99
427.251	602.02
427.627	631.17
428.003	611.06
428.379	628.01
428.756	623.03
429.132	618.06
429.507	654.22
429.883	627.55
430.259	645.41
430.635	666.88
431.011	655.12
431.387	644.05
431.763	652.86
432.138	657.38
432.514	692.41
432.89	699.19
433.265	687.44
433.641	700.77
434.016	696.48
434.392	705.29
434.767	719.98
435.143	712.52
435.518	719.53
435.894	720.88
436.269	700.09
436.644	731.05
437.02	747.55
437.395	743.26
437.77	773.76
438.145	760.21
438.52	773.99
438.895	769.25
439.271	777.38
439.646	794.56
440.021	810.83
440.395	785.97
440.77	799.08
441.145	807.89
441.52	824.16
441.895	821.9
442.27	821.67
442.645	828.23
443.019	834.1
443.394	847.21
443.769	832.75
444.143	851.05
444.518	882.01
444.892	857.6
445.267	854.67
445.641	856.7
446.016	861.67
446.39	891.28
446.764	881.78
447.139	911.61
447.513	905.74
447.887	905.96
448.262	904.38
448.636	930.6
449.01	920.2
449.384	926.3
449.758	957.04
450.132	915.91
450.506	938.05
450.88	942.35
451.254	933.31
451.628	967.43
452.002	974.44
452.376	995.45
452.75	988
453.123	984.83
453.497	1003.82
453.871	1006.53
454.244	1029.58
454.618	1029.13
454.992	1054.66
455.365	1054.66
455.739	1078.84
456.112	1076.36
456.486	1101.89
456.859	1091.95
457.232	1104.83
457.606	1121.1
457.979	1151.38
458.352	1140.99
458.725	1158.84
459.099	1157.71
459.472	1205.17
459.845	1223.47
460.218	1224.83
460.591	1226.86
460.964	1235.45
461.337	1249.68
461.71	1257.59
462.083	1300.3
462.456	1311.15
462.829	1322.45
463.201	1300.08
463.574	1346.18
463.947	1367.2
464.32	1363.13
464.692	1395.44
465.065	1427.31
465.438	1441.32
465.81	1447.42
466.183	1470.47
466.555	1510.02
466.928	1536.91
467.3	1499.62
467.672	1565.16
468.045	1609.45
468.417	1601.09
468.789	1618.94
469.161	1664.36
469.534	1668.66
469.906	1697.13
470.278	1765.15
470.65	1769.9
471.022	1828.88
471.394	1840.63
471.766	1866.39
472.138	1899.16
472.51	1950.46
472.882	1991.36
473.253	2004.02
473.625	2040.62
473.997	2118.81
474.369	2165.59
474.74	2206.95
475.112	2237.23
475.484	2308.87
475.855	2339.83
476.227	2382.99
476.598	2425.02
476.97	2495.3
477.341	2585.92
477.713	2639.25
478.084	2705.01
478.455	2780.94
478.827	2829.3
479.198	2941.17
479.569	2978
479.94	3100.71
480.311	3178
480.682	3238.33
481.053	3339.35
481.424	3443.53
481.795	3521.94
482.166	3564.2
482.537	3670.19
482.908	3782.5
483.279	3891.42
483.65	3962.83
484.021	4116.05
484.391	4214.8
484.762	4325.31
485.133	4439.21
485.503	4479.88
485.874	4659.76
486.244	4764.62
486.615	4880.55
486.985	4977.72
487.356	5131.39
487.726	5229.24
488.097	5440.08
488.467	5503.13
488.837	5718.27
489.207	5791.03
489.578	5992.38
489.948	6065.15
490.318	6228.76
490.688	6314.18
491.058	6478.25
491.428	6598.24
491.798	6720.05
492.168	6981.96
492.538	6982.19
492.908	7174.5
493.278	7345.34
493.648	7391.22
494.017	7599.35
494.387	7758.44
494.757	7896.52
495.126	7994.59
495.496	8089.05
495.866	8243.63
496.235	8389.84
496.605	8480.91
496.974	8611.3
497.344	8724.06
497.713	8812.65
498.082	9002.93
498.452	9125.86
498.821	9201.11
499.19	9270.72
499.559	9415.12
499.928	9581.22
500.298	9684.49
500.667	9835.9
501.036	9877.48
501.405	9989.34
501.774	10083.35
502.143	10193.18
502.512	10258.26
502.88	10421.42
503.249	10447.86
503.618	10564.02
503.987	10637.46
504.356	10760.62
504.724	10818.7
505.093	10915.65
505.462	11035.87
505.83	11071.8
506.199	11149.76
506.567	11345.69
506.936	11345.46
507.304	11513.14
507.672	11543.65
508.041	11648.51
508.409	11720.14
508.777	11736.19
509.145	11867.03
509.514	11862.96
509.882	11976.41
510.25	12014.83
510.618	12139.34
510.986	12104.54
511.354	12274.71
511.722	12364.65
512.09	12500.01
512.458	12378.88
512.826	12542.27
513.193	12557.64
513.561	12607.58
513.929	12697.52
514.297	12752.21
514.664	12781.81
515.032	12892.09
515.4	12933.45
515.767	13025.19
516.135	12990.62
516.502	12934.35
516.869	13203.72
517.237	13120.33
517.604	13140.9
517.972	13199.88
518.339	13273.78
518.706	13200.78
519.073	13303.38
519.44	13346.54
519.808	13358.52
520.175	13392.64
520.542	13532.53
520.909	13574.33
521.276	13586.31
521.643	13629.47
522.009	13687.1
522.376	13708.79
522.743	13762.12
523.11	13876.02
523.477	13899.3
523.843	13871.05
524.21	13971.61
524.577	13989.24
524.943	14015
525.31	14014.09
525.676	14160.98
526.043	14107.43
526.409	14116.46
526.776	14207.31
527.142	14221.1
527.508	14250.02
527.874	14210.7
528.241	14203.69
528.607	14295.44
528.973	14364.59
529.339	14283.24
529.705	14358.72
530.071	14327.08
530.437	14483.69
530.803	14414.76
531.169	14397.36
531.535	14357.81
531.901	14278.95
532.267	14282.79
532.632	14329.57
532.998	14343.35
533.364	14421.32
533.73	14342.22
534.095	14383.12
534.461	14377.25
534.826	14391.26
535.192	14353.29
535.557	14444.59
535.923	14336.12
536.288	14360.07
536.653	14273.75
537.019	14220.87
537.384	14130.25
537.749	14214.32
538.114	14124.83
538.479	14200.98
538.845	14095.9
539.21	14053.19
539.575	14077.14
539.94	14021.55
540.305	14087.54
540.67	13992.17
541.034	13984.49
541.399	13904.95
541.764	13953.98
542.129	13902.46
542.494	13899.07
542.858	13885.06
543.223	13900.65
543.587	13898.39
543.952	13766.87
544.316	13711.73
544.681	13619.08
545.045	13693.2
545.41	13715.57
545.774	13620.66
546.138	13663.14
546.503	13521.23
546.867	13461.79
547.231	13533.88
547.595	13449.59
547.959	13447.56
548.324	13406.65
548.688	13403.94
549.052	13351.51
549.416	13266.09
549.779	13232.42
550.143	13155.13
550.507	13242.59
550.871	13251.4
551.235	13203.27
551.599	13216.15
551.962	13187.22
552.326	13199.2
552.689	13219.09
553.053	13047.79
553.417	13046.66
553.78	13163.72
554.143	13035.36
554.507	13051.41
554.87	12955.82
555.234	13016.15
555.597	12926.89
555.96	12912.88
556.323	12895.25
556.686	12885.99
557.05	12943.16
557.413	12895.93
557.776	12916.04
558.139	12925.54
558.502	12871.07
558.865	12841.7
559.228	12903.84
559.59	12943.16
559.953	12845.31
560.316	13060.9
560.679	12873.56
561.041	12997.4
561.404	12977.51
561.767	12928.7
562.129	12921.92
562.492	12997.4
562.854	12919.89
563.217	12907.91
563.579	12966.66
563.941	12918.98
564.304	12981.13
564.666	12994.23
565.028	12962.37
565.39	13057.96
565.753	13050.28
566.115	12979.09
566.477	13035.59
566.839	13091.86
567.201	13095.7
567.563	13053.89
567.925	13111.07
568.287	13048.47
568.648	13103.38
569.01	13186.77
569.372	13184.06
569.734	13131.41
570.095	13292.76
570.457	13317.16
570.819	13165.53
571.18	13132.31
571.542	13258.41
571.903	13286.88
572.265	13285.98
572.626	13337.5
572.987	13331.17
573.349	13247.11
573.71	13356.94
574.071	13335.24
574.432	13350.38
574.794	13460.89
575.155	13422.02
575.516	13353.1
575.877	13376.6
576.238	13407.78
576.599	13416.37
576.96	13304.28
577.32	13386.31
577.681	13428.35
578.042	13464.28
578.403	13471.06
578.763	13410.49
579.124	13343.83
579.485	13412.98
579.845	13426.77
580.206	13439.19
580.566	13418.86
580.927	13420.66
581.287	13419.31
581.648	13403.94
582.008	13572.07
582.368	13379.76
582.728	13413.43
583.089	13415.24
583.449	13432.42
583.809	13424.05
584.169	13384.73
584.529	13421.57
584.889	13431.51
585.249	13387.44
585.609	13328.69
585.969	13351.51
586.329	13320.55
586.688	13373.89
587.048	13342.7
587.408	13311.97
587.768	13233.55
588.127	13327.11
588.487	13248.47
588.846	13335.02
589.206	13271.97
589.565	13295.02
589.925	13237.62
590.284	13251.85
590.643	13249.82
591.003	13297.73
591.362	13212.08
591.721	13236.49
592.08	13184.96
592.44	13281.46
592.799	13288.01
593.158	13221.35
593.517	13237.39
593.876	13172.08
594.235	13222.7
594.593	13219.99
594.952	13200.78
595.311	13110.62
595.67	13103.61
596.029	13251.4
596.387	13179.99
596.746	13182.25
597.104	13092.99
597.463	13122.37
597.822	13122.14
598.18	13131.63
598.538	13083.05
598.897	13167.56
599.255	13108.81
599.613	13305.64
599.972	13212.53
600.33	13133.89
600.688	13093.89
601.046	13218.41
601.404	13260.89
601.762	13187.68
602.12	13200.1
602.478	13221.12
602.836	13230.16
603.194	13107.9
603.552	13204.85
603.91	13064.52
604.268	13189.94
604.625	13122.37
604.983	13110.39
605.341	13113.1
605.698	13155.81
606.056	13202.14
606.413	13127.34
606.771	13198.52
607.128	13179.54
607.485	13116.72
607.843	13117.17
608.2	13289.37
608.557	13228.35
608.914	13194.23
609.272	13244.4
609.629	13265.87
609.986	13321.46
610.343	13222.7
610.7	13304.51
611.057	13287.79
611.414	13364.17
611.771	13313.32
612.127	13357.16
612.484	13328.24
612.841	13396.03
613.198	13285.07
613.554	13319.88
613.911	13358.29
614.267	13410.95
614.624	13318.75
614.98	13369.14
615.337	13426.31
615.693	13443.26
616.05	13357.39
616.406	13538.63
616.762	13486.88
617.118	13495.01
617.475	13443.71
617.831	13450.72
618.187	13524.16
618.543	13536.59
618.899	13615.24
619.255	13462.7
619.611	13547.89
619.967	13630.15
620.323	13570.94
620.678	13536.37
621.034	13508.57
621.39	13516.71
621.746	13500.44
622.101	13689.36
622.457	13500.89
622.812	13536.37
623.168	13662.92
623.523	13551.06
623.879	13583.37
624.234	13523.94
624.589	13648.68
624.945	13499.53
625.3	13605.52
625.655	13564.84
626.01	13662.69
626.365	13509.93
626.72	13529.59
627.075	13540.43
627.43	13563.03
627.785	13494.79
628.14	13537.5
628.495	13483.26
628.85	13509.25
629.205	13426.09
629.559	13487.33
629.914	13412.08
630.269	13539.53
630.623	13429.03
630.978	13450.27
631.332	13511.06
631.687	13482.58
632.041	13395.58
632.396	13421.57
632.75	13363.94
633.104	13386.09
633.459	13432.19
633.813	13309.93
634.167	13332.3
634.521	13297.73
634.875	13424.05
635.229	13301.12
635.583	13285.53
635.937	13259.54
636.291	13278.07
636.645	13263.83
636.999	13245.98
637.352	13346.09
637.706	13147.22
638.06	13194.23
638.413	13127.79
638.767	13072.88
639.121	13119.2
639.474	13038.53
639.828	13033.33
640.181	13172.99
640.534	13061.58
640.888	12970.05
641.241	12864.52
641.594	13082.82
641.947	13118.3
642.301	12960.34
642.654	13030.39
643.007	13055.48
643.36	13012.54
643.713	12978.19
644.066	13097.51
644.419	12942.48
644.771	12892.77
645.124	12746.11
645.477	12779.78
645.83	12694.58
646.182	12594.47
646.535	12644.87
646.888	12582.27
647.24	12513.34
647.593	12579.78
647.945	12538.88
648.298	12441.71
648.65	12490.07
649.002	12464.98
649.355	12566.45
649.707	12538.43
650.059	12528.03
650.411	12722.38
650.763	12720.57
651.115	12872.66
651.467	12863.62
651.819	12817.29
652.171	12806.44
652.523	12789.27
652.875	12774.13
653.227	12766.67
653.578	12800.79
653.93	12884.86
654.282	12737.52
654.633	12707.24
654.985	12764.18
655.337	12766.67
655.688	12834.01
656.039	12810.74
656.391	12657.97
656.742	12750.63
657.094	12760.34
657.445	12811.41
657.796	12808.02
658.147	12740.91
658.498	12743.17
658.849	12877.18
659.2	12774.58
659.551	12763.96
659.902	12740.23
660.253	12866.33
660.604	12822.94
660.955	12726.45
661.306	12892.09
661.656	12835.82
662.007	12925.54
662.358	12840.79
662.708	12785.2
663.059	12868.59
663.409	12815.71
663.76	12910.85
664.11	12841.02
664.461	12892.54
664.811	12880.79
665.161	12828.36
665.511	12849.83
665.862	12897.29
666.212	12851.64
666.562	12841.7
666.912	12833.33
667.262	12838.53
667.612	12899.1
667.962	12923.05
668.312	12822.04
668.662	12890.73
669.011	12784.75
669.361	12754.69
669.711	12763.73
670.06	12794.92
670.41	12774.35
670.76	12799.21
671.109	12794.01
671.459	12810.96
671.808	12663.62
672.157	12735.48
672.507	12643.96
672.856	12740.46
673.205	12777.29
673.554	12776.39
673.904	12710.85
674.253	12755.37
674.602	12689.16
674.951	12593.12
675.3	12497.3
675.649	12719.89
675.998	12659.78
676.346	12648.03
676.695	12693.45
677.044	12620.23
677.393	12653.68
677.741	12602.38
678.09	12600.12
678.438	12582.49
678.787	12589.5
679.135	12580.46
679.484	12538.88
679.832	12467.24
680.181	12442.84
680.529	12448.49
680.877	12432.44
681.225	12478.77
681.573	12493.46
681.922	12343.86
682.27	12347.7
682.618	12333.46
682.966	12323.74
683.314	12395.61
683.661	12335.72
684.009	12230.41
684.357	12192
684.705	12159
685.053	12146.8
685.4	12171.66
685.748	12129.17
686.095	12081.72
686.443	11999.01
686.79	12029.74
687.138	12083.98
687.485	11995.39
687.832	11974.6
688.18	11971.21
688.527	11939.57
688.874	11909.52
689.221	11809.18
689.568	11850.99
689.915	11773.25
690.262	11817.09
690.609	11698
690.956	11649.41
691.303	11667.94
691.65	11614.38
691.997	11649.19
692.344	11525.57
692.69	11493.94
693.037	11523.31
693.383	11436.99
693.73	11498.45
694.077	11366.03
694.423	11455.07
694.769	11290.55
695.116	11267.05
695.462	11194.73
695.808	11187.28
696.155	11273.15
696.501	11087.17
696.847	11153.83
697.193	11055.53
697.539	11072.03
697.885	10992.93
698.231	10916.55
698.577	10903.67
698.923	10922.65
699.269	10812.82
699.614	10804.91
699.96	10740.96
700.306	10790
700.651	10639.49
700.997	10650.57
701.342	10543.45
701.688	10599.5
702.033	10556.56
702.379	10589.1
702.724	10519.5
703.069	10491.93
703.415	10381.87
703.76	10443.34
704.105	10378.03
704.45	10344.59
704.795	10298.26
705.14	10206.06
705.485	10330.12
705.83	10207.42
706.175	10220.07
706.52	10127.87
706.865	10095.33
707.209	10102.56
707.554	10072.05
707.899	10054.65
708.243	10028.66
708.588	9982.11
708.932	9979.17
709.277	9839.52
709.621	9933.3
709.966	9889.01
710.31	9835.67
710.654	9757.48
710.998	9806.07
711.342	9794.32
711.687	9735.34
712.031	9731.5
712.375	9684.72
712.719	9684.94
713.063	9635
713.407	9674.77
713.75	9645.85
714.094	9593.19
714.438	9564.04
714.782	9616.47
715.125	9503.25
715.469	9570.37
715.812	9468.45
716.156	9475.01
716.499	9471.84
716.843	9495.12
717.186	9375.12
717.53	9481.56
717.873	9437.27
718.216	9443.37
718.559	9293.54
718.902	9342.35
719.246	9389.58
719.589	9384.61
719.932	9218.97
720.275	9371.28
720.617	9239.76
720.96	9285.63
721.303	9296.25
721.646	9285.41
721.989	9167.67
722.331	9240.43
722.674	9246.76
723.016	9169.93
723.359	9195.01
723.701	9244.73
724.044	9171.28
724.386	9115.69
724.729	9193.43
725.071	9153.88
725.413	9123.83
725.755	9129.25
726.097	9075.02
726.439	9040.21
726.782	9094.9
727.124	9106.43
727.465	9052.42
727.807	9073.43
728.149	9005.19
728.491	9072.53
728.833	9080.89
729.175	8976.04
729.516	9046.54
729.858	9054.9
730.199	9044.06
730.541	9026.66
730.882	9025.98
731.224	9035.47
731.565	8993.21
731.906	8989.82
732.248	9013.77
732.589	9014.23
732.93	8998.63
733.271	8976.04
733.612	8994.34
733.953	8994.11
734.294	9028.01
734.635	9002.93
734.976	8966.09
735.317	8932.42
735.658	8983.72
735.999	8970.39
736.339	9024.17
736.68	9061.23
737.021	8930.16
737.361	8996.15
737.702	9061.23
738.042	9017.62
738.383	9020.78
738.723	9054.23
739.063	8995.92
739.404	9023.94
739.744	9022.14
740.084	9046.32
740.424	9123.15
740.764	9070.27
741.104	9116.6
741.444	9158.18
741.784	9121.57
742.124	9080.44
742.464	9106.2
742.804	9154.34
743.143	9201.79
743.483	9176.93
743.823	9149.14
744.162	9184.17
744.502	9276.59
744.841	9251.28
745.181	9383.71
745.52	9362.69
745.86	9378.96
746.199	9444.5
746.538	9462.35
746.877	9530.14
747.216	9608.79
747.556	9609.46
747.895	9642.46
748.234	9709.35
748.573	9694.89
748.911	9751.38
749.25	9780.76
749.589	9899.4
749.928	9931.94
750.267	10015.78
750.605	9986.4
750.944	10122.9
751.283	10208.77
751.621	10350.46
751.96	10389.11
752.298	10464.81
752.636	10549.1
752.975	10624.13
753.313	10712.26
753.651	10893.95
753.989	10977.56
754.327	11096.43
754.666	11153.83
755.004	11326.48
755.342	11446.7
755.679	11552.46
756.017	11633.14
756.355	11767.37
756.693	11930.99
757.031	12104.77
757.368	12210.07
757.706	12369.84
758.044	12478.54
758.381	12702.26
758.719	12854.35
759.056	12980.22
