Data from hue_26_FLMS001491_00009.txt Node
Date: Tue Feb 07 17:13:29 GMT 2017
User: dcchb
Spectrometer: FLMS00149
Trigger mode: 0
Integration Time (sec): 2.000000E-2
Scans to average: 10
Electric dark correction enabled: true
Nonlinearity correction enabled: false
Boxcar width: 0
XAxis mode: Wavelengths
Number of Pixels in Spectrum: 2048
>>>>>Begin Spectral Data<<<<<
341.393	-19.46
341.776	-19.46
342.16	-19.46
342.543	-64.21
342.927	-87.26
343.31	-69.4
343.693	-58.33
344.077	-71.89
344.46	-61.95
344.843	-59.91
345.226	-34.83
345.61	-51.78
345.993	-22.85
346.376	-9.29
346.759	19.63
347.142	21.89
347.525	58.73
347.908	67.99
348.291	77.26
348.674	94.21
349.057	100.53
349.44	117.93
349.823	144.15
350.206	163.13
350.588	205.39
350.971	187.09
351.354	239.51
351.737	224.82
352.119	228.67
352.502	255.33
352.884	289.91
353.267	281.77
353.65	296.91
354.032	289.46
354.414	317.7
354.797	334.65
355.179	322.68
355.562	343.92
355.944	350.92
356.326	345.73
356.709	313.86
357.091	324.71
357.473	335.78
357.855	328.1
358.238	343.24
358.62	338.72
359.002	334.65
359.384	354.76
359.766	361.54
360.148	326.74
360.53	329.91
360.912	333.52
361.294	314.54
361.676	336.46
362.057	323.13
362.439	340.75
362.821	305.73
363.203	314.31
363.584	340.08
363.966	329.45
364.348	335.33
364.729	309.57
365.111	327.42
365.493	313.18
365.874	308.66
366.256	308.89
366.637	321.32
367.019	327.87
367.4	320.19
367.781	308.44
368.163	322.9
368.544	312.51
368.925	320.42
369.306	336.23
369.688	316.35
370.069	328.32
370.45	302.79
370.831	324.48
371.212	294.2
371.593	328.32
371.974	314.31
372.355	310.7
372.736	304.37
373.117	324.26
373.498	302.56
373.879	322.22
374.26	304.6
374.641	309.12
375.021	324.48
375.402	312.96
375.783	323.13
376.163	326.52
376.544	315.9
376.925	314.54
377.305	349.57
377.686	338.72
378.066	321.55
378.447	329.68
378.827	335.33
379.208	332.17
379.588	317.48
379.968	337.82
380.349	326.97
380.729	355.44
381.109	339.4
381.489	332.17
381.87	339.85
382.25	318.83
382.63	345.5
383.01	332.84
383.39	352.5
383.77	345.95
384.15	346.18
384.53	356.35
384.91	340.08
385.29	346.63
385.67	355.67
386.049	345.05
386.429	321.09
386.809	356.12
387.189	344.6
387.568	352.73
387.948	364.26
388.328	360.41
388.707	346.4
389.087	355.67
389.466	359.51
389.846	367.19
390.225	357.25
390.605	355.44
390.984	367.65
391.363	378.04
391.743	374.88
392.122	381.88
392.501	368.55
392.881	368.1
393.26	377.81
393.639	347.08
394.018	390.24
394.397	384.59
394.776	378.94
395.155	366.52
395.534	392.28
395.913	381.43
396.292	380.07
396.671	379.62
397.05	395.89
397.429	387.31
397.808	390.02
398.186	387.76
398.565	392.5
398.944	413.52
399.323	382.33
399.701	400.87
400.08	389.11
400.458	409.68
400.837	393.63
401.215	390.47
401.594	400.87
401.972	404.71
402.351	395.44
402.729	423.92
403.107	404.25
403.486	417.81
403.864	394.09
404.242	412.39
404.62	402.22
404.999	401.77
405.377	414.88
405.755	428.44
406.133	420.3
406.511	434.76
406.889	416.91
407.267	429.34
407.645	427.53
408.023	428.66
408.401	447.87
408.779	430.92
409.156	441.99
409.534	447.42
409.912	435.89
410.29	454.42
410.667	446.06
411.045	443.8
411.422	449.68
411.8	458.04
412.178	465.95
412.555	485.83
412.933	463.46
413.31	496.68
413.687	491.03
414.065	473.63
414.442	459.62
414.819	475.44
415.197	482.9
415.574	491.71
415.951	484.93
416.328	480.86
416.705	476.34
417.082	496.91
417.46	496.46
417.837	509.79
418.214	505.72
418.591	513.18
418.967	504.37
419.344	507.3
419.721	509.56
420.098	507.76
420.475	513.4
420.852	506.17
421.228	526.96
421.605	514.76
421.982	541.2
422.358	529.9
422.735	541.88
423.111	546.17
423.488	528.09
423.864	541.88
424.241	543.69
424.617	539.84
424.994	541.43
425.37	543.01
425.746	532.61
426.123	565.38
426.499	552.5
426.875	549.56
427.251	578.94
427.627	603.57
428.003	580.75
428.379	584.59
428.756	586.85
429.132	598.6
429.507	606.28
429.883	609.67
430.259	610.35
430.635	618.03
431.011	630.92
431.387	617.81
431.763	632.72
432.138	628.2
432.514	640.18
432.89	653.06
433.265	665.72
433.641	670.91
434.016	671.14
434.392	651.71
434.767	665.72
435.143	668.65
435.518	657.13
435.894	691.03
436.269	679.28
436.644	717.02
437.02	695.09
437.395	705.26
437.77	714.98
438.145	711.59
438.52	714.98
438.895	684.7
439.271	715.89
439.646	750.91
440.021	734.64
440.395	717.69
440.77	753.17
441.145	752.04
441.52	765.15
441.895	743.91
442.27	749.33
442.645	775.54
443.019	759.05
443.394	774.87
443.769	777.8
444.143	770.57
444.518	787.07
444.892	754.98
445.267	787.75
445.641	813.74
446.016	813.28
446.39	807.41
446.764	798.37
447.139	818.03
447.513	820.52
447.887	824.58
448.262	811.93
448.636	837.46
449.01	833.4
449.384	833.62
449.758	841.98
450.132	856.67
450.506	870.46
450.88	861.87
451.254	855.77
451.628	861.19
452.002	870.46
452.376	884.69
452.75	894.41
453.123	885.6
453.497	916.11
453.871	907.97
454.244	938.25
454.618	938.48
454.992	941.42
455.365	922.21
455.739	945.03
456.112	960.4
456.486	978.25
456.859	986.39
457.232	983.22
457.606	997.91
457.979	1000.62
458.352	1019.83
458.725	1017.12
459.099	1023.67
459.472	1047.63
459.845	1064.58
460.218	1098.25
460.591	1059.38
460.964	1077.23
461.337	1108.42
461.71	1117.91
462.083	1122.65
462.456	1121.07
462.829	1159.49
463.201	1138.92
463.574	1140.05
463.947	1169.88
464.32	1213.05
464.692	1186.38
465.065	1209.21
465.438	1206.49
465.81	1217.34
466.183	1241.75
466.555	1278.58
466.928	1262.99
467.3	1295.76
467.672	1299.15
468.045	1323.33
468.417	1349.09
468.789	1345.93
469.161	1370.33
469.534	1399.93
469.906	1421.63
470.278	1430.67
470.65	1448.97
471.022	1486.49
471.394	1492.81
471.766	1510.44
472.138	1507.73
472.51	1558.8
472.882	1582.98
473.253	1562.87
473.625	1588.4
473.997	1647.61
474.369	1649.65
474.74	1660.72
475.112	1704.79
475.484	1757.44
475.855	1771.45
476.227	1811.22
476.598	1816.87
476.97	1878.57
477.341	1910.43
477.713	1907.94
478.084	1923.31
478.455	2015.51
478.827	2003.76
479.198	2081.5
479.569	2083.31
479.94	2143.19
480.311	2158.56
480.682	2229.07
481.053	2253.7
481.424	2297.31
481.795	2321.49
482.166	2357.88
482.537	2421.15
482.908	2479
483.279	2498.66
483.65	2540.24
484.021	2620.92
484.391	2649.17
484.762	2676.29
485.133	2743.85
485.503	2730.52
485.874	2836.28
486.244	2858.2
486.615	2923.51
486.985	2939.1
487.356	3031.3
487.726	3042.6
488.097	3156.72
488.467	3148.14
488.837	3197.85
489.207	3290.96
489.578	3303.39
489.948	3379.09
490.318	3405.76
490.688	3437.17
491.058	3516.94
491.428	3578.86
491.798	3597.39
492.168	3670.84
492.538	3674
492.908	3778.86
493.278	3782.02
493.648	3810.94
494.017	3925.74
494.387	3930.26
494.757	3975.01
495.126	4004.16
495.496	4037.83
495.866	4074.21
496.235	4114.89
496.605	4161.9
496.974	4136.59
497.344	4248.45
497.713	4279.41
498.082	4293.64
498.452	4378.16
498.821	4405.28
499.19	4374.09
499.559	4431.49
499.928	4462.91
500.298	4460.19
500.667	4535.22
501.036	4554.65
501.405	4573.86
501.774	4610.02
502.143	4627.65
502.512	4685.95
502.88	4765.5
503.249	4753.52
503.618	4808.43
503.987	4755.33
504.356	4837.81
504.724	4830.35
505.093	4848.21
505.462	4933.4
505.83	4965.26
506.199	4971.82
506.567	5039.39
506.936	5039.16
507.304	5122.55
507.672	5097.69
508.041	5157.12
508.409	5177.01
508.777	5209.55
509.145	5227.4
509.514	5216.78
509.882	5240.74
510.25	5278.7
510.618	5344.01
510.986	5297.91
511.354	5353.73
511.722	5424.46
512.09	5435.99
512.458	5460.39
512.826	5493.84
513.193	5473.5
513.561	5495.65
513.929	5602.31
514.297	5615.87
514.664	5606.38
515.032	5658.35
515.4	5666.94
515.767	5692.03
516.135	5710.56
516.502	5753.72
516.869	5784.9
517.237	5776.32
517.604	5754.4
517.972	5847.95
518.339	5870.33
518.706	5878.01
519.073	5946.71
519.44	5936.99
519.808	5963.2
520.175	5974.73
520.542	5993.94
520.909	6045.69
521.276	6068.06
521.643	6118.23
522.009	6115.07
522.376	6151.67
522.743	6203.2
523.11	6242.97
523.477	6300.37
523.843	6325.46
524.21	6389.63
524.577	6429.18
524.943	6412.68
525.31	6444.32
525.676	6537.88
526.043	6534.72
526.409	6603.19
526.776	6615.62
527.142	6618.33
527.508	6717.76
527.874	6691.1
528.241	6735.61
528.607	6763.64
528.973	6810.41
529.339	6804.09
529.705	6886.57
530.071	6923.41
530.437	6971.09
530.803	7003.18
531.169	7067.81
531.535	7007.25
531.901	7055.83
532.267	7084.31
532.632	7144.19
532.998	7193.45
533.364	7225.54
533.73	7244.75
534.095	7271.19
534.461	7334.69
534.826	7319.1
535.192	7380.12
535.557	7479.32
535.923	7379.21
536.288	7438.19
536.653	7464.86
537.019	7444.3
537.384	7524.07
537.749	7560.9
538.114	7571.75
538.479	7592.77
538.845	7635.03
539.21	7576.95
539.575	7731.29
539.94	7782.59
540.305	7764.06
540.67	7801.35
541.034	7827.79
541.399	7836.83
541.764	7938.07
542.129	7835.7
542.494	7930.84
542.858	7984.62
543.223	7945.98
543.587	8068.91
543.952	8037.73
544.316	8142.36
544.681	8143.03
545.045	8096.03
545.41	8231.17
545.774	8199.76
546.138	8232.52
546.503	8271.39
546.867	8247.44
547.231	8428.45
547.595	8341.22
547.959	8394.1
548.324	8341.9
548.688	8458.51
549.052	8497.38
549.416	8466.64
549.779	8501.22
550.143	8545.51
550.507	8594.1
550.871	8636.13
551.235	8640.2
551.599	8745.28
551.962	8658.05
552.326	8768.78
552.689	8759.06
553.053	8806.07
553.417	8823.47
553.78	8870.92
554.143	8864.37
554.507	8914.99
554.87	8888.1
555.234	9043.12
555.597	8933.75
555.96	8997.93
556.323	9104.59
556.686	9083.35
557.05	9162.44
557.413	9166.28
557.776	9224.81
558.139	9180.52
558.502	9232.72
558.865	9252.84
559.228	9313.4
559.59	9329.67
559.953	9365.83
560.316	9479.72
560.679	9429.1
561.041	9495.99
561.404	9548.65
561.767	9594.52
562.129	9525.15
562.492	9698.47
562.854	9637.23
563.217	9665.03
563.579	9691.69
563.941	9764.69
564.304	9902.54
564.666	9873.16
565.028	9824.8
565.39	9831.8
565.753	9919.71
566.115	9928.75
566.477	10004.68
566.839	10039.93
567.201	10100.5
567.563	10068.18
567.925	10198.57
568.287	10139.82
568.648	10265.92
569.01	10290.77
569.372	10270.66
569.734	10311.11
570.095	10436.99
570.457	10455.97
570.819	10462.75
571.18	10551.33
571.542	10580.48
571.903	10586.81
572.265	10620.48
572.626	10745.68
572.987	10683.53
573.349	10794.04
573.71	10848.05
574.071	10878.78
574.432	10896.18
574.794	11068.61
575.155	11067.25
575.516	11086.01
575.877	11280.13
576.238	11226.34
576.599	11335.04
576.96	11377.3
577.32	11454.81
577.681	11601.02
578.042	11665.88
578.403	11699.55
578.763	11740
579.124	11894.8
579.485	11984.52
579.845	12077.17
580.206	12162.82
580.566	12407.56
580.927	12482.81
581.287	12632.41
581.648	12737.94
582.008	12982.68
582.368	13017.48
582.728	13221.77
583.089	13386.29
583.449	13474.87
583.809	13741.53
584.169	13879.83
584.529	14003.22
584.889	14271.69
585.249	14346.94
585.609	14593.26
585.969	14852.24
586.329	15029.86
586.688	15212
587.048	15381.94
587.408	15530.18
587.768	15879.78
588.127	15982.83
588.487	16260.79
588.846	16587.33
589.206	16781.9
589.565	17091.95
589.925	17337.82
590.284	17619.85
590.643	17949.56
591.003	18184.35
591.362	18517
591.721	18666.6
592.08	18943.65
592.44	19190.88
592.799	19620.25
593.158	19796.29
593.517	20125.77
593.876	20420.45
594.235	20664.29
594.593	20957.16
594.952	21322.8
595.311	21498.16
595.67	21958.49
596.029	22221.08
596.387	22622.43
596.746	22979.93
597.104	23033.49
597.463	23342.63
597.822	23869.85
598.18	23979.91
598.538	24331.31
598.897	24677.74
599.255	24832.77
599.613	25533.54
599.972	25508.91
600.33	25886.75
600.688	26143.92
601.046	26645.37
601.404	26924.69
601.762	27056.66
602.12	27568.29
602.478	27723.76
602.836	27978.67
603.194	28133.92
603.552	28518.32
603.91	28703.17
604.268	29142.03
604.625	29332.08
604.983	29740.88
605.341	29864.27
605.698	30159.18
606.056	30492.73
606.413	30648.43
606.771	30954.41
607.128	31165.25
607.485	31348.75
607.843	31545.36
608.2	32052.91
608.557	32291.78
608.914	32524.09
609.272	32785.78
609.629	33018.99
609.986	33277.29
610.343	33398.87
610.7	33886.54
611.057	34004.73
611.414	34045.63
611.771	34254.44
612.127	34640.64
612.484	34704.82
612.841	35072.04
613.198	35033.63
613.554	35375.76
613.911	35628.19
614.267	35847.62
614.624	35958.57
614.98	36170.32
615.337	36476.53
615.693	36577.32
616.05	36693.7
616.406	37080.35
616.762	37034.7
617.118	37226.79
617.475	37352.21
617.831	37650.28
618.187	37750.62
618.543	37885.76
618.899	38072.87
619.255	38248.91
619.611	38267.89
619.967	38500.2
620.323	38685.28
620.678	38605.06
621.034	38700.65
621.39	38955.11
621.746	38910.81
622.101	39416.79
622.457	39384.47
622.812	39419.27
623.168	39598.25
623.523	39605.26
623.879	39847.96
624.234	39741.3
624.589	39884.12
624.945	40037.56
625.3	40125.24
625.655	40032.82
626.01	40263.32
626.365	40445.69
626.72	40297.67
627.075	40403.2
627.43	40500.83
627.785	40468.29
628.14	40596.64
628.495	40708.96
628.85	40768.84
629.205	40613.59
629.559	40969.06
629.914	40859.69
630.269	40934.04
630.623	40946.24
630.978	40873.7
631.332	41045.9
631.687	41153.01
632.041	40955.51
632.396	41117.99
632.75	41062.62
633.104	41202.73
633.459	41010.42
633.813	40999.35
634.167	41178.55
634.521	41105.33
634.875	41136.74
635.229	41188.49
635.583	41030.53
635.937	41054.26
636.291	41124.99
636.645	41136.97
636.999	41065.33
637.352	41247.02
637.706	40925.45
638.06	41210.19
638.413	41065.33
638.767	41050.64
639.121	41223.07
639.474	41083.86
639.828	41022.62
640.181	40988.5
640.534	41069.63
640.888	41094.94
641.241	40924.55
641.594	41063.75
641.947	41096.07
642.301	40901.95
642.654	41011.32
643.007	41088.61
643.36	41007.48
643.713	41153.92
644.066	41088.83
644.419	40898.56
644.771	40607.04
645.124	40401.62
645.477	40165.7
645.83	40063.33
646.182	40008.86
646.535	39800.06
646.888	39906.04
647.24	39641.87
647.593	39895.87
647.945	39669.44
648.298	39750.11
648.65	39681.64
649.002	39568.87
649.355	39733.62
649.707	39743.79
650.059	39896.78
650.411	40420.6
650.763	40415.86
651.115	40748.5
651.467	40580.37
651.819	40573.59
652.171	40594.61
652.523	40542.18
652.875	40466.03
653.227	40430.32
653.578	40630.32
653.93	40609.07
654.282	40478.46
654.633	40337.89
654.985	40402.07
655.337	40434.61
655.688	40583.99
656.039	40529.75
656.391	40344.67
656.742	40305.58
657.094	40421.73
657.445	40601.16
657.796	40445.69
658.147	40453.15
658.498	40455.86
658.849	40544.22
659.2	40423.99
659.551	40305.8
659.902	40491.34
660.253	40325.92
660.604	40406.59
660.955	40135.19
661.306	40390.77
661.656	40155.53
662.007	40298.35
662.358	40263.77
662.708	40217.22
663.059	40269.2
663.409	40032.14
663.76	40235.98
664.11	40308.06
664.461	40221.29
664.811	40176.54
665.161	40194.4
665.511	40154.4
665.862	40285.69
666.212	40369.76
666.562	40155.75
666.912	40091.8
667.262	40080.73
667.612	40220.38
667.962	40333.83
668.312	40062.65
668.662	40426.93
669.011	40181.29
669.361	40160.5
669.711	40211.34
670.06	39956.44
670.41	40045.25
670.76	39916.89
671.109	40170.44
671.459	40007.28
671.808	40069.88
672.157	40228.29
672.507	39941.75
672.856	39933.16
673.205	39963.21
673.554	39990.11
673.904	39986.26
674.253	40036.43
674.602	39899.49
674.951	39394.42
675.3	39219.73
675.649	39788.08
675.998	39685.71
676.346	39835.31
676.695	39983.78
677.044	39529.1
677.393	39743.11
677.741	39744.69
678.09	39635.54
678.438	39584.69
678.787	39531.81
679.135	39617.46
679.484	39334.3
679.832	39556.9
680.181	39267.64
680.529	39454.53
680.877	39316.23
681.225	39309.67
681.573	39539.95
681.922	39205.72
682.27	39136.8
682.618	39093.41
682.966	39155.1
683.314	39076.23
683.661	38978.61
684.009	38847.31
684.357	38723.93
684.705	38858.39
685.053	38695
685.4	38705.85
685.748	38597.15
686.095	38628.33
686.443	38506.08
686.79	38484.38
687.138	38420.2
687.485	38453.42
687.832	38365.52
688.18	38447.77
688.527	38041.68
688.874	38115.58
689.221	37981.8
689.568	37845.98
689.915	37897.51
690.262	37813.21
690.609	37650.51
690.956	37580.9
691.303	37593.11
691.65	37305.21
691.997	37366.45
692.344	37023.63
692.69	37185.89
693.037	37221.59
693.383	36900.24
693.73	36951.99
694.077	36781.38
694.423	36816.86
694.769	36671.78
695.116	36657.76
695.462	36640.82
695.808	36513.36
696.155	36652.57
696.501	36279.7
696.847	36357.89
697.193	36157.67
697.539	36185.01
697.885	35956.09
698.231	35806.26
698.577	35855.07
698.923	35858.46
699.269	35704.8
699.614	35501.64
699.96	35375.31
700.306	35425.48
700.651	35259.38
700.997	35189.55
701.342	35140.52
701.688	35086.05
702.033	34955.66
702.379	34960.86
702.724	34851.71
703.069	34992.27
703.415	34506.86
703.76	34726.52
704.105	34489.01
704.45	34472.29
704.795	34286.98
705.14	34301.67
705.485	34257.6
705.83	34103.71
706.175	34108.45
706.52	33896.03
706.865	33851.96
707.209	33863.49
707.554	33797.5
707.899	33790.27
708.243	33588.69
708.588	33480.22
708.932	33395.93
709.277	33398.19
709.621	33462.37
709.966	33101.7
710.31	33177.63
710.654	32839.79
710.998	33044.3
711.342	32824.87
711.687	32656.06
712.031	32664.65
712.375	32421.94
712.719	32600.92
713.063	32546.46
713.407	32576.97
713.75	32360.02
714.094	32507.14
714.438	32285.68
714.782	32395.05
715.125	32084.55
715.469	32298.11
715.812	32090.43
716.156	31994.16
716.499	32054.95
716.843	32014.72
717.186	31818.12
717.53	31987.83
717.873	32003.65
718.216	31794.62
718.559	31619.03
718.902	31462.87
719.246	31489.09
719.589	31431.91
719.932	31314.63
720.275	31328.87
720.617	31315.08
720.96	31270.11
721.303	31261.52
721.646	31276.89
721.989	31060.62
722.331	31116.67
722.674	31094.3
723.016	31038.93
723.359	30966.39
723.701	30955.99
724.044	30711.93
724.386	30727.07
724.729	30920.97
725.071	30685.04
725.413	30713.51
725.755	30619.28
726.097	30564.14
726.439	30459.96
726.782	30487.31
727.124	30558.26
727.465	30326.86
727.807	30180.65
728.149	30245.73
728.491	30175.68
728.833	30293.41
729.175	30181.1
729.516	30081.21
729.858	30062.68
730.199	30120.76
730.541	29962.57
730.882	29955.57
731.224	30080.54
731.565	29800.09
731.906	29816.81
732.248	29855.68
732.589	29701.56
732.93	29539.99
733.271	29523.94
733.612	29565.07
733.953	29615.01
734.294	29431.97
734.635	29247.56
734.976	29526.2
735.317	29288.02
735.658	29412.76
735.999	29301.57
736.339	29298.86
736.68	29266.55
737.021	29267.45
737.361	29021.36
737.702	29288.02
738.042	29144.29
738.383	29074.46
738.723	29116.49
739.063	29026.33
739.404	28909.95
739.744	28884.41
740.084	28855.26
740.424	28783.62
740.764	28722.83
741.104	28885.09
741.444	28845.77
741.784	28725.32
742.124	28581.59
742.464	28626.34
742.804	28482.16
743.143	28474.93
743.483	28505.89
743.823	28383.86
744.162	28296.85
744.502	28347.47
744.841	28333.69
745.181	28358.32
745.52	28245.33
745.86	28322.62
746.199	28207.82
746.538	28148.84
746.877	28188.16
747.216	28093.92
747.556	28128.27
747.895	27984.55
748.234	27957.88
748.573	27893.93
748.911	27917.66
749.25	27891.44
749.589	27720.6
749.928	27745.91
750.267	27901.61
750.605	27641.73
750.944	27611.22
751.283	27441.74
751.621	27515.18
751.96	27467.05
752.298	27464.56
752.636	27451.45
752.975	27360.16
753.313	27202.65
753.651	27377.33
753.989	27241.06
754.327	27207.62
754.666	27013.5
755.004	27070.22
755.342	27051.24
755.679	27012.14
756.017	26825.26
756.355	26888.3
756.693	26721.53
757.031	26810.79
757.368	26629.33
757.706	26652.15
758.044	26554.98
758.381	26526.28
758.719	26437.02
759.056	26383.46
759.394	26487.86
759.731	26156.35
