Data from hue_310_FLMS001491_67.txt Node
Date: Mon Feb 06 15:50:01 GMT 2017
User: dcchb
Spectrometer: FLMS00149
Trigger mode: 0
Integration Time (sec): 2.000000E-2
Scans to average: 10
Electric dark correction enabled: true
Nonlinearity correction enabled: false
Boxcar width: 0
XAxis mode: Wavelengths
Number of Pixels in Spectrum: 2048
>>>>>Begin Spectral Data<<<<<
341.393	-15.56
341.776	-15.56
342.16	-15.56
342.543	-85.85
342.927	-74.09
343.31	-77.26
343.693	-55.11
344.077	-54.66
344.46	-62.12
344.843	-49.91
345.226	-43.13
345.61	-36.35
345.993	-23.02
346.376	-14.21
346.759	36.19
347.142	40.03
347.525	37.09
347.908	42.29
348.291	58.33
348.674	99.46
349.057	102.4
349.44	103.75
349.823	139.46
350.206	157.76
350.588	174.26
350.971	223.53
351.354	212.23
351.737	220.36
352.119	257.65
352.502	248.16
352.884	268.72
353.267	269.17
353.65	305.78
354.032	304.65
354.414	296.74
354.797	320.47
355.179	317.08
355.562	313.92
355.944	318.89
356.326	329.74
356.709	332.9
357.091	346.23
357.473	347.14
357.855	333.8
358.238	347.36
358.62	315.73
359.002	334.93
359.384	322.73
359.766	348.27
360.148	340.36
360.53	325.22
360.912	331.54
361.294	306.91
361.676	337.42
362.057	341.04
362.439	333.8
362.821	313.24
363.203	322.05
363.584	318.44
363.966	327.25
364.348	323.41
364.729	321.38
365.111	317.76
365.493	344.65
365.874	308.04
366.256	314.14
366.637	297.65
367.019	312.11
367.4	307.59
367.781	302.62
368.163	306.91
368.544	287.48
368.925	311.21
369.306	310.08
369.688	303.3
370.069	297.42
370.45	312.34
370.831	314.82
371.212	320.25
371.593	315.5
371.974	285.67
372.355	314.14
372.736	313.69
373.117	305.33
373.498	314.14
373.879	320.92
374.26	298.55
374.641	322.73
375.021	300.59
375.402	291.09
375.783	318.44
376.163	305.56
376.544	310.3
376.925	294.94
377.305	320.02
377.686	329.96
378.066	323.18
378.447	337.87
378.827	319.12
379.208	322.96
379.588	335.16
379.968	299.68
380.349	307.14
380.729	298.1
381.109	320.47
381.489	339.23
381.87	339.91
382.25	318.66
382.63	336.29
383.01	355.73
383.39	351.66
383.77	363.18
384.15	322.96
384.53	343.52
384.91	345.1
385.29	336.74
385.67	347.59
386.049	362.73
386.429	350.08
386.809	350.98
387.189	351.21
387.568	352.34
387.948	343.07
388.328	360.24
388.707	359.34
389.087	381.04
389.466	363.86
389.846	360.7
390.225	349.62
390.605	362.96
390.984	351.88
391.363	366.12
391.743	355.73
392.122	364.09
392.501	368.15
392.881	375.16
393.26	370.19
393.639	373.58
394.018	361.15
394.397	369.74
394.776	372.67
395.155	346.01
395.534	379.91
395.913	357.53
396.292	389.4
396.671	386.91
397.05	390.75
397.429	368.83
397.808	378.78
398.186	379.68
398.565	402.5
398.944	389.62
399.323	395.27
399.701	396.18
400.08	410.41
400.458	395.5
400.837	411.99
401.215	412.67
401.594	407.48
401.972	414.03
402.351	426.68
402.729	423.07
403.107	420.81
403.486	416.06
403.864	415.16
404.242	431.43
404.62	427.14
404.999	429.62
405.377	405.22
405.755	441.82
406.133	445.21
406.511	450.41
406.889	462.61
407.267	439.79
407.645	431.43
408.023	463.29
408.401	467.36
408.779	468.49
409.156	449.73
409.534	486.8
409.912	484.76
410.29	476.17
410.667	495.83
411.045	481.15
411.422	496.74
411.8	462.61
412.178	504.2
412.555	502.39
412.933	532.22
413.31	531.99
413.687	542.39
414.065	524.53
414.442	552.1
414.819	555.95
415.197	560.92
415.574	560.01
415.951	580.8
416.328	567.92
416.705	603.4
417.082	603.85
417.46	604.76
417.837	591.65
418.214	636.4
418.591	652.44
418.967	634.14
419.344	618.32
419.721	647.02
420.098	644.31
420.475	649.05
420.852	657.86
421.228	682.04
421.605	695.83
421.982	697.19
422.358	715.04
422.735	717.52
423.111	700.12
423.488	698.54
423.864	717.98
424.241	740.8
424.617	760.46
424.994	768.37
425.37	727.69
425.746	759.1
426.123	758.43
426.499	769.27
426.875	775.38
427.251	791.42
427.627	780.57
428.003	813.57
428.379	792.55
428.756	816.28
429.132	822.61
429.507	853.11
429.883	854.02
430.259	856.05
430.635	874.58
431.011	872.32
431.387	893.79
431.763	910.96
432.138	923.85
432.514	930.63
432.89	930.17
433.265	927.24
433.641	964.52
434.016	952.77
434.392	957.74
434.767	990.28
435.143	997.97
435.518	1025.54
435.894	990.74
436.269	1010.85
436.644	1037.97
437.02	1049.49
437.395	1067.12
437.77	1077.51
438.145	1071.41
438.52	1096.95
438.895	1102.6
439.271	1081.36
439.646	1119.32
440.021	1119.32
440.395	1125.87
440.77	1101.69
441.145	1122.03
441.52	1141.02
441.895	1136.72
442.27	1158.87
442.645	1124.29
443.019	1162.03
443.394	1169.26
443.769	1143.95
444.143	1173.78
444.518	1186.66
444.892	1212.43
445.267	1205.42
445.641	1216.04
446.016	1208.36
446.39	1209.71
446.764	1219.88
447.139	1240.45
447.513	1199.54
447.887	1230.05
448.262	1210.39
448.636	1238.64
449.01	1228.02
449.384	1249.26
449.758	1258.98
450.132	1263.95
450.506	1235.93
450.88	1265.08
451.254	1272.31
451.628	1280.45
452.002	1277.06
452.376	1276.83
452.75	1307.34
453.123	1332.65
453.497	1321.12
453.871	1340.11
454.244	1331.97
454.618	1352.08
454.992	1341.69
455.365	1348.69
455.739	1373.33
456.112	1403.16
456.486	1407.67
456.859	1411.29
457.232	1423.95
457.606	1422.82
457.979	1437.73
458.352	1437.05
458.725	1472.76
459.099	1464.62
459.472	1497.16
459.845	1470.5
460.218	1498.07
460.591	1501.01
460.964	1532.87
461.337	1531.74
461.71	1550.27
462.083	1557.28
462.456	1531.51
462.829	1578.52
463.201	1575.35
463.574	1591.85
463.947	1601.34
464.32	1631.17
464.692	1628.23
465.065	1663.26
465.438	1634.34
465.81	1668.46
466.183	1705.97
466.555	1715.69
466.928	1715.01
467.3	1700.55
467.672	1701.23
468.045	1768.57
468.417	1756.82
468.789	1769.25
469.161	1806.99
469.534	1805.86
469.906	1849.47
470.278	1843.6
470.65	1867.32
471.022	1881.79
471.394	1918.62
471.766	1912.52
472.138	1906.64
472.51	1936.02
472.882	1972.63
473.253	1987.32
473.625	1975.12
473.997	2034.78
474.369	2043.59
474.74	2030.71
475.112	2070.48
475.484	2095.79
475.855	2094.44
476.227	2140.76
476.598	2144.83
476.97	2182.34
477.341	2208.78
477.713	2240.2
478.084	2251.49
478.455	2296.01
478.827	2324.49
479.198	2371.27
479.569	2348.44
479.94	2352.06
480.311	2419.4
480.682	2467.08
481.053	2479.51
481.424	2503.69
481.795	2528.1
482.166	2552.05
482.537	2561.99
482.908	2583.92
483.279	2599.73
483.65	2652.39
484.021	2690.13
484.391	2723.8
484.762	2697.13
485.133	2670.01
485.503	2745.49
485.874	2833.4
486.244	2830.69
486.615	2821.65
486.985	2876.56
487.356	2916.56
487.726	2980.74
488.097	2950.91
488.467	2989.1
488.837	3049.21
489.207	3041.76
489.578	3101.64
489.948	3071.13
490.318	3152.26
490.688	3157.01
491.058	3154.07
491.428	3207.4
491.798	3228.42
492.168	3245.14
492.538	3267.06
492.908	3330.11
493.278	3326.27
493.648	3360.84
494.017	3344.35
494.387	3397.68
494.757	3380.96
495.126	3420.28
495.496	3453.04
495.866	3463.44
496.235	3491.24
496.605	3512.48
496.974	3495.76
497.344	3538.01
497.713	3551.12
498.082	3610.1
498.452	3611.91
498.821	3639.93
499.19	3641.29
499.559	3643.77
499.928	3638.8
500.298	3691.91
500.667	3737.78
501.036	3681.29
501.405	3680.16
501.774	3706.82
502.143	3735.75
502.512	3769.87
502.88	3775.97
503.249	3782.98
503.618	3843.77
503.987	3790.89
504.356	3841.28
504.724	3845.12
505.093	3857.78
505.462	3837.89
505.83	3877.21
506.199	3887.38
506.567	3946.37
506.936	3935.52
507.304	3950.21
507.672	3984.33
508.041	3979.81
508.409	3990.88
508.777	4018.45
509.145	4012.58
509.514	4057.77
509.882	4063.88
510.25	4057.55
510.618	4070.66
510.986	4083.99
511.354	4088.28
511.722	4146.59
512.09	4102.07
512.458	4112.01
512.826	4156.76
513.193	4172.12
513.561	4173.25
513.929	4182.07
514.297	4207.6
514.664	4191.56
515.032	4198.79
515.4	4260.71
515.767	4220.03
516.135	4249.86
516.502	4235.85
516.869	4274.49
517.237	4269.52
517.604	4313.59
517.972	4326.92
518.339	4331.89
518.706	4318.33
519.073	4329.63
519.44	4381.83
519.808	4401.72
520.175	4335.28
520.542	4372.57
520.909	4430.87
521.276	4419.35
521.643	4459.35
522.009	4500.25
522.376	4458.89
522.743	4483.75
523.11	4497.54
523.477	4576.41
523.843	4580.25
524.21	4615.05
524.577	4616.86
524.943	4679.45
525.31	4617.99
525.676	4652.11
526.043	4697.76
526.409	4689.62
526.776	4756.74
527.142	4736.63
527.508	4782.95
527.874	4839.9
528.241	4820.92
528.607	4806.91
528.973	4838.55
529.339	4866.34
529.705	4926
530.071	4939.79
530.437	4976.39
530.803	4970.75
531.169	4997.41
531.535	5005.55
531.901	5063.17
532.267	5055.71
532.632	5104.3
532.998	5100.23
533.364	5126.45
533.73	5107.69
534.095	5162.6
534.461	5153.11
534.826	5199.21
535.192	5265.88
535.557	5285.54
535.923	5245.54
536.288	5295.03
536.653	5340.45
537.019	5274.01
537.384	5280.57
537.749	5379.55
538.114	5371.19
538.479	5442.82
538.845	5405.99
539.21	5430.62
539.575	5462.26
539.94	5469.04
540.305	5498.64
540.67	5535.93
541.034	5496.83
541.399	5602.82
541.764	5625.42
542.129	5608.92
542.494	5582.25
542.858	5653.44
543.223	5676.04
543.587	5689.82
543.952	5718.97
544.316	5701.35
544.681	5784.51
545.045	5765.3
545.41	5807.79
545.774	5821.12
546.138	5861.57
546.503	5859.31
546.867	5902.92
547.231	5986.99
547.595	5924.84
547.959	6016.37
548.324	5948.57
548.688	6002.58
549.052	5977.95
549.416	6043.49
549.779	6098.85
550.143	6084.84
550.507	6123.48
550.871	6151.28
551.235	6119.42
551.599	6179.75
551.962	6161.67
552.326	6191.5
552.689	6291.16
553.053	6250.49
553.417	6249.13
553.78	6339.3
554.143	6292.29
554.507	6342.01
554.87	6368.67
555.234	6387.43
555.597	6354.66
555.96	6357.38
556.323	6387.66
556.686	6368.22
557.05	6462.23
557.413	6457.71
557.776	6482.57
558.139	6533.42
558.502	6535
558.865	6547.2
559.228	6560.53
559.59	6588.1
559.953	6569.35
560.316	6650.02
560.679	6648.67
561.041	6663.58
561.404	6683.47
561.767	6725.5
562.129	6751.26
562.492	6745.84
562.854	6688.67
563.217	6799.17
563.579	6778.61
563.941	6899.73
564.304	6858.38
564.666	6882.11
565.028	6941.31
565.39	6987.42
565.753	6950.35
566.115	7010.69
566.477	6979.73
566.839	7006.85
567.201	7024.48
567.563	7068.54
567.925	7141.54
568.287	7137.02
568.648	7151.93
569.01	7189.67
569.372	7256.79
569.734	7213.85
570.095	7339.5
570.457	7339.95
570.819	7354.64
571.18	7294.3
571.542	7446.39
571.903	7475.09
572.265	7389.66
572.626	7487.29
572.987	7518.47
573.349	7557.12
573.71	7601.18
574.071	7688.64
574.432	7663.56
574.794	7868.75
575.155	7856.32
575.516	7893.83
575.877	7941.51
576.238	8033.26
576.599	8058.8
576.96	8094.5
577.32	8164.79
577.681	8273.71
578.042	8344.89
578.403	8455.4
578.763	8553.7
579.124	8612.68
579.485	8692.91
579.845	8828.5
580.206	8885.22
580.566	8968.61
580.927	9109.39
581.287	9224.87
581.648	9374.25
582.008	9519.1
582.368	9619.44
582.728	9810.39
583.089	9941.46
583.449	10125.64
583.809	10265.97
584.169	10347.1
584.529	10551.62
584.889	10767.88
585.249	10882.91
585.609	11094.2
585.969	11337.13
586.329	11488.09
586.688	11708.87
587.048	11922.2
587.408	12072.25
587.768	12298.46
588.127	12489.64
588.487	12740.48
588.846	13062.06
589.206	13269.51
589.565	13532.1
589.925	13827.69
590.284	14021.35
590.643	14330.5
591.003	14582.92
591.362	14828.56
591.721	15078.5
592.08	15461.54
592.44	15744.92
592.799	16047.74
593.158	16262.88
593.517	16518.24
593.876	16825.12
594.235	17010.65
594.593	17405.22
594.952	17722.27
595.311	17917.98
595.67	18204.97
596.029	18602.25
596.387	18990.49
596.746	19237.26
597.104	19444.71
597.463	19765.16
597.822	20088.99
598.18	20316.1
598.538	20568.75
598.897	20988.4
599.255	21136.2
599.613	21672.23
599.972	21830.87
600.33	22154.25
600.688	22362.15
601.046	22705.42
601.404	23112.64
601.762	23288.46
602.12	23690.93
602.478	23902
602.836	24182.44
603.194	24296.56
603.552	24645.03
603.91	24880.73
604.268	25184.45
604.625	25336.31
604.983	25710.99
605.341	25829.41
605.698	26188.49
606.056	26489.28
606.413	26762.71
606.771	27083.61
607.128	27269.14
607.485	27337.39
607.843	27711.84
608.2	27962.91
608.557	28261.66
608.914	28347.31
609.272	28761.98
609.629	29016.44
609.986	29239.26
610.343	29316.55
610.7	29704.56
611.057	29827.94
611.414	29968.96
611.771	30205.34
612.127	30366.91
612.484	30624.53
612.841	30885.54
613.198	30884.19
613.554	31020.46
613.911	31366.89
614.267	31583.83
614.624	31672.19
614.98	31893.2
615.337	32203.25
615.693	32281.67
616.05	32417.71
616.406	32682.56
616.762	32675.78
617.118	32911.25
617.475	32894.98
617.831	33324.58
618.187	33289.1
618.543	33411.35
618.899	33684.79
619.255	33956.88
619.611	33900.15
619.967	34208.17
620.323	34305.34
620.678	34253.14
621.034	34277.32
621.39	34486.81
621.746	34509.4
622.101	35171.53
622.457	34811.32
622.812	35071.87
623.168	35166.79
623.523	35325.43
623.879	35522.94
624.234	35314.13
624.589	35463.95
624.945	35572.43
625.3	35689.49
625.655	35741.69
626.01	35844.06
626.365	35985.75
626.72	36031.62
627.075	36020.1
627.43	36191.39
627.785	36048.8
628.14	36298.28
628.495	36368.34
628.85	36263.93
629.205	36234.78
629.559	36609.24
629.914	36480.2
630.269	36511.61
630.623	36381.22
630.978	36430.93
631.332	36680.87
631.687	36599.29
632.041	36610.14
632.396	36888.78
632.75	36576.92
633.104	36708.89
633.459	36608.56
633.813	36772.39
634.167	36678.16
634.521	36763.13
634.875	36781.66
635.229	36731.72
635.583	36624.15
635.937	36774.88
636.291	36677.71
636.645	36775.56
636.999	36728.33
637.352	36847.87
637.706	36760.87
638.06	36975.55
638.413	36925.39
638.767	36621.44
639.121	36800.64
639.474	36595.45
639.828	36758.16
640.181	36804.03
640.534	36786.18
640.888	36773.52
641.241	36644.94
641.594	36754.54
641.947	36806.29
642.301	36864.6
642.654	36711.61
643.007	36704.83
643.36	36783.47
643.713	36761.55
644.066	36912.28
644.419	36641.78
644.771	36443.36
645.124	36078.85
645.477	36076.14
645.83	35805.19
646.182	35775.58
646.535	35700.56
646.888	35868.92
647.24	35686.77
647.593	35813.1
647.945	35531.98
648.298	35488.36
648.65	35628.92
649.002	35520.9
649.355	35771.74
649.707	35665.31
650.059	35698.07
650.411	36112.07
650.763	36185.07
651.115	36492.4
651.467	36457.15
651.819	36364.72
652.171	36224.84
652.523	36353.87
652.875	36297.83
653.227	36123.6
653.578	36366.98
653.93	36324.5
654.282	36182.13
654.633	36054.22
654.985	36239.75
655.337	36188
655.688	36144.39
656.039	36244.05
656.391	36029.14
656.742	36116.37
657.094	36105.75
657.445	36160.66
657.796	36119.76
658.147	36169.47
658.498	36052.41
658.849	36230.26
659.2	36084.73
659.551	36024.62
659.902	36109.36
660.253	36217.61
660.604	36293.31
660.955	35939.42
661.306	36173.99
661.656	35979.2
662.007	36146.65
662.358	36150.94
662.708	35954.56
663.059	36092.64
663.409	35894.9
663.76	36047.67
664.11	36174.67
664.461	36015.8
664.811	36088.12
665.161	35907.78
665.511	35756.6
665.862	36018.52
666.212	36180.09
666.562	36045.41
666.912	36010.15
667.262	35950.95
667.612	35974
667.962	35955.69
668.312	36113.65
668.662	36084.96
669.011	35920.21
669.361	35926.32
669.711	35808.13
670.06	35828.69
670.41	35862.36
670.76	35679.77
671.109	35865.98
671.459	35817.84
671.808	35781.91
672.157	35937.39
672.507	35709.15
672.856	35672.99
673.205	35732.65
673.554	35774.91
673.904	35604.74
674.253	35860.78
674.602	35635.02
674.951	35254.24
675.3	35023.74
675.649	35562.71
675.998	35719.32
676.346	35574.91
676.695	35699.65
677.044	35356.16
677.393	35585.76
677.741	35588.92
678.09	35581.69
678.438	35436.38
678.787	35491.3
679.135	35489.04
679.484	35305.77
679.832	35487.46
680.181	35287.01
680.529	35352.77
680.877	35196.84
681.225	35292.43
681.573	35420.57
681.922	35190.29
682.27	34992.33
682.618	35172.66
682.966	34951.88
683.314	35160.23
683.661	35038.65
684.009	34780.36
684.357	34828.49
684.705	34838.66
685.053	34822.62
685.4	34735.84
685.748	34546.46
686.095	34542.62
686.443	34318.67
686.79	34378.79
687.138	34442.06
687.485	34539.46
687.832	34223.31
688.18	34454.26
688.527	34052.92
688.874	34076.87
689.221	34147.83
689.568	34036.42
689.915	34040.26
690.262	33897.67
690.609	33835.3
690.956	33510.33
691.303	33714.17
691.65	33546.49
691.997	33527.73
692.344	33287.51
692.69	33298.81
693.037	33384.46
693.383	33084.58
693.73	33172.72
694.077	33074.86
694.423	33004.36
694.769	32830.13
695.116	32771.37
695.462	32832.61
695.808	32689.34
696.155	32701.32
696.501	32410.93
696.847	32464.26
697.193	32158.5
697.539	32310.14
697.885	32042.8
698.231	32035.34
698.577	31955.12
698.923	32004.61
699.269	31827.89
699.614	31670.38
699.96	31724.39
700.306	31610.5
700.651	31587.45
700.997	31538.18
701.342	31445.98
701.688	31404.4
702.033	31355.36
702.379	31346.1
702.724	31253.22
703.069	31357.4
703.415	30833.34
703.76	30911.31
704.105	30900.01
704.45	30832.21
704.795	30635.61
705.14	30620.24
705.485	30528.27
705.83	30522.84
706.175	30497.53
706.52	30370.08
706.865	30213.47
707.209	30151.55
707.554	30175.96
707.899	30241.94
708.243	29961.5
708.588	29917.43
708.932	29787.27
709.277	29721.73
709.621	29790.66
709.966	29650.77
710.31	29676.31
710.654	29475.64
710.998	29511.79
711.342	29502.76
711.687	29463.66
712.031	29307.51
712.375	29202.88
712.719	29209.2
713.063	29153.84
713.407	29325.58
713.75	29041.3
714.094	29045.59
714.438	28898.93
714.782	28966.27
715.125	28854.18
715.469	28793.4
715.812	28653.06
716.156	28624.36
716.499	28499.17
716.843	28652.16
717.186	28468.21
717.53	28611.71
717.873	28482.22
718.216	28400.64
718.559	28277.02
718.902	28240.64
719.246	28239.06
719.589	28128.1
719.932	28148.21
720.275	28032.74
720.617	28131.72
720.96	28011.27
721.303	27948.9
721.646	27953.42
721.989	27825.74
722.331	27892.63
722.674	27750.03
723.016	27741.9
723.359	27658.51
723.701	27672.75
724.044	27478.18
724.386	27483.15
724.729	27595.91
725.071	27464.16
725.413	27493.99
725.755	27458.97
726.097	27181.91
726.439	27119.99
726.782	27215.36
727.124	27301.68
727.465	27095.59
727.807	27024.18
728.149	27005.87
728.491	26861.24
728.833	26966.32
729.175	26935.59
729.516	26837.51
729.858	26829.83
730.199	26801.13
730.541	26696.05
730.882	26665.54
731.224	26779.89
731.565	26603.85
731.906	26563.85
732.248	26626.22
732.589	26435.49
732.93	26339.22
733.271	26449.95
733.612	26481.37
733.953	26374.7
734.294	26231.65
734.635	26253.35
734.976	26321.14
735.317	26226.68
735.658	26187.59
735.999	26224.65
736.339	26080.25
736.68	26166.35
737.021	26085.9
737.361	25947.37
737.702	26047.48
738.042	25926.13
738.383	25916.41
738.723	26058.1
739.063	25834.38
739.404	25829.86
739.744	25750.31
740.084	25667.83
740.424	25706.47
740.764	25753.48
741.104	25750.54
741.444	25629.86
741.784	25474.16
742.124	25516.42
742.464	25511
742.804	25381.51
743.143	25445.01
743.483	25394.39
743.823	25251.79
744.162	25324.56
744.502	25317.78
744.841	25188.52
745.181	25305.13
745.52	25075.3
745.86	25118.24
746.199	25108.75
746.538	25094.06
746.877	25196.88
747.216	24967.96
747.556	24924.8
747.895	24943.55
748.234	24854.97
748.573	24815.19
748.911	24686.16
749.25	24665.14
749.589	24701.75
749.928	24642.09
750.267	24765.03
750.605	24577.91
750.944	24509.67
751.283	24460.85
751.621	24591.7
751.96	24345.38
752.298	24401.19
752.636	24354.64
752.975	24112.16
753.313	24118.49
753.651	24320.07
753.989	24101.77
754.327	23951.94
754.666	23962.56
755.004	23904.71
755.342	23950.81
755.679	23863.36
756.017	23748.78
756.355	23826.07
756.693	23696.58
757.031	23738.16
757.368	23582.01
757.706	23593.98
758.044	23540.2
758.381	23536.58
758.719	23389.7
759.056	23335.23
759.394	23296.82
