Data from hue_220_FLMS001491_00065.txt Node
Date: Tue Feb 07 16:39:47 GMT 2017
User: dcchb
Spectrometer: FLMS00149
Trigger mode: 0
Integration Time (sec): 2.000000E-2
Scans to average: 10
Electric dark correction enabled: true
Nonlinearity correction enabled: false
Boxcar width: 0
XAxis mode: Wavelengths
Number of Pixels in Spectrum: 2048
>>>>>Begin Spectral Data<<<<<
341.393	-22.47
341.776	-22.47
342.16	-22.47
342.543	-58.18
342.927	-64.28
343.31	-69.7
343.693	-67.22
344.077	-64.05
344.46	-41.91
344.843	-57.72
345.226	-44.17
345.61	-17.5
345.993	-23.15
346.376	22.5
346.759	12.1
347.142	9.84
347.525	39.45
347.908	57.53
348.291	76.06
348.674	68.6
349.057	99.33
349.44	114.47
349.823	122.38
350.206	163.74
350.588	184.3
350.971	214.36
351.354	209.39
351.737	225.66
352.119	235.6
352.502	256.62
352.884	262.49
353.267	290.29
353.65	275.83
354.032	295.26
354.414	309.95
354.797	314.92
355.179	299.55
355.562	321.47
355.944	321.7
356.326	310.4
356.709	304.53
357.091	314.02
357.473	317.18
357.855	321.47
358.238	331.87
358.62	333.45
359.002	361.02
359.384	329.38
359.766	338.65
360.148	341.59
360.53	342.27
360.912	340.68
361.294	321.7
361.676	327.35
362.057	308.14
362.439	315.83
362.821	303.17
363.203	328.48
363.584	311.31
363.966	317.18
364.348	296.16
364.729	313.34
365.111	294.13
365.493	314.24
365.874	307.92
366.256	305.88
366.637	302.72
367.019	308.37
367.4	313.11
367.781	318.54
368.163	304.98
368.544	309.27
368.925	295.03
369.306	336.62
369.688	297.07
370.069	304.75
370.45	325.54
370.831	321.93
371.212	293.23
371.593	304.3
371.974	325.99
372.355	305.2
372.736	312.66
373.117	315.37
373.498	313.34
373.879	303.85
374.26	291.19
374.641	289.39
375.021	295.03
375.402	295.26
375.783	316.5
376.163	327.35
376.544	331.19
376.925	324.41
377.305	301.59
377.686	336.84
378.066	313.34
378.447	323.06
378.827	322.15
379.208	304.75
379.588	336.16
379.968	314.7
380.349	311.98
380.729	315.37
381.109	341.59
381.489	333
381.87	315.6
382.25	312.66
382.63	328.48
383.01	335.03
383.39	339.33
383.77	320.12
384.15	307.46
384.53	341.59
384.91	348.82
385.29	338.42
385.67	330.51
386.049	333.9
386.429	337.07
386.809	333
387.189	347.01
387.568	344.98
387.948	322.38
388.328	337.07
388.707	358.54
389.087	333.23
389.466	353.79
389.846	333
390.225	366.45
390.605	350.85
390.984	380.68
391.363	346.78
391.743	363.51
392.122	377.74
392.501	356.73
392.881	364.86
393.26	365.09
393.639	371.42
394.018	362.83
394.397	367.12
394.776	358.54
395.155	359.21
395.534	391.08
395.913	397.18
396.292	389.04
396.671	386.11
397.05	377.07
397.429	375.71
397.808	384.75
398.186	398.08
398.565	383.17
398.944	404.41
399.323	389.5
399.701	389.5
400.08	401.47
400.458	403.96
400.837	411.42
401.215	401.92
401.594	400.57
401.972	412.55
402.351	387.24
402.729	408.93
403.107	420.23
403.486	423.17
403.864	407.35
404.242	421.13
404.62	438.08
404.999	437.63
405.377	433.79
405.755	460
406.133	461.58
406.511	447.8
406.889	470.4
407.267	439.21
407.645	448.93
408.023	447.57
408.401	491.64
408.779	455.26
409.156	492.54
409.534	481.47
409.912	495.71
410.29	486.67
410.667	485.31
411.045	498.87
411.422	528.47
411.8	535.48
412.178	520.11
412.555	547.01
412.933	536.16
413.31	554.24
413.687	555.14
414.065	574.8
414.442	560.56
414.819	585.87
415.197	580
415.574	610.51
415.951	605.53
416.328	610.96
416.705	602.6
417.082	636.49
417.46	633.56
417.837	624.07
418.214	669.26
418.591	642.82
418.967	675.59
419.344	664.97
419.721	679.21
420.098	683.05
420.475	704.74
420.852	741.35
421.228	704.06
421.605	707.23
421.982	741.35
422.358	755.59
422.735	768.02
423.111	778.86
423.488	802.14
423.864	810.73
424.241	832.42
424.617	806.21
424.994	838.3
425.37	845.53
425.746	850.73
426.123	887.11
426.499	849.6
426.875	878.52
427.251	912.65
427.627	933.66
428.003	923.27
428.379	940.89
428.756	923.04
429.132	941.8
429.507	979.76
429.883	992.87
430.259	1009.37
430.635	989.48
431.011	1035.81
431.387	1048.24
431.763	1052.3
432.138	1071.51
432.514	1080.1
432.89	1092.08
433.265	1126.43
433.641	1157.61
434.016	1152.87
434.392	1163.49
434.767	1188.34
435.143	1196.25
435.518	1226.99
435.894	1261.56
436.269	1273.77
436.644	1296.14
437.02	1315.12
437.395	1300.43
437.77	1344.72
438.145	1379.3
438.52	1386.53
438.895	1415.46
439.271	1443.25
439.646	1475.34
440.021	1476.25
440.395	1522.8
440.77	1509.47
441.145	1522.8
441.52	1532.52
441.895	1593.08
442.27	1590.82
442.645	1575.23
443.019	1585.17
443.394	1603.25
443.769	1638.73
444.143	1652.97
444.518	1674.89
444.892	1668.33
445.267	1704.72
445.641	1717.6
446.016	1739.06
446.39	1738.84
446.764	1763.02
447.139	1756.24
447.513	1778.84
447.887	1782.45
448.262	1805.05
448.636	1819.29
449.01	1798.72
449.384	1876.69
449.758	1856.58
450.132	1885.28
450.506	1879.17
450.88	1886.41
451.254	1886.41
451.628	1942.45
452.002	1912.62
452.376	1976.12
452.75	2002.11
453.123	1983.13
453.497	2004.82
453.871	2054.08
454.244	2051.37
454.618	2082.11
454.992	2084.82
455.365	2100.41
455.739	2177.92
456.112	2206.62
456.486	2175.44
456.859	2218.6
457.232	2256.79
457.606	2264.7
457.979	2285.94
458.352	2346.51
458.725	2338.37
459.099	2359.84
459.472	2387.18
459.845	2380.63
460.218	2442.55
460.591	2437.35
460.964	2444.81
461.337	2499.5
461.71	2568.42
462.083	2598.93
462.456	2569.55
462.829	2577.69
463.201	2634.63
463.574	2643.45
463.947	2664.01
464.32	2785.36
464.692	2732.26
465.065	2758.02
465.438	2772.48
465.81	2818.81
466.183	2846.15
466.555	2933.61
466.928	2932.48
467.3	2940.84
467.672	3009.77
468.045	3038.01
468.417	3007.96
468.789	3061.29
469.161	3071.68
469.534	3111.91
469.906	3200.49
470.278	3208.18
470.65	3247.5
471.022	3284.33
471.394	3363.65
471.766	3348.06
472.138	3406.14
472.51	3469.64
472.882	3499.92
473.253	3523.2
473.625	3598.45
473.997	3652.69
474.369	3656.53
474.74	3687.04
475.112	3763.42
475.484	3855.17
475.855	3824.43
476.227	3903.53
476.598	4007.93
476.97	3993.24
477.341	4075.73
477.713	4167.7
478.084	4173.12
478.455	4308.71
478.827	4259
479.198	4367.24
479.569	4387.36
479.94	4501.03
480.311	4539.44
480.682	4620.34
481.053	4723.17
481.424	4744.41
481.795	4862.37
482.166	4846.55
482.537	4909.83
482.908	4989.37
483.279	5056.72
483.65	5077.73
484.021	5190.5
484.391	5247.9
484.762	5310.72
485.133	5357.95
485.503	5376.71
485.874	5479.53
486.244	5523.15
486.615	5606.08
486.985	5606.31
487.356	5708.68
487.726	5715.68
488.097	5883.59
488.467	5885.62
488.837	5978.05
489.207	6037.71
489.578	6109.57
489.948	6140.76
490.318	6279.28
490.688	6261.21
491.058	6288.32
491.428	6358.38
491.798	6447.64
492.168	6557.24
492.538	6554.53
492.908	6623.46
493.278	6683.57
493.648	6700.52
494.017	6754.53
494.387	6760.4
494.757	6839.04
495.126	6884.69
495.496	6892.38
495.866	6962.43
496.235	6986.84
496.605	7066.38
496.974	7105.7
497.344	7104.57
497.713	7136.89
498.082	7118.13
498.452	7185.25
498.821	7237.22
499.19	7281.97
499.559	7316.09
499.928	7331.23
500.298	7370.78
500.667	7421.4
501.036	7421.4
501.405	7389.99
501.774	7456.65
502.143	7505.92
502.512	7498.69
502.88	7552.24
503.249	7545.69
503.618	7530.78
503.987	7665.46
504.356	7638.8
504.724	7711.11
505.093	7665.91
505.462	7645.35
505.83	7735.52
506.199	7721.28
506.567	7808.06
506.936	7761.28
507.304	7874.95
507.672	7836.53
508.041	7934.38
508.409	7900.71
508.777	7942.52
509.145	7952.23
509.514	8004.66
509.882	7976.41
510.25	7957.43
510.618	7999.24
510.986	8010.99
511.354	8017.09
511.722	8073.59
512.09	8155.62
512.458	8106.58
512.826	8089.86
513.193	8150.87
513.561	8106.35
513.929	8150.42
514.297	8199.46
514.664	8199.23
515.032	8210.98
515.4	8235.39
515.767	8255.73
516.135	8262.96
516.502	8206.47
516.869	8287.59
517.237	8293.47
517.604	8177.09
517.972	8256.18
518.339	8330.53
518.706	8273.81
519.073	8282.17
519.44	8269.74
519.808	8329.63
520.175	8257.09
520.542	8316.29
520.909	8371.88
521.276	8293.47
521.643	8335.5
522.009	8358.78
522.376	8364.43
522.743	8387.93
523.11	8399.91
523.477	8446.23
523.843	8453.24
524.21	8477.64
524.577	8476.74
524.943	8499.56
525.31	8445.78
525.676	8520.13
526.043	8524.42
526.409	8503.41
526.776	8579.34
527.142	8475.61
527.508	8541.6
527.874	8514.93
528.241	8573.69
528.607	8485.33
528.973	8686.68
529.339	8540.69
529.705	8527.13
530.071	8502.05
530.437	8545.89
530.803	8539.56
531.169	8575.27
531.535	8501.6
531.901	8526.23
532.267	8446.46
532.632	8574.14
532.998	8502.28
533.364	8513.12
533.73	8447.36
534.095	8478.55
534.461	8481.49
534.826	8468.61
535.192	8500.24
535.557	8465.22
535.923	8454.82
536.288	8434.26
536.653	8476.06
537.019	8348.83
537.384	8338.89
537.749	8344.99
538.114	8283.53
538.479	8282.62
538.845	8272.68
539.21	8219.57
539.575	8148.61
539.94	8192.68
540.305	8183.41
540.67	8167.82
541.034	8158.56
541.399	8163.3
541.764	8102.74
542.129	8105.9
542.494	8038.33
542.858	8081.27
543.223	8095.73
543.587	8016.64
543.952	7979.35
544.316	7939.81
544.681	7896.42
545.045	7873.14
545.41	7903.65
545.774	7820.94
546.138	7855.51
546.503	7822.97
546.867	7819.13
547.231	7744.78
547.595	7771
547.959	7753.6
548.324	7738.68
548.688	7730.32
549.052	7738.45
549.416	7647.61
549.779	7647.84
550.143	7592.92
550.507	7598.8
550.871	7622.3
551.235	7586.59
551.599	7593.15
551.962	7500.72
552.326	7547.95
552.689	7510.44
553.053	7480.61
553.417	7438.12
553.78	7528.97
554.143	7450.33
554.507	7438.8
554.87	7368.97
555.234	7450.78
555.597	7366.26
555.96	7339.6
556.323	7346.6
556.686	7380.72
557.05	7324
557.413	7286.04
557.776	7306.83
558.139	7341.85
558.502	7330.1
558.865	7276.09
559.228	7353.61
559.59	7355.19
559.953	7254.17
560.316	7331.23
560.679	7335.98
561.041	7271.12
561.404	7273.61
561.767	7333.27
562.129	7269.09
562.492	7280.16
562.854	7246.04
563.217	7235.19
563.579	7258.92
563.941	7300.73
564.304	7321.74
564.666	7326.04
565.028	7335.75
565.39	7328.75
565.753	7324.91
566.115	7338.01
566.477	7357.45
566.839	7320.61
567.201	7360.84
567.563	7395.86
567.925	7381.85
568.287	7398.58
568.648	7381.85
569.01	7389.09
569.372	7448.29
569.734	7368.07
570.095	7405.81
570.457	7450.55
570.819	7460.27
571.18	7409.65
571.542	7406.94
571.903	7413.72
572.265	7523.77
572.626	7514.73
572.987	7490.33
573.349	7465.47
573.71	7554.96
574.071	7564.67
574.432	7544.11
574.794	7599.25
575.155	7611.9
575.516	7538.01
575.877	7638.12
576.238	7614.16
576.599	7680.83
576.96	7706.59
577.32	7684.44
577.681	7674.28
578.042	7670.43
578.403	7719.25
578.763	7688.51
579.124	7693.71
579.485	7752.01
579.845	7757.66
580.206	7723.54
580.566	7799.92
580.927	7770.09
581.287	7774.39
581.648	7838.11
582.008	7804.44
582.368	7782.97
582.728	7809.19
583.089	7849.64
583.449	7836.53
583.809	7827.72
584.169	7848.06
584.529	7878.79
584.889	7900.71
585.249	7903.42
585.609	7854.61
585.969	7887.83
586.329	7945.68
586.688	7965.79
587.048	7954.49
587.408	7934.61
587.768	7961.95
588.127	7977.77
588.487	7971.44
588.846	8067.03
589.206	8046.7
589.565	8028.62
589.925	8112
590.284	8121.5
590.643	8159.91
591.003	8080.82
591.362	8147.03
591.721	8120.14
592.08	8118.11
592.44	8128.05
592.799	8180.93
593.158	8172.34
593.517	8173.25
593.876	8194.04
594.235	8165.56
594.593	8151.33
594.952	8182.28
595.311	8163.3
595.67	8226.13
596.029	8241.49
596.387	8233.81
596.746	8242.85
597.104	8307.03
597.463	8236.07
597.822	8294.82
598.18	8219.35
598.538	8293.47
598.897	8301.83
599.255	8234.26
599.613	8291.89
599.972	8296.18
600.33	8318.1
600.688	8281.27
601.046	8325.78
601.404	8301.38
601.762	8297.76
602.12	8394.03
602.478	8333.24
602.836	8394.48
603.194	8321.72
603.552	8309.74
603.91	8329.4
604.268	8348.38
604.625	8298.21
604.983	8375.5
605.341	8343.86
605.698	8357.87
606.056	8346.12
606.413	8383.64
606.771	8358.1
607.128	8410.3
607.485	8432.67
607.843	8386.12
608.2	8416.85
608.557	8423.63
608.914	8498.21
609.272	8489.85
609.629	8443.97
609.986	8537.3
610.343	8554.25
610.7	8576.17
611.057	8476.29
611.414	8457.31
611.771	8483.52
612.127	8522.39
612.484	8565.1
612.841	8576.17
613.198	8530.52
613.554	8542.28
613.911	8586.57
614.267	8546.34
614.624	8534.37
614.98	8576.17
615.337	8609.39
615.693	8624.53
616.05	8618.43
616.406	8614.14
616.762	8667.92
617.118	8630.63
617.475	8665.66
617.831	8639.22
618.187	8587.25
618.543	8648.26
618.899	8732.1
619.255	8683.97
619.611	8715.83
619.967	8692.78
620.323	8716.06
620.678	8668.37
621.034	8663.4
621.39	8693.91
621.746	8680.12
622.101	8751.54
622.457	8754.47
622.812	8737.07
623.168	8703.4
623.523	8704.76
623.879	8667.7
624.234	8651.43
624.589	8717.64
624.945	8709.5
625.3	8703.18
625.655	8658.66
626.01	8727.58
626.365	8737.75
626.72	8697.07
627.075	8699.56
627.43	8617.08
627.785	8682.84
628.14	8675.15
628.495	8694.14
628.85	8615.49
629.205	8655.72
629.559	8698.2
629.914	8679.22
630.269	8670.18
630.623	8638.54
630.978	8598.09
631.332	8657.98
631.687	8611.65
632.041	8607.81
632.396	8593.57
632.75	8544.31
633.104	8570.07
633.459	8589.96
633.813	8531.43
634.167	8585.44
634.521	8509.28
634.875	8554.93
635.229	8507.93
635.583	8467.48
635.937	8464.99
636.291	8461.6
636.645	8456.85
636.999	8400.81
637.352	8488.94
637.706	8443.75
638.06	8497.08
638.413	8405.33
638.767	8406.46
639.121	8422.5
639.474	8407.36
639.828	8407.36
640.181	8384.31
640.534	8401.26
640.888	8415.05
641.241	8367.36
641.594	8360.36
641.947	8403.97
642.301	8372.11
642.654	8423.41
643.007	8416.4
643.36	8336.86
643.713	8400.36
644.066	8335.05
644.419	8364.88
644.771	8221.83
645.124	8175.51
645.477	8156.3
645.83	8168.5
646.182	8081.27
646.535	8121.27
646.888	8139.12
647.24	8060.71
647.593	8083.53
647.945	8056.19
648.298	8032.68
648.65	8109.74
649.002	8046.7
649.355	8118.11
649.707	8057.54
650.059	8068.39
650.411	8232.9
650.763	8168.73
651.115	8290.08
651.467	8269.29
651.819	8265.22
652.171	8230.42
652.523	8139.12
652.875	8161.72
653.227	8242.4
653.578	8265.22
653.93	8228.84
654.282	8228.84
654.633	8179.35
654.985	8164.66
655.337	8222.06
655.688	8273.58
656.039	8225
656.391	8140.03
656.742	8187.48
657.094	8229.06
657.445	8232
657.796	8227.26
658.147	8248.5
658.498	8225
658.849	8247.82
659.2	8274.94
659.551	8264.99
659.902	8278.78
660.253	8307.71
660.604	8333.92
660.955	8221.15
661.306	8267.48
661.656	8315.16
662.007	8220.93
662.358	8314.48
662.708	8239.91
663.059	8311.32
663.409	8232.9
663.76	8259.57
664.11	8278.1
664.461	8350.87
664.811	8281.04
665.161	8312.45
665.511	8328.04
665.862	8300.93
666.212	8324.2
666.562	8355.39
666.912	8364.88
667.262	8356.74
667.612	8268.16
667.962	8341.83
668.312	8352.68
668.662	8342.28
669.011	8378.66
669.361	8358.55
669.711	8294.82
670.06	8375.5
670.41	8305.22
670.76	8282.85
671.109	8316.97
671.459	8269.51
671.808	8284.43
672.157	8326.69
672.507	8295.73
672.856	8289.63
673.205	8247.82
673.554	8307.71
673.904	8278.78
674.253	8245.11
674.602	8207.14
674.951	8161.72
675.3	8134.6
675.649	8218.22
675.998	8215.5
676.346	8220.48
676.695	8215.73
677.044	8169.86
677.393	8184.32
677.741	8166.69
678.09	8178.44
678.438	8141.61
678.787	8152
679.135	8131.44
679.484	8070.2
679.832	8136.64
680.181	8069.07
680.529	8042.63
680.877	8081.95
681.225	8009.63
681.573	8105.22
681.922	7975.06
682.27	8024.1
682.618	7991.78
682.966	7973.93
683.314	7940.94
683.661	8003.98
684.009	7964.66
684.357	7911.11
684.705	7880.15
685.053	7864.78
685.4	7864.1
685.748	7864.78
686.095	7852.35
686.443	7772.8
686.79	7801.5
687.138	7757.21
687.485	7780.71
687.832	7755.4
688.18	7747.72
688.527	7695.74
688.874	7643.99
689.221	7691
689.568	7600.61
689.915	7629.76
690.262	7626.14
690.609	7562.19
690.956	7549.76
691.303	7553.83
691.65	7537.33
691.997	7519.03
692.344	7495.98
692.69	7462.53
693.037	7455.75
693.383	7387.96
693.73	7378.69
694.077	7353.61
694.423	7348.18
694.769	7277.9
695.116	7250.78
695.462	7253.72
695.808	7264.12
696.155	7208.53
696.501	7173.95
696.847	7168.98
697.193	7174.85
697.539	7134.18
697.885	7079.94
698.231	7066.61
698.577	7075.65
698.923	7039.49
699.269	6974.86
699.614	6892.15
699.96	6930.11
700.306	6928.08
700.651	6901.19
700.997	6855.54
701.342	6870.23
701.688	6868.65
702.033	6765.15
702.379	6723.57
702.724	6749.55
703.069	6802.66
703.415	6679.05
703.76	6711.14
704.105	6617.58
704.45	6641.99
704.795	6610.35
705.14	6589.78
705.485	6592.5
705.83	6519.96
706.175	6550.69
706.52	6512.27
706.865	6508.43
707.209	6456.45
707.554	6439.28
707.899	6473.86
708.243	6404.03
708.588	6396.34
708.932	6343.92
709.277	6377.81
709.621	6379.62
709.966	6264.6
710.31	6318.38
710.654	6274.31
710.998	6256.01
711.342	6222.34
711.687	6179.63
712.031	6193.86
712.375	6195.67
712.719	6176.46
713.063	6198.16
713.407	6233.18
713.75	6159.29
714.094	6163.81
714.438	6169.23
714.782	6129.91
715.125	6084.26
715.469	6143.47
715.812	6121.55
716.156	6083.13
716.499	6045.39
716.843	6067.76
717.186	6062.34
717.53	6066.18
717.873	6108.67
718.216	6006.3
718.559	6018.95
718.902	5978.95
719.246	6020.53
719.589	5983.47
719.932	5994.55
720.275	5981.89
720.617	5973.53
720.96	5921.33
721.303	5964.72
721.646	5959.74
721.989	5914.77
722.331	5920.42
722.674	5953.42
723.016	5916.81
723.359	5948.22
723.701	5952.29
724.044	5884.27
724.386	5897.83
724.729	5888.79
725.071	5906.41
725.413	5818.51
725.755	5866.19
726.097	5853.31
726.439	5819.64
726.782	5808.11
727.124	5876.36
727.465	5818.96
727.807	5890.37
728.149	5835.45
728.491	5798.39
728.833	5868.9
729.175	5832.06
729.516	5836.13
729.858	5792.52
730.199	5807.43
730.541	5814.89
730.882	5854.66
731.224	5891.72
731.565	5768.56
731.906	5820.31
732.248	5852.4
732.589	5846.75
732.93	5817.15
733.271	5824.61
733.612	5763.82
733.953	5864.15
734.294	5836.58
734.635	5868.9
734.976	5851.95
735.317	5820.09
735.658	5851.05
735.999	5785.96
736.339	5845.62
736.68	5854.66
737.021	5795.45
737.361	5791.16
737.702	5878.16
738.042	5846.3
738.383	5852.4
738.723	5898.5
739.063	5855.57
739.404	5915.45
739.744	5898.28
740.084	5933.08
740.424	5920.42
740.764	5910.25
741.104	5989.35
741.444	5914.1
741.784	5913.87
742.124	6050.82
742.464	5996.35
742.804	5961.33
743.143	6047.65
743.483	6067.31
743.823	6028.67
744.162	6066.41
744.502	6070.02
744.841	6123.58
745.181	6167.65
745.52	6141.21
745.86	6252.39
746.199	6240.42
746.538	6258.72
746.877	6330.58
747.216	6331.03
747.556	6389.79
747.895	6491.26
748.234	6509.11
748.573	6528.09
748.911	6592.04
749.25	6617.35
749.589	6657.58
749.928	6728.99
750.267	6792.72
750.605	6925.59
750.944	6916.56
751.283	6992.49
751.621	7155.87
751.96	7124.46
752.298	7256.43
752.636	7281.74
752.975	7404.45
753.313	7461.17
753.651	7630.21
753.989	7671.34
754.327	7821.84
754.666	7896.19
755.004	8023.87
755.342	8136.64
755.679	8259.34
756.017	8412.11
756.355	8499.34
756.693	8616.62
757.031	8816.84
757.368	8872.21
757.706	8990.17
758.044	9099.1
758.381	9372.08
758.719	9505.41
759.056	9660.66
759.394	9817.72
759.731	9834.44
760.068	10043.48
760.405	10200.31
760.743	10343.81
761.08	10517.36
761.417	10654.99
761.754	10875.77
762.091	11027.86
762.428	11222.43
762.765	11318.93
763.102	11539.03
763.438	11603.89
763.775	11848.63
764.112	11982.86
764.449	12206.59
764.785	12338.33
765.122	12530.65
765.458	12648.16
765.795	12761.83
766.131	12950.3
766.467	13007.02
766.804	13207.46
767.14	13337.18
767.476	13535.59
767.812	13674.12
768.148	13873.21
768.485	13899.65
768.821	13980.78
769.157	14153.43
