Data from hue_240_FLMS001491_00084.txt Node
Date: Tue Feb 07 16:36:04 GMT 2017
User: dcchb
Spectrometer: FLMS00149
Trigger mode: 0
Integration Time (sec): 2.000000E-2
Scans to average: 10
Electric dark correction enabled: true
Nonlinearity correction enabled: false
Boxcar width: 0
XAxis mode: Wavelengths
Number of Pixels in Spectrum: 2048
>>>>>Begin Spectral Data<<<<<
341.393	-24.17
341.776	-24.17
342.16	-24.17
342.543	-43.83
342.927	-73.2
343.31	-60.78
343.693	-60.78
344.077	-79.98
344.46	-50.61
344.843	-45.18
345.226	-36.82
345.61	-26.65
345.993	-24.62
346.376	-4.73
346.759	22.16
347.142	27.58
347.525	59.9
347.908	51.99
348.291	70.75
348.674	71.65
349.057	86.11
349.44	130.18
349.823	150.97
350.206	172.44
350.588	197.52
350.971	213.12
351.354	238.2
351.737	233.68
352.119	247.01
352.502	274.36
352.884	263.74
353.267	271.87
353.65	299.44
354.032	305.09
354.414	281.81
354.797	286.56
355.179	320.46
355.562	317.07
355.944	309.61
356.326	328.59
356.709	325.2
357.091	332.21
357.473	333.34
357.855	345.09
358.238	327.01
358.62	338.54
359.002	328.59
359.384	336.5
359.766	329.27
360.148	329.5
360.53	310.06
360.912	332.66
361.294	330.63
361.676	322.72
362.057	328.82
362.439	313
362.821	319.1
363.203	299.89
363.584	308.25
363.966	326.79
364.348	316.39
364.729	335.37
365.111	305.09
365.493	310.51
365.874	308.48
366.256	313.23
366.637	320.68
367.019	314.81
367.4	335.6
367.781	301.93
368.163	303.96
368.544	300.57
368.925	310.29
369.306	293.57
369.688	280.46
370.069	298.31
370.45	321.14
370.831	299.67
371.212	309.16
371.593	292.44
371.974	313.9
372.355	326.33
372.736	300.8
373.117	297.41
373.498	296.5
373.879	317.75
374.26	305.32
374.641	299.67
375.021	303.96
375.402	314.58
375.783	320.23
376.163	318.88
376.544	315.03
376.925	322.04
377.305	313.45
377.686	319.1
378.066	305.32
378.447	312.55
378.827	325.88
379.208	320.23
379.588	314.58
379.968	313
380.349	323.4
380.729	336.28
381.109	337.86
381.489	322.94
381.87	323.17
382.25	346.45
382.63	341.93
383.01	318.2
383.39	317.97
383.77	323.85
384.15	326.11
384.53	324.53
384.91	347.58
385.29	340.8
385.67	324.98
386.049	337.63
386.429	344.41
386.809	329.95
387.189	345.77
387.568	335.37
387.948	338.31
388.328	337.86
388.707	359.78
389.087	351.19
389.466	357.07
389.846	353.45
390.225	351.64
390.605	357.07
390.984	353
391.363	356.61
391.743	371.08
392.122	357.07
392.501	367.69
392.881	365.43
393.26	368.59
393.639	360.91
394.018	377.41
394.397	384.64
394.776	368.37
395.155	370.63
395.534	365.2
395.913	373.79
396.292	384.86
396.671	377.18
397.05	357.07
397.429	386.22
397.808	393.45
398.186	397.74
398.565	391.87
398.944	378.31
399.323	408.59
399.701	381.92
400.08	385.54
400.458	390.06
400.837	415.6
401.215	404.75
401.594	400.68
401.972	399.1
402.351	411.53
402.729	400.68
403.107	398.42
403.486	410.4
403.864	399.1
404.242	410.4
404.62	404.3
404.999	437.74
405.377	403.62
405.755	432.09
406.133	461.47
406.511	447.01
406.889	450.85
407.267	456.73
407.645	451.08
408.023	440.68
408.401	450.17
408.779	470.06
409.156	452.21
409.534	464.86
409.912	468.93
410.29	472.09
410.667	492.66
411.045	508.02
411.422	501.02
411.8	479.32
412.178	494.24
412.555	501.92
412.933	505.54
413.31	552.09
413.687	524.29
414.065	546.67
414.442	533.56
414.819	543.73
415.197	543.05
415.574	555.25
415.951	564.52
416.328	590.51
416.705	582.37
417.082	584.86
417.46	586.89
417.837	588.7
418.214	594.57
418.591	604.74
418.967	622.6
419.344	599.55
419.721	612.88
420.098	620.79
420.475	617.17
420.852	615.14
421.228	622.82
421.605	654.01
421.982	655.14
422.358	675.7
422.735	691.07
423.111	688.36
423.488	707.79
423.864	696.04
424.241	705.53
424.617	723.16
424.994	725.87
425.37	737.17
425.746	741.69
426.123	753.44
426.499	759.09
426.875	792.99
427.251	760.67
427.627	795.02
428.003	784.17
428.379	799.54
428.756	811.29
429.132	828.47
429.507	818.3
429.883	833.66
430.259	868.01
430.635	876.38
431.011	875.47
431.387	886.09
431.763	907.56
432.138	875.02
432.514	919.76
432.89	939.65
433.265	943.27
433.641	961.8
434.016	985.75
434.392	961.34
434.767	984.62
435.143	1004.96
435.518	1009.71
435.894	1036.15
436.269	1027.56
436.644	1052.64
437.02	1062.13
437.395	1093.77
437.77	1098.52
438.145	1094
438.52	1104.84
438.895	1135.13
439.271	1147.33
439.646	1154.79
440.021	1161.11
440.395	1169.7
440.77	1159.53
441.145	1218.51
441.52	1251.51
441.895	1255.12
442.27	1223.94
442.645	1245.63
443.019	1277.95
443.394	1280.66
443.769	1283.6
444.143	1266.87
444.518	1299.41
444.892	1336.02
445.267	1304.61
445.641	1360.66
446.016	1360.2
446.39	1363.82
446.764	1406.3
447.139	1384.38
447.513	1381.67
447.887	1378.73
448.262	1390.49
448.636	1419.86
449.01	1406.76
449.384	1439.98
449.758	1462.57
450.132	1467.32
450.506	1455.34
450.88	1491.5
451.254	1484.49
451.628	1449.24
452.002	1496.92
452.376	1529.24
452.75	1536.92
453.123	1522.23
453.497	1542.35
453.871	1577.6
454.244	1609.24
454.618	1604.04
454.992	1645.17
455.365	1606.07
455.739	1649.01
456.112	1690.37
456.486	1670.7
456.859	1661.67
457.232	1743.25
457.606	1717.71
457.979	1752.51
458.352	1794.77
458.725	1796.13
459.099	1809.23
459.472	1838.61
459.845	1871.83
460.218	1845.84
460.591	1882.9
460.964	1879.74
461.337	1962.45
461.71	1973.3
462.083	1952.05
462.456	1983.92
462.829	2001.09
463.201	2043.12
463.574	2050.58
463.947	2063.46
464.32	2107.08
464.692	2125.61
465.065	2138.71
465.438	2145.95
465.81	2200.18
466.183	2225.94
466.555	2256.23
466.928	2281.76
467.3	2250.12
467.672	2303.68
468.045	2316.56
468.417	2365.15
468.789	2384.58
469.161	2397.92
469.534	2449.67
469.906	2480.4
470.278	2478.14
470.65	2491.02
471.022	2588.65
471.394	2578.7
471.766	2597.23
472.138	2653.05
472.51	2682.66
472.882	2728.08
473.253	2778.02
473.625	2737.57
473.997	2802.65
474.369	2822.54
474.74	2855.08
475.112	2923.55
475.484	2964.23
475.855	2991.12
476.227	2997.9
476.598	3048.3
476.97	3072.02
477.341	3177.78
477.713	3184.11
478.084	3206.71
478.455	3299.14
478.827	3347.95
479.198	3399.92
479.569	3356.99
479.94	3511.33
480.311	3503.88
480.682	3564.67
481.053	3660.71
481.424	3662.97
481.795	3705.45
482.166	3754.94
482.537	3789.97
482.908	3873.81
483.279	3903.87
483.65	3945
484.021	4010.76
484.391	4060.7
484.762	4103.41
485.133	4101.15
485.503	4186.57
485.874	4264.99
486.244	4281.03
486.615	4342.72
486.985	4419.11
487.356	4478.31
487.726	4506.56
488.097	4565.09
488.467	4551.31
488.837	4685.31
489.207	4750.4
489.578	4805.31
489.948	4806.44
490.318	4895.48
490.688	4902.03
491.058	4931.64
491.428	4953.78
491.798	5045.76
492.168	5135.7
492.538	5114.46
492.908	5144.96
493.278	5249.59
493.648	5235.36
494.017	5309.48
494.387	5319.2
494.757	5372.75
495.126	5421.34
495.496	5417.5
495.866	5433.32
496.235	5532.52
496.605	5554.9
496.974	5549.47
497.344	5587.21
497.713	5656.81
498.082	5660.88
498.452	5692.07
498.821	5697.94
499.19	5745.4
499.559	5777.94
499.928	5817.71
500.298	5856.81
500.667	5883.93
501.036	5909.24
501.405	5886.41
501.774	5873.98
502.143	5964.15
502.512	5969.57
502.88	6003.47
503.249	5998.27
503.618	6019.97
503.987	6018.39
504.356	6096.58
504.724	6152.62
505.093	6136.35
505.462	6152.17
505.83	6196.24
506.199	6212.51
506.567	6265.16
506.936	6255.67
507.304	6289.57
507.672	6327.08
508.041	6339.28
508.409	6386.06
508.777	6356.23
509.145	6400.07
509.514	6416.34
509.882	6445.04
510.25	6465.15
510.618	6500.63
510.986	6496.34
511.354	6521.65
511.722	6559.16
512.09	6604.13
512.458	6601.2
512.826	6629.22
513.193	6624.47
513.561	6622.21
513.929	6645.94
514.297	6693.85
514.664	6738.82
515.032	6724.13
515.4	6798.25
515.767	6767.75
516.135	6794.86
516.502	6697.47
516.869	6826.73
517.237	6818.59
517.604	6792.15
517.972	6903.11
518.339	6877.57
518.706	6843.9
519.073	6878.25
519.44	6948.98
519.808	6956.44
520.175	6930.68
520.542	6947.63
520.909	6995.08
521.276	6988.76
521.643	7033.73
522.009	6975.2
522.376	7085.25
522.743	7087.29
523.11	7149.66
523.477	7151.92
523.843	7190.79
524.21	7219.03
524.577	7263.1
524.943	7281.86
525.31	7221.75
525.676	7259.71
526.043	7284.34
526.409	7254.29
526.776	7382.19
527.142	7357.56
527.508	7330.89
527.874	7318.24
528.241	7410.44
528.607	7353.49
528.973	7421.06
529.339	7376.77
529.705	7441.4
530.071	7470.1
530.437	7484.79
530.803	7412.93
531.169	7509.42
531.535	7490.21
531.901	7446.6
532.267	7482.98
532.632	7460.61
532.998	7535.41
533.364	7501.74
533.73	7454.51
534.095	7501.06
534.461	7560.49
534.826	7575.86
535.192	7513.49
535.557	7541.28
535.923	7502.42
536.288	7530.21
536.653	7513.49
537.019	7523.21
537.384	7516.43
537.749	7445.02
538.114	7460.83
538.479	7451.57
538.845	7489.99
539.21	7442.53
539.575	7419.93
539.94	7442.76
540.305	7504.22
540.67	7401.63
541.034	7416.54
541.399	7469.87
541.764	7489.76
542.129	7470.55
542.494	7430.78
542.858	7445.92
543.223	7393.94
543.587	7404.79
543.952	7369.54
544.316	7401.85
544.681	7391.68
545.045	7405.02
545.41	7382.64
545.774	7384.45
546.138	7432.14
546.503	7396.66
546.867	7369.09
547.231	7412.02
547.595	7334.51
547.959	7388.07
548.324	7358.24
548.688	7330.22
549.052	7290.67
549.416	7294.74
549.779	7336.77
550.143	7275.98
550.507	7316.21
550.871	7307.84
551.235	7230.78
551.599	7326.6
551.962	7270.33
552.326	7342.42
552.689	7340.39
553.053	7231.24
553.417	7251.12
553.78	7313.27
554.143	7293.83
554.507	7247.28
554.87	7284.79
555.234	7358.69
555.597	7278.69
555.96	7295.64
556.323	7325.92
556.686	7275.98
557.05	7295.87
557.413	7290.44
557.776	7354.17
558.139	7350.1
558.502	7361.4
558.865	7373.83
559.228	7333.15
559.59	7391.91
559.953	7366.6
560.316	7475.52
560.679	7377.67
561.041	7403.89
561.404	7436.2
561.767	7465.58
562.129	7413.38
562.492	7509.65
562.854	7485.92
563.217	7424.68
563.579	7488.4
563.941	7546.48
564.304	7495.64
564.666	7522.08
565.028	7566.14
565.39	7579.7
565.753	7598.91
566.115	7640.49
566.477	7640.04
566.839	7714.39
567.201	7724.33
567.563	7614.5
567.925	7715.52
568.287	7734.05
568.648	7742.41
569.01	7748.74
569.372	7804.55
569.734	7756.87
570.095	7830.77
570.457	7800.71
570.819	7867.38
571.18	7815.85
571.542	7859.24
571.903	7874.61
572.265	7880.03
572.626	7898.79
572.987	8001.84
573.349	7946.92
573.71	8012.46
574.071	7972.91
574.432	7934.49
574.794	8011.33
575.155	8016.3
575.516	8021.27
575.877	8070.99
576.238	8120.7
576.599	8038.22
576.96	8121.61
577.32	8105.11
577.681	8160.25
578.042	8140.59
578.403	8136.98
578.763	8191.66
579.124	8207.71
579.485	8202.96
579.845	8238.44
580.206	8223.07
580.566	8243.64
580.927	8269.85
581.287	8297.2
581.648	8278.89
582.008	8326.57
582.368	8309.17
582.728	8366.57
583.089	8355.05
583.449	8272.79
583.809	8369.06
584.169	8366.8
584.529	8326.8
584.889	8355.05
585.249	8336.29
585.609	8376.74
585.969	8379.45
586.329	8429.85
586.688	8433.46
587.048	8439.79
587.408	8370.87
587.768	8461.94
588.127	8452.22
588.487	8408.83
588.846	8497.64
589.206	8418.78
589.565	8502.84
589.925	8484.08
590.284	8498.1
590.643	8524.99
591.003	8497.87
591.362	8548.72
591.721	8596.17
592.08	8555.27
592.44	8556.85
592.799	8550.3
593.158	8513.01
593.517	8499.45
593.876	8549.85
594.235	8506.91
594.593	8519.34
594.952	8562.73
595.311	8583.52
595.67	8503.75
596.029	8622.84
596.387	8604.99
596.746	8623.97
597.104	8604.08
597.463	8602.73
597.822	8615.83
598.18	8591.2
598.538	8582.39
598.897	8674.81
599.255	8550.3
599.613	8663.06
599.972	8580.13
600.33	8690.86
600.688	8659
601.046	8691.09
601.404	8732.89
601.762	8685.89
602.12	8773.79
602.478	8670.52
602.836	8728.15
603.194	8682.05
603.552	8701.48
603.91	8666.9
604.268	8724.53
604.625	8655.61
604.983	8715.94
605.341	8675.94
605.698	8698.54
606.056	8825.32
606.413	8757.75
606.771	8738.09
607.128	8823.96
607.485	8751.2
607.843	8715.94
608.2	8830.06
608.557	8844.53
608.914	8816.28
609.272	8836.39
609.629	8841.59
609.986	8887.92
610.343	8759.56
610.7	8860.12
611.057	8836.84
611.414	8881.81
611.771	8876.84
612.127	8902.38
612.484	8845.21
612.841	8899.44
613.198	8885.88
613.554	8888.37
613.911	8986.44
614.267	8920.01
614.624	8958.65
614.98	8971.98
615.337	9017.4
615.693	9008.59
616.05	8934.69
616.406	9123.62
616.762	8970.63
617.118	8991.87
617.475	9003.39
617.831	8961.81
618.187	9028.93
618.543	9048.36
618.899	9001.81
619.255	9077.06
619.611	9064.18
619.967	9061.47
620.323	9030.29
620.678	9055.6
621.034	8960.91
621.39	8987.57
621.746	9011.53
622.101	9121.36
622.457	9024.64
622.812	8997.74
623.168	9120
623.523	9090.62
623.879	9037.74
624.234	8983.28
624.589	9069.61
624.945	9023.73
625.3	9104.41
625.655	9053.11
626.01	9078.19
626.365	9103.73
626.72	9044.07
627.075	9006.56
627.43	9094.01
627.785	9020.79
628.14	9071.64
628.495	9038.42
628.85	9034.58
629.205	8973.56
629.559	9042.26
629.914	8967.91
630.269	8935.82
630.623	9009.72
630.978	9030.74
631.332	8956.16
631.687	8890.85
632.041	8921.14
632.396	9022.38
632.75	8944.86
633.104	8993.22
633.459	8852.89
633.813	8867.35
634.167	8908.93
634.521	8904.19
634.875	8955.94
635.229	8860.57
635.583	8885.88
635.937	8856.28
636.291	8852.66
636.645	8809.05
636.999	8780.35
637.352	8877.75
637.706	8735.83
638.06	8798.65
638.413	8853.11
638.767	8726.56
639.121	8769.95
639.474	8645.66
639.828	8750.29
640.181	8752.1
640.534	8721.37
640.888	8696.96
641.241	8664.19
641.594	8664.87
641.947	8682.95
642.301	8672.1
642.654	8636.62
643.007	8675.49
643.36	8660.8
643.713	8598.88
644.066	8610.18
644.419	8591.88
644.771	8542.16
645.124	8450.64
645.477	8447.7
645.83	8380.13
646.182	8353.47
646.535	8354.37
646.888	8366.12
647.24	8291.32
647.593	8372
647.945	8387.82
648.298	8303.75
648.65	8282.73
649.002	8268.5
649.355	8336.07
649.707	8297.2
650.059	8443.41
650.411	8453.35
650.763	8419.91
651.115	8460.36
651.467	8569.51
651.819	8506.23
652.171	8496.74
652.523	8469.62
652.875	8444.99
653.227	8415.61
653.578	8460.13
653.93	8400.7
654.282	8416.29
654.633	8426.46
654.985	8425.78
655.337	8448.61
655.688	8439.57
656.039	8526.57
656.391	8368.83
656.742	8434.59
657.094	8406.35
657.445	8461.26
657.796	8401.6
658.147	8353.01
658.498	8403.63
658.849	8448.38
659.2	8432.79
659.551	8412
659.902	8427.14
660.253	8432.33
660.604	8469.62
660.955	8399.12
661.306	8444.99
661.656	8454.93
662.007	8448.38
662.358	8436.18
662.708	8446.57
663.059	8454.26
663.409	8440.02
663.76	8430.53
664.11	8384.65
664.461	8392.56
664.811	8422.84
665.161	8436.18
665.511	8405.22
665.862	8460.36
666.212	8431.2
666.562	8472.33
666.912	8477.76
667.262	8428.49
667.612	8434.59
667.962	8393.01
668.312	8392.34
668.662	8496.51
669.011	8468.49
669.361	8417.19
669.711	8431.43
670.06	8376.97
670.41	8419.45
670.76	8425.56
671.109	8406.35
671.459	8400.92
671.808	8301.72
672.157	8416.52
672.507	8343.75
672.856	8295.84
673.205	8357.31
673.554	8401.6
673.904	8297.65
674.253	8344.88
674.602	8337.65
674.951	8260.59
675.3	8179.46
675.649	8362.51
675.998	8349.17
676.346	8325.22
676.695	8369.06
677.044	8262.85
677.393	8276.86
677.741	8286.58
678.09	8273.24
678.438	8247.03
678.787	8312.56
679.135	8269.63
679.484	8178.33
679.832	8134.26
680.181	8155.96
680.529	8171.1
680.877	8186.92
681.225	8143.53
681.573	8209.52
681.922	8097.65
682.27	8136.98
682.618	8147.6
682.966	8135.85
683.314	8141.27
683.661	8055.4
684.009	8067.82
684.357	8009.52
684.705	8030.54
685.053	8035.06
685.4	7970.2
685.748	7923.42
686.095	7976.3
686.443	7904.21
686.79	7939.24
687.138	7912.12
687.485	7899.69
687.832	7887.49
688.18	7866.02
688.527	7770.88
688.874	7801.62
689.221	7784.22
689.568	7780.83
689.915	7763.2
690.262	7705.12
690.609	7687.72
690.956	7648.85
691.303	7682.07
691.65	7624.9
691.997	7650.66
692.344	7563.66
692.69	7519.14
693.037	7532.47
693.383	7534.28
693.73	7529.76
694.077	7460.61
694.423	7418.58
694.769	7442.08
695.116	7439.37
695.462	7438.69
695.808	7354.4
696.155	7386.03
696.501	7320.5
696.847	7297
697.193	7288.41
697.539	7253.61
697.885	7204.34
698.231	7219.26
698.577	7237.34
698.923	7124.35
699.269	7168.64
699.614	7192.59
699.96	7095.42
700.306	7117.12
700.651	7055.87
700.997	6998.25
701.342	7059.04
701.688	7055.2
702.033	6929.55
702.379	6998.25
702.724	6982.88
703.069	6980.4
703.415	6885.26
703.76	6893.84
704.105	6804.58
704.45	6789.44
704.795	6832.38
705.14	6772.72
705.485	6787.63
705.83	6745.6
706.175	6739.72
706.52	6755.54
706.865	6738.82
707.209	6716.67
707.554	6647.07
707.899	6686.39
708.243	6595.77
708.588	6636.22
708.932	6545.6
709.277	6548.77
709.621	6579.73
709.966	6524.81
710.31	6551.71
710.654	6460.64
710.998	6508.32
711.342	6478.04
711.687	6487.98
712.031	6429.22
712.375	6379.96
712.719	6458.83
713.063	6408.43
713.407	6435.1
713.75	6360.52
714.094	6381.32
714.438	6307.19
714.782	6340.64
715.125	6380.86
715.469	6348.32
715.812	6252.28
716.156	6335.21
716.499	6312.39
716.843	6323.01
717.186	6306.74
717.53	6282.79
717.873	6281.66
718.216	6252.73
718.559	6305.61
718.902	6195.11
719.246	6242.34
719.589	6227.65
719.932	6131.83
720.275	6143.36
720.617	6130.47
720.96	6137.25
721.303	6139.29
721.646	6172.96
721.989	6036.01
722.331	6085.73
722.674	6198.27
723.016	6163.47
723.359	6113.53
723.701	6095.22
724.044	6033.53
724.386	6065.17
724.729	6097.48
725.071	6068.33
725.413	6046.63
725.755	6034.88
726.097	6043.92
726.439	5993.3
726.782	6041.89
727.124	6045.28
727.465	6023.36
727.807	6002.57
728.149	6015.68
728.491	5982.68
728.833	5993.08
729.175	5974.09
729.516	5950.14
729.858	5974.77
730.199	6006.64
730.541	5942.46
730.882	5990.59
731.224	5982.23
731.565	5945.85
731.906	5987.2
732.248	5986.75
732.589	5950.59
732.93	5923.93
733.271	5969.35
733.612	6009.8
733.953	5982.68
734.294	5992.4
734.635	5990.82
734.976	5967.09
735.317	5941.1
735.658	5930.03
735.999	5979.07
736.339	5939.74
736.68	5939.29
737.021	5950.59
737.361	5933.64
737.702	6003.02
738.042	5967.77
738.383	5948.78
738.723	5929.8
739.063	5950.37
739.404	5972.06
739.744	6003.02
740.084	5958.95
740.424	6004.38
740.764	5952.17
741.104	5970.48
741.444	5989.91
741.784	5939.29
742.124	5951.5
742.464	6020.87
742.804	6053.87
743.143	6008.67
743.483	6010.48
743.823	6007.54
744.162	6054.32
744.502	6042.79
744.841	6029.46
745.181	6097.48
745.52	6108.33
745.86	6114.43
746.199	6073.53
746.538	6148.78
746.877	6182.22
747.216	6244.82
747.556	6207.76
747.895	6259.06
748.234	6221.55
748.573	6288.89
748.911	6322.11
749.25	6358.04
749.589	6370.02
749.928	6411.82
750.267	6455.66
750.605	6500.86
750.944	6548.99
751.283	6556.45
751.621	6635.32
751.96	6662.66
752.298	6674.41
752.636	6768.42
752.975	6789.44
753.313	6876.22
753.651	6974.29
753.989	6958.25
754.327	7009.1
754.666	7075.08
755.004	7149.88
755.342	7234.63
755.679	7345.13
756.017	7378.13
756.355	7473.04
756.693	7539.7
757.031	7652.47
757.368	7704.9
757.706	7718.23
758.044	7860.82
758.381	7924.55
758.719	8037.77
759.056	8155.51
759.394	8218.33
759.731	8212.68
760.068	8396.4
760.405	8438.89
760.743	8514.37
761.08	8631.88
761.417	8696.06
761.754	8809.73
762.091	8928.14
762.428	8998.2
762.765	9128.36
763.102	9195.03
763.438	9237.74
763.775	9347.79
764.112	9415.13
764.449	9569.03
764.785	9633.66
765.122	9643.15
765.458	9686.09
765.795	9774.67
766.131	9940.09
766.467	10006.53
766.804	10093.31
767.14	10084.72
767.476	10204.94
767.812	10217.6
768.148	10302.34
768.485	10372.62
768.821	10404.26
769.157	10446.97
769.492	10581.2
