Data from hue_50_FLMS001491_56.txt Node
Date: Mon Feb 06 15:10:32 GMT 2017
User: dcchb
Spectrometer: FLMS00149
Trigger mode: 0
Integration Time (sec): 2.000000E-2
Scans to average: 10
Electric dark correction enabled: true
Nonlinearity correction enabled: false
Boxcar width: 0
XAxis mode: Wavelengths
Number of Pixels in Spectrum: 2048
>>>>>Begin Spectral Data<<<<<
341.393	-14.7
341.776	-14.7
342.16	-14.7
342.543	-56.06
342.927	-45.44
343.31	-58.32
343.693	-80.92
344.077	-52.67
344.46	-69.62
344.843	-63.74
345.226	-59
345.61	-32.33
345.993	-26.91
346.376	8.8
346.759	24.84
347.142	22.13
347.525	39.08
347.908	63.04
348.291	71.85
348.674	89.25
349.057	124.5
349.44	127.44
349.823	142.13
350.206	164.28
350.588	204.5
350.971	220.09
351.354	215.35
351.737	240.88
352.119	265.06
352.502	259.19
352.884	292.18
353.267	299.86
353.65	300.32
354.032	306.87
354.414	294.67
354.797	303.03
355.179	332.18
355.562	338.96
355.944	326.53
356.326	337.6
356.709	340.54
357.091	338.28
357.473	343.25
357.855	340.54
358.238	352.74
358.62	335.57
359.002	344.84
359.384	354.33
359.766	355.46
360.148	337.15
360.53	371.05
360.912	348.68
361.294	351.16
361.676	352.74
362.057	332.86
362.439	341.67
362.821	326.76
363.203	325.18
363.584	327.89
363.966	328.79
364.348	338.73
364.729	318.4
365.111	329.47
365.493	312.07
365.874	333.54
366.256	314.78
366.637	312.97
367.019	313.88
367.4	307.77
367.781	329.92
368.163	333.76
368.544	324.27
368.925	308.9
369.306	326.08
369.688	302.58
370.069	318.17
370.45	307.1
370.831	317.04
371.212	334.89
371.593	306.19
371.974	330.37
372.355	324.05
372.736	325.63
373.117	319.75
373.498	326.3
373.879	330.15
374.26	307.77
374.641	332.18
375.021	322.92
375.402	314.55
375.783	306.87
376.163	313.2
376.544	328.79
376.925	305.97
377.305	337.6
377.686	324.72
378.066	321.11
378.447	350.26
378.827	343.71
379.208	344.16
379.588	324.72
379.968	325.18
380.349	337.6
380.729	318.85
381.109	329.24
381.489	347.55
381.87	338.73
382.25	332.41
382.63	357.04
383.01	321.11
383.39	326.53
383.77	312.52
384.15	332.41
384.53	328.11
384.91	349.81
385.29	338.73
385.67	359.52
386.049	340.09
386.429	357.04
386.809	337.38
387.189	364.04
387.568	364.5
387.948	356.13
388.328	359.52
388.707	349.36
389.087	364.95
389.466	371.73
389.846	358.17
390.225	355
390.605	351.39
390.984	359.52
391.363	365.4
391.743	362.24
392.122	345.74
392.501	354.55
392.881	370.15
393.26	359.3
393.639	384.38
394.018	336.7
394.397	368.79
394.776	377.83
395.155	380.77
395.534	387.09
395.913	352.97
396.292	382.8
396.671	376.7
397.05	380.09
397.429	370.15
397.808	361.33
398.186	375.57
398.565	366.76
398.944	381.67
399.323	384.83
399.701	371.73
400.08	387.55
400.458	363.82
400.837	399.3
401.215	384.16
401.594	392.52
401.972	403.82
402.351	398.85
402.729	368.11
403.107	404.5
403.486	376.02
403.864	376.47
404.242	375.8
404.62	377.38
404.999	391.61
405.377	416.47
405.755	415.12
406.133	421.44
406.511	397.94
406.889	411.27
407.267	416.47
407.645	414.89
408.023	414.66
408.401	422.35
408.779	410.82
409.156	409.69
409.534	410.82
409.912	423.03
410.29	425.06
410.667	423.93
411.045	436.36
411.422	413.08
411.8	402.69
412.178	447.43
412.555	435.23
412.933	441.78
413.31	463.25
413.687	440.88
414.065	453.76
414.442	453.99
414.819	461.22
415.197	455.12
415.574	459.86
415.951	450.14
416.328	437.04
416.705	455.79
417.082	467.09
417.46	473.87
417.837	462.35
418.214	472.52
418.591	473.87
418.967	468
419.344	468.22
419.721	476.81
420.098	471.61
420.475	489.46
420.852	482.91
421.228	479.97
421.605	472.97
421.982	503.02
422.358	491.72
422.735	495.34
423.111	503.7
423.488	508.22
423.864	502.35
424.241	485.85
424.617	505.51
424.994	520.42
425.37	519.29
425.746	515.23
426.123	536.02
426.499	524.04
426.875	538.05
427.251	521.1
427.627	532.4
428.003	561.78
428.379	529.92
428.756	563.36
429.132	551.38
429.507	563.59
429.883	544.6
430.259	546.41
430.635	578.73
431.011	571.27
431.387	560.42
431.763	583.93
432.138	568.11
432.514	591.16
432.89	586.86
433.265	575.11
433.641	616.24
434.016	581.21
434.392	587.09
434.767	599.29
435.143	610.14
435.518	610.37
435.894	628.67
436.269	601.1
436.644	630.93
437.02	627.31
437.395	639.29
437.77	626.86
438.145	664.83
438.52	652.85
438.895	657.14
439.271	646.97
439.646	646.52
440.021	657.14
440.395	681.32
440.77	680.87
441.145	669.35
441.52	678.39
441.895	679.74
442.27	690.14
442.645	694.2
443.019	692.85
443.394	692.62
443.769	701.44
444.143	714.32
444.518	702.57
444.892	699.63
445.267	668.67
445.641	703.24
446.016	727.88
446.39	716.58
446.764	740.53
447.139	715.22
447.513	754.32
447.887	723.36
448.262	748.21
448.636	734.2
449.01	722.9
449.384	760.87
449.758	759.74
450.132	757.93
450.506	769.46
450.88	764.03
451.254	784.82
451.628	806.74
452.002	772.62
452.376	790.47
452.75	802.9
453.123	829.57
453.497	798.38
453.871	785.5
454.244	818.95
454.618	831.83
454.992	836.57
455.365	825.05
455.739	840.64
456.112	882
456.486	866.18
456.859	857.36
457.232	875.22
457.606	885.16
457.979	880.87
458.352	897.59
458.725	917.25
459.099	916.12
459.472	910.7
459.845	945.5
460.218	943.01
460.591	961.32
460.964	954.09
461.337	976.91
461.71	974.88
462.083	980.3
462.456	1011.94
462.829	1006.29
463.201	1025.72
463.574	1038.6
463.947	1048.09
464.32	1046.74
464.692	1088.54
465.065	1072.27
465.438	1098.49
465.81	1107.08
466.183	1145.49
466.555	1140.29
466.928	1136.91
467.3	1168.99
467.672	1190.69
468.045	1209.45
468.417	1208.54
468.789	1248.99
469.161	1263.46
469.534	1277.01
469.906	1317.69
470.278	1303.23
470.65	1341.42
471.022	1385.71
471.394	1412.83
471.766	1426.16
472.138	1446.28
472.51	1498.7
472.882	1491.92
473.253	1540.74
473.625	1580.96
473.997	1600.17
474.369	1597.46
474.74	1658.7
475.112	1693.27
475.484	1721.75
475.855	1777.57
476.227	1810.11
476.598	1885.13
476.97	1897.56
477.341	1958.8
477.713	1976.43
478.084	2044.9
478.455	2100.04
478.827	2153.15
479.198	2262.53
479.569	2270.66
479.94	2351.11
480.311	2398.79
480.682	2470.66
481.053	2545.46
481.424	2592.69
481.795	2678.56
482.166	2767.82
482.537	2810.76
482.908	2940.25
483.279	3003.07
483.65	3085.78
484.021	3174.37
484.391	3217.53
484.762	3302.5
485.133	3391.54
485.503	3501.14
485.874	3614.13
486.244	3721.7
486.615	3869.26
486.985	3947.23
487.356	4052.76
487.726	4120.56
488.097	4250.04
488.467	4309.93
488.837	4489.36
489.207	4565.97
489.578	4717.38
489.948	4770.71
490.318	4887.77
490.688	5020.87
491.058	5197.82
491.428	5307.87
491.798	5432.61
492.168	5558.94
492.538	5680.29
492.908	5808.65
493.278	5988.53
493.648	6035.53
494.017	6160.73
494.387	6275.98
494.757	6398.01
495.126	6532.02
495.496	6669.19
495.866	6738.11
496.235	6868.73
496.605	6953.25
496.974	7092
497.344	7206.8
497.713	7292.9
498.082	7465.1
498.452	7635.27
498.821	7720.91
499.19	7841.36
499.559	7977.18
499.928	8067.8
500.298	8213.78
500.667	8314.57
501.036	8323.16
501.405	8515.47
501.774	8555.02
502.143	8708.68
502.512	8794.1
502.88	8939.64
503.249	8983.7
503.618	9193.19
503.987	9233.19
504.356	9340.53
504.724	9470.92
505.093	9549.79
505.462	9612.16
505.83	9738.94
506.199	9847.41
506.567	9994.98
506.936	10068.65
507.304	10163.33
507.672	10270.45
508.041	10340.5
508.409	10423.44
508.777	10590.44
509.145	10737.56
509.514	10777.56
509.882	10882.64
510.25	10989.75
510.618	11115.17
510.986	11185.91
511.354	11251.22
511.722	11424.09
512.09	11484.88
512.458	11464.54
512.826	11650.3
513.193	11773.69
513.561	11834.93
513.929	11920.8
514.297	12101.81
514.664	12219.1
515.032	12281.7
515.4	12388.13
515.767	12433.11
516.135	12514.91
516.502	12537.96
516.869	12680.1
517.237	12787.9
517.604	12759.42
517.972	12962.81
518.339	13092.75
518.706	13111.28
519.073	13271.28
519.44	13305.85
519.808	13467.2
520.175	13531.38
520.542	13675.33
520.909	13783.58
521.276	13723.24
521.643	13984.7
522.009	14028.54
522.376	14177.92
522.743	14200.52
523.11	14416.78
523.477	14431.24
523.843	14595.31
524.21	14736.1
524.577	14837.11
524.943	14913.94
525.31	15007.73
525.676	15174.95
526.043	15252.47
526.409	15365.46
526.776	15497.43
527.142	15481.61
527.508	15605.9
527.874	15704.88
528.241	15785.79
528.607	15861.26
528.973	16093.35
529.339	16110.3
529.705	16277.98
530.071	16390.29
530.437	16386.22
530.803	16591.64
531.169	16626.22
531.535	16674.8
531.901	16685.65
532.267	16866.44
532.632	16957.96
532.998	17067.79
533.364	17091.74
533.73	17230.72
534.095	17313.2
534.461	17274.11
534.826	17426.42
535.192	17476.36
535.557	17625.06
535.923	17556.36
536.288	17823.02
536.653	17857.37
537.019	17712.51
537.384	17884.94
537.749	18007.87
538.114	18077.93
538.479	18051.94
538.845	18136.23
539.21	18139.85
539.575	18297.36
539.94	18285.38
540.305	18458.71
540.67	18519.72
541.034	18532.83
541.399	18545.03
541.764	18635.43
542.129	18736.44
542.494	18910.68
542.858	18848.53
543.223	18896.89
543.587	19026.83
543.952	19083.33
544.316	19172.14
544.681	19120.61
545.045	19288.52
545.41	19374.62
545.774	19383.21
546.138	19499.13
546.503	19521.73
546.867	19585.69
547.231	19678.79
547.595	19770.99
547.959	19808.05
548.324	19813.25
548.688	19962.62
549.052	19931.67
549.416	20056.63
549.779	20038.56
550.143	20144.99
550.507	20258.66
550.871	20370.52
551.235	20221.6
551.599	20468.37
551.962	20478.54
552.326	20559.67
552.689	20635.83
553.053	20542.5
553.417	20627.01
553.78	20899.55
554.143	20837.18
554.507	20950.85
554.87	20971.86
555.234	21235.13
555.597	21083.73
555.96	21255.25
556.323	21308.35
556.686	21366.88
557.05	21544.28
557.413	21607.55
557.776	21663.82
558.139	21753.31
558.502	21855
558.865	21911.27
559.228	22033.76
559.59	22126.64
559.953	22121.66
560.316	22440.3
560.679	22393.97
561.041	22459.06
561.404	22716.9
561.767	22852.27
562.129	22711.03
562.492	22926.84
562.854	22943.34
563.217	22932.72
563.579	23068.53
563.941	23142.65
564.304	23241.63
564.666	23353.04
565.028	23329.54
565.39	23572.02
565.753	23737.89
566.115	23801.39
566.477	23928.4
566.839	24018.79
567.201	24170.2
567.563	24042.97
567.925	24319.8
568.287	24249.29
568.648	24378.55
569.01	24483.41
569.372	24633.24
569.734	24516.18
570.095	24743.74
570.457	24843.17
570.819	24960.23
571.18	24967.46
571.542	25245.42
571.903	25117.29
572.265	25311.86
572.626	25416.27
572.987	25428.02
573.349	25618.97
573.71	25734
574.071	25784.84
574.432	25876.37
574.794	25959.98
575.155	25957.5
575.516	25936.93
575.877	26049.7
576.238	26273.87
576.599	26362.68
576.96	26285.17
577.32	26434.09
577.681	26571.49
578.042	26700.53
578.403	26751.82
578.763	26773.07
579.124	26965.83
579.485	27034.08
579.845	27294.64
580.206	27244.24
580.566	27354.52
580.927	27353.84
581.287	27559.94
581.648	27557.45
582.008	27783.66
582.368	27764.68
582.728	27905.01
583.089	27861.63
583.449	28056.88
583.809	28246.02
584.169	28265.23
584.529	28246.25
584.889	28563.08
585.249	28486.02
585.609	28510.65
585.969	28826.12
586.329	28703.64
586.688	28994.7
587.048	29105.44
587.408	28933.46
587.768	29124.87
588.127	29183.17
588.487	29147.47
588.846	29542.94
589.206	29366.9
589.565	29508.59
589.925	29637.85
590.284	29797.39
590.643	29866.09
591.003	29989.71
591.362	30269.02
591.721	30230.15
592.08	30255.69
592.44	30430.15
592.799	30514.44
593.158	30600.31
593.517	30605.51
593.876	30757.37
594.235	30844.82
594.593	30943.58
594.952	31100.41
595.311	31024.71
595.67	31200.75
596.029	31510.8
596.387	31582.43
596.746	31692.03
597.104	31644.35
597.463	31619.27
597.822	31894.51
598.18	31818.36
598.538	31739.49
598.897	32158.69
599.255	31748.76
599.613	32439.81
599.972	32195.3
600.33	32401.85
600.688	32327.95
601.046	32673.48
601.404	32673.25
601.762	32684.78
602.12	32937.65
602.478	32991.43
602.836	33075.5
603.194	32829.18
603.552	33029.85
603.91	32968.84
604.268	33228.72
604.625	33268.94
604.983	33284.99
605.341	33174.25
605.698	33483.17
606.056	33546.9
606.413	33702.83
606.771	33664.19
607.128	33829.38
607.485	33766.33
607.843	33766.56
608.2	33996.15
608.557	34214.68
608.914	34075.7
609.272	34320.89
609.629	34287.45
609.986	34329.48
610.343	34438.63
610.7	34726.76
611.057	34585.52
611.414	34628.91
611.771	34694.89
612.127	34898.28
612.484	34990.03
612.841	35117.25
613.198	34970.82
613.554	35000.87
613.911	35177.37
614.267	35329.68
614.624	35372.62
614.98	35437.92
615.337	35601.76
615.693	35506.4
616.05	35584.36
616.406	35810.34
616.762	35650.8
617.118	35740.52
617.475	35701.87
617.831	35938.48
618.187	35961.07
618.543	35907.06
618.899	36215.98
619.255	36112.71
619.611	36093.95
619.967	36178.24
620.323	36302.99
620.678	36118.81
621.034	36232.71
621.39	36226.6
621.746	36146.15
622.101	36602.19
622.457	36492.59
622.812	36587.05
623.168	36678.12
623.523	36564.67
623.879	36746.82
624.234	36555.86
624.589	36653.94
624.945	36680.6
625.3	36801.96
625.655	36669.76
626.01	36829.07
626.365	36865.68
626.72	36858.45
627.075	36793.14
627.43	36888.51
627.785	36802.63
628.14	36733.71
628.495	36919.47
628.85	36852.35
629.205	36828.17
629.559	37012.35
629.914	36859.13
630.269	36944.55
630.623	36872.69
630.978	36666.82
631.332	36934.16
631.687	37109.07
632.041	36814.39
632.396	36890.32
632.75	36753.82
633.104	36921.5
633.459	36731.9
633.813	36892.58
634.167	36739.58
634.521	36640.83
634.875	36864.1
635.229	36769.64
635.583	36553.15
635.937	36665.24
636.291	36591.11
636.645	36640.6
636.999	36526.71
637.352	36639.02
637.706	36540.72
638.06	36625.01
638.413	36419.59
638.767	36432.47
639.121	36492.36
639.474	36284.46
639.828	36382.31
640.181	36329.2
640.534	36463.89
640.888	36255.98
641.241	36089.43
641.594	36185.02
641.947	36262.54
642.301	36262.99
642.654	36193.61
643.007	36352.02
643.36	36157.91
643.713	36177.79
644.066	36307.51
644.419	36075.42
644.771	35881.08
645.124	35458.71
645.477	35460.97
645.83	35375.78
646.182	35158.38
646.535	35073.87
646.888	35097.82
647.24	34929.46
647.593	35269.79
647.945	35040.65
648.298	34915.9
648.65	34869.13
649.002	34746.19
649.355	34923.59
649.707	34844.27
650.059	35004.49
650.411	35386.85
650.763	35336.23
651.115	35806.5
651.467	35649.9
651.819	35539.84
652.171	35574.64
652.523	35592.72
652.875	35522.44
653.227	35263.69
653.578	35568.54
653.93	35339.62
654.282	35344.59
654.633	35314.99
654.985	35282.67
655.337	35450.35
655.688	35413.74
656.039	35572.61
656.391	35146.63
656.742	35258.72
657.094	35138.27
657.445	35419.39
657.796	35393.86
658.147	35200.64
658.498	35244.26
658.849	35328.32
659.2	35164.94
659.551	35215.78
659.902	35295.55
660.253	35238.38
660.604	35311.15
660.955	35042.45
661.306	35266.4
661.656	35126.75
662.007	35129.68
662.358	35154.99
662.708	35127.42
663.059	35110.7
663.409	34945.06
663.76	35154.32
664.11	35251.71
664.461	35100.76
664.811	34913.64
665.161	35104.6
665.511	34959.74
665.862	35106.18
666.212	35174.2
666.562	35152.28
666.912	35180.3
667.262	34891.5
667.612	35002.91
667.962	35067.99
668.312	34976.47
668.662	35024.38
669.011	34983.25
669.361	34970.14
669.711	34950.25
670.06	34908.45
670.41	34817.6
670.76	34778.05
671.109	34876.81
671.459	34942.34
671.808	34869.8
672.157	34955.45
672.507	34628.68
672.856	34738.51
673.205	34846.3
673.554	34749.58
673.904	34679.98
674.253	34911.38
674.602	34792.07
674.951	34292.42
675.3	34122.03
675.649	34515.24
675.998	34637.95
676.346	34598.85
676.695	34738.96
677.044	34432.3
677.393	34584.16
677.741	34607.44
678.09	34320.44
678.438	34356.37
678.787	34431.4
679.135	34436.82
679.484	34148.92
679.832	34276.82
680.181	34203.61
680.529	34320.44
680.877	34152.31
681.225	34087.68
681.573	34366.09
681.922	34098.3
682.27	33972.2
682.618	34053.33
682.966	33877.51
683.314	33958.87
683.661	33863.5
684.009	33677.97
684.357	33687.91
684.705	33682.94
685.053	33763.62
685.4	33603.85
685.748	33564.75
686.095	33494.02
686.443	33346
686.79	33273.24
687.138	33423.97
687.485	33404.53
687.832	33203.41
688.18	33307.58
688.527	33168.38
688.874	33105.56
689.221	33026.69
689.568	32887.71
689.915	32709.63
690.262	32915.96
690.609	32764.77
690.956	32763.87
691.303	32614.04
691.65	32450.21
691.997	32438
692.344	32282.07
692.69	32298.35
693.037	32356.42
693.383	32116.2
693.73	32160.5
694.077	32022.19
694.423	31985.81
694.769	31866.49
695.116	31752.82
695.462	31621.75
695.808	31726.61
696.155	31635.31
696.501	31326.62
696.847	31499.27
697.193	31174.53
697.539	31320.07
697.885	31069.68
698.231	31018.61
698.577	31035.78
698.923	31016.8
699.269	30818.38
699.614	30676.02
699.96	30648.67
700.306	30728.9
700.651	30520.31
700.997	30440.09
701.342	30387.21
701.688	30429.47
702.033	30241.45
702.379	30304.73
702.724	30034.22
703.069	30198.06
703.415	29794.91
703.76	29907.22
704.105	29891.86
704.45	29820.9
704.795	29684.63
705.14	29556.27
705.485	29466.78
705.83	29444.41
706.175	29423.62
706.52	29351.3
706.865	29275.83
707.209	29307.92
707.554	29028.83
707.899	29177.3
708.243	28894.14
708.588	29004.42
708.932	28791.32
709.277	28824.76
709.621	28819.12
709.966	28674.03
710.31	28660.93
710.654	28408.96
710.998	28558.11
711.342	28501.16
711.687	28473.81
712.031	28364.89
712.375	28165.12
712.719	28312.01
713.063	28175.52
713.407	28290.32
713.75	28113.6
714.094	28076.54
714.438	27935.3
714.782	27930.32
715.125	27893.49
715.469	27855.75
715.812	27677
716.156	27527.17
716.499	27608.98
716.843	27607.85
717.186	27405.14
717.53	27639.49
717.873	27629.99
718.216	27528.3
718.559	27399.49
718.902	27101.65
719.246	27288.76
719.589	27051.48
719.932	27045.6
720.275	27006.51
720.617	27026.39
720.96	26948.66
721.303	26891.26
721.646	26916.11
721.989	26767.64
722.331	26880.18
722.674	26751.15
723.016	26792.28
723.359	26676.8
723.701	26795.67
724.044	26562.68
724.386	26428.9
724.729	26545.95
725.071	26443.13
725.413	26419.86
725.755	26482.91
726.097	26302.8
726.439	26239.97
726.782	26169.47
727.124	26368.33
727.465	26082.69
727.807	26114.1
728.149	26079.3
728.491	26044.05
728.833	26026.65
729.175	25939.87
729.516	25922.02
729.858	25797.73
730.199	25982.81
730.541	25925.63
730.882	25844.05
731.224	25890.38
731.565	25689.93
731.906	25595.7
732.248	25685.19
732.589	25696.03
732.93	25435.93
733.271	25547.79
733.612	25620.56
733.953	25472.54
734.294	25512.54
734.635	25350.96
734.976	25356.83
735.317	25244.52
735.658	25282.48
735.999	25323.16
736.339	25236.38
736.68	25262.6
737.021	25152.09
737.361	24930.86
737.702	25288.13
738.042	25167.46
738.383	25003.17
738.723	25131.98
739.063	24963.85
739.404	24950.74
739.744	24834.81
740.084	24851.31
740.424	24895.6
740.764	24887.69
741.104	24799.11
741.444	24694.7
741.784	24605.67
742.124	24595.05
742.464	24597.08
742.804	24494.03
743.143	24515.5
743.483	24456.74
743.823	24380.14
744.162	24321.83
744.502	24397.99
744.841	24308.73
745.181	24277.31
745.52	24207.48
745.86	24301.49
746.199	24237.09
746.538	24184.21
746.877	24272.57
747.216	24256.98
747.556	24125.23
747.895	24186.69
748.234	23984.21
748.573	24065.34
748.911	23909.41
749.25	23926.36
749.589	23838.91
749.928	23826.48
750.267	23869.41
750.605	23697.67
750.944	23760.72
751.283	23517.79
751.621	23671.68
751.96	23550.33
752.298	23523.21
752.636	23525.69
752.975	23352.59
753.313	23381.74
753.651	23318.02
753.989	23315.53
754.327	23268.3
754.666	22989.89
755.004	23184.46
755.342	23161.18
755.679	23174.97
756.017	22948.54
756.355	22974.3
756.693	22786.05
757.031	22918.93
757.368	22812.95
757.706	22740.86
