Data from hue_230_FLMS001491_00083.txt Node
Date: Tue Feb 07 16:37:51 GMT 2017
User: dcchb
Spectrometer: FLMS00149
Trigger mode: 0
Integration Time (sec): 2.000000E-2
Scans to average: 10
Electric dark correction enabled: true
Nonlinearity correction enabled: false
Boxcar width: 0
XAxis mode: Wavelengths
Number of Pixels in Spectrum: 2048
>>>>>Begin Spectral Data<<<<<
341.393	-19.66
341.776	-19.66
342.16	-19.66
342.543	-65.08
342.927	-55.14
343.31	-77.29
343.693	-82.26
344.077	-69.15
344.46	-76.61
344.843	-48.13
345.226	-32.99
345.61	-24.18
345.993	-25.54
346.376	-1.81
346.759	5.65
347.142	18.08
347.525	53.33
347.908	59.43
348.291	67.79
348.674	106.21
349.057	127.45
349.44	107.79
349.823	130.84
350.206	163.84
350.588	191.63
350.971	202.71
351.354	215.59
351.737	225.76
352.119	233.67
352.502	242.71
352.884	256.04
353.267	261.46
353.65	274.8
354.032	271.63
354.414	299.65
354.797	287.45
355.179	307.79
355.562	322.03
355.944	316.38
356.326	328.58
356.709	306.88
357.091	326.32
357.473	326.09
357.855	326.55
358.238	327.45
358.62	321.12
359.002	344.62
359.384	330.39
359.766	320.67
360.148	309.37
360.53	334.23
360.912	323.61
361.294	341.23
361.676	322.93
362.057	296.94
362.439	306.21
362.821	321.57
363.203	336.71
363.584	329.48
363.966	312.08
364.348	318.18
364.729	306.43
365.111	325.19
365.493	314.57
365.874	306.21
366.256	320.22
366.637	312.99
367.019	323.16
367.4	314.57
367.781	300.33
368.163	296.04
368.544	317.73
368.925	289.03
369.306	320.22
369.688	321.12
370.069	308.24
370.45	308.24
370.831	317.51
371.212	294.68
371.593	287
371.974	292.65
372.355	305.53
372.736	319.99
373.117	291.52
373.498	296.94
373.879	310.95
374.26	308.47
374.641	299.2
375.021	296.26
375.402	310.73
375.783	330.16
376.163	310.95
376.544	308.69
376.925	318.18
377.305	310.05
377.686	310.27
378.066	337.84
378.447	334.68
378.827	332.87
379.208	311.4
379.588	320.9
379.968	314.57
380.349	303.27
380.729	321.35
381.109	320.44
381.489	331.52
381.87	339.43
382.25	311.86
382.63	321.57
383.01	329.03
383.39	325.64
383.77	323.61
384.15	340.56
384.53	327.45
384.91	360.89
385.29	344.17
385.67	321.8
386.049	324.29
386.429	340.1
386.809	349.14
387.189	346.21
387.568	341.01
387.948	337.39
388.328	333.32
388.707	354.79
389.087	357.5
389.466	358.86
389.846	357.73
390.225	360.22
390.605	321.8
390.984	345.75
391.363	357.96
391.743	348.24
392.122	371.74
392.501	339.2
392.881	354.79
393.26	353.66
393.639	370.16
394.018	371.74
394.397	367.9
394.776	371.97
395.155	369.93
395.534	364.51
395.913	367.45
396.292	381.46
396.671	369.93
397.05	405.19
397.429	376.26
397.808	388.92
398.186	376.26
398.565	393.21
398.944	385.53
399.323	394.79
399.701	384.62
400.08	407.45
400.458	403.83
400.837	417.39
401.215	411.97
401.594	427.56
401.972	405.64
402.351	388.01
402.729	416.03
403.107	401.35
403.486	399.09
403.864	417.84
404.242	415.36
404.62	424.62
404.999	445.64
405.377	444.06
405.755	435.92
406.133	422.14
406.511	437.95
406.889	436.82
407.267	459.42
407.645	442.93
408.023	484.51
408.401	448.58
408.779	455.13
409.156	461.68
409.534	463.72
409.912	472.98
410.29	475.47
410.667	465.98
411.045	488.35
411.422	500.1
411.8	509.59
412.178	514.34
412.555	520.21
412.933	537.16
413.31	529.03
413.687	520.89
414.065	541
414.442	540.55
414.819	578.74
415.197	566.76
415.574	566.54
415.951	564.96
416.328	603.15
416.705	594.33
417.082	596.14
417.46	618.51
417.837	591.4
418.214	605.41
418.591	619.87
418.967	624.16
419.344	623.71
419.721	640.66
420.098	635.24
420.475	650.6
420.852	661.45
421.228	667.55
421.605	673.65
421.982	689.47
422.358	688.12
422.735	691.73
423.111	709.59
423.488	705.07
423.864	748.68
424.241	724.27
424.617	730.15
424.994	760.88
425.37	781.45
425.746	788.68
426.123	778.96
426.499	791.17
426.875	797.72
427.251	812.86
427.627	855.34
428.003	839.75
428.379	861.22
428.756	852.18
429.132	881.33
429.507	848.57
429.883	898.51
430.259	906.19
430.635	939.41
431.011	897.15
431.387	903.25
431.763	926.76
432.138	937.38
432.514	950.26
432.89	961.56
433.265	990.26
433.641	1032.06
434.016	1003.59
434.392	1043.14
434.767	1061.44
435.143	1059.41
435.518	1082.46
435.894	1098.28
436.269	1113.64
436.644	1153.42
437.02	1148.44
437.395	1158.39
437.77	1174.21
438.145	1196.58
438.52	1227.99
438.895	1227.54
439.271	1228.44
439.646	1267.54
440.021	1266.86
440.395	1265.5
440.77	1287.65
441.145	1285.84
441.52	1328.33
441.895	1327.87
442.27	1323.81
442.645	1364.48
443.019	1383.47
443.394	1378.72
443.769	1397.03
444.143	1380.98
444.518	1425.95
444.892	1418.27
445.267	1430.92
445.641	1439.06
446.016	1476.12
446.39	1465.95
446.764	1470.7
447.139	1487.42
447.513	1490.81
447.887	1495.78
448.262	1524.03
448.636	1539.39
449.01	1545.95
449.384	1533.52
449.758	1570.58
450.132	1577.81
450.506	1575.1
450.88	1574.65
451.254	1619.39
451.628	1642.22
452.002	1651.93
452.376	1666.17
452.75	1647.19
453.123	1691.25
453.497	1703.68
453.871	1740.97
454.244	1763.12
454.618	1739.39
454.992	1785.72
455.365	1775.77
455.739	1777.13
456.112	1812.61
456.486	1836.34
456.859	1855.09
457.232	1867.97
457.606	1906.84
457.979	1917.69
458.352	1975.77
458.725	1974.64
459.099	1969.21
459.472	2010.79
459.845	2070.68
460.218	2037.46
460.591	2058.48
460.964	2072.71
461.337	2117.46
461.71	2145.48
462.083	2171.02
462.456	2151.36
462.829	2190.68
463.201	2200.62
463.574	2191.58
463.947	2279.49
464.32	2275.42
464.692	2272.48
465.065	2299.83
465.438	2361.75
465.81	2395.42
466.183	2372.59
466.555	2439.48
466.928	2433.83
467.3	2431.57
467.672	2525.81
468.045	2519.03
468.417	2553.61
468.789	2566.94
469.161	2627.5
469.534	2624.11
469.906	2677.67
470.278	2693.49
470.65	2720.83
471.022	2744.33
471.394	2831.34
471.766	2789.53
472.138	2861.17
472.51	2904.56
472.882	2943.65
473.253	2989.3
473.625	3017.77
473.997	3045.34
474.369	3088.73
474.74	3133.93
475.112	3146.13
475.484	3219.58
475.855	3246.47
476.227	3279.24
476.598	3335.96
476.97	3361.72
477.341	3460.7
477.713	3490.08
478.084	3533.92
478.455	3579.57
478.827	3571.43
479.198	3662.95
479.569	3708.83
479.94	3812.33
480.311	3801.26
480.682	3883.29
481.053	3925.32
481.424	3970.74
481.795	4034.02
482.166	4016.62
482.537	4130.51
482.908	4194.24
483.279	4238.08
483.65	4292.09
484.021	4357.4
484.391	4405.08
484.762	4436.27
485.133	4461.35
485.503	4515.36
485.874	4607.79
486.244	4627.22
486.615	4738.41
486.985	4723.04
487.356	4806.88
487.726	4850.49
488.097	4957.16
488.467	4949.47
488.837	5036.25
489.207	5081.45
489.578	5171.39
489.948	5195.12
490.318	5266.3
490.688	5289.13
491.058	5313.53
491.428	5410.48
491.798	5434.66
492.168	5483.7
492.538	5506.97
492.908	5581.32
493.278	5630.13
493.648	5650.02
494.017	5765.05
494.387	5755.78
494.757	5773.63
495.126	5833.52
495.496	5831.03
495.866	5812.73
496.235	5947.41
496.605	6008.2
496.974	5922.1
497.344	5984.93
497.713	6059.5
498.082	6089.56
498.452	6098.82
498.821	6080.97
499.19	6167.97
499.559	6204.58
499.928	6207.29
500.298	6278.93
500.667	6286.16
501.036	6263.56
501.405	6335.2
501.774	6334.97
502.143	6320.51
502.512	6397.12
502.88	6400.51
503.249	6399.61
503.618	6459.27
503.987	6481.86
504.356	6556.21
504.724	6501.52
505.093	6489.32
505.462	6533.16
505.83	6541.07
506.199	6564.12
506.567	6631.69
506.936	6673.95
507.304	6689.32
507.672	6702.65
508.041	6751.69
508.409	6774.74
508.777	6818.13
509.145	6833.49
509.514	6772.93
509.882	6792.14
510.25	6867.62
510.618	6867.62
510.986	6887.5
511.354	6967.05
511.722	6962.75
512.09	6981.06
512.458	6901.74
512.826	6980.83
513.193	7059.93
513.561	7069.64
513.929	7046.82
514.297	7040.94
514.664	7077.33
515.032	7074.62
515.4	7141.06
515.767	7113.03
516.135	7176.76
516.502	7102.64
516.869	7242.07
517.237	7200.26
517.604	7152.35
517.972	7214.5
518.339	7197.78
518.706	7160.26
519.073	7194.84
519.44	7221.51
519.808	7248.4
520.175	7259.02
520.542	7277.77
520.909	7299.7
521.276	7306.25
521.643	7339.69
522.009	7356.64
522.376	7376.53
522.743	7385.12
523.11	7408.84
523.477	7430.54
523.843	7466.92
524.21	7521.16
524.577	7513.02
524.943	7479.35
525.31	7452.01
525.676	7544.66
526.043	7566.35
526.409	7508.73
526.776	7602.74
527.142	7568.84
527.508	7571.1
527.874	7600.25
528.241	7583.53
528.607	7564.77
528.973	7623.98
529.339	7570.65
529.705	7616.97
530.071	7648.61
530.437	7632.12
530.803	7702.62
531.169	7655.17
531.535	7576.98
531.901	7641.38
532.267	7645.67
532.632	7550.76
532.998	7617.65
533.364	7593.02
533.73	7632.79
534.095	7722.96
534.461	7663.75
534.826	7584.21
535.192	7674.6
535.557	7682.51
535.923	7568.39
536.288	7625.34
536.653	7621.04
537.019	7603.19
537.384	7585.56
537.749	7580.14
538.114	7576.98
538.479	7528.39
538.845	7566.58
539.21	7498.33
539.575	7508.96
539.94	7465.79
540.305	7466.02
540.67	7486.36
541.034	7455.85
541.399	7472.57
541.764	7479.8
542.129	7466.02
542.494	7401.61
542.858	7414.72
543.223	7383.31
543.587	7370.88
543.952	7403.65
544.316	7399.13
544.681	7358.45
545.045	7336.76
545.41	7366.59
545.774	7332.46
546.138	7315.06
546.503	7313.93
546.867	7306.02
547.231	7301.05
547.595	7301.05
547.959	7284.33
548.324	7209.98
548.688	7257.66
549.052	7258.57
549.416	7224.89
549.779	7234.39
550.143	7133.15
550.507	7243.2
550.871	7196.65
551.235	7167.72
551.599	7235.97
551.962	7147.16
552.326	7137.44
552.689	7166.14
553.053	7057.89
553.417	7092.24
553.78	7178.79
554.143	7101.73
554.507	7038.23
554.87	7109.64
555.234	7163.65
555.597	7101.06
555.96	7108.51
556.323	7154.84
556.686	7078.23
557.05	7074.16
557.413	7094.95
557.776	7093.82
558.139	7151.68
558.502	7163.88
558.865	7152.58
559.228	7120.49
559.59	7090.44
559.953	7095.63
560.316	7233.26
560.679	7139.02
561.041	7123.65
561.404	7183.54
561.767	7187.16
562.129	7169.98
562.492	7222.63
562.854	7115.29
563.217	7196.19
563.579	7185.35
563.941	7189.64
564.304	7238.45
564.666	7255.63
565.028	7175.86
565.39	7287.27
565.753	7316.19
566.115	7213.14
566.477	7308.96
566.839	7300.15
567.201	7310.54
567.563	7336.08
567.925	7369.75
568.287	7320.26
568.648	7402.07
569.01	7371.56
569.372	7381.5
569.734	7391.67
570.095	7425.12
570.457	7402.07
570.819	7436.64
571.18	7501.72
571.542	7475.74
571.903	7507.37
572.265	7531.78
572.626	7609.07
572.987	7534.04
573.349	7599.35
573.71	7563.64
574.071	7610.87
574.432	7594.83
574.794	7673.7
575.155	7640.7
575.516	7582.63
575.877	7673.02
576.238	7698.1
576.599	7738.55
576.96	7728.16
577.32	7689.97
577.681	7756.18
578.042	7705.79
578.403	7699.46
578.763	7765.9
579.124	7771.32
579.485	7817.2
579.845	7820.59
580.206	7828.27
580.566	7830.75
580.927	7847.48
581.287	7879.34
581.648	7915.05
582.008	7880.47
582.368	7931.99
582.728	7927.7
583.089	7899.91
583.449	7942.84
583.809	7908.27
584.169	7891.77
584.529	7970.41
584.889	8029.17
585.249	7961.37
585.609	8007.02
585.969	8025.78
586.329	7927.02
586.688	8018.09
587.048	8026.91
587.408	7987.36
587.768	8047.7
588.127	8032.78
588.487	8042.27
588.846	8074.59
589.206	8007.02
589.565	8141.93
589.925	8149.39
590.284	8052.9
590.643	8174.25
591.003	8094.7
591.362	8157.07
591.721	8139.9
592.08	8128.6
592.44	8157.07
592.799	8143.29
593.158	8157.98
593.517	8152.55
593.876	8161.82
594.235	8158.43
594.593	8210.18
594.952	8205.66
595.311	8204.3
595.67	8182.61
596.029	8270.07
596.387	8237.75
596.746	8240.01
597.104	8210.41
597.463	8215.15
597.822	8228.71
598.18	8198.43
598.538	8237.3
598.897	8342.83
599.255	8244.08
599.613	8407.91
599.972	8259.22
600.33	8296.73
600.688	8218.77
601.046	8294.02
601.404	8300.8
601.762	8299.44
602.12	8341.48
602.478	8387.35
602.836	8404.75
603.194	8351.19
603.552	8344.19
603.91	8383.73
604.268	8354.58
604.625	8371.76
604.983	8323.4
605.341	8306.22
605.698	8348.71
606.056	8320.01
606.413	8408.37
606.771	8398.65
607.128	8392.1
607.485	8353
607.843	8363.62
608.2	8407.24
608.557	8471.42
608.914	8449.5
609.272	8368.59
609.629	8462.83
609.986	8456.73
610.343	8447.46
610.7	8534.46
611.057	8526.56
611.414	8467.8
611.771	8489.04
612.127	8479.1
612.484	8512.77
612.841	8506.22
613.198	8511.87
613.554	8477.07
613.911	8553.67
614.267	8559.77
614.624	8511.64
614.98	8546.44
615.337	8605.2
615.693	8635.03
616.05	8553.67
616.406	8670.05
616.762	8536.72
617.118	8567.23
617.475	8585.99
617.831	8651.52
618.187	8607.01
618.543	8624.18
618.899	8644.07
619.255	8697.17
619.611	8661.69
619.967	8709.38
620.323	8698.75
620.678	8696.27
621.034	8637.29
621.39	8620.79
621.746	8621.24
622.101	8745.08
622.457	8667.57
622.812	8571.53
623.168	8632.77
623.523	8634.35
623.879	8728.81
624.234	8666.21
624.589	8643.16
624.945	8671.41
625.3	8692.2
625.655	8671.41
626.01	8675.48
626.365	8592.54
626.72	8698.75
627.075	8635.93
627.43	8696.27
627.785	8630.51
628.14	8703.27
628.495	8679.77
628.85	8656.72
629.205	8617.85
629.559	8611.75
629.914	8566.78
630.269	8620.11
630.623	8614.01
630.978	8634.12
631.332	8629.15
631.687	8601.81
632.041	8607.68
632.396	8529.72
632.75	8568.36
633.104	8564.52
633.459	8518.42
633.813	8530.4
634.167	8538.31
634.521	8472.77
634.875	8518.87
635.229	8464.18
635.583	8507.8
635.937	8504.64
636.291	8442.04
636.645	8441.36
636.999	8449.5
637.352	8467.35
637.706	8370.85
638.06	8344.64
638.413	8388.03
638.767	8399.78
639.121	8468.93
639.474	8303.06
639.828	8322.72
640.181	8299.44
640.534	8350.06
640.888	8320.91
641.241	8254.25
641.594	8320.23
641.947	8369.5
642.301	8312.55
642.654	8342.61
643.007	8313.45
643.36	8312.78
643.713	8271.19
644.066	8324.75
644.419	8317.07
644.771	8207.24
645.124	8134.02
645.477	8119.56
645.83	8053.12
646.182	8109.84
646.535	8083.86
646.888	8049.05
647.24	8009.73
647.593	8035.72
647.945	8100.13
648.298	7984.87
648.65	7977.19
649.002	8002.95
649.355	7994.37
649.707	7999.11
650.059	7991.2
650.411	8099
650.763	8091.99
651.115	8176.73
651.467	8126.79
651.819	8191.42
652.171	8143.29
652.523	8177.19
652.875	8178.77
653.227	8140.35
653.578	8169.73
653.93	8171.76
654.282	8126.34
654.633	8134.93
654.985	8095.83
655.337	8166.34
655.688	8127.24
656.039	8126.79
656.391	8066
656.742	8145.77
657.094	8154.36
657.445	8130.63
657.796	8152.1
658.147	8116.17
658.498	8147.36
658.849	8121.14
659.2	8118.43
659.551	8107.81
659.902	8081.6
660.253	8104.87
660.604	8133.57
660.955	8096.74
661.306	8161.82
661.656	8169.95
662.007	8155.27
662.358	8149.84
662.708	8153.91
663.059	8127.02
663.409	8113.68
663.76	8151.88
664.11	8167.92
664.461	8152.55
664.811	8087.47
665.161	8186
665.511	8146.68
665.862	8154.14
666.212	8184.19
666.562	8171.31
666.912	8159.79
667.262	8148.71
667.612	8171.76
667.962	8190.97
668.312	8160.69
668.662	8201.14
669.011	8093.8
669.361	8138.77
669.711	8182.61
670.06	8110.75
670.41	8090.41
670.76	8089.96
671.109	8151.2
671.459	8097.64
671.808	8117.98
672.157	8171.08
672.507	8087.7
672.856	8022.84
673.205	8092.44
673.554	8182.61
673.904	8062.16
674.253	8103.97
674.602	8037.53
674.951	8020.81
675.3	7960.47
675.649	8046.34
675.998	8104.87
676.346	8039.56
676.695	8049.51
677.044	7999.11
677.393	8025.1
677.741	8040.24
678.09	7979.45
678.438	7971.32
678.787	8004.99
679.135	7956.4
679.484	7954.59
679.832	7944.2
680.181	7900.36
680.529	7896.52
680.877	7875.95
681.225	7852
681.573	7903.52
681.922	7826.46
682.27	7833.47
682.618	7828.72
682.966	7842.28
683.314	7826.46
683.661	7800.02
684.009	7700.59
684.357	7707.37
684.705	7723.64
685.053	7756.63
685.4	7679.57
685.748	7652
686.095	7666.69
686.443	7630.99
686.79	7550.54
687.138	7609.74
687.485	7618.1
687.832	7561.84
688.18	7591.44
688.527	7553.25
688.874	7565.9
689.221	7515.06
689.568	7501.5
689.915	7416.3
690.262	7448.62
690.609	7440.26
690.956	7430.54
691.303	7413.36
691.65	7367.72
691.997	7392.57
692.344	7310.99
692.69	7286.59
693.037	7304.89
693.383	7186.48
693.73	7257.21
694.077	7151.22
694.423	7207.72
694.769	7208.4
695.116	7147.16
695.462	7186.7
695.808	7127.72
696.155	7139.02
696.501	7045.24
696.847	7060.15
697.193	6974.05
697.539	7005.47
697.885	6941.29
698.231	6966.82
698.577	6962.75
698.923	6916.88
699.269	6868.29
699.614	6889.31
699.96	6828.97
700.306	6845.7
700.651	6802.08
700.997	6737.22
701.342	6707.62
701.688	6778.58
702.033	6740.16
702.379	6686.83
702.724	6699.94
703.069	6688.86
703.415	6640.96
703.76	6658.81
704.105	6623.1
704.45	6591.24
704.795	6559.38
705.14	6510.56
705.485	6476.67
705.83	6445.48
706.175	6488.64
706.52	6405.71
706.865	6399.38
707.209	6404.13
707.554	6409.55
707.899	6384.01
708.243	6328.42
708.588	6338.82
708.932	6339.49
709.277	6251.14
709.621	6338.14
709.966	6296.33
710.31	6252.04
710.654	6214.3
710.998	6224.24
711.342	6222.21
711.687	6221.53
712.031	6212.27
712.375	6181.08
712.719	6147.18
713.063	6111.25
713.407	6166.62
713.75	6127.52
714.094	6099.73
714.438	6068.99
714.782	6129.56
715.125	6094.08
715.469	6109.67
715.812	6065.15
716.156	6038.94
716.499	6005.49
716.843	6082.55
717.186	6036.68
717.53	6002.78
717.873	6003.01
718.216	6032.84
718.559	5978.83
718.902	5854.31
719.246	5952.84
719.589	5956.23
719.932	5933.4
720.275	5933.63
720.617	5898.83
720.96	5903.12
721.303	5935.44
721.646	5830.13
721.989	5848.89
722.331	5845.5
722.674	5845.5
723.016	5866.96
723.359	5864.03
723.701	5840.3
724.044	5855.89
724.386	5824.25
724.729	5850.24
725.071	5860.64
725.413	5855.21
725.755	5881.65
726.097	5829.9
726.439	5821.77
726.782	5810.47
727.124	5854.76
727.465	5802.33
727.807	5775.44
728.149	5815.44
728.491	5814.54
728.833	5793.29
729.175	5802.79
729.516	5815.89
729.858	5777.93
730.199	5816.34
730.541	5814.08
730.882	5799.17
731.224	5821.99
731.565	5752.84
731.906	5755.33
732.248	5772.05
732.589	5727.53
732.93	5720.75
733.271	5767.76
733.612	5765.27
733.953	5744.48
734.294	5779.96
734.635	5760.3
734.976	5801.88
735.317	5751.49
735.658	5714.65
735.999	5758.04
736.339	5772.73
736.68	5735.44
737.021	5782.9
737.361	5738.61
737.702	5784.25
738.042	5793.75
738.383	5771.6
738.723	5816.57
739.063	5756.46
739.404	5831.26
739.744	5808.43
740.084	5819.51
740.424	5764.59
740.764	5801.66
741.104	5821.99
741.444	5831.03
741.784	5800.53
742.124	5816.8
742.464	5826.74
742.804	5882.33
743.143	5924.36
743.483	5862.9
743.823	5896.34
744.162	5957.81
744.502	5966.85
744.841	5980.63
745.181	6020.63
745.52	5917.13
745.86	6013.4
746.199	6026.28
746.538	6088.2
746.877	6125.49
747.216	6106.51
747.556	6127.52
747.895	6211.14
748.234	6209.1
748.573	6263.56
748.911	6237.12
749.25	6306.5
749.589	6346.27
749.928	6374.3
750.267	6458.59
750.605	6542.2
750.944	6539.94
751.283	6546.72
751.621	6687.28
751.96	6650.67
752.298	6736.77
752.636	6870.78
752.975	6898.35
753.313	6932.47
753.651	7051.34
753.989	7056.76
754.327	7144.22
754.666	7191.45
755.004	7328.62
755.342	7437.77
755.679	7485.45
756.017	7614.26
756.355	7677.31
756.693	7738.33
757.031	7891.77
757.368	7928.15
757.706	8044.76
758.044	8121.59
758.381	8245.43
758.719	8329.72
759.056	8444.52
759.394	8576.05
759.731	8651.75
760.068	8758.19
760.405	8937.17
760.743	8973.78
761.08	9100.55
761.417	9185.52
761.754	9376.7
762.091	9470.03
762.428	9537.6
762.765	9646.07
763.102	9734.66
763.438	9874.99
763.775	9972.17
764.112	10156.34
764.449	10226.17
764.785	10349.11
765.122	10404.7
765.458	10527.41
765.795	10637.46
766.131	10692.37
766.467	10854.63
766.804	10980.28
767.14	11020.05
767.476	11085.81
767.812	11245.81
768.148	11326.03
768.485	11346.82
768.821	11433.15
769.157	11508.62
