Data from hue_34_FLMS001491_00039.txt Node
Date: Tue Feb 07 17:25:33 GMT 2017
User: dcchb
Spectrometer: FLMS00149
Trigger mode: 0
Integration Time (sec): 2.000000E-2
Scans to average: 10
Electric dark correction enabled: true
Nonlinearity correction enabled: false
Boxcar width: 0
XAxis mode: Wavelengths
Number of Pixels in Spectrum: 2048
>>>>>Begin Spectral Data<<<<<
341.393	-6.57
341.776	-6.57
342.16	-6.57
342.543	-52.22
342.927	-76.85
343.31	-68.94
343.693	-69.84
344.077	-63.52
344.46	-58.32
344.843	-68.26
345.226	-50.41
345.61	-16.28
345.993	-19
346.376	-8.83
346.759	19.19
347.142	15.35
347.525	47.67
347.908	64.84
348.291	74.11
348.674	98.06
349.057	104.16
349.44	113.2
349.823	131.51
350.206	152.75
350.588	208.57
350.971	203.14
351.354	242.24
351.737	250.37
352.119	245.63
352.502	262.58
352.884	278.85
353.267	273.43
353.65	293.54
354.032	290.37
354.414	305.29
354.797	337.83
355.179	316.36
355.562	327.43
355.944	317.04
356.326	329.69
356.709	315.68
357.091	336.7
357.473	364.95
357.855	332.18
358.238	333.31
358.62	334.89
359.002	335.57
359.384	348.45
359.766	348.23
360.148	333.08
360.53	332.41
360.912	326.53
361.294	342.35
361.676	341.22
362.057	327.66
362.439	329.02
362.821	347.55
363.203	313.42
363.584	329.02
363.966	304.84
364.348	312.97
364.729	334.89
365.111	325.18
365.493	318.17
365.874	326.98
366.256	307.32
366.637	298.28
367.019	316.36
367.4	334.44
367.781	318.62
368.163	319.53
368.544	306.87
368.925	304.16
369.306	299.86
369.688	305.06
370.069	302.35
370.45	310.49
370.831	299.64
371.212	329.24
371.593	293.31
371.974	323.82
372.355	320.88
372.736	319.3
373.117	310.71
373.498	288.11
373.879	332.63
374.26	310.94
374.641	315.46
375.021	307.55
375.402	313.65
375.783	318.4
376.163	321.56
376.544	326.53
376.925	316.14
377.305	343.25
377.686	339.41
378.066	324.27
378.447	322.01
378.827	337.6
379.208	331.5
379.588	320.43
379.968	334.67
380.349	324.95
380.729	336.7
381.109	328.11
381.489	349.58
381.87	331.73
382.25	342.58
382.63	359.3
383.01	348
383.39	343.48
383.77	345.06
384.15	348.9
384.53	358.17
384.91	342.12
385.29	360.43
385.67	343.71
386.049	373.31
386.429	345.97
386.809	343.71
387.189	371.28
387.568	360.88
387.948	360.2
388.328	366.53
388.707	351.62
389.087	375.8
389.466	359.3
389.846	365.63
390.225	340.99
390.605	360.88
390.984	353.42
391.363	386.64
391.743	363.59
392.122	367.43
392.501	357.26
392.881	375.57
393.26	375.12
393.639	380.99
394.018	381.22
394.397	372.18
394.776	375.8
395.155	364.04
395.534	380.99
395.913	373.54
396.292	393.65
396.671	377.83
397.05	395
397.429	377.83
397.808	377.6
398.186	366.3
398.565	382.57
398.944	385.06
399.323	387.09
399.701	385.74
400.08	395.68
400.458	382.12
400.837	402.46
401.215	386.42
401.594	391.61
401.972	395
402.351	427.09
402.729	397.72
403.107	388.68
403.486	407.43
403.864	395.46
404.242	420.09
404.62	413.08
404.999	413.76
405.377	424.83
405.755	420.09
406.133	421.67
406.511	418.51
406.889	436.13
407.267	425.74
407.645	410.14
408.023	442.69
408.401	423.48
408.779	451.73
409.156	450.82
409.534	416.25
409.912	441.78
410.29	439.75
410.667	429.13
411.045	446.98
411.422	433.19
411.8	461.44
412.178	458.96
412.555	446.53
412.933	485.4
413.31	445.62
413.687	464.61
414.065	477.71
414.442	462.35
414.819	474.78
415.197	483.14
415.574	460.31
415.951	490.37
416.328	489.46
416.705	481.56
417.082	467.09
417.46	494.66
417.837	482.46
418.214	487.43
418.591	507.54
418.967	490.82
419.344	509.8
419.721	501.22
420.098	496.24
420.475	505.28
420.852	534.21
421.228	510.93
421.605	534.21
421.982	516.36
422.358	523.14
422.735	534.89
423.111	531.95
423.488	549.35
423.864	520.65
424.241	534.21
424.617	550.25
424.994	552.97
425.37	542.34
425.746	554.1
426.123	543.02
426.499	588.67
426.875	549.58
427.251	559.52
427.627	578.05
428.003	557.49
428.379	577.82
428.756	565.62
429.132	596.35
429.507	592.96
429.883	576.92
430.259	587.09
430.635	587.77
431.011	593.42
431.387	606.98
431.763	610.82
432.138	608.33
432.514	632.51
432.89	621.21
433.265	636.81
433.641	631.61
434.016	636.35
434.392	639.74
434.767	657.6
435.143	646.52
435.518	673.41
435.894	684.26
436.269	659.86
436.644	677.48
437.02	675.67
437.395	681.78
437.77	658.5
438.145	693.53
438.52	710.48
438.895	710.02
439.271	703.24
439.646	716.13
440.021	722
440.395	734.2
440.77	712.28
441.145	735.11
441.52	722.9
441.895	749.12
442.27	751.15
442.645	742.57
443.019	768.78
443.394	763.36
443.769	761.55
444.143	747.76
444.518	752.51
444.892	746.86
445.267	770.81
445.641	772.39
446.016	764.94
446.39	778.27
446.764	761.55
447.139	797.93
447.513	789.12
447.887	790.93
448.262	802.68
448.636	800.87
449.01	814.43
449.384	802.9
449.758	824.6
450.132	823.47
450.506	821.66
450.88	826.18
451.254	842.45
451.628	852.62
452.002	852.17
452.376	842.45
452.75	853.52
453.123	875.9
453.497	875.67
453.871	880.64
454.244	894.65
454.618	893.97
454.992	911.37
455.365	909.57
455.739	934.88
456.112	918.61
456.486	912.05
456.859	934.88
457.232	965.16
457.606	972.16
457.979	971.71
458.352	941.66
458.725	1004.71
459.099	1009.22
459.472	1043.8
459.845	1014.65
460.218	1015.55
460.591	1051.48
460.964	1023.01
461.337	1044.03
461.71	1082.9
462.083	1095.32
462.456	1091.93
462.829	1102.78
463.201	1105.72
463.574	1121.54
463.947	1133.52
464.32	1127.41
464.692	1162.89
465.065	1174.42
465.438	1169.9
465.81	1216.9
466.183	1222.55
466.555	1236.79
466.928	1232.72
467.3	1257.58
467.672	1282.44
468.045	1295.09
468.417	1307.3
468.789	1310.01
469.161	1327.86
469.534	1353.85
469.906	1369.89
470.278	1386.39
470.65	1408.99
471.022	1436.56
471.394	1465.48
471.766	1486.5
472.138	1493.05
472.51	1527.4
472.882	1571.47
473.253	1573.73
473.625	1618.7
473.997	1655.54
474.369	1671.35
474.74	1700.96
475.112	1737.12
475.484	1771.69
475.855	1794.51
476.227	1819.37
476.598	1868.64
476.97	1911.12
477.341	1959.26
477.713	1993.83
478.084	2029.76
478.455	2052.36
478.827	2099.14
479.198	2187.05
479.569	2185.47
479.94	2233.15
480.311	2303.43
480.682	2368.96
481.053	2412.35
481.424	2446.48
481.795	2510.88
482.166	2568.28
482.537	2640.14
482.908	2718.78
483.279	2733.47
483.65	2851.21
484.021	2884.66
484.391	2963.75
484.762	3043.52
485.133	3075.84
485.503	3139.79
485.874	3206.46
486.244	3230.18
486.615	3406.22
486.985	3392.67
487.356	3504.75
487.726	3556.05
488.097	3661.36
488.467	3736.38
488.837	3807.57
489.207	3843.05
489.578	3991.29
489.948	4045.3
490.318	4084.17
490.688	4209.59
491.058	4266.77
491.428	4368.68
491.798	4419.08
492.168	4547.89
492.538	4574.33
492.908	4659.75
493.278	4746.3
493.648	4807.09
494.017	4892.06
494.387	4983.36
494.757	5059.74
495.126	5157.14
495.496	5182.22
495.866	5196.69
496.235	5317.36
496.605	5356.68
496.974	5414.53
497.344	5528.2
497.713	5605.04
498.082	5654.3
498.452	5752.6
498.821	5819.72
499.19	5844.58
499.559	5904.92
499.928	5931.13
500.298	6014.97
500.667	6104.46
501.036	6101.97
501.405	6200.73
501.774	6212.48
502.143	6329.54
502.512	6350.1
502.88	6426.26
503.249	6429.65
503.618	6482.3
503.987	6617.89
504.356	6616.76
504.724	6648.17
505.093	6715.97
505.462	6734.72
505.83	6798.45
506.199	6880.26
506.567	7016.3
506.936	6974.94
507.304	7058.56
507.672	7121.83
508.041	7088.16
508.409	7156.18
508.777	7202.06
509.145	7360.92
509.514	7310.75
509.882	7420.13
510.25	7391.43
510.618	7519.79
510.986	7481.6
511.354	7574.02
511.722	7663.97
512.09	7655.15
512.458	7736.51
512.826	7753.68
513.193	7716.17
513.561	7800.23
513.929	7898.99
514.297	7952.77
514.664	8001.36
515.032	8025.54
515.4	8100.56
515.767	8058.53
516.135	8174.23
516.502	8133.78
516.869	8308.92
517.237	8294.01
517.604	8285.19
517.972	8344.17
518.339	8402.93
518.706	8433.66
519.073	8471.4
519.44	8459.65
519.808	8589.36
520.175	8574
520.542	8681.34
520.909	8651.51
521.276	8739.42
521.643	8776.93
522.009	8862.58
522.376	8921.79
522.743	8920.2
523.11	9046.75
523.477	9049.92
523.843	9151.84
524.21	9218.95
524.577	9209.24
524.943	9308.44
525.31	9315.67
525.676	9460.3
526.043	9429.12
526.409	9533.97
526.776	9560.86
527.142	9610.13
527.508	9724.93
527.874	9785.04
528.241	9761.31
528.607	9808.54
528.973	9899.84
529.339	9910.46
529.705	10048.54
530.071	10117.46
530.437	10148.87
530.803	10139.15
531.169	10194.52
531.535	10158.36
531.901	10224.35
532.267	10240.85
532.632	10430.9
532.998	10401.52
533.364	10548.18
533.73	10537.11
534.095	10596.09
534.461	10569.43
534.826	10703.89
535.192	10642.87
535.557	10813.26
535.923	10746.14
536.288	10842.19
536.653	10935.52
537.019	10855.07
537.384	10938.68
537.749	10988.85
538.114	10984.1
538.479	11093.93
538.845	11072.24
539.21	11106.13
539.575	11189.52
539.94	11204.21
540.305	11331.21
540.67	11309.74
541.034	11301.61
541.399	11401.49
541.764	11470.19
542.129	11453.7
542.494	11504.54
542.858	11528.95
543.223	11538.21
543.587	11707.7
543.952	11668.38
544.316	11729.62
544.681	11731.65
545.045	11830.86
545.41	11830.18
545.774	11914.47
546.138	11940.01
546.503	12038.09
546.867	12029.95
547.231	12134.13
547.595	12152.43
547.959	12133.23
548.324	12195.6
548.688	12236.73
549.052	12299.78
549.416	12317.85
549.779	12322.15
550.143	12365.76
550.507	12432.43
550.871	12536.83
551.235	12518.3
551.599	12670.39
551.962	12658.18
552.326	12673.1
552.689	12758.29
553.053	12697.05
553.417	12739.09
553.78	13034.67
554.143	12819.54
554.507	12938.63
554.87	12976.37
555.234	13073.09
555.597	13010.49
555.96	13048.68
556.323	13057.95
556.686	13112.86
557.05	13197.83
557.413	13179.75
557.776	13282.12
558.139	13377.94
558.502	13363.25
558.865	13450.71
559.228	13519.63
559.59	13561.21
559.953	13572.96
560.316	13775.44
560.679	13728.89
561.041	13805.95
561.404	13826.74
561.767	13919.17
562.129	13902.67
562.492	13933.18
562.854	14009.34
563.217	13961.88
563.579	14056.34
563.941	14130.01
564.304	14202.1
564.666	14238.71
565.028	14294.98
565.39	14311.47
565.753	14441.19
566.115	14444.8
566.477	14451.36
566.839	14522.32
567.201	14561.86
567.563	14603.22
567.925	14635.08
568.287	14778.13
568.648	14784.46
569.01	14830.33
569.372	14889.09
569.734	14931.34
570.095	15059.25
570.457	15049.53
570.819	15146.71
571.18	15140.15
571.542	15266.93
571.903	15255.4
572.265	15368.17
572.626	15452.23
572.987	15426.25
573.349	15599.35
573.71	15710.08
574.071	15834.15
574.432	15826.91
574.794	16035.27
575.155	15996.63
575.516	16057.19
575.877	16251.76
576.238	16239.56
576.599	16428.71
576.96	16400.68
577.32	16616.05
577.681	16699.43
578.042	16795.48
578.403	16901.01
578.763	17039.09
579.124	17272.07
579.485	17335.35
579.845	17580.99
580.206	17562.01
580.566	17715
580.927	17939.18
581.287	18073.18
581.648	18157.25
582.008	18379.16
582.368	18567.18
582.728	18677.01
583.089	18826.16
583.449	19109.54
583.809	19276.99
584.169	19424.56
584.529	19602.41
584.889	19946.13
585.249	20017.76
585.609	20164.65
585.969	20563.06
586.329	20642.15
586.688	20818.87
587.048	21185.87
587.408	21333.89
587.768	21551.28
588.127	21769.36
588.487	22059.74
588.846	22440.07
589.206	22445.27
589.565	22725.26
589.925	23122.54
590.284	23166.16
590.643	23605.01
591.003	23806.59
591.362	24062.4
591.721	24298.56
592.08	24534.26
592.44	24879.78
592.799	25194.35
593.158	25316.83
593.517	25523.61
593.876	25981
594.235	26139.41
594.593	26342.8
594.952	26784.14
595.311	26854.87
595.67	27185.71
596.029	27600.84
596.387	27751.8
596.746	27996.99
597.104	28143.88
597.463	28505
597.822	28750.19
598.18	28989.73
598.538	29138.2
598.897	29590.62
599.255	29579.55
599.613	30162.36
599.972	30172.53
600.33	30456.13
600.688	30640.76
601.046	30951.49
601.404	31300.86
601.762	31417.92
602.12	31715.08
602.478	31815.19
602.836	32144.9
603.194	32174.73
603.552	32424.67
603.91	32493.37
604.268	32889.52
604.625	33091.77
604.983	33347.36
605.341	33379
605.698	33724.75
606.056	33888.81
606.413	33989.83
606.771	34225.98
607.128	34520.89
607.485	34433.66
607.843	34691.96
608.2	34976.69
608.557	35170.59
608.914	35315.22
609.272	35708.65
609.629	35751.81
609.986	35934.86
610.343	35971.7
610.7	36352.93
611.057	36434.06
611.414	36424.34
611.771	36769.87
612.127	36877.21
612.484	37092.57
612.841	37299.8
613.198	37262.06
613.554	37383.41
613.911	37687.81
614.267	37773.91
614.624	37823.4
614.98	37896.84
615.337	38287.57
615.693	38288.02
616.05	38332.99
616.406	38704.05
616.762	38626.09
617.118	38765.07
617.475	38985.4
617.831	39037.38
618.187	39083.48
618.543	39211.38
618.899	39474.2
619.255	39475.56
619.611	39476.91
619.967	39666.29
620.323	39844.36
620.678	39918.94
621.034	39799.62
621.39	39824.02
621.746	39905.83
622.101	40459.49
622.457	40124.13
622.812	40362.31
623.168	40457.23
623.523	40494.06
623.879	40574.96
624.234	40472.59
624.589	40619.71
624.945	40764.79
625.3	40868.52
625.655	40775.18
626.01	40873.04
626.365	40963.2
626.72	40923.66
627.075	41195.74
627.43	41000.04
627.785	40960.04
628.14	41119.13
628.495	41243.87
628.85	41306.7
629.205	41081.62
629.559	41435.05
629.914	41259.24
630.269	41257.43
630.623	41302.18
630.978	41186.02
631.332	41435.73
631.687	41505.79
632.041	41481.16
632.396	41487.48
632.75	41265.57
633.104	41426.47
633.459	41279.13
633.813	41414.04
634.167	41351.21
634.521	41383.3
634.875	41547.59
635.229	41420.82
635.583	41353.02
635.937	41268.51
636.291	41359.8
636.645	41234.38
636.999	41233.03
637.352	41454.49
637.706	41175.63
638.06	41391.67
638.413	41376.3
638.767	41211.78
639.121	41321.84
639.474	41108.96
639.828	41189.64
640.181	41229.18
640.534	41155.06
640.888	41211.33
641.241	40974.05
641.594	41134.27
641.947	41153.25
642.301	41073.71
642.654	41018.12
643.007	41038.23
643.36	41042.3
643.713	40906.93
644.066	41203.2
644.419	40933.6
644.771	40735.19
645.124	40263.79
645.477	40301.07
645.83	40066.95
646.182	39878.03
646.535	39758.71
646.888	39868.32
647.24	39713.29
647.593	39823.8
647.945	39851.82
648.298	39610.47
648.65	39582
649.002	39509.91
649.355	39652.5
649.707	39701.54
650.059	39814.08
650.411	40276.67
650.763	40372.71
651.115	40659.26
651.467	40537.9
651.819	40649.09
652.171	40485.7
652.523	40347.63
652.875	40371.81
653.227	40255.2
653.578	40511.46
653.93	40474.85
654.282	40243.67
654.633	40172.04
654.985	40335.2
655.337	40275.76
655.688	40365.48
656.039	40494.29
656.391	40073.28
656.742	40322.54
657.094	40184.92
657.445	40285.48
657.796	40155.99
658.147	40080.97
658.498	40173.62
658.849	40226.5
659.2	40227.85
659.551	40039.61
659.902	40265.82
660.253	40111.7
660.604	40100.63
660.955	40086.84
661.306	40104.24
661.656	40050.68
662.007	40102.89
662.358	40013.17
662.708	40113.06
663.059	40054.75
663.409	39740.64
663.76	40108.99
664.11	40080.06
664.461	39978.82
664.811	40064.02
665.161	40093.85
665.511	39825.38
665.862	39986.96
666.212	40092.49
666.562	40048.42
666.912	40005.49
667.262	39924.81
667.612	40027.18
667.962	40080.51
668.312	39859.5
668.662	40202.09
669.011	39977.24
669.361	39797.36
669.711	39926.17
670.06	39831.25
670.41	39913.74
670.76	39877.36
671.109	39977.92
671.459	39866.28
671.808	39728.88
672.157	39884.81
672.507	39547.87
672.856	39589.45
673.205	39769.79
673.554	39781.54
673.904	39535.9
674.253	39774.31
674.602	39691.37
674.951	39158.05
675.3	38989.47
675.649	39526.86
675.998	39496.8
676.346	39640.3
676.695	39738.6
677.044	39460.19
677.393	39516.69
677.741	39427.42
678.09	39378.84
678.438	39349.23
678.787	39443.47
679.135	39494.31
679.484	39102.23
679.832	39302.23
680.181	39080.54
680.529	39185.4
680.877	39015.46
681.225	39080.77
681.573	39313.3
681.922	39026.53
682.27	38938.62
682.618	38872.86
682.966	38809.81
683.314	38934.33
683.661	38816.59
684.009	38617.5
684.357	38525.07
684.705	38639.65
685.053	38585.19
685.4	38463.16
685.748	38233.33
686.095	38288.24
686.443	38115.14
686.79	38200.11
687.138	38287.34
687.485	38248.47
687.832	38055.48
688.18	38134.35
688.527	38009.83
688.874	37907.24
689.221	37893
689.568	37729.62
689.915	37739.56
690.262	37578.21
690.609	37405.56
690.956	37498.21
691.303	37415.95
691.65	37161.95
691.997	37041.27
692.344	36906.59
692.69	36837.44
693.037	37063.19
693.383	36672.69
693.73	36780.26
694.077	36546.14
694.423	36658.46
694.769	36387.5
695.116	36361.29
695.462	36345.47
695.808	36234.51
696.155	36302.08
696.501	36089.21
696.847	36065.7
697.193	35892.15
697.539	35995.65
697.885	35706.17
698.231	35597.92
698.577	35585.26
698.923	35517.02
699.269	35381.43
699.614	35254.43
699.96	35177.14
700.306	35071.38
700.651	34991.61
700.997	34936.02
701.342	34879.52
701.688	34789.81
702.033	34578.06
702.379	34715.68
702.724	34585.97
703.069	34594.33
703.415	34211.06
703.76	34283.6
704.105	34263.72
704.45	34231.4
704.795	34082.03
705.14	33875.93
705.485	33985.53
705.83	33881.35
706.175	33789.61
706.52	33687.69
706.865	33541.48
707.209	33687.46
707.554	33531.08
707.899	33494.47
708.243	33347.36
708.588	33243.86
708.932	33032.79
709.277	33047.25
709.621	33051.09
709.966	32969.06
710.31	32955.73
710.654	32585.12
710.998	32682.52
711.342	32742.4
711.687	32575.4
712.031	32501.05
712.375	32373.15
712.719	32358.23
713.063	32338.34
713.407	32396.65
713.75	32271.45
714.094	32224.9
714.438	32022.42
714.782	32136.77
715.125	32132.02
715.469	32072.14
715.812	31928.64
716.156	31677.35
716.499	31812.93
716.843	31673.5
717.186	31479.38
717.53	31728.64
717.873	31661.98
718.216	31541.08
718.559	31379.27
718.902	31180.41
719.246	31296.79
719.589	31108.32
719.932	31063.35
720.275	31134.53
720.617	31089.11
720.96	31064.71
721.303	31122.11
721.646	30848.67
721.989	30718.5
722.331	30898.38
722.674	30778.84
723.016	30742.91
723.359	30679.41
723.701	30757.82
724.044	30502.69
724.386	30357.61
724.729	30505.62
725.071	30420.43
725.413	30451.16
725.755	30415.91
726.097	30243.94
726.439	30161.9
726.782	30212.52
727.124	30243.26
727.465	30019.76
727.807	30065.86
728.149	29986.54
728.491	29990.38
728.833	29996.94
729.175	29864.74
729.516	29751.75
729.858	29728.7
730.199	29768.69
730.541	29717.85
730.882	29543.16
731.224	29808.02
731.565	29530.96
731.906	29539.77
732.248	29530.73
732.589	29290.29
732.93	29350.85
733.271	29370.51
733.612	29261.14
733.953	29365.77
734.294	29295.71
734.635	29103.85
734.976	29303.17
735.317	29131.88
735.658	29077.87
735.999	29072.89
736.339	29053.69
736.68	29059.56
737.021	28938.21
737.361	28776.63
737.702	28964.2
738.042	28879
738.383	28688.05
738.723	28783.18
739.063	28732.34
739.404	28773.47
739.744	28631.1
740.084	28508.16
740.424	28582.51
740.764	28559.23
741.104	28656.86
741.444	28330.77
741.784	28295.29
742.124	28372.35
742.464	28273.59
742.804	28207.61
743.143	28237.44
743.483	28148.4
743.823	28127.83
744.162	28125.8
744.502	28086.25
744.841	27964.22
745.181	28077.67
745.52	27958.8
745.86	28065.46
746.199	27889.42
746.538	27981.62
746.877	27959.7
747.216	27804.45
747.556	27746.83
747.895	27812.59
748.234	27726.49
748.573	27613.05
748.911	27470.22
749.25	27610.33
749.589	27478.59
749.928	27429.32
750.267	27541.63
750.605	27227.29
750.944	27387.97
751.283	27282.43
751.621	27249.66
751.96	27204.69
752.298	27081.08
752.636	27197.46
752.975	27001.99
753.313	26885.83
753.651	27015.77
753.989	26784.82
754.327	26890.8
754.666	26686.06
755.004	26786.17
755.342	26732.84
755.679	26581.89
756.017	26547.76
756.355	26529.46
756.693	26549.12
757.031	26390.25
757.368	26421.89
757.706	26333.08
758.044	26159.52
758.381	26289.01
