Data from hue_160_FLMS001491_00040.txt Node
Date: Tue Feb 07 16:51:07 GMT 2017
User: dcchb
Spectrometer: FLMS00149
Trigger mode: 0
Integration Time (sec): 2.000000E-2
Scans to average: 10
Electric dark correction enabled: true
Nonlinearity correction enabled: false
Boxcar width: 0
XAxis mode: Wavelengths
Number of Pixels in Spectrum: 2048
>>>>>Begin Spectral Data<<<<<
341.393	-3.81
341.776	-3.81
342.16	-3.81
342.543	-56.92
342.927	-65.51
343.31	-63.92
343.693	-76.13
344.077	-53.08
344.46	-77.03
344.843	-52.85
345.226	-71.16
345.61	-32.51
345.993	-9.91
346.376	-13.3
346.759	28.5
347.142	44.32
347.525	51.33
347.908	69.4
348.291	77.09
348.674	84.77
349.057	94.49
349.44	115.73
349.823	151.44
350.206	168.84
350.588	202.96
350.971	210.42
351.354	216.29
351.737	236.18
352.119	248.84
352.502	276.41
352.884	278.44
353.267	306.69
353.65	288.38
354.032	289.06
354.414	292.45
354.797	313.69
355.179	304.2
355.562	330.87
355.944	304.65
356.326	341.49
356.709	339.23
357.091	337.19
357.473	318.89
357.855	352.79
358.238	335.16
358.62	341.49
359.002	345.33
359.384	334.26
359.766	340.81
360.148	343.75
360.53	335.39
360.912	339.45
361.294	315.73
361.676	308.72
362.057	324.77
362.439	320.7
362.821	332.45
363.203	339
363.584	300.36
363.966	309.62
364.348	317.31
364.729	336.52
365.111	336.06
365.493	305.1
365.874	303.75
366.256	301.49
366.637	306.23
367.019	296.07
367.4	313.01
367.781	315.95
368.163	308.04
368.544	317.08
368.925	309.85
369.306	328.16
369.688	297.42
370.069	317.76
370.45	311.21
370.831	313.69
371.212	305.78
371.593	290.87
371.974	295.16
372.355	311.66
372.736	310.08
373.117	313.24
373.498	305.78
373.879	305.1
374.26	312.11
374.641	317.08
375.021	310.3
375.402	339.91
375.783	319.79
376.163	324.77
376.544	325.67
376.925	317.76
377.305	327.93
377.686	304.88
378.066	309.85
378.447	320.7
378.827	347.82
379.208	304.2
379.588	321.15
379.968	326.35
380.349	325.9
380.729	328.61
381.109	327.93
381.489	334.03
381.87	326.35
382.25	321.83
382.63	348.27
383.01	345.33
383.39	321.15
383.77	343.3
384.15	331.32
384.53	323.18
384.91	317.99
385.29	356.4
385.67	333.58
386.049	348.04
386.429	338.78
386.809	338.55
387.189	338.1
387.568	351.88
387.948	357.08
388.328	346.91
388.707	359.79
389.087	353.24
389.466	357.76
389.846	338.55
390.225	362.05
390.605	359.57
390.984	354.6
391.363	367.48
391.743	353.69
392.122	359.34
392.501	340.36
392.881	360.02
393.26	373.8
393.639	368.15
394.018	372
394.397	378.1
394.776	360.24
395.155	360.7
395.534	375.16
395.913	371.54
396.292	370.19
396.671	367.7
397.05	379.91
397.429	405.67
397.808	395.05
398.186	376.97
398.565	371.77
398.944	381.04
399.323	363.63
399.701	378.78
400.08	402.73
400.458	377.19
400.837	379.23
401.215	390.53
401.594	394.59
401.972	380.81
402.351	372.67
402.729	408.83
403.107	390.3
403.486	363.86
403.864	410.64
404.242	400.02
404.62	405.44
404.999	411.09
405.377	397.98
405.755	373.58
406.133	395.72
406.511	403.41
406.889	424.88
407.267	400.92
407.645	430.07
408.023	438.66
408.401	393.69
408.779	401.83
409.156	442.05
409.534	427.14
409.912	433.69
410.29	450.86
410.667	458.55
411.045	486.12
411.422	464.65
411.8	465.33
412.178	466
412.555	436.85
412.933	447.93
413.31	443.41
413.687	444.54
414.065	461.26
414.442	472.78
414.819	505.78
415.197	491.09
415.574	476.63
415.951	464.65
416.328	486.57
416.705	494.48
417.082	494.25
417.46	510.07
417.837	499.45
418.214	491.09
418.591	481.6
418.967	505.55
419.344	506.23
419.721	510.52
420.098	514.82
420.475	491.54
420.852	517.3
421.228	522.73
421.605	516.62
421.982	534.25
422.358	513.24
422.735	532.44
423.111	524.53
423.488	536.51
423.864	546.68
424.241	545.55
424.617	545.1
424.994	570.63
425.37	551.2
425.746	562.27
426.123	546.45
426.499	562.27
426.875	563.18
427.251	577.41
427.627	572.44
428.003	576.74
428.379	592.33
428.756	614.93
429.132	600.69
429.507	609.96
429.883	604.98
430.259	638.88
430.635	604.76
431.011	628.71
431.387	622.16
431.763	652.44
432.138	628.94
432.514	651.99
432.89	643.18
433.265	663.51
433.641	669.16
434.016	657.19
434.392	659.67
434.767	672.33
435.143	698.77
435.518	694.47
435.894	694.47
436.269	687.02
436.644	712.33
437.02	710.52
437.395	717.75
437.77	709.61
438.145	733.57
438.52	747.81
438.895	740.57
439.271	735.6
439.646	755.71
440.021	765.88
440.395	761.82
440.77	745.77
441.145	769.05
441.52	774.47
441.895	783.28
442.27	780.57
442.645	787.58
443.019	801.82
443.394	808.59
443.769	817.18
444.143	814.47
444.518	806.79
444.892	846.33
445.267	830.06
445.641	846.11
446.016	839.33
446.39	842.04
446.764	818.31
447.139	851.31
447.513	870.74
447.887	851.31
448.262	849.27
448.636	861.02
449.01	875.03
449.384	884.07
449.758	899.89
450.132	910.74
450.506	924.98
450.88	909.83
451.254	922.04
451.628	922.04
452.002	931.3
452.376	935.14
452.75	962.26
453.123	964.3
453.497	960.68
453.871	971.75
454.244	985.99
454.618	1012.66
454.992	1006.33
455.365	1011.3
455.739	1050.17
456.112	1063.96
456.486	1059.21
456.859	1026.22
457.232	1071.86
457.606	1092.43
457.979	1082.49
458.352	1121.81
458.725	1132.88
459.099	1112.32
459.472	1128.13
459.845	1158.64
460.218	1160
460.591	1177.4
460.964	1181.01
461.337	1226.66
461.71	1233.67
462.083	1261.46
462.456	1275.47
462.829	1256.49
463.201	1294.23
463.574	1291.75
463.947	1307.11
464.32	1319.54
464.692	1312.99
465.065	1380.33
465.438	1413.55
465.81	1404.06
466.183	1462.81
466.555	1465.53
466.928	1481.8
467.3	1467.56
467.672	1491.97
468.045	1529.93
468.417	1556.37
468.789	1580.55
469.161	1592.53
469.534	1640.89
469.906	1646.31
470.278	1661.91
470.65	1714.79
471.022	1734.9
471.394	1799.98
471.766	1790.72
472.138	1823.71
472.51	1909.58
472.882	1915.91
473.253	1947.1
473.625	2004.95
473.997	2053.08
474.369	2051.27
474.74	2115.23
475.112	2137.83
475.484	2204.94
475.855	2282.68
476.227	2289.46
476.598	2359.97
476.97	2394.99
477.341	2506.85
477.713	2531.94
478.084	2543.92
478.455	2679.96
478.827	2764.48
479.198	2819.84
479.569	2849.44
479.94	2950.46
480.311	3018.93
480.682	3146.84
481.053	3197.68
481.424	3255.08
481.795	3335.08
482.166	3420.73
482.537	3475.42
482.908	3642.87
483.279	3711.34
483.65	3821.85
484.021	3882.64
484.391	3992.92
484.762	4030.2
485.133	4133.93
485.503	4253.48
485.874	4409.18
486.244	4483.75
486.615	4617.31
486.985	4685.33
487.356	4796.96
487.726	4923.29
488.097	5083.06
488.467	5120.57
488.837	5327.35
489.207	5467.46
489.578	5496.61
489.948	5624.51
490.318	5752.87
490.688	5834.23
491.058	6002.13
491.428	6142.24
491.798	6250.03
492.168	6349.92
492.538	6477.6
492.908	6621.32
493.278	6728.89
493.648	6803.24
494.017	6946.06
494.387	7085.04
494.757	7191.25
495.126	7317.35
495.496	7350.8
495.866	7415.43
496.235	7527.97
496.605	7725.02
496.974	7813.61
497.344	7930.89
497.713	7960.04
498.082	8095.41
498.452	8141.96
498.821	8334.27
499.19	8364.33
499.559	8449.75
499.928	8572.01
500.298	8642.74
500.667	8688.61
501.036	8765.22
501.405	8901.72
501.774	8928.83
502.143	9009.73
502.512	9103.07
502.88	9174.7
503.249	9218.09
503.618	9301.93
503.987	9410.4
504.356	9459.21
504.724	9547.35
505.093	9527.91
505.462	9586.44
505.83	9700.11
506.199	9810.62
506.567	9910.28
506.936	9879.09
507.304	10028.24
507.672	10069.82
508.041	10091.06
508.409	10183.72
508.777	10188.91
509.145	10315.46
509.514	10317.5
509.882	10347.55
510.25	10364.05
510.618	10451.05
510.986	10399.75
511.354	10510.94
511.722	10677.26
512.09	10705.06
512.458	10705.06
512.826	10741.44
513.193	10837.71
513.561	10840.2
513.929	10889.69
514.297	10992.51
514.664	10976.69
515.032	11029.79
515.4	11076.12
515.767	11107.53
516.135	11140.07
516.502	10967.88
516.869	11213.07
517.237	11189.56
517.604	11207.87
517.972	11242.67
518.339	11308.88
518.706	11298.04
519.073	11241.09
519.44	11318.6
519.808	11373.06
520.175	11346.85
520.542	11449.44
520.909	11505.71
521.276	11434.98
521.643	11548.65
522.009	11481.76
522.376	11587.29
522.743	11609.21
523.11	11666.61
523.477	11669.78
523.843	11684.47
524.21	11767.4
524.577	11814.63
524.943	11745.93
525.31	11842.2
525.676	11855.08
526.043	11890.56
526.409	11859.15
526.776	11908.64
527.142	11884.69
527.508	11916.78
527.874	11918.81
528.241	11964.91
528.607	11903.22
528.973	11963.78
529.339	11871.81
529.705	12009.88
530.071	12020.96
530.437	12111.35
530.803	12029.99
531.169	12048.53
531.535	11927.17
531.901	11900.51
532.267	11895.76
532.632	11924.46
532.998	11932.82
533.364	11928.98
533.73	11886.5
534.095	11944.12
534.461	11942.99
534.826	11912.26
535.192	11859.15
535.557	11903.22
535.923	11834.52
536.288	11817.34
536.653	11835.2
537.019	11750.91
537.384	11728.53
537.749	11774.18
538.114	11759.95
538.479	11613.73
538.845	11665.48
539.21	11559.95
539.575	11590.91
539.94	11564.24
540.305	11531.48
540.67	11489.44
541.034	11442.67
541.399	11464.81
541.764	11392.27
542.129	11327.64
542.494	11380.07
542.858	11305.95
543.223	11271.14
543.587	11304.14
543.952	11216.91
544.316	11219.39
544.681	11156.12
545.045	11131.04
545.41	11129.91
545.774	11085.39
546.138	11082.22
546.503	11086.74
546.867	11088.78
547.231	10997.93
547.595	10922.9
547.959	10947.54
548.324	10894.21
548.688	10858.73
549.052	10839.97
549.416	10791.38
549.779	10783.93
550.143	10730.37
550.507	10803.13
550.871	10717.49
551.235	10628
551.599	10676.81
551.962	10649.69
552.326	10624.61
552.689	10642.23
553.053	10577.83
553.417	10459.41
553.78	10644.04
554.143	10556.59
554.507	10483.59
554.87	10528.34
555.234	10558.62
555.597	10450.15
555.96	10413.54
556.323	10503.03
556.686	10448.12
557.05	10409.25
557.413	10410.83
557.776	10460.54
558.139	10353.43
558.502	10336.48
558.865	10364.05
559.228	10307.33
559.59	10432.52
559.953	10321.56
560.316	10363.82
560.679	10360.66
561.041	10371.28
561.404	10391.39
561.767	10374.9
562.129	10378.06
562.492	10377.38
562.854	10374.44
563.217	10358.4
563.579	10385.74
563.941	10397.95
564.304	10387.55
564.666	10469.13
565.028	10423.03
565.39	10448.12
565.753	10439.3
566.115	10456.93
566.477	10442.47
566.839	10363.37
567.201	10529.92
567.563	10441.11
567.925	10473.43
568.287	10457.15
568.648	10463.03
569.01	10521.33
569.372	10515.91
569.734	10458.28
570.095	10533.99
570.457	10533.99
570.819	10553.42
571.18	10546.87
571.542	10540.99
571.903	10545.74
572.265	10526.08
572.626	10595.68
572.987	10615.12
573.349	10630.71
573.71	10553.88
574.071	10623.03
574.432	10658.05
574.794	10679.97
575.155	10649.47
575.516	10627.55
575.877	10706.87
576.238	10613.99
576.599	10683.36
576.96	10644.27
577.32	10694.89
577.681	10702.8
578.042	10668.22
578.403	10676.36
578.763	10678.39
579.124	10691.5
579.485	10715
579.845	10744.15
580.206	10684.04
580.566	10672.29
580.927	10749.35
581.287	10747.99
581.648	10664.38
582.008	10758.84
582.368	10691.5
582.728	10683.59
583.089	10692.85
583.449	10627.32
583.809	10649.01
584.169	10659.86
584.529	10606.98
584.889	10636.81
585.249	10587.32
585.609	10638.84
585.969	10686.3
586.329	10627.55
586.688	10627.55
587.048	10629.13
587.408	10554.55
587.768	10594.78
588.127	10556.36
588.487	10528.34
588.846	10651.27
589.206	10459.64
589.565	10552.75
589.925	10542.12
590.284	10516.81
590.643	10528.79
591.003	10575.57
591.362	10570.15
591.721	10494.89
592.08	10512.29
592.44	10529.47
592.799	10510.94
593.158	10447.89
593.517	10467.78
593.876	10480.88
594.235	10442.69
594.593	10411.51
594.952	10387.33
595.311	10500.77
595.67	10441.56
596.029	10485.63
596.387	10457.61
596.746	10559.3
597.104	10455.35
597.463	10450.83
597.822	10454.22
598.18	10425.29
598.538	10365.41
598.897	10474.78
599.255	10334.22
599.613	10545.74
599.972	10428.68
600.33	10455.8
600.688	10399.53
601.046	10451.05
601.404	10465.97
601.762	10491.73
602.12	10497.15
602.478	10446.99
602.836	10439.98
603.194	10347.1
603.552	10460.09
603.91	10359.76
604.268	10447.44
604.625	10369.25
604.983	10469.81
605.341	10384.39
605.698	10474.56
606.056	10445.63
606.413	10530.37
606.771	10421.22
607.128	10460.54
607.485	10409.7
607.843	10451.73
608.2	10512.29
608.557	10470.49
608.914	10515.23
609.272	10599.3
609.629	10529.02
609.986	10519.07
610.343	10538.06
610.7	10524.72
611.057	10544.84
611.414	10536.7
611.771	10559.52
612.127	10563.37
612.484	10472.07
612.841	10512.97
613.198	10568.56
613.554	10523.14
613.911	10569.47
614.267	10546.19
614.624	10609.01
614.98	10527.66
615.337	10634.78
615.693	10654.44
616.05	10612.86
616.406	10639.97
616.762	10668.45
617.118	10649.47
617.475	10643.14
617.831	10674.78
618.187	10670.71
618.543	10732.18
618.899	10763.59
619.255	10742.8
619.611	10751.84
619.967	10673.19
620.323	10735.11
620.678	10688.11
621.034	10725.4
621.39	10695.34
621.746	10691.72
622.101	10797.71
622.457	10690.82
622.812	10698.28
623.168	10739.63
623.523	10704.15
623.879	10759.29
624.234	10681.56
624.589	10717.49
624.945	10698.96
625.3	10758.16
625.655	10703.02
626.01	10784.38
626.365	10730.59
626.72	10711.84
627.075	10676.58
627.43	10677.49
627.785	10647.88
628.14	10710.26
628.495	10691.72
628.85	10711.84
629.205	10676.36
629.559	10642.01
629.914	10631.16
630.269	10619.86
630.623	10623.25
630.978	10641.78
631.332	10649.01
631.687	10620.77
632.041	10624.61
632.396	10638.17
632.75	10558.62
633.104	10536.02
633.459	10546.19
633.813	10543.48
634.167	10493.31
634.521	10556.36
634.875	10627.77
635.229	10610.14
635.583	10463.26
635.937	10483.59
636.291	10467.78
636.645	10472.3
636.999	10481.56
637.352	10472.07
637.706	10383.26
638.06	10415.12
638.413	10404.95
638.767	10374.22
639.121	10361.11
639.474	10380.55
639.828	10319.3
640.181	10381.68
640.534	10349.36
640.888	10296.71
641.241	10271.17
641.594	10359.76
641.947	10315.92
642.301	10314.56
642.654	10344.39
643.007	10254
643.36	10247.44
643.713	10175.58
644.066	10340.1
644.419	10258.74
644.771	10209.25
645.124	10079.54
645.477	10118.63
645.83	10049.93
646.182	10009.93
646.535	9984.85
646.888	9979.65
647.24	9950.05
647.593	9943.95
647.945	9972.87
648.298	9923.84
648.65	9976.26
649.002	9895.59
649.355	9982.14
649.707	9942.14
650.059	9978.97
650.411	10043.15
650.763	10051.29
651.115	10246.76
651.467	10121.57
651.819	10088.58
652.171	10154.79
652.523	10145.07
652.875	10133.32
653.227	10146.65
653.578	10170.38
653.93	10129.03
654.282	10086.99
654.633	10023.95
654.985	10104.4
655.337	10103.94
655.688	10132.64
656.039	10192.3
656.391	10068.24
656.742	10130.84
657.094	10098.29
657.445	10188.91
657.796	10120.21
658.147	10164.28
658.498	10106.66
658.849	10097.16
659.2	10052.87
659.551	10131.06
659.902	10124.28
660.253	10097.39
660.604	10114.11
660.955	10039.09
661.306	10167.9
661.656	10154.11
662.007	10077.05
662.358	10110.5
662.708	10108.46
663.059	10094.9
663.409	10129.71
663.76	10190.72
664.11	10124.06
664.461	10187.78
664.811	10232.08
665.161	10206.77
665.511	10166.77
665.862	10155.69
666.212	10196.37
666.562	10243.37
666.912	10172.19
667.262	10225.75
667.612	10141.68
667.962	10233.66
668.312	10174.9
668.662	10265.75
669.011	10165.18
669.361	10218.74
669.711	10175.13
670.06	10082.48
670.41	10124.51
670.76	10156.82
671.109	10177.61
671.459	10141.68
671.808	10110.72
672.157	10150.5
672.507	10059.2
672.856	10133.55
673.205	10077.73
673.554	10100.1
673.904	10094.23
674.253	10188.46
674.602	10067.33
674.951	9911.18
675.3	9860.56
675.649	10031.85
675.998	9990.5
676.346	10077.73
676.695	10122.02
677.044	9974
677.393	10047
677.741	10038.18
678.09	10000.9
678.438	9961.12
678.787	10004.06
679.135	9917.96
679.484	9830.73
679.832	9934.23
680.181	9910.95
680.529	9882.93
680.877	9799.09
681.225	9860.79
681.573	9963.61
681.922	9796.83
682.27	9760.9
682.618	9809.04
682.966	9755.48
683.314	9798.41
683.661	9709.38
684.009	9691.3
684.357	9736.95
684.705	9672.77
685.053	9705.54
685.4	9647.91
685.748	9643.84
686.095	9611.53
686.443	9504.19
686.79	9491.98
687.138	9568.82
687.485	9529.04
687.832	9531.3
688.18	9577.4
688.527	9456.05
688.874	9465.54
689.221	9423.74
689.568	9386.45
689.915	9367.47
690.262	9405.88
690.609	9322.95
690.956	9338.09
691.303	9327.47
691.65	9230.52
691.997	9222.84
692.344	9149.17
692.69	9165.21
693.037	9101.26
693.383	9072.33
693.73	9023.52
694.077	8965.22
694.423	9005.89
694.769	8990.75
695.116	8984.2
695.462	8895.16
695.808	8869.4
696.155	8909.85
696.501	8924.77
696.847	8786.24
697.193	8726.13
697.539	8788.5
697.885	8727.26
698.231	8653.13
698.577	8628.05
698.923	8675.28
699.269	8580.82
699.614	8524.1
699.96	8586.7
700.306	8446.59
700.651	8468.51
700.997	8427.83
701.342	8451.11
701.688	8398
702.033	8351.9
702.379	8350.77
702.724	8264.67
703.069	8315.29
703.415	8260.38
703.76	8242.75
704.105	8210.21
704.45	8151.23
704.795	8210.66
705.14	8154.16
705.485	8133.37
705.83	8079.14
706.175	8145.8
706.52	8062.19
706.865	7993.49
707.209	8005.24
707.554	8008.86
707.899	8030.55
708.243	7940.16
708.588	7894.28
708.932	7894.06
709.277	7860.61
709.621	7855.19
709.966	7811.8
710.31	7807.28
710.654	7777.45
710.998	7794.63
711.342	7729.32
711.687	7747.4
712.031	7718.92
712.375	7607.96
712.719	7662.2
713.063	7638.92
713.407	7655.87
713.75	7685.48
714.094	7570.68
714.438	7529.1
714.782	7701.97
715.125	7551.92
715.469	7556.44
715.812	7520.73
716.156	7513.28
716.499	7452.49
716.843	7469.66
717.186	7413.84
717.53	7477.8
717.873	7486.39
718.216	7457.46
718.559	7437.57
718.902	7430.12
719.246	7382.66
719.589	7435.09
719.932	7365.94
720.275	7344.24
720.617	7323.68
720.96	7367.52
721.303	7320.29
721.646	7358.93
721.989	7282.32
722.331	7311.25
722.674	7320.74
723.016	7250.23
723.359	7291.14
723.701	7266.96
724.044	7224.25
724.386	7204.81
724.729	7271.25
725.071	7264.02
725.413	7261.31
725.755	7210.46
726.097	7190.8
726.439	7221.76
726.782	7175.66
727.124	7233.96
727.465	7205.71
727.807	7171.82
728.149	7174.3
728.491	7220.86
728.833	7202.55
729.175	7133.4
729.516	7165.72
729.858	7180.86
730.199	7184.7
730.541	7150.57
730.882	7196.9
731.224	7125.26
731.565	7092.5
731.906	7167.3
732.248	7180.63
732.589	7121.65
732.93	7096.79
733.271	7117.36
733.612	7122.55
733.953	7189.67
734.294	7128.88
734.635	7043.68
734.976	7201.87
735.317	7146.28
735.658	7141.99
735.999	7116
736.339	7160.07
736.68	7167.07
737.021	7147.41
737.361	7081.42
737.702	7200.97
738.042	7155.32
738.383	7177.01
738.723	7170.24
739.063	7206.39
739.404	7236.22
739.744	7201.42
740.084	7181.99
740.424	7230.57
740.764	7259.05
741.104	7288.42
741.444	7266.5
741.784	7175.21
742.124	7304.47
742.464	7285.26
742.804	7272.38
743.143	7360.06
743.483	7311.47
743.823	7270.12
744.162	7409.78
744.502	7445.93
744.841	7438.93
745.181	7461.98
745.52	7450.45
745.86	7489.77
746.199	7539.27
746.538	7564.58
746.877	7632.37
747.216	7692.93
747.556	7677.57
747.895	7767.28
748.234	7741.07
748.573	7804.34
748.911	7897
749.25	7886.15
749.589	8007.73
749.928	7999.59
750.267	8067.16
750.605	8095.18
750.944	8236.2
751.283	8289.98
751.621	8291.79
751.96	8354.38
752.298	8431.22
752.636	8607.49
752.975	8608.62
753.313	8692.91
753.651	8784.43
753.989	8899.91
754.327	8986.68
754.666	9096.29
755.004	9173.57
755.342	9329.73
755.679	9415.6
756.017	9476.62
756.355	9684.29
756.693	9774.69
757.031	9916.15
757.368	9997.96
757.706	10157.73
758.044	10228.69
758.381	10417.61
758.719	10520.88
759.056	10698.96
759.394	10826.64
759.731	10916.13
760.068	11123.58
760.405	11220.3
760.743	11403.12
761.08	11523.57
761.417	11668.2
