Data from hue_140_FLMS001491_00047.txt Node
Date: Tue Feb 07 16:55:59 GMT 2017
User: dcchb
Spectrometer: FLMS00149
Trigger mode: 0
Integration Time (sec): 2.000000E-2
Scans to average: 10
Electric dark correction enabled: true
Nonlinearity correction enabled: false
Boxcar width: 0
XAxis mode: Wavelengths
Number of Pixels in Spectrum: 2048
>>>>>Begin Spectral Data<<<<<
341.393	-7.73
341.776	-7.73
342.16	-7.73
342.543	-66.71
342.927	-58.35
343.31	-73.49
343.693	-65.13
344.077	-65.13
344.46	-61.28
344.843	-52.02
345.226	-49.76
345.61	-37.33
345.993	-4.79
346.376	-17.22
346.759	2.22
347.142	26.17
347.525	53.74
347.908	63.68
348.291	81.99
348.674	86.28
349.057	112.05
349.44	132.61
349.823	120.18
350.206	171.25
350.588	189.33
350.971	219.16
351.354	218.26
351.737	225.04
352.119	240.4
352.502	256.45
352.884	251.93
353.267	278.14
353.65	264.58
354.032	283.11
354.414	309.1
354.797	314.75
355.179	320.85
355.562	320.85
355.944	335.54
356.326	324.24
356.709	322.21
357.091	326.95
357.473	326.5
357.855	339.16
358.238	338.25
358.62	350.46
359.002	339.84
359.384	330.12
359.766	339.16
360.148	331.02
360.53	342.77
360.912	320.4
361.294	337.58
361.676	353.39
362.057	330.57
362.439	337.8
362.821	323.11
363.203	326.95
363.584	327.63
363.966	318.37
364.348	317.92
364.729	337.12
365.111	299.38
365.493	335.54
365.874	321.98
366.256	322.21
366.637	303.9
367.019	296.22
367.4	312.72
367.781	312.04
368.163	311.59
368.544	331.25
368.925	322.44
369.306	316.33
369.688	312.27
370.069	309.55
370.45	307.29
370.831	308.2
371.212	310.23
371.593	324.24
371.974	332.15
372.355	323.56
372.736	289.89
373.117	308.42
373.498	322.89
373.879	298.03
374.26	304.58
374.641	334.86
375.021	333.73
375.402	321.08
375.783	323.79
376.163	308.88
376.544	300.74
376.925	340.51
377.305	327.86
377.686	310.91
378.066	314.3
378.447	338.03
378.827	323.79
379.208	311.59
379.588	336.22
379.968	347.52
380.349	320.63
380.729	324.47
381.109	346.39
381.489	323.11
381.87	344.36
382.25	337.8
382.63	344.81
383.01	341.19
383.39	339.16
383.77	336.22
384.15	328.54
384.53	359.04
384.91	341.87
385.29	344.13
385.67	378.93
386.049	343
386.429	350.46
386.809	362.43
387.189	335.32
387.568	377.57
387.948	355.88
388.328	359.72
388.707	364.92
389.087	354.52
389.466	349.78
389.846	364.69
390.225	361.76
390.605	370.34
390.984	365.82
391.363	357.24
391.743	361.76
392.122	363.56
392.501	377.12
392.881	393.39
393.26	370.12
393.639	370.12
394.018	395.2
394.397	362.89
394.776	376.67
395.155	385.03
395.534	371.25
395.913	364.47
396.292	379.61
396.671	405.14
397.05	376.22
397.429	408.76
397.808	368.54
398.186	365.6
398.565	397.46
398.944	361.53
399.323	382.77
399.701	388.42
400.08	405.6
400.458	393.85
400.837	412.83
401.215	383
401.594	395.88
401.972	405.82
402.351	417.8
402.729	395.65
403.107	428.87
403.486	398.59
403.864	421.64
404.242	414.18
404.62	420.96
404.999	438.14
405.377	413.73
405.755	418.03
406.133	440.85
406.511	416.67
406.889	436.78
407.267	445.6
407.645	431.36
408.023	438.14
408.401	430.68
408.779	432.04
409.156	462.09
409.534	417.8
409.912	452.38
410.29	445.14
410.667	450.34
411.045	428.42
411.422	449.44
411.8	480.85
412.178	452.83
412.555	476.78
412.933	464.58
413.31	460.96
413.687	486.5
414.065	472.26
414.442	484.69
414.819	481.3
415.197	495.31
415.574	477.69
415.951	488.08
416.328	496.44
416.705	482.43
417.082	515.2
417.46	490.57
417.837	515.65
418.214	516.33
418.591	538.7
418.967	510.9
419.344	511.81
419.721	527.4
420.098	521.53
420.475	507.29
420.852	516.55
421.228	524.01
421.605	517.68
421.982	531.47
422.358	542.54
422.735	520.17
423.111	542.77
423.488	547.51
423.864	550
424.241	551.13
424.617	539.15
424.994	565.82
425.37	556.55
425.746	586.38
426.123	551.81
426.499	576.21
426.875	551.36
427.251	561.75
427.627	596.33
428.003	576.44
428.379	605.14
428.756	595.87
429.132	591.35
429.507	601.52
429.883	636.55
430.259	630.22
430.635	604.01
431.011	632.26
431.387	641.07
431.763	656.89
432.138	639.26
432.514	644.01
432.89	650.34
433.265	676.78
433.641	673.16
434.016	675.19
434.392	674.52
434.767	672.48
435.143	697.79
435.518	688.98
435.894	696.89
436.269	726.72
436.644	710.22
437.02	712.93
437.395	705.7
437.77	733.72
438.145	725.14
438.52	728.75
438.895	745.7
439.271	739.37
439.646	756.32
440.021	765.81
440.395	751.58
440.77	767.4
441.145	755.64
441.52	789.32
441.895	793.16
442.27	787.51
442.645	749.54
443.019	804
443.394	791.58
443.769	807.85
444.143	794.29
444.518	821.4
444.892	801.07
445.267	834.29
445.641	822.53
446.016	834.96
446.39	779.82
446.764	854.85
447.139	839.26
447.513	838.81
447.887	839.94
448.262	873.16
448.636	860.73
449.01	879.48
449.384	850.1
449.758	884.45
450.132	885.13
450.506	889.88
450.88	885.13
451.254	887.84
451.628	877
452.002	904.57
452.376	960.38
452.75	965.58
453.123	956.99
453.497	950.44
453.871	973.94
454.244	958.35
454.618	972.59
454.992	986.15
455.365	1016.43
455.739	1001.97
456.112	1016.65
456.486	1019.37
456.859	1045.81
457.232	1049.42
457.606	1075.41
457.979	1052.59
458.352	1081.51
458.725	1099.36
459.099	1102.3
459.472	1115.18
459.845	1117.67
460.218	1132.81
460.591	1168.29
460.964	1156.31
461.337	1169.42
461.71	1177.1
462.083	1186.82
462.456	1219.59
462.829	1223.2
463.201	1243.54
463.574	1283.54
463.947	1287.38
464.32	1283.54
464.692	1292.13
465.065	1309.98
465.438	1349.53
465.81	1362.41
466.183	1370.54
466.555	1385.91
466.928	1427.94
467.3	1422.97
467.672	1443.08
468.045	1497.32
468.417	1493.25
468.789	1475.17
469.161	1525.34
469.534	1554.49
469.906	1592.68
470.278	1600.37
470.65	1629.07
471.022	1660.7
471.394	1720.14
471.766	1737.31
472.138	1743.41
472.51	1799.23
472.882	1838.78
473.253	1844.2
473.625	1888.5
473.997	1923.52
474.369	1959.45
474.74	1991.77
475.112	2079.22
475.484	2094.59
475.855	2180.69
476.227	2177.53
476.598	2276.96
476.97	2303.4
477.341	2350.86
477.713	2406.22
478.084	2431.31
478.455	2516.73
478.827	2585.88
479.198	2678.76
479.569	2728.7
479.94	2827.45
480.311	2878.75
480.682	2955.13
481.053	3064.28
481.424	3119.2
481.795	3208.46
482.166	3279.42
482.537	3351.51
482.908	3462.92
483.279	3545.18
483.65	3658.84
484.021	3777.26
484.391	3871.95
484.762	3933.41
485.133	4005.28
485.503	4131.37
485.874	4243.69
486.244	4339.5
486.615	4455.66
486.985	4561.65
487.356	4680.96
487.726	4807.29
488.097	4892.94
488.467	5015.87
488.837	5244.79
489.207	5289.54
489.578	5438.68
489.948	5541.96
490.318	5713.93
490.688	5758.68
491.058	5884.77
491.428	6042.06
491.798	6126.58
492.168	6304.42
492.538	6400.92
492.908	6553.01
493.278	6657.86
493.648	6801.81
494.017	6946.22
494.387	7068.25
494.757	7170.39
495.126	7363.83
495.496	7349.82
495.866	7472.98
496.235	7649.7
496.605	7725.18
496.974	7874.33
497.344	7963.59
497.713	8043.14
498.082	8171.04
498.452	8360.64
498.821	8367.87
499.19	8489.68
499.559	8592.05
499.928	8730.35
500.298	8782.55
500.667	8997.46
501.036	9025.26
501.405	9111.36
501.774	9101.87
502.143	9238.36
502.512	9318.36
502.88	9451.46
503.249	9519.03
503.618	9621.17
503.987	9755.63
504.356	9792.69
504.724	9846.03
505.093	9872.92
505.462	9927.38
505.83	9984.78
506.199	10119.01
506.567	10228.84
506.936	10270.42
507.304	10375.5
507.672	10435.16
508.041	10447.37
508.409	10600.13
508.777	10657.08
509.145	10762.61
509.514	10753.57
509.882	10817.07
510.25	10877.86
510.618	10961.7
510.986	10928.94
511.354	11093.23
511.722	11104.52
512.09	11274.01
512.458	11156.73
512.826	11299.1
513.193	11352.88
513.561	11300.68
513.929	11415.48
514.297	11550.39
514.664	11584.96
515.032	11566.89
515.4	11597.84
515.767	11734.79
516.135	11688.24
516.502	11631.97
516.869	11791.51
517.237	11739.31
517.604	11765.52
517.972	11891.85
518.339	11862.92
518.706	11923.26
519.073	11884.39
519.44	12014.56
519.808	12079.87
520.175	12083.26
520.542	12061.56
520.909	12180.88
521.276	12165.97
521.643	12267.66
522.009	12200.31
522.376	12265.17
522.743	12221.33
523.11	12270.14
523.477	12413.87
523.843	12421.33
524.21	12489.12
524.577	12530.7
524.943	12526.18
525.31	12531.83
525.676	12691.15
526.043	12675.1
526.409	12673.97
526.776	12757.36
527.142	12639.63
527.508	12649.12
527.874	12774.31
528.241	12835.1
528.607	12757.36
528.973	12751.26
529.339	12688.66
529.705	12853.63
530.071	12769.11
530.437	12838.94
530.803	12766.63
531.169	12920.3
531.535	12785.38
531.901	12747.65
532.267	12711.04
532.632	12813.18
532.998	12710.36
533.364	12812.73
533.73	12779.51
534.095	12797.36
534.461	12814.08
534.826	12787.87
535.192	12822.22
535.557	12826.06
535.923	12698.83
536.288	12747.65
536.653	12702.45
537.019	12703.13
537.384	12624.03
537.749	12610.93
538.114	12560.53
538.479	12554.66
538.845	12658.61
539.21	12570.02
539.575	12480.08
539.94	12559.4
540.305	12538.61
540.67	12485.05
541.034	12433.08
541.399	12373.19
541.764	12371.16
542.129	12423.59
542.494	12359.63
542.858	12317.37
543.223	12339.75
543.587	12306.07
543.952	12220.43
544.316	12193.76
544.681	12155.57
545.045	12171.39
545.41	12232.86
545.774	12146.08
546.138	12025.86
546.503	11962.13
546.867	11979.76
547.231	12053.65
547.595	11991.73
547.959	11951.73
548.324	11875.35
548.688	11876.03
549.052	11856.82
549.416	11904.05
549.779	11827.22
550.143	11735.47
550.507	11838.97
550.871	11784.28
551.235	11697.73
551.599	11726.65
551.962	11755.13
552.326	11658.63
552.689	11685.3
553.053	11638.97
553.417	11641.23
553.78	11683.49
554.143	11457.96
554.507	11582.7
554.87	11500.9
555.234	11588.81
555.597	11552.65
555.96	11491.41
556.323	11437.4
556.686	11381.58
557.05	11480.11
557.413	11464.97
557.776	11524.4
558.139	11464.51
558.502	11481.01
558.865	11415.93
559.228	11469.94
559.59	11473.1
559.953	11424.74
560.316	11467.23
560.679	11483.05
561.041	11529.37
561.404	11555.81
561.767	11553.78
562.129	11442.82
562.492	11545.42
562.854	11432.65
563.217	11495.25
563.579	11480.33
563.941	11499.99
564.304	11517.17
564.666	11570.73
565.028	11567.79
565.39	11553.78
565.753	11555.13
566.115	11616.38
566.477	11693.21
566.839	11658.63
567.201	11690.72
567.563	11631.29
567.925	11733.89
568.287	11639.2
568.648	11649.59
569.01	11728.91
569.372	11743.15
569.734	11677.39
570.095	11662.02
570.457	11716.49
570.819	11670.84
571.18	11710.61
571.542	11784.73
571.903	11840.78
572.265	11796.26
572.626	11829.48
572.987	11795.58
573.349	11885.97
573.71	11808.01
574.071	11974.78
574.432	11847.78
574.794	11913.54
575.155	11922.81
575.516	11825.86
575.877	11907.89
576.238	11873.32
576.599	11912.41
576.96	11903.6
577.32	11935.69
577.681	11930.04
578.042	11964.16
578.403	11951.06
578.763	11955.35
579.124	11972.52
579.485	12069.02
579.845	12025.63
580.206	11930.49
580.566	11905.86
580.927	11937.5
581.287	12006.87
581.648	11939.98
582.008	11996.03
582.368	11974.33
582.728	11938.63
583.089	11984.05
583.449	11974.78
583.809	11935.01
584.169	11980.21
584.529	11923.71
584.889	12052.52
585.249	11888.23
585.609	11898.18
585.969	11965.52
586.329	11935.24
586.688	11841.23
587.048	11876.26
587.408	11849.82
587.768	11818.86
588.127	11929.36
588.487	11843.94
588.846	11878.29
589.206	11808.23
589.565	11813.88
589.925	11888.01
590.284	11795.58
590.643	11834.45
591.003	11874.9
591.362	11827.22
591.721	11794.22
592.08	11742.93
592.44	11842.13
592.799	11789.25
593.158	11755.58
593.517	11790.83
593.876	11775.92
594.235	11748.58
594.593	11738.63
594.952	11792.19
595.311	11700.67
595.67	11739.76
596.029	11851.85
596.387	11806.88
596.746	11799.87
597.104	11761.23
597.463	11745.19
597.822	11799.42
598.18	11756.71
598.538	11662.02
598.897	11736.82
599.255	11591.74
599.613	11860.21
599.972	11782.02
600.33	11767.56
600.688	11677.16
601.046	11742.7
601.404	11865.86
601.762	11787.22
602.12	11723.94
602.478	11793.09
602.836	11695.7
603.194	11728.24
603.552	11803.94
603.91	11716.94
604.268	11846.2
604.625	11754.9
604.983	11792.19
605.341	11686.43
605.698	11705.64
606.056	11795.13
606.413	11798.74
606.771	11807.56
607.128	11718.75
607.485	11732.53
607.843	11756.71
608.2	11902.24
608.557	11779.31
608.914	11738.63
609.272	11829.25
609.629	11899.76
609.986	11896.14
610.343	11836.71
610.7	11892.07
611.057	11937.72
611.414	11852.08
611.771	11956.93
612.127	11928.01
612.484	11847.78
612.841	11946.76
613.198	11876.71
613.554	11949.25
613.911	12014.11
614.267	11982.92
614.624	12006.42
614.98	11907.67
615.337	12048.91
615.693	12048.91
616.05	11929.81
616.406	12041.22
616.762	12040.54
617.118	12055.23
617.475	12092.3
617.831	12083.26
618.187	12089.58
618.543	12077.61
618.899	12126.87
619.255	12122.35
619.611	12071.96
619.967	12117.15
620.323	12137.49
620.678	12177.26
621.034	12078.74
621.39	12132.97
621.746	12107.44
622.101	12274.66
622.457	12121.22
622.812	12084.61
623.168	12183.37
623.523	12218.17
623.879	12148.56
624.234	12172.07
624.589	12165.97
624.945	12154.67
625.3	12159.41
625.655	12113.54
626.01	12158.51
626.365	12133.42
626.72	12080.54
627.075	12121.22
627.43	12089.58
627.785	12039.42
628.14	12176.36
628.495	12097.94
628.85	12087.1
629.205	12046.87
629.559	12109.47
629.914	12063.82
630.269	12022.92
630.623	11967.55
630.978	11984.05
631.332	12029.92
631.687	12071.5
632.041	12018.85
632.396	11964.84
632.75	12030.83
633.104	11945.63
633.459	11957.38
633.813	11904.28
634.167	11925.07
634.521	11881.91
634.875	11927.78
635.229	11907.67
635.583	11862.47
635.937	11823.6
636.291	11810.27
636.645	11781.34
636.999	11841.91
637.352	11864.96
637.706	11784.05
638.06	11729.59
638.413	11804.17
638.767	11733.43
639.121	11775.92
639.474	11731.85
639.828	11644.62
640.181	11734.56
640.534	11730.5
640.888	11697.05
641.241	11674.23
641.594	11623.38
641.947	11648.46
642.301	11665.87
642.654	11698.86
643.007	11708.58
643.36	11638.75
643.713	11714.45
644.066	11709.03
644.419	11534.12
644.771	11571.18
645.124	11373.9
645.477	11389.26
645.83	11315.82
646.182	11302.71
646.535	11304.29
646.888	11232.66
647.24	11204.41
647.593	11317.17
647.945	11338.87
648.298	11231.98
648.65	11240.57
649.002	11134.13
649.355	11235.59
649.707	11222.71
650.059	11276.95
650.411	11331.41
650.763	11413.22
651.115	11504.06
651.467	11426.1
651.819	11460.67
652.171	11495.7
652.523	11444.4
652.875	11426.1
653.227	11412.99
653.578	11556.49
653.93	11469.03
654.282	11439.43
654.633	11357.63
654.985	11391.3
655.337	11410.28
655.688	11377.96
656.039	11379.32
656.391	11303.16
656.742	11365.76
657.094	11466.55
657.445	11449.15
657.796	11440.79
658.147	11414.12
658.498	11399.43
658.849	11470.84
659.2	11425.65
659.551	11331.41
659.902	11480.33
660.253	11348.81
660.604	11463.16
660.955	11386.1
661.306	11388.36
661.656	11390.62
662.007	11470.84
662.358	11407.79
662.708	11400.56
663.059	11454.57
663.409	11387.45
663.76	11436.49
664.11	11435.82
664.461	11411.41
664.811	11438.07
665.161	11473.78
665.511	11472.42
665.862	11421.8
666.212	11523.04
666.562	11500.67
666.912	11573.89
667.262	11446.89
667.612	11418.64
667.962	11461.13
668.312	11443.72
668.662	11434.23
669.011	11420.22
669.361	11470.39
669.711	11495.7
670.06	11440.79
670.41	11487.79
670.76	11395.59
671.109	11470.62
671.459	11407.12
671.808	11481.24
672.157	11387.91
672.507	11352.43
672.856	11403.27
673.205	11342.26
673.554	11377.51
673.904	11352.65
674.253	11381.81
674.602	11374.57
674.951	11238.98
675.3	11152.21
675.649	11344.74
675.998	11282.6
676.346	11302.71
676.695	11290.96
677.044	11242.83
677.393	11262.71
677.741	11327.12
678.09	11280.11
678.438	11251.19
678.787	11229.72
679.135	11305.42
679.484	11128.7
679.832	11133
680.181	11071.08
680.529	11128.7
680.877	11102.72
681.225	11046.45
681.573	11155.14
681.922	11033.34
682.27	11030.18
682.618	11050.97
682.966	10957.64
683.314	10980.69
683.661	10999.44
684.009	10846
684.357	10879.45
684.705	10944.53
685.053	10966.9
685.4	10879.9
685.748	10838.54
686.095	10787.47
686.443	10777.08
686.79	10702.28
687.138	10769.62
687.485	10763.74
687.832	10737.3
688.18	10708.6
688.527	10676.51
688.874	10581.37
689.221	10638.77
689.568	10565.1
689.915	10563.97
690.262	10573.69
690.609	10491.89
690.956	10493.69
691.303	10422.96
691.65	10414.37
691.997	10361.04
692.344	10352.23
692.69	10319.23
693.037	10288.27
693.383	10236.98
693.73	10272.46
694.077	10131.67
694.423	10103.19
694.769	10135.74
695.116	10060.26
695.462	10071.56
695.808	10070.43
696.155	10028.85
696.501	10048.28
696.847	9944.55
697.193	9910.66
697.539	9883.54
697.885	9839.92
698.231	9898.23
698.577	9821.17
698.923	9780.94
699.269	9734.84
699.614	9671.57
699.96	9621.4
700.306	9642.64
700.651	9656.88
700.997	9634.28
701.342	9527.84
701.688	9537.79
702.033	9480.61
702.379	9495.3
702.724	9383.44
703.069	9455.3
703.415	9319.03
703.76	9295.08
704.105	9239.94
704.45	9310.45
704.795	9258.92
705.14	9239.04
705.485	9179.83
705.83	9163.11
706.175	9116.78
706.52	9111.58
706.865	9084.92
707.209	9107.29
707.554	9015.54
707.899	9014.64
708.243	8978.7
708.588	8923.11
708.932	8900.29
709.277	8876.11
709.621	8878.59
709.966	8832.04
710.31	8790.69
710.654	8817.58
710.998	8756.11
711.342	8762.21
711.687	8797.47
712.031	8684.7
712.375	8638.15
712.719	8704.59
713.063	8631.82
713.407	8677.47
713.75	8684.02
714.094	8607.41
714.438	8545.04
714.782	8549.56
715.125	8537.59
715.469	8559.73
715.812	8537.13
716.156	8483.35
716.499	8523.8
716.843	8483.58
717.186	8455.33
717.53	8451.94
717.873	8470.47
718.216	8448.32
718.559	8371.94
718.902	8356.12
719.246	8395.67
719.589	8324.03
719.932	8363.13
720.275	8401.54
720.617	8330.81
720.96	8287.88
721.303	8301.21
721.646	8315.45
721.989	8272.96
722.331	8342.79
722.674	8296.69
723.016	8262.79
723.359	8260.53
723.701	8329
724.044	8195.9
724.386	8254.66
724.729	8195.67
725.071	8216.92
725.413	8179.4
725.755	8165.17
726.097	8176.24
726.439	8126.52
726.782	8117.26
727.124	8112.51
727.465	8151.61
727.807	8124.72
728.149	8168.1
728.491	8127.2
728.833	8160.42
729.175	8138.27
729.516	8089.46
729.858	8100.76
730.199	8173.3
730.541	8082.46
730.882	8080.42
731.224	8168.78
731.565	8079.52
731.906	8097.6
732.248	8081.78
732.589	8041.33
732.93	8113.19
733.271	8039.07
733.612	8064.15
733.953	8121.1
734.294	8066.86
734.635	8024.38
734.976	8052.18
735.317	8013.76
735.658	8054.66
735.999	8060.08
736.339	8093.98
736.68	8066.41
737.021	8095.56
737.361	8092.17
737.702	8133.53
738.042	8129.46
738.383	8127.43
738.723	8088.11
739.063	8062.57
739.404	8145.96
739.744	8070.71
740.084	8076.13
740.424	8115.9
740.764	8104.6
741.104	8201.78
741.444	8124.94
741.784	8140.76
742.124	8235.45
742.464	8198.16
742.804	8176.47
743.143	8128.33
743.483	8173.3
743.823	8152.96
744.162	8295.11
744.502	8344.15
744.841	8354.31
745.181	8320.19
745.52	8408.1
745.86	8439.28
746.199	8494.65
746.538	8502.11
746.877	8597.02
747.216	8573.74
747.556	8625.49
747.895	8606.74
748.234	8647.64
748.573	8749.78
748.911	8790.91
749.25	8837.92
749.589	8894.19
749.928	8940.51
750.267	8993.39
750.605	9039.95
750.944	9109.55
751.283	9124.92
751.621	9269.54
751.96	9313.84
752.298	9391.8
752.636	9508.41
752.975	9516.54
753.313	9655.07
753.651	9821.85
753.989	9815.07
754.327	9872.01
754.666	9965.57
755.004	10108.84
755.342	10261.83
755.679	10371.66
756.017	10447.37
756.355	10584.54
756.693	10674.25
757.031	10869.73
757.368	10888.03
757.706	11081.02
758.044	11205.54
758.381	11401.47
758.719	11492.31
759.056	11587.68
759.394	11785.18
759.731	11865.86
