Data from hue_90_FLMS001491_58.txt Node
Date: Mon Feb 06 15:25:20 GMT 2017
User: dcchb
Spectrometer: FLMS00149
Trigger mode: 0
Integration Time (sec): 2.000000E-2
Scans to average: 10
Electric dark correction enabled: true
Nonlinearity correction enabled: false
Boxcar width: 0
XAxis mode: Wavelengths
Number of Pixels in Spectrum: 2048
>>>>>Begin Spectral Data<<<<<
341.393	-16.28
341.776	-16.28
342.16	-16.28
342.543	-71.2
342.927	-84.53
343.31	-72.33
343.693	-88.37
344.077	-59
344.46	-54.02
344.843	-47.24
345.226	-41.59
345.61	-37.3
345.993	-12.44
346.376	-14.03
346.759	15.35
347.142	23.49
347.525	33.66
347.908	69.59
348.291	68.68
348.674	112.98
349.057	102.58
349.44	127.44
349.823	141.68
350.206	154.11
350.588	185.74
350.971	220.77
351.354	224.61
351.737	236.14
352.119	231.39
352.502	271.84
352.884	264.61
353.267	273.88
353.65	277.27
354.032	279.3
354.414	294.22
354.797	295.12
355.179	297.61
355.562	322.01
355.944	305.29
356.326	300.09
356.709	329.02
357.091	315.68
357.473	324.95
357.855	345.29
358.238	322.46
358.62	347.55
359.002	333.08
359.384	306.42
359.766	313.2
360.148	330.15
360.53	330.6
360.912	299.86
361.294	355.23
361.676	315.91
362.057	336.7
362.439	327.89
362.821	322.24
363.203	315.23
363.584	306.19
363.966	319.3
364.348	325.63
364.729	326.08
365.111	279.98
365.493	309.58
365.874	310.03
366.256	310.94
366.637	306.42
367.019	316.36
367.4	312.29
367.781	314.78
368.163	302.35
368.544	295.8
368.925	315.68
369.306	301.22
369.688	317.94
370.069	317.04
370.45	310.26
370.831	301.22
371.212	325.85
371.593	323.37
371.974	321.79
372.355	299.41
372.736	320.88
373.117	318.62
373.498	305.51
373.879	316.14
374.26	298.51
374.641	304.84
375.021	324.5
375.402	333.54
375.783	318.17
376.163	314.33
376.544	317.72
376.925	315.23
377.305	332.18
377.686	333.31
378.066	345.29
378.447	317.27
378.827	310.94
379.208	315.91
379.588	319.75
379.968	322.69
380.349	317.94
380.729	334.21
381.109	344.61
381.489	316.36
381.87	328.34
382.25	313.88
382.63	329.24
383.01	335.57
383.39	341.45
383.77	321.56
384.15	330.6
384.53	332.41
384.91	342.58
385.29	352.74
385.67	351.84
386.049	334.67
386.429	360.43
386.809	321.33
387.189	336.02
387.568	346.64
387.948	339.64
388.328	352.07
388.707	355.91
389.087	361.11
389.466	343.25
389.846	349.58
390.225	356.59
390.605	347.55
390.984	369.92
391.363	344.84
391.743	376.93
392.122	366.08
392.501	364.72
392.881	364.27
393.26	388.45
393.639	343.03
394.018	371.05
394.397	346.87
394.776	359.3
395.155	366.3
395.534	373.76
395.913	367.21
396.292	386.19
396.671	383.93
397.05	357.26
397.429	373.08
397.808	378.51
398.186	374.67
398.565	385.51
398.944	376.25
399.323	381.44
399.701	400.43
400.08	381.9
400.458	396.59
400.837	390.94
401.215	391.84
401.594	398.39
401.972	402.24
402.351	387.77
402.729	392.29
403.107	415.79
403.486	392.07
403.864	384.38
404.242	403.82
404.62	379.18
404.999	404.72
405.377	398.62
405.755	425.74
406.133	422.57
406.511	407.43
406.889	418.28
407.267	417.15
407.645	416.7
408.023	430.71
408.401	439.97
408.779	434.1
409.156	425.74
409.534	447.43
409.912	438.84
410.29	437.94
410.667	446.53
411.045	444.04
411.422	458.73
411.8	446.75
412.178	449.01
412.555	467.54
412.933	470.71
413.31	466.87
413.687	468.9
414.065	466.41
414.442	468.45
414.819	469.35
415.197	471.61
415.574	470.93
415.951	477.49
416.328	466.19
416.705	465.28
417.082	468
417.46	482.23
417.837	492.85
418.214	506.87
418.591	496.7
418.967	505.28
419.344	525.85
419.721	503.02
420.098	467.09
420.475	509.35
420.852	493.31
421.228	497.6
421.605	513.64
421.982	520.65
422.358	490.59
422.735	532.63
423.111	521.55
423.488	524.49
423.864	525.4
424.241	531.05
424.617	560.88
424.994	537.6
425.37	552.74
425.746	543.02
426.123	545.96
426.499	538.28
426.875	554.55
427.251	556.58
427.627	566.75
428.003	579.86
428.379	583.25
428.756	580.54
429.132	580.08
429.507	578.73
429.883	595.9
430.259	603.59
430.635	611.27
431.011	609.69
431.387	614.21
431.763	621.89
432.138	610.59
432.514	634.09
432.89	632.96
433.265	625.96
433.641	633.19
434.016	635.68
434.392	624.83
434.767	654.43
435.143	660.99
435.518	678.16
435.894	645.39
436.269	684.71
436.644	681.55
437.02	691.27
437.395	685.39
437.77	711.38
438.145	701.89
438.52	696.01
438.895	690.14
439.271	726.52
439.646	732.4
440.021	736.01
440.395	718.61
440.77	741.21
441.145	732.4
441.52	764.26
441.895	763.81
442.27	739.85
442.645	771.72
443.019	772.39
443.394	785.5
443.769	744.37
444.143	773.3
444.518	775.33
444.892	805.16
445.267	776.69
445.641	787.08
446.016	805.39
446.39	787.08
446.764	798.38
447.139	790.02
447.513	807.42
447.887	823.24
448.262	820.08
448.636	840.42
449.01	836.35
449.384	830.25
449.758	851.94
450.132	870.02
450.506	850.81
450.88	856.69
451.254	865.95
451.628	867.76
452.002	878.83
452.376	896.23
452.75	910.02
453.123	914.09
453.497	939.85
453.871	929.23
454.244	941.2
454.618	937.81
454.992	948.21
455.365	946.85
455.739	987.08
456.112	989.79
456.486	1005.84
456.859	1011.48
457.232	1015.55
457.606	1010.35
457.979	1003.12
458.352	1043.8
458.725	1058.26
459.099	1073.18
459.472	1074.76
459.845	1086.28
460.218	1102.33
460.591	1129.9
460.964	1109.34
461.337	1132.61
461.71	1173.51
462.083	1139.16
462.456	1201.31
462.829	1183.46
463.201	1222.1
463.574	1204.25
463.947	1231.59
464.32	1236.56
464.692	1262.1
465.065	1257.35
465.438	1312.49
465.81	1305.71
466.183	1308.2
466.555	1392.72
466.928	1399.72
467.3	1368.99
467.672	1410.34
468.045	1440.4
468.417	1469.55
468.789	1466.16
469.161	1488.31
469.534	1533.05
469.906	1558.59
470.278	1581.41
470.65	1605.82
471.022	1622.99
471.394	1649.89
471.766	1669.32
472.138	1725.82
472.51	1746.83
472.882	1790.67
473.253	1810.11
473.625	1844.01
473.997	1904.79
474.369	1925.13
474.74	1965.36
475.112	2025.24
475.484	2041.74
475.855	2091.68
476.227	2163.54
476.598	2220.27
476.97	2275.86
477.341	2320.38
477.713	2399.7
478.084	2409.64
478.455	2501.62
478.827	2556.75
479.198	2629.3
479.569	2686.24
479.94	2748.61
480.311	2818.67
480.682	2949.29
481.053	2986.8
481.424	3067.7
481.795	3190.41
482.166	3218.21
482.537	3341.59
482.908	3399.9
483.279	3460.91
483.65	3585.43
484.021	3688.7
484.391	3752.66
484.762	3823.16
485.133	3899.77
485.503	4036.49
485.874	4150.84
486.244	4234.45
486.615	4365.97
486.985	4454.78
487.356	4578.4
487.726	4718.28
488.097	4831.72
488.467	4900.65
488.837	5076.91
489.207	5171.38
489.578	5333.18
489.948	5418.83
490.318	5502.67
490.688	5617.01
491.058	5803
491.428	5863.79
491.798	6021.3
492.168	6168.86
492.538	6244.57
492.908	6394.39
493.278	6574.73
493.648	6663.31
494.017	6742.86
494.387	6870.99
494.757	6985.11
495.126	7122.28
495.496	7155.5
495.866	7323.86
496.235	7471.88
496.605	7609.73
496.974	7706.22
497.344	7791.19
497.713	7888.59
498.082	7998.65
498.452	8124.97
498.821	8163.84
499.19	8316.15
499.559	8400.67
499.928	8453.32
500.298	8565.41
500.667	8713.66
501.036	8782.81
501.405	8854.44
501.774	8936.47
502.143	9014.89
502.512	9138.05
502.88	9242.68
503.249	9300.31
503.618	9424.6
503.987	9402.45
504.356	9548.89
504.724	9582.56
505.093	9693.29
505.462	9763.57
505.83	9796.79
506.199	9906.17
506.567	10038.37
506.936	10025.94
507.304	10223.22
507.672	10242.88
508.041	10287.85
508.409	10390.45
508.777	10449.65
509.145	10498.24
509.514	10484.46
509.882	10548.41
510.25	10554.96
510.618	10673.38
510.986	10729.87
511.354	10771.91
511.722	10835.86
512.09	11017.32
512.458	10966.03
512.826	11038.57
513.193	11095.51
513.561	11097.55
513.929	11188.39
514.297	11300.48
514.664	11353.36
515.032	11335.73
515.4	11464.77
515.767	11386.58
516.135	11434.49
516.502	11460.93
516.869	11580.02
517.237	11644.65
517.604	11566.24
517.972	11617.08
518.339	11702.5
518.706	11708.6
519.073	11684.88
519.44	11750.64
519.808	11822.73
520.175	11810.75
520.542	11936.62
520.909	11982.27
521.276	11870.41
521.643	12060.23
522.009	12083.96
522.376	12145.43
522.743	12194.47
523.11	12161.47
523.477	12250.74
523.843	12281.47
524.21	12369.6
524.577	12432.88
524.943	12428.13
525.31	12383.84
525.676	12534.35
526.043	12488.7
526.409	12496.38
526.776	12657.73
527.142	12599.43
527.508	12618.19
527.874	12715.81
528.241	12592.42
528.607	12667
528.973	12658.18
529.339	12669.48
529.705	12820.67
530.071	12848.91
530.437	12864.51
530.803	12864.73
531.169	12828.35
531.535	12760.33
531.901	12777.28
532.267	12770.95
532.632	12755.81
532.998	12829.25
533.364	12875.81
533.73	12751.51
534.095	12854.34
534.461	12814.11
534.826	12875.58
535.192	12801.46
535.557	12769.14
535.923	12765.53
536.288	12789.03
536.653	12744.96
537.019	12684.17
537.384	12700.44
537.749	12725.98
538.114	12685.3
538.479	12690.95
538.845	12701.35
539.21	12634.91
539.575	12566.21
539.94	12594.68
540.305	12600.78
540.67	12451.64
541.034	12529.83
541.399	12570.95
541.764	12437.85
542.129	12514.23
542.494	12498.87
542.858	12468.13
543.223	12387
543.587	12411.18
543.952	12356.05
544.316	12318.98
544.681	12229.95
545.045	12296.61
545.41	12217.97
545.774	12180
546.138	12130.06
546.503	12124.41
546.867	12161.7
547.231	12224.52
547.595	12130.29
547.959	12160.57
548.324	12049.16
548.688	12062.72
549.052	12013
549.416	11950.41
549.779	11947.47
550.143	11944.76
550.507	11974.59
550.871	11947.24
551.235	11908.15
551.599	11926.45
551.962	11913.34
552.326	11889.62
552.689	11928.26
553.053	11791.09
553.417	11701.6
553.78	11853.46
554.143	11824.99
554.507	11802.16
554.87	11740.47
555.234	11852.33
555.597	11681.49
555.96	11739.11
556.323	11681.94
556.686	11638.78
557.05	11685.78
557.413	11651.43
557.776	11559.46
558.139	11742.95
558.502	11664.54
558.865	11584.99
559.228	11677.42
559.59	11663.63
559.953	11614.6
560.316	11739.79
560.679	11649.85
561.041	11746.8
561.404	11720.36
561.767	11773.46
562.129	11689.62
562.492	11781.6
562.854	11719.9
563.217	11675.84
563.579	11666.12
563.941	11660.24
564.304	11713.12
564.666	11798.77
565.028	11784.99
565.39	11720.58
565.753	11802.39
566.115	11904.08
566.477	11840.13
566.839	11851.2
567.201	11857.3
567.563	11871.76
567.925	11866.11
568.287	11855.49
568.648	11800.13
569.01	11899.11
569.372	11915.15
569.734	11823.18
570.095	11997.18
570.457	11970.97
570.819	11941.59
571.18	11946.11
571.542	12040.12
571.903	12021.82
572.265	12035.15
572.626	12016.17
572.987	12136.62
573.349	12024.75
573.71	12042.61
574.071	12084.87
574.432	12033.79
574.794	12119.89
575.155	12107.46
575.516	12090.97
575.877	12101.81
576.238	12129.38
576.599	12195.6
576.96	12173.68
577.32	12113.57
577.681	12165.54
578.042	12255.03
578.403	12207.35
578.763	12161.47
579.124	12120.8
579.485	12213
579.845	12200.12
580.206	12105.43
580.566	12231.08
580.927	12165.09
581.287	12245.54
581.648	12118.76
582.008	12201.92
582.368	12128.03
582.728	12100.91
583.089	12116.28
583.449	12138.2
583.809	12139.78
584.169	12137.75
584.529	12050.06
584.889	12268.59
585.249	12069.73
585.609	11971.87
585.969	12159.21
586.329	12106.11
586.688	12084.19
587.048	12066.56
587.408	12000.8
587.768	12095.26
588.127	12052.55
588.487	11961.25
588.846	12039.67
589.206	12005.55
589.565	11969.16
589.925	11956.96
590.284	11930.52
590.643	12053.68
591.003	12084.87
591.362	12100.23
591.721	11992.89
592.08	11999.9
592.44	12043.06
592.799	11935.94
593.158	11987.24
593.517	11957.19
593.876	11947.69
594.235	11793.8
594.593	11921.71
594.952	11926.9
595.311	11832.44
595.67	11994.47
596.029	11976.62
596.387	11955.15
596.746	11911.09
597.104	11944.08
597.463	11932.55
597.822	11976.17
598.18	11829.73
598.538	11892.1
598.897	11921.93
599.255	11810.07
599.613	11936.62
599.972	11973.46
600.33	11905.89
600.688	11831.54
601.046	11931.42
601.404	11920.12
601.762	11940.91
602.12	11938.2
602.478	11825.89
602.836	11915.15
603.194	11814.59
603.552	11865.89
603.91	11773.69
604.268	11879.22
604.625	11829.96
604.983	11859.11
605.341	11824.76
605.698	11884.42
606.056	11928.71
606.413	11907.24
606.771	11938.2
607.128	11879.22
607.485	11806.46
607.843	11880.35
608.2	11931.42
608.557	12009.84
608.914	11898.43
609.272	11967.81
609.629	11966.22
609.986	12053.91
610.343	11961.48
610.7	12024.98
611.057	11955.6
611.414	12023.4
611.771	11973.46
612.127	12078.31
612.484	12018.88
612.841	11998.31
613.198	12008.03
613.554	12013
613.911	12013.23
614.267	12075.37
614.624	12024.53
614.98	12107.01
615.337	12074.24
615.693	12164.64
616.05	12074.47
616.406	12171.87
616.762	12180
617.118	12108.82
617.475	12167.12
617.831	12127.12
618.187	12109.5
618.543	12095.94
618.899	12271.08
619.255	12213.45
619.611	12203.51
619.967	12216.39
620.323	12261.81
620.678	12205.31
621.034	12148.59
621.39	12239.21
621.746	12173.68
622.101	12391.98
622.457	12222.72
622.812	12258.87
623.168	12220.91
623.523	12225.2
623.879	12291.19
624.234	12170.51
624.589	12257.29
624.945	12296.16
625.3	12139.1
625.655	12239.66
626.01	12195.6
626.365	12294.13
626.72	12193.34
627.075	12236.05
627.43	12132.1
627.785	12172.32
628.14	12202.15
628.495	12307.01
628.85	12196.28
629.205	12078.76
629.559	12122.6
629.914	12164.86
630.269	12156.28
630.623	12054.58
630.978	12086.67
631.332	12111.08
631.687	12165.77
632.041	12125.54
632.396	12130.74
632.75	12067.47
633.104	12138.2
633.459	12111.31
633.813	12043.29
634.167	12035.83
634.521	11986.34
634.875	11985.89
635.229	11904.98
635.583	11922.16
635.937	11928.26
636.291	11918.77
636.645	11910.63
636.999	11853.69
637.352	11864.08
637.706	11810.07
638.06	11966.45
638.413	11867.92
638.767	11772.33
639.121	11852.78
639.474	11747.47
639.828	11789.96
640.181	11815.49
640.534	11716.97
640.888	11794.03
641.241	11709.51
641.594	11736.4
641.947	11726.01
642.301	11729.62
642.654	11717.19
643.007	11749.96
643.36	11713.12
643.713	11725.55
644.066	11624.31
644.419	11593.58
644.771	11511.1
645.124	11468.16
645.477	11460.7
645.83	11386.58
646.182	11368.05
646.535	11265
646.888	11347.26
647.24	11296.64
647.593	11350.2
647.945	11305.23
648.298	11210.31
648.65	11225
649.002	11206.24
649.355	11237.66
649.707	11280.82
650.059	11273.14
650.411	11413.25
650.763	11382.74
651.115	11472
651.467	11535.28
651.819	11516.97
652.171	11544.77
652.523	11466.13
652.875	11494.15
653.227	11501.6
653.578	11555.16
653.93	11467.93
654.282	11514.71
654.633	11499.34
654.985	11530.08
655.337	11474.71
655.688	11463.64
656.039	11540.47
656.391	11506.58
656.742	11434.71
657.094	11460.7
657.445	11576.4
657.796	11536.41
658.147	11457.54
658.498	11509.97
658.849	11474.03
659.2	11522.39
659.551	11432.45
659.902	11544.09
660.253	11597.42
660.604	11590.42
660.955	11467.03
661.306	11577.53
661.656	11527.37
662.007	11549.51
662.358	11545.22
662.708	11546.57
663.059	11533.92
663.409	11509.74
663.76	11577.99
664.11	11511.77
664.461	11666.12
664.811	11657.76
665.161	11645.1
665.511	11585.22
665.862	11578.89
666.212	11613.24
666.562	11631.32
666.912	11590.87
667.262	11586.8
667.612	11618.21
667.962	11562.62
668.312	11537.08
668.662	11621.15
669.011	11513.36
669.361	11526.69
669.711	11471.55
670.06	11508.61
670.41	11500.02
670.76	11444.43
671.109	11509.51
671.459	11536.63
671.808	11475.84
672.157	11514.26
672.507	11504.54
672.856	11436.97
673.205	11474.94
673.554	11527.59
673.904	11509.51
674.253	11550.87
674.602	11431.78
674.951	11309.29
675.3	11281.05
675.649	11413.25
675.998	11357.88
676.346	11402.85
676.695	11448.27
677.044	11403.53
677.393	11369.63
677.741	11384.77
678.09	11361.5
678.438	11329.86
678.787	11338.9
679.135	11349.74
679.484	11290.31
679.832	11293.93
680.181	11215.06
680.529	11299.12
680.877	11190.2
681.225	11205.57
681.573	11255.06
681.922	11141.84
682.27	11144.1
682.618	11155.4
682.966	11046.48
683.314	11108.85
683.661	11089.19
684.009	10977.55
684.357	11042.63
684.705	10987.72
685.053	10967.61
685.4	10895.74
685.748	10919.92
686.095	10892.35
686.443	10854.62
686.79	10812.36
687.138	10783.21
687.485	10841.06
687.832	10764.9
688.18	10780.95
688.527	10680.16
688.874	10749.53
689.221	10644.9
689.568	10768.52
689.915	10659.14
690.262	10656.65
690.609	10558.8
690.956	10530.78
691.303	10578.01
691.65	10465.02
691.997	10459.15
692.344	10380.5
692.69	10303.44
693.037	10359.49
693.383	10253.28
693.73	10313.61
694.077	10244.69
694.423	10205.82
694.769	10189.77
695.116	10189.1
695.462	10113.62
695.808	10076.56
696.155	10120.85
696.501	9984.81
696.847	9960.85
697.193	9836.79
697.539	9926.96
697.885	9884.02
698.231	9784.14
698.577	9821.65
698.923	9730.35
699.269	9746.4
699.614	9731.03
699.96	9634.99
700.306	9646.06
700.651	9645.61
700.997	9575.55
701.342	9571.94
701.688	9496.23
702.033	9519.74
702.379	9467.31
702.724	9418.5
703.069	9463.24
703.415	9318.38
703.76	9379.17
704.105	9299.63
704.45	9287.88
704.795	9294.43
705.14	9189.35
705.485	9207.43
705.83	9179.18
706.175	9169.01
706.52	9080.88
706.865	9094.21
707.209	9107.77
707.554	9075.91
707.899	9033.87
708.243	8934.89
708.588	8938.73
708.932	8925.85
709.277	8906.64
709.621	8909.36
709.966	8868.23
710.31	8837.72
710.654	8773.09
710.998	8823.03
711.342	8739.19
711.687	8715.24
712.031	8745.74
712.375	8599.31
712.719	8646.99
713.063	8628.91
713.407	8652.87
713.75	8643.83
714.094	8572.42
714.438	8532.64
714.782	8563.6
715.125	8542.13
715.469	8552.76
715.812	8456.94
716.156	8471.4
716.499	8507.33
716.843	8519.31
717.186	8454.45
717.53	8433.89
717.873	8475.02
718.216	8456.49
718.559	8327.9
718.902	8331.97
719.246	8304.85
719.589	8334.23
719.932	8307.34
720.275	8294.91
720.617	8280.22
720.96	8258.07
721.303	8307.56
721.646	8313.89
721.989	8257.85
722.331	8266.66
722.674	8262.37
723.016	8265.76
723.359	8248.36
723.701	8188.47
724.044	8169.94
724.386	8183.73
724.729	8183.95
725.071	8195.7
725.413	8145.76
725.755	8162.71
726.097	8163.61
726.439	8108.93
726.782	8128.81
727.124	8179.66
727.465	8106.21
727.807	8072.09
728.149	8103.05
728.491	8088.81
728.833	8114.12
729.175	8125.2
729.516	8082.26
729.858	8114.8
730.199	8060.79
730.541	8093.56
730.882	8151.86
731.224	8136.04
731.565	8033.22
731.906	8129.49
732.248	8073.45
732.589	8082.49
732.93	8075.25
733.271	8058.08
733.612	8068.93
733.953	8070.51
734.294	8043.62
734.635	8038.42
734.976	8046.33
735.317	8046.55
735.658	8019.44
735.999	8056.95
736.339	8073.45
736.68	8086.55
737.021	8127.91
737.361	8090.85
737.702	8109.38
738.042	8109.6
738.383	8040
738.723	8107.12
739.063	8075.48
739.404	8083.16
739.744	8098.98
740.084	8097.4
740.424	8116.83
740.764	8108.7
741.104	8135.82
741.444	8113.44
741.784	8184.63
742.124	8153.22
742.464	8133.33
742.804	8217.4
743.143	8205.87
743.483	8153.22
743.823	8235.93
744.162	8182.14
744.502	8324.74
744.841	8262.14
745.181	8349.37
745.52	8330.84
745.86	8447.45
746.199	8387.56
746.538	8446.54
746.877	8509.37
747.216	8525.86
747.556	8563.6
747.895	8635.47
748.234	8644.96
748.573	8661.91
748.911	8674.33
749.25	8825.06
749.589	8752.98
749.928	8909.13
750.267	8882.69
750.605	8983.03
750.944	9031.61
751.283	9126.07
751.621	9212.17
751.96	9216.24
752.298	9388.67
752.636	9458.27
752.975	9477.02
753.313	9585.72
753.651	9668.66
753.989	9794.98
754.327	9850.57
754.666	9928.76
755.004	10046.28
755.342	10214.41
755.679	10300.05
756.017	10365.14
756.355	10567.39
756.693	10577.11
757.031	10816.65
757.368	10830.66
757.706	10999.24
758.044	11134.16
758.381	11227.71
758.719	11344.55
759.056	11497.08
759.394	11591.77
759.731	11689.62
760.068	11789.28
