Data from hue_180_FLMS001491_00031.txt Node
Date: Tue Feb 07 16:46:53 GMT 2017
User: dcchb
Spectrometer: FLMS00149
Trigger mode: 0
Integration Time (sec): 2.000000E-2
Scans to average: 10
Electric dark correction enabled: true
Nonlinearity correction enabled: false
Boxcar width: 0
XAxis mode: Wavelengths
Number of Pixels in Spectrum: 2048
>>>>>Begin Spectral Data<<<<<
341.393	0.69
341.776	0.69
342.16	0.69
342.543	-40.89
342.927	-62.81
343.31	-73.88
343.693	-69.59
344.077	-81.79
344.46	-63.71
344.843	-65.07
345.226	-48.8
345.61	-14
345.993	-25.52
346.376	1.14
346.759	-1.79
347.142	47.02
347.525	35.27
347.908	65.55
348.291	60.58
348.674	105.32
349.057	129.28
349.44	158.88
349.823	172.21
350.206	184.64
350.588	201.36
350.971	217.41
351.354	218.99
351.737	250.63
352.119	246.56
352.502	273.45
352.884	281.81
353.267	286.11
353.65	309.61
354.032	309.16
354.414	304.41
354.797	305.32
355.179	319.55
355.562	325.2
355.944	329.72
356.326	320.46
356.709	315.49
357.091	354.36
357.473	342.15
357.855	349.61
358.238	359.33
358.62	344.64
359.002	368.82
359.384	353
359.766	350.29
360.148	360.23
360.53	362.72
360.912	340.12
361.294	351.19
361.676	361.36
362.057	330.4
362.439	345.99
362.821	323.4
363.203	341.02
363.584	317.29
363.966	337.18
364.348	320.01
364.729	324.07
365.111	316.16
365.493	337.86
365.874	323.17
366.256	329.27
366.637	317.75
367.019	316.16
367.4	324.75
367.781	334.47
368.163	301.25
368.544	329.95
368.925	324.3
369.306	347.8
369.688	332.21
370.069	324.07
370.45	331.53
370.831	326.11
371.212	330.85
371.593	297.18
371.974	305.77
372.355	320.68
372.736	311.64
373.117	331.3
373.498	329.27
373.879	325.2
374.26	314.13
374.641	296.05
375.021	334.24
375.402	335.15
375.783	323.17
376.163	342.15
376.544	338.54
376.925	340.57
377.305	319.78
377.686	333.11
378.066	323.62
378.447	341.93
378.827	337.63
379.208	339.21
379.588	343.51
379.968	368.82
380.349	326.79
380.729	330.63
381.109	331.3
381.489	352.32
381.87	328.14
382.25	353.45
382.63	339.44
383.01	340.12
383.39	353.9
383.77	350.06
384.15	353.9
384.53	344.64
384.91	355.49
385.29	345.99
385.67	363.17
386.049	362.04
386.429	363.17
386.809	358.87
387.189	366.11
387.568	341.93
387.948	345.09
388.328	365.65
388.707	378.99
389.087	377.18
389.466	363.85
389.846	388.93
390.225	381.25
390.605	387.8
390.984	383.96
391.363	356.84
391.743	371.98
392.122	362.26
392.501	372.21
392.881	374.92
393.26	363.85
393.639	379.89
394.018	405.43
394.397	390.29
394.776	399.55
395.155	410.62
395.534	401.81
395.913	398.2
396.292	410.62
396.671	397.74
397.05	399.1
397.429	399.1
397.808	405.88
398.186	396.39
398.565	404.52
398.944	417.18
399.323	413.11
399.701	415.37
400.08	413.56
400.458	418.53
400.837	416.73
401.215	442.26
401.594	408.36
401.972	423.05
402.351	430.51
402.729	438.65
403.107	446.33
403.486	435.03
403.864	458.99
404.242	457.4
404.62	467.8
404.999	449.27
405.377	440.68
405.755	449.95
406.133	454.24
406.511	464.63
406.889	481.36
407.267	472.77
407.645	479.55
408.023	480.91
408.401	498.98
408.779	477.74
409.156	507.57
409.534	490.17
409.912	488.36
410.29	502.6
410.667	527.46
411.045	524.75
411.422	548.47
411.8	541.92
412.178	560.45
412.555	556.16
412.933	579.66
413.31	573.33
413.687	579.89
414.065	565.65
414.442	590.73
414.819	591.64
415.197	608.59
415.574	610.62
415.951	632.31
416.328	623.27
416.705	641.35
417.082	652.2
417.46	646.32
417.837	649.71
418.214	640.68
418.591	652.2
418.967	655.59
419.344	678.19
419.721	679.09
420.098	696.49
420.475	714.12
420.852	713.22
421.228	716.61
421.605	731.52
421.982	740.56
422.358	762.93
422.735	755.47
423.111	743.95
423.488	789.15
423.864	775.13
424.241	809.03
424.617	812.42
424.994	831.18
425.37	828.01
425.746	837.05
426.123	844.06
426.499	853.55
426.875	859.65
427.251	892.19
427.627	908.46
428.003	922.25
428.379	917.73
428.756	917.73
429.132	934.45
429.507	938.52
429.883	942.14
430.259	974.23
430.635	980.1
431.011	995.69
431.387	978.75
431.763	1004.28
432.138	1017.16
432.514	1053.55
432.89	1041.57
433.265	1070.27
433.641	1080.66
434.016	1094
434.392	1121.57
434.767	1173.09
435.143	1143.03
435.518	1162.7
435.894	1190.27
436.269	1199.3
436.644	1225.52
437.02	1250.38
437.395	1251.05
437.77	1251.51
438.145	1306.65
438.52	1319.75
438.895	1312.52
439.271	1362.46
439.646	1391.16
440.021	1373.31
440.395	1373.31
440.77	1400.88
441.145	1424.84
441.52	1420.32
441.895	1415.12
442.27	1458.05
442.645	1462.8
443.019	1487.21
443.394	1513.42
443.769	1550.71
444.143	1528.11
444.518	1525.62
444.892	1541.22
445.267	1582.8
445.641	1581.22
446.016	1588.9
446.39	1600.2
446.764	1614.43
447.139	1627.99
447.513	1651.27
447.887	1660.99
448.262	1666.19
448.636	1671.83
449.01	1713.64
449.384	1700.31
449.758	1738.27
450.132	1755.67
450.506	1766.07
450.88	1774.43
451.254	1782.79
451.628	1798.16
452.002	1822.57
452.376	1844.26
452.75	1868.44
453.123	1840.42
453.497	1907.76
453.871	1944.82
454.244	1972.17
454.618	1950.92
454.992	2020.53
455.365	1979.4
455.739	2049.23
456.112	2071.82
456.486	2103.24
456.859	2121.77
457.232	2136.23
457.606	2152.5
457.979	2215.1
458.352	2204.25
458.725	2245.15
459.099	2281.54
459.472	2272.5
459.845	2324.92
460.218	2337.81
460.591	2363.79
460.964	2406.05
461.337	2446.73
461.71	2487.86
462.083	2514.3
462.456	2549.78
462.829	2531.25
463.201	2593.17
463.574	2597.46
463.947	2633.84
464.32	2702.54
464.692	2747.51
465.065	2743.22
465.438	2802.43
465.81	2837
466.183	2869.32
466.555	2940.73
466.928	2936.43
467.3	2946.38
467.672	3013.27
468.045	3089.88
468.417	3152.25
468.789	3152.02
469.161	3187.5
469.534	3251
469.906	3289.19
470.278	3369.19
470.65	3414.61
471.022	3444.44
471.394	3531.9
471.766	3596.98
472.138	3613.48
472.51	3739.12
472.882	3757.66
473.253	3802.4
473.625	3856.18
473.997	3955.16
474.369	4011.66
474.74	4067.25
475.112	4125.1
475.484	4224.76
475.855	4263.18
476.227	4359
476.598	4498.2
476.97	4533.68
477.341	4641.25
477.713	4687.57
478.084	4751.3
478.455	4948.58
478.827	5008.7
479.198	5152.65
479.569	5135.7
479.94	5311.29
480.311	5351.29
480.682	5476.71
481.053	5608.23
481.424	5748.56
481.795	5792.4
482.166	5840.76
482.537	5994.88
482.908	6101.55
483.279	6158.95
483.65	6323.24
484.021	6464.25
484.391	6552.38
484.762	6618.6
485.133	6687.52
485.503	6780.17
485.874	6967.06
486.244	7050
486.615	7205.7
486.985	7304.91
487.356	7441.17
487.726	7517.56
488.097	7693.6
488.467	7764.1
488.837	7879.81
489.207	8033.25
489.578	8091.1
489.948	8281.15
490.318	8336.74
490.688	8440.47
491.058	8539
491.428	8685.44
491.798	8774.25
492.168	8905.32
492.538	8998.42
492.908	9110.06
493.278	9217.85
493.648	9296.04
494.017	9318.19
494.387	9447.45
494.757	9486.54
495.126	9631.63
495.496	9666.43
495.866	9772.41
496.235	9849.7
496.605	9894.67
496.974	9988.68
497.344	10040.65
497.713	10062.8
498.082	10218.95
498.452	10254.43
498.821	10322.45
499.19	10318.16
499.559	10436.12
499.928	10517.48
500.298	10538.72
500.667	10615.1
501.036	10661.43
501.405	10714.08
501.774	10792.27
502.143	10851.03
502.512	10896.9
502.88	10994.75
503.249	10980.74
503.618	10965.83
503.987	11048.99
504.356	11140.29
504.724	11168.08
505.093	11166.5
505.462	11199.49
505.83	11243.56
506.199	11332.82
506.567	11439.71
506.936	11396.55
507.304	11505.47
507.672	11521.52
508.041	11580.5
508.409	11601.97
508.777	11685.13
509.145	11651.91
509.514	11727.62
509.882	11737.11
510.25	11828.18
510.618	11827.73
510.986	11863.21
511.354	11908.85
511.722	11947.5
512.09	12025.01
512.458	11944.56
512.826	12080.37
513.193	12041.73
513.561	12001.51
513.929	12141.16
514.297	12210.77
514.664	12267.49
515.032	12204.21
515.4	12241.5
515.767	12317.88
516.135	12377.54
516.502	12200.6
516.869	12420.93
517.237	12382.06
517.604	12298
517.972	12394.72
518.339	12453.02
518.706	12363.3
519.073	12369.41
519.44	12427.94
519.808	12507.71
520.175	12474.26
520.542	12587.25
520.909	12577.76
521.276	12503.64
521.643	12641.04
522.009	12651.21
522.376	12641.49
522.743	12672.9
523.11	12789.06
523.477	12783.86
523.843	12781.82
524.21	12841.94
524.577	12893.46
524.943	12761.26
525.31	12867.47
525.676	12928.71
526.043	12897.3
526.409	12872.44
526.776	13002.84
527.142	12990.86
527.508	12955.38
527.874	12956.74
528.241	13002.61
528.607	12944.53
528.973	13049.16
529.339	12975.94
529.705	13045.09
530.071	12985.66
530.437	12958.77
530.803	13061.14
531.169	12947.92
531.535	12918.09
531.901	12881.48
532.267	12933.91
532.632	12913.35
532.998	12963.06
533.364	12930.07
533.73	12836.29
534.095	12948.83
534.461	12896.85
534.826	12824.08
535.192	12795.16
535.557	12874.48
535.923	12696.63
536.288	12668.61
536.653	12673.58
537.019	12614.15
537.384	12655.05
537.749	12649.4
538.114	12557.2
538.479	12449.4
538.845	12495.28
539.21	12402.17
539.575	12407.82
539.94	12385.45
540.305	12355.4
540.67	12324.44
541.034	12321.27
541.399	12346.13
541.764	12224.55
542.129	12192.91
542.494	12144.1
542.858	12157.43
543.223	12118.11
543.587	12100.26
543.952	12042.18
544.316	11908.85
544.681	11934.39
545.045	11922.19
545.41	11858.23
545.774	11785.24
546.138	11805.81
546.503	11735.75
546.867	11680.16
547.231	11705.02
547.595	11635.41
547.959	11606.49
548.324	11577.34
548.688	11500.05
549.052	11472.25
549.416	11470.67
549.779	11393.16
550.143	11357.91
550.507	11384.12
550.871	11313.39
551.235	11250.11
551.599	11276.1
551.962	11222.77
552.326	11207.86
552.689	11150.46
553.053	11048.99
553.417	11056.45
553.78	11107.97
554.143	10973.96
554.507	11004.92
554.87	10997.92
555.234	11003.57
555.597	10873.4
555.96	10917.24
556.323	10960.86
556.686	10908.88
557.05	10945.26
557.413	10883.34
557.776	10850.12
558.139	10842.67
558.502	10828.88
558.865	10868.2
559.228	10790.92
559.59	10853.06
559.953	10760.18
560.316	10838.83
560.679	10762.67
561.041	10856.9
561.404	10824.14
561.767	10803.35
562.129	10708.89
562.492	10804.7
562.854	10811.71
563.217	10726.29
563.579	10683.58
563.941	10694.65
564.304	10738.94
564.666	10775.1
565.028	10741.43
565.39	10700.52
565.753	10745.49
566.115	10688.09
566.477	10790.46
566.839	10766.74
567.201	10815.32
567.563	10772.39
567.925	10813.74
568.287	10773.06
568.648	10866.62
569.01	10854.42
569.372	10899.84
569.734	10797.02
570.095	10865.94
570.457	10852.16
570.819	10894.87
571.18	10884.02
571.542	10908.65
571.903	10832.27
572.265	10938.03
572.626	10917.92
572.987	10887.19
573.349	10864.36
573.71	10893.96
574.071	10976.9
574.432	10951.59
574.794	10928.99
575.155	10939.61
575.516	10863.46
575.877	10925.83
576.238	10965.83
576.599	11016
576.96	10910.01
577.32	10922.44
577.681	10980.06
578.042	10906.62
578.403	10908.43
578.763	10911.59
579.124	10991.82
579.485	10929.9
579.845	10954.08
580.206	10959.05
580.566	10910.24
580.927	10924.25
581.287	10965.6
581.648	10892.38
582.008	10917.92
582.368	10932.16
582.728	10902.55
583.089	10871.37
583.449	10829.11
583.809	10866.17
584.169	10859.39
584.529	10922.44
584.889	10941.2
585.249	10854.42
585.609	10803.57
585.969	10851.48
586.329	10844.47
586.688	10850.58
587.048	10812.61
587.408	10798.15
587.768	10780.75
588.127	10809.45
588.487	10714.99
588.846	10791.14
589.206	10766.96
589.565	10705.04
589.925	10813.29
590.284	10798.83
590.643	10656.68
591.003	10699.85
591.362	10689.9
591.721	10689.68
592.08	10679.28
592.44	10729
592.799	10705.72
593.158	10685.38
593.517	10691.71
593.876	10707.3
594.235	10645.16
594.593	10688.55
594.952	10630.24
595.311	10657.14
595.67	10618.72
596.029	10666.85
596.387	10633.41
596.746	10663.24
597.104	10592.73
597.463	10607.64
597.822	10584.59
598.18	10572.62
598.538	10527.19
598.897	10712.5
599.255	10548.89
599.613	10663.69
599.972	10601.09
600.33	10612.39
600.688	10609.23
601.046	10598.38
601.404	10601.54
601.762	10587.53
602.12	10602.22
602.478	10655.1
602.836	10610.58
603.194	10581.2
603.552	10568.55
603.91	10560.19
604.268	10592.05
604.625	10504.82
604.983	10535.78
605.341	10525.39
605.698	10593.63
606.056	10651.26
606.413	10586.4
606.771	10672.28
607.128	10602.9
607.485	10529.91
607.843	10626.85
608.2	10607.87
608.557	10628.21
608.914	10571.94
609.272	10640.64
609.629	10632.05
609.986	10684.25
610.343	10639.06
610.7	10741.43
611.057	10643.58
611.414	10692.84
611.771	10622.33
612.127	10699.39
612.484	10726.96
612.841	10653.75
613.198	10704.14
613.554	10732.61
613.911	10682.45
614.267	10750.92
614.624	10676.8
614.98	10694.42
615.337	10735.1
615.693	10785.95
616.05	10786.17
616.406	10865.04
616.762	10750.69
617.118	10741.2
617.475	10785.49
617.831	10733.97
618.187	10734.87
618.543	10846.28
618.899	10884.7
619.255	10799.73
619.611	10800.41
619.967	10840.63
620.323	10821.65
620.678	10798.6
621.034	10751.6
621.39	10822.1
621.746	10741.2
622.101	10870.01
622.457	10785.49
622.812	10780.07
623.168	10823.68
623.523	10881.31
623.879	10872.95
624.234	10801.76
624.589	10848.99
624.945	10813.97
625.3	10872.5
625.655	10819.62
626.01	10847.19
626.365	10704.14
626.72	10815.77
627.075	10812.16
627.43	10790.01
627.785	10784.59
628.14	10769.67
628.495	10726.51
628.85	10736.45
629.205	10747.3
629.559	10808.32
629.914	10760.86
630.269	10708.43
630.623	10732.39
630.978	10705.5
631.332	10676.8
631.687	10670.24
632.041	10628.66
632.396	10703.69
632.75	10680.64
633.104	10665.72
633.459	10507.76
633.813	10601.09
634.167	10561.77
634.521	10581.66
634.875	10605.61
635.229	10567.42
635.583	10540.3
635.937	10498.27
636.291	10476.35
636.645	10545.5
636.999	10544.14
637.352	10535.33
637.706	10432.73
638.06	10467.99
638.413	10469.34
638.767	10446.07
639.121	10564.26
639.474	10467.31
639.828	10399.29
640.181	10374.66
640.534	10430.02
640.888	10406.52
641.241	10364.71
641.594	10377.14
641.947	10415.56
642.301	10335.34
642.654	10346.41
643.007	10258.05
643.36	10254.89
643.713	10189.35
644.066	10271.61
644.419	10299.18
644.771	10235.45
645.124	10084.49
645.477	10067.32
645.83	10011.73
646.182	10035.91
646.535	9974.67
646.888	9947.32
647.24	9908.68
647.593	9952.97
647.945	9952.07
648.298	9895.12
648.65	9870.04
649.002	9866.42
649.355	9929.7
649.707	9953.65
650.059	9945.97
650.411	10147.09
650.763	10056.47
651.115	10202.68
651.467	10240.42
651.819	10111.39
652.171	10096.92
652.523	10112.29
652.875	10138.05
653.227	10062.12
653.578	10099.64
653.93	10138.28
654.282	10002.91
654.633	10098.96
654.985	9994.1
655.337	10152.97
655.688	10117.94
656.039	10174.66
656.391	10124.27
656.742	10131.95
657.094	10100.77
657.445	10109.58
657.796	10106.42
658.147	10129.92
658.498	10138.73
658.849	10178.28
659.2	10178.05
659.551	10092.63
659.902	10129.47
660.253	10090.82
660.604	10149.35
660.955	10135.79
661.306	10243.36
661.656	10107.54
662.007	10124.95
662.358	10203.36
662.708	10201.33
663.059	10119.07
663.409	10089.69
663.76	10184.38
664.11	10207.43
664.461	10147.09
664.811	10183.93
665.161	10210.59
665.511	10137.83
665.862	10135.11
666.212	10185.74
666.562	10236.58
666.912	10202.01
667.262	10258.28
667.612	10161.55
667.962	10211.72
668.312	10192.51
668.662	10223.93
669.011	10158.17
669.361	10218.28
669.711	10107.32
670.06	10177.15
670.41	10209.69
670.76	10132.63
671.109	10162.23
671.459	10115.68
671.808	10092.63
672.157	10166.07
672.507	10062.57
672.856	10136.24
673.205	10067.32
673.554	10082.46
673.904	10115.91
674.253	10122.46
674.602	10060.77
674.951	9915.46
675.3	9831.62
675.649	10051.95
675.998	10062.8
676.346	10068.9
676.695	10071.39
677.044	9949.58
677.393	9987.55
677.741	10006.98
678.09	9978.96
678.438	10003.82
678.787	9961.33
679.135	9949.13
679.484	9855.35
679.832	9885.63
680.181	9982.35
680.529	9869.36
680.877	9785.75
681.225	9821.68
681.573	9898.06
681.922	9827.1
682.27	9792.3
682.618	9767.67
682.966	9783.94
683.314	9732.87
683.661	9689.25
684.009	9673.43
684.357	9704.62
684.705	9640.21
685.053	9681.57
685.4	9584.17
685.748	9591.63
686.095	9559.08
686.443	9616.94
686.79	9494
687.138	9561.57
687.485	9556.6
687.832	9415.13
688.18	9480.89
688.527	9425.75
688.874	9329.71
689.221	9361.8
689.568	9374.46
689.915	9269.37
690.262	9292.65
690.609	9285.42
690.956	9294.91
691.303	9199.09
691.65	9105.09
691.997	9129.94
692.344	9089.27
692.69	9075.03
693.037	9151.64
693.383	9101.92
693.73	9043.84
694.077	8970.85
694.423	8946.22
694.769	8928.82
695.116	8859.67
695.462	8898.99
695.808	8802.72
696.155	8916.16
696.501	8805.21
696.847	8805.43
697.193	8696.96
697.539	8672.1
697.885	8698.09
698.231	8590.52
698.577	8578.55
698.923	8585.55
699.269	8471.66
699.614	8476.63
699.96	8444.09
700.306	8454.26
700.651	8426.46
700.997	8384.88
701.342	8352.34
701.688	8296.29
702.033	8325.9
702.379	8273.02
702.724	8289.97
703.069	8266.69
703.415	8171.55
703.76	8102.4
704.105	8118.44
704.45	8115.96
704.795	8067.15
705.14	8077.77
705.485	7993.25
705.83	7903.76
706.175	8030.54
706.52	7915.29
706.865	7932.46
707.209	7915.96
707.554	7850.66
707.899	7897.89
708.243	7875.97
708.588	7779.24
708.932	7751.45
709.277	7758
709.621	7804.33
709.966	7692.24
710.31	7749.87
710.654	7633.71
710.998	7629.87
711.342	7680.26
711.687	7598.91
712.031	7601.62
712.375	7554.62
712.719	7586.26
713.063	7553.94
713.407	7481.63
713.75	7534.05
714.094	7509.65
714.438	7515.52
714.782	7464.45
715.125	7446.6
715.469	7447.28
715.812	7398.92
716.156	7384.23
716.499	7414.06
716.843	7452.02
717.186	7426.49
717.53	7389.2
717.873	7390.55
718.216	7329.31
718.559	7297.9
718.902	7282.53
719.246	7234.17
719.589	7285.02
719.932	7249.09
720.275	7240.5
720.617	7279.14
720.96	7234.85
721.303	7238.92
721.646	7264
721.989	7239.15
722.331	7226.04
722.674	7214.97
723.016	7183.55
723.359	7194.4
723.701	7227.39
724.044	7115.53
724.386	7148.07
724.729	7164.8
725.071	7175.42
725.413	7163.22
725.755	7155.08
726.097	7059.26
726.439	7071.01
726.782	7113.73
727.124	7160.73
727.465	7066.04
727.807	7103.56
728.149	7071.47
728.491	7103.33
728.833	7088.42
729.175	7152.59
729.516	7039.6
729.858	7107.85
730.199	7075.31
730.541	7025.37
730.882	6966.61
731.224	7104.69
731.565	7026.5
731.906	7075.76
732.248	7043.67
732.589	7016.55
732.93	7027.85
733.271	7043.22
733.612	7075.99
733.953	7056.1
734.294	7018.81
734.635	7000.73
734.976	7019.49
735.317	7047.74
735.658	7031.92
735.999	7069.43
736.339	7020.17
736.68	7078.92
737.021	7094.06
737.361	7043.44
737.702	7027.63
738.042	7045.03
738.383	7117.79
738.723	7030.34
739.063	7080.73
739.404	7126.83
739.744	7111.69
740.084	7101.75
740.424	7137.45
740.764	7137.91
741.104	7191.92
741.444	7176.55
741.784	7140.17
742.124	7153.05
742.464	7193.05
742.804	7241.41
743.143	7213.84
743.483	7214.97
743.823	7226.94
744.162	7235.98
744.502	7314.4
744.841	7334.28
745.181	7365.47
745.52	7378.13
745.86	7408.86
746.199	7441.63
746.538	7531.12
746.877	7511.23
747.216	7602.53
747.556	7527.73
747.895	7682.75
748.234	7640.94
748.573	7764.1
748.911	7768.17
749.25	7829.86
749.589	7862.86
749.928	7972.46
750.267	8067.15
750.605	8100.82
750.944	8152.34
751.283	8199.12
751.621	8326.12
751.96	8323.86
752.298	8446.57
752.636	8559.11
752.975	8575.61
753.313	8717.53
753.651	8797.3
753.989	8848.82
754.327	8982.6
754.666	9047.91
755.004	9193.22
755.342	9295.81
755.679	9408.58
756.017	9442.48
756.355	9671.17
756.693	9816.25
757.031	9966.53
757.368	10037.72
757.706	10133.08
758.044	10340.31
758.381	10460.3
758.719	10603.13
759.056	10786.4
759.394	10910.24
759.731	11019.16
760.068	11206.27
760.405	11314.07
