Data from hue_310_FLMS001491_13.txt Node
Date: Mon Feb 06 15:48:54 GMT 2017
User: dcchb
Spectrometer: FLMS00149
Trigger mode: 0
Integration Time (sec): 2.000000E-2
Scans to average: 10
Electric dark correction enabled: true
Nonlinearity correction enabled: false
Boxcar width: 0
XAxis mode: Wavelengths
Number of Pixels in Spectrum: 2048
>>>>>Begin Spectral Data<<<<<
341.393	-8.64
341.776	-8.64
342.16	-8.64
342.543	-62.43
342.927	-75.08
343.31	-70.34
343.693	-80.51
344.077	-76.21
344.46	-68.53
344.843	-62.88
345.226	-51.13
345.61	-15.65
345.993	-20.17
346.376	-5.03
346.759	35.2
347.142	26.16
347.525	44.69
347.908	46.5
348.291	65.48
348.674	106.16
349.057	126.27
349.44	138.24
349.823	157
350.206	169.43
350.588	186.15
350.971	223.21
351.354	205.14
351.737	246.72
352.119	246.72
352.502	261.86
352.884	277.9
353.267	275.19
353.65	282.65
354.032	276.09
354.414	281.29
354.797	324.45
355.179	320.61
355.562	321.52
355.944	328.52
356.326	342.99
356.709	332.14
357.091	317.68
357.473	342.31
357.855	320.39
358.238	362.19
358.62	342.31
359.002	336.66
359.384	346.83
359.766	351.12
360.148	348.86
360.53	342.53
360.912	346.38
361.294	333.95
361.676	323.1
362.057	326.71
362.439	324.91
362.821	328.3
363.203	331.01
363.584	328.75
363.966	328.97
364.348	317.68
364.729	313.38
365.111	314.74
365.493	322.19
365.874	307.51
366.256	326.26
366.637	316.55
367.019	325.36
367.4	285.13
367.781	309.09
368.163	324.23
368.544	312.25
368.925	310.67
369.306	314.29
369.688	295.08
370.069	302.31
370.45	322.42
370.831	316.77
371.212	323.78
371.593	302.99
371.974	322.87
372.355	315.64
372.736	298.01
373.117	299.14
373.498	312.48
373.879	321.29
374.26	293.72
374.641	326.94
375.021	316.55
375.402	317.9
375.783	311.8
376.163	329.65
376.544	341.4
376.925	295.98
377.305	331.01
377.686	325.36
378.066	324
378.447	323.32
378.827	335.3
379.208	346.15
379.588	316.09
379.968	315.87
380.349	342.76
380.729	310.9
381.109	334.85
381.489	326.49
381.87	332.14
382.25	349.09
382.63	347.5
383.01	358.8
383.39	352.7
383.77	336.88
384.15	351.35
384.53	348.41
384.91	342.08
385.29	341.63
385.67	339.82
386.049	353.61
386.429	369.2
386.809	361.97
387.189	358.8
387.568	360.61
387.948	366.04
388.328	359.71
388.707	366.26
389.087	335.53
389.466	364.68
389.846	368.3
390.225	372.36
390.605	375.3
390.984	367.62
391.363	365.13
391.743	364.23
392.122	366.26
392.501	364.91
392.881	382.08
393.26	410.1
393.639	374.85
394.018	377.79
394.397	395.19
394.776	385.47
395.155	359.26
395.534	381.63
395.913	387.73
396.292	405.36
396.671	394.96
397.05	366.26
397.429	402.87
397.808	379.14
398.186	359.03
398.565	401.97
398.944	377.56
399.323	399.26
399.701	402.19
400.08	404.68
400.458	389.09
400.837	417.79
401.215	411.46
401.594	419.37
401.972	407.16
402.351	397
402.729	417.11
403.107	429.99
403.486	437.9
403.864	424.34
404.242	416.2
404.62	412.14
404.999	416.43
405.377	427.28
405.755	431.8
406.133	422.53
406.511	427.5
406.889	432.93
407.267	467.05
407.645	455.52
408.023	453.49
408.401	457.33
408.779	456.2
409.156	471.12
409.534	460.5
409.912	480.38
410.29	503.66
410.667	471.34
411.045	485.81
411.422	496.43
411.8	519.93
412.178	491.23
412.555	510.89
412.933	532.36
413.31	538.91
413.687	541.62
414.065	528.97
414.442	543.88
414.819	569.19
415.197	557.89
415.574	591.79
415.951	584.33
416.328	588.18
416.705	588.18
417.082	619.36
417.46	612.36
417.837	629.08
418.214	636.08
418.591	633.6
418.967	646.71
419.344	662.98
419.721	666.14
420.098	657.78
420.475	675.63
420.852	696.42
421.228	691.68
421.605	674.95
421.982	716.31
422.358	695.29
422.735	702.3
423.111	712.24
423.488	714.95
423.864	730.32
424.241	721.96
424.617	757.89
424.994	738
425.37	752.69
425.746	787.95
426.123	770.77
426.499	794.05
426.875	810.32
427.251	795.85
427.627	815.97
428.003	834.72
428.379	834.05
428.756	829.3
429.132	836.08
429.507	839.7
429.883	850.77
430.259	872.69
430.635	869.53
431.011	883.31
431.387	907.49
431.763	929.41
432.138	911.56
432.514	931.67
432.89	940.48
433.265	949.07
433.641	968.51
434.016	971.9
434.392	1003.08
434.767	1007.6
435.143	1002.18
435.518	1006.7
435.894	1028.84
436.269	1038.11
436.644	1047.37
437.02	1051.89
437.395	1067.94
437.77	1085.34
438.145	1090.31
438.52	1085.56
438.895	1105
439.271	1110.87
439.646	1135.28
440.021	1132.34
440.395	1163.08
440.77	1124.66
441.145	1131.89
441.52	1170.08
441.895	1169.4
442.27	1144.55
442.645	1175.28
443.019	1169.86
443.394	1171.89
443.769	1199.91
444.143	1181.38
444.518	1190.19
444.892	1224.32
445.267	1212.57
445.641	1241.94
446.016	1195.84
446.39	1196.3
446.764	1236.97
447.139	1252.11
447.513	1243.98
447.887	1249.18
448.262	1248.5
448.636	1234.94
449.01	1259.35
449.384	1287.14
449.758	1281.94
450.132	1277.65
450.506	1281.72
450.88	1297.76
451.254	1296.18
451.628	1309.51
452.002	1281.94
452.376	1330.76
452.75	1318.1
453.123	1305.67
453.497	1298.44
453.871	1325.78
454.244	1379.34
454.618	1364.43
454.992	1392.45
455.365	1398.55
455.739	1384.09
456.112	1404.65
456.486	1437.65
456.859	1410.08
457.232	1435.16
457.606	1442.84
457.979	1455.27
458.352	1430.19
458.725	1450.75
459.099	1481.03
459.472	1493.24
459.845	1487.59
460.218	1533.46
460.591	1526.91
460.964	1523.07
461.337	1577.98
461.71	1574.37
462.083	1599.45
462.456	1572.33
462.829	1587.25
463.201	1639.45
463.574	1608.26
463.947	1614.14
464.32	1656.4
464.692	1646.23
465.065	1669.73
465.438	1670.63
465.81	1665.21
466.183	1704.31
466.555	1719.67
466.928	1729.39
467.3	1709.28
467.672	1757.86
468.045	1755.6
468.417	1787.92
468.789	1795.38
469.161	1811.2
469.534	1853.68
469.906	1848.93
470.278	1850.29
470.65	1853.23
471.022	1870.85
471.394	1917.86
471.766	1934.13
472.138	1901.14
472.51	1960.34
472.882	1976.84
473.253	1997.18
473.625	2027.23
473.997	2012.55
474.369	2037.18
474.74	2069.27
475.112	2104.29
475.484	2122.83
475.855	2155.59
476.227	2174.8
476.598	2187.46
476.97	2203.73
477.341	2241.69
477.713	2265.42
478.084	2259.55
478.455	2307.91
478.827	2326.66
479.198	2348.58
479.569	2382.03
479.94	2416.6
480.311	2407.56
480.682	2452.31
481.053	2520.33
481.424	2540.67
481.795	2549.48
482.166	2567.11
482.537	2588.58
482.908	2607.33
483.279	2657.95
483.65	2676.71
484.021	2682.36
484.391	2743.83
484.762	2722.13
485.133	2796.48
485.503	2767.78
485.874	2818.63
486.244	2810.49
486.615	2886.87
486.985	2908.57
487.356	2948.11
487.726	2934.1
488.097	3019.98
488.467	3002.12
488.837	3040.99
489.207	3081.67
489.578	3135.45
489.948	3132.06
490.318	3130.48
490.688	3217.03
491.058	3178.17
491.428	3222.46
491.798	3276.24
492.168	3292.06
492.538	3293.42
492.908	3357.37
493.278	3348.78
493.648	3344.49
494.017	3387.65
494.387	3390.59
494.757	3437.37
495.126	3448.89
495.496	3456.35
495.866	3529.12
496.235	3506.52
496.605	3525.95
496.974	3555.78
497.344	3600.53
497.713	3566.86
498.082	3603.24
498.452	3592.17
498.821	3640.75
499.19	3631.03
499.559	3652.05
499.928	3710.13
500.298	3685.27
500.667	3742.67
501.036	3741.54
501.405	3740.64
501.774	3775.21
502.143	3796
502.512	3785.83
502.88	3802.1
503.249	3826.51
503.618	3834.19
503.987	3888.2
504.356	3851.82
504.724	3864.25
505.093	3867.86
505.462	3896.79
505.83	3899.28
506.199	3954.64
506.567	3961.65
506.936	3978.82
507.304	4003.68
507.672	3994.64
508.041	4037.58
508.409	4005.26
508.777	4040.74
509.145	4073.28
509.514	4027.18
509.882	4076.22
510.25	4071.02
510.618	4105.15
510.986	4097.24
511.354	4140.17
511.722	4157.12
512.09	4187.63
512.458	4167.07
512.826	4228.76
513.193	4232.6
513.561	4160.51
513.929	4197.12
514.297	4244.35
514.664	4240.96
515.032	4210.45
515.4	4274.41
515.767	4314.41
516.135	4299.49
516.502	4265.82
516.869	4342.43
517.237	4323.45
517.604	4356.21
517.972	4378.36
518.339	4364.12
518.706	4388.3
519.073	4353.95
519.44	4404.35
519.808	4428.75
520.175	4437.34
520.542	4466.04
520.909	4482.76
521.276	4463.78
521.643	4496.32
522.009	4466.27
522.376	4511.01
522.743	4522.76
523.11	4535.19
523.477	4579.48
523.843	4601.63
524.21	4646.15
524.577	4629.43
524.943	4691.35
525.31	4675.98
525.676	4718.46
526.043	4707.39
526.409	4675.53
526.776	4786.26
527.142	4799.82
527.508	4843.21
527.874	4858.8
528.241	4824.9
528.607	4853.83
528.973	4924.33
529.339	4889.98
529.705	4913.26
530.071	4998.46
530.437	5011.56
530.803	4976.76
531.169	5065.8
531.535	5028.74
531.901	5037.33
532.267	5080.71
532.632	5123.65
532.998	5143.54
533.364	5217.89
533.73	5156.42
534.095	5189.64
534.461	5204.33
534.826	5292.46
535.192	5259.24
535.557	5301.95
535.923	5301.27
536.288	5299.47
536.653	5327.49
537.019	5293.36
537.384	5343.53
537.749	5379.46
538.114	5354.38
538.479	5358.9
538.845	5397.99
539.21	5435.73
539.575	5474.15
539.94	5487.26
540.305	5525.67
540.67	5517.09
541.034	5608.84
541.399	5565.22
541.764	5629.4
542.129	5614.26
542.494	5656.29
542.858	5649.06
543.223	5671.21
543.587	5750.3
543.952	5773.13
544.316	5778.77
544.681	5818.77
545.045	5807.47
545.41	5825.1
545.774	5927.47
546.138	5866
546.503	5875.5
546.867	5953.23
547.231	5961.37
547.595	6021.48
547.959	6029.84
548.324	6027.81
548.688	5970.41
549.052	6013.34
549.416	6083.63
549.779	6077.3
550.143	6074.36
550.507	6162.72
550.871	6168.59
551.235	6157.52
551.599	6176.5
551.962	6262.6
552.326	6229.38
552.689	6239.1
553.053	6244.75
553.417	6218.76
553.78	6308.25
554.143	6306.44
554.507	6367.46
554.87	6381.7
555.234	6472.99
555.597	6371.3
555.96	6421.24
556.323	6410.62
556.686	6506.89
557.05	6498.98
557.413	6458.76
557.776	6477.74
558.139	6510.51
558.502	6547.12
558.865	6585.53
559.228	6635.7
559.59	6625.98
559.953	6634.8
560.316	6666.43
560.679	6673.89
561.041	6773.32
561.404	6734.46
561.767	6709.82
562.129	6729.94
562.492	6849.48
562.854	6757.51
563.217	6836.6
563.579	6829.37
563.941	6894.9
564.304	6902.36
564.666	6953.43
565.028	6974.68
565.39	6968.12
565.753	7000.21
566.115	6973.09
566.477	7107.33
566.839	7061.23
567.201	7127.89
567.563	7109.59
567.925	7174.44
568.287	7034.33
568.648	7150.04
569.01	7138.51
569.372	7257.83
569.734	7210.83
570.095	7337.15
570.457	7376.25
570.819	7357.26
571.18	7417.15
571.542	7411.5
571.903	7450.14
572.265	7500.54
572.626	7588.67
572.987	7630.25
573.349	7528.11
573.71	7657.82
574.071	7675
574.432	7782.34
574.794	7819.4
575.155	7822.34
575.516	7859.62
575.877	7994.99
576.238	8084.25
576.599	8077.7
576.96	8169.45
577.32	8259.39
577.681	8300.97
578.042	8351.59
578.403	8435.88
578.763	8528.98
579.124	8627.51
579.485	8687.17
579.845	8847.85
580.206	8939.6
580.566	9016.66
580.927	9133.49
581.287	9281.06
581.648	9381.84
582.008	9562.63
582.368	9619.8
582.728	9865.67
583.089	9890.76
583.449	10127.59
583.809	10239
584.169	10431.99
584.529	10608.25
584.889	10842.6
585.249	10970.28
585.609	11168.01
585.969	11400.77
586.329	11495.46
586.688	11740.88
587.048	12017.03
587.408	12121.21
587.768	12427.87
588.127	12632.61
588.487	12854.75
588.846	13219.48
589.206	13331.8
589.565	13580.6
589.925	13912.12
590.284	14179.68
590.643	14425.55
591.003	14746.67
591.362	15000.91
591.721	15249.26
592.08	15458.29
592.44	15884.95
592.799	16107.77
593.158	16445.61
593.517	16658.26
593.876	16901.65
594.235	17167.85
594.593	17564.91
594.952	17920.15
595.311	18081.5
595.67	18382.74
596.029	18776.85
596.387	19167.8
596.746	19403.05
597.104	19645.08
597.463	19984.05
597.822	20256.81
598.18	20482.12
598.538	20796.91
598.897	21174.75
599.255	21321.87
599.613	21871.68
599.972	22069.65
600.33	22398.45
600.688	22494.95
601.046	22822.62
601.404	23314.58
601.762	23514.58
602.12	23893.1
602.478	24230.27
602.836	24374.22
603.194	24535.57
603.552	24955.45
603.91	25011.94
604.268	25513.62
604.625	25628.42
604.983	25940.05
605.341	26030.45
605.698	26495.07
606.056	26858.9
606.413	27018.22
606.771	27282.39
607.128	27567.13
607.485	27674.24
607.843	27982.48
608.2	28275.81
608.557	28542.02
608.914	28666.31
609.272	28978.16
609.629	29213.64
609.986	29497.25
610.343	29489.79
610.7	29967.52
611.057	30115.54
611.414	30262.88
611.771	30475.53
612.127	30691.11
612.484	30889.53
612.841	31218.33
613.198	31186.24
613.554	31410.87
613.911	31666.91
614.267	31803.18
614.624	31962.04
614.98	32174.92
615.337	32418.3
615.693	32570.39
616.05	32643.15
616.406	32855.12
616.762	32943.71
617.118	33151.16
617.475	33162.91
617.831	33456.46
618.187	33576.01
618.543	33735.55
618.899	34089.89
619.255	34148.88
619.611	34157.24
619.967	34453.05
620.323	34416.44
620.678	34541.18
621.034	34570.56
621.39	34760.39
621.746	34724.23
622.101	35279.02
622.457	35088.96
622.812	35209.87
623.168	35452.12
623.523	35519.91
623.879	35575.51
624.234	35612.79
624.589	35743.18
624.945	35884.2
625.3	35836.29
625.655	36023.63
626.01	36086.23
626.365	36154.02
626.72	36205.32
627.075	36256.39
627.43	36289.61
627.785	36410.06
628.14	36600.11
628.495	36528.93
628.85	36586.1
629.205	36601.47
629.559	36745.19
629.914	36593.56
630.269	36642.14
630.623	36624.74
630.978	36683.72
631.332	36872.87
631.687	36928.24
632.041	36927.56
632.396	36897.96
632.75	36803.04
633.104	36934.34
633.459	36961.46
633.813	36922.81
634.167	36882.59
634.521	36949.48
634.875	36938.86
635.229	36901.57
635.583	36921.46
635.937	36900.89
636.291	36999.87
636.645	36895.47
636.999	36858.18
637.352	36991.29
637.706	36919.42
638.06	37066.99
638.413	37022.47
638.767	37028.8
639.121	36996.71
639.474	36817.28
639.828	36864.74
640.181	36924.4
640.534	37005.07
640.888	36899.76
641.241	36862.93
641.594	36874
641.947	36951.06
642.301	36944.73
642.654	36900.44
643.007	36879.88
643.36	36892.98
643.713	36947.22
644.066	36901.35
644.419	36827.68
644.771	36447.12
645.124	36243.06
645.477	36190.63
645.83	36098.88
646.182	35928.04
646.535	35994.48
646.888	35822.96
647.24	35733.69
647.593	35931.65
647.945	35787.93
648.298	35632.68
648.65	35641.72
649.002	35514.94
649.355	35670.87
649.707	35605.56
650.059	35702.06
650.411	36159.22
650.763	36229.27
651.115	36526.21
651.467	36473.33
651.819	36523.95
652.171	36476.05
652.523	36495.48
652.875	36363.51
653.227	36263.62
653.578	36613.44
653.93	36433.34
654.282	36177.52
654.633	36229.27
654.985	36328.03
655.337	36354.69
655.688	36369.83
656.039	36416.84
656.391	36090.07
656.742	36038.32
657.094	36207.58
657.445	36290.51
657.796	36185.66
658.147	36113.57
658.498	36050.97
658.849	36166.45
659.2	36241.7
659.551	36075.38
659.902	36126.9
660.253	36121.48
660.604	36224.08
660.955	35958.77
661.306	36247.58
661.656	36024.08
662.007	36046.23
662.358	36108.37
662.708	36105.66
663.059	35983.63
663.409	35875.16
663.76	36157.86
664.11	36031.31
664.461	36138.88
664.811	36101.14
665.161	35966.23
665.511	35948.83
665.862	35900.47
666.212	36067.7
666.562	36140.24
666.912	36007.36
667.262	36040.13
667.612	35873.58
667.962	36022.5
668.312	35897.76
668.662	36060.46
669.011	35920.35
669.361	35853.24
669.711	36053.46
670.06	35938.43
670.41	35765.1
670.76	35791.77
671.109	35979.11
671.459	35893.01
671.808	35763.75
672.157	35905.67
672.507	35660.25
672.856	35722.85
673.205	35724.88
673.554	35738.21
673.904	35768.27
674.253	35871.77
674.602	35740.7
674.951	35371.22
675.3	35073.82
675.649	35689.63
675.998	35641.04
676.346	35683.3
676.695	35762.62
677.044	35333.48
677.393	35549.97
677.741	35668.61
678.09	35487.37
678.438	35330.09
678.787	35496.41
679.135	35557.88
679.484	35272.69
679.832	35536.86
680.181	35255.51
680.529	35398.11
680.877	35272.24
681.225	35185.69
681.573	35494.38
681.922	35211.67
682.27	35055.07
682.618	35096.65
682.966	34971.45
683.314	35188.62
683.661	34916.54
684.009	34818.24
684.357	34799.25
684.705	34708.41
685.053	34713.61
685.4	34583.44
685.748	34582.76
686.095	34533.5
686.443	34404.01
686.79	34338.93
687.138	34423.45
687.485	34359.04
687.832	34165.37
688.18	34276.78
688.527	34091.02
688.874	33972.16
689.221	33940.29
689.568	34008.54
689.915	33859.39
690.262	33797.02
690.609	33700.07
690.956	33459.18
691.303	33609.68
691.65	33418.27
691.997	33395.9
692.344	33304.6
692.69	33231.39
693.037	33216.92
693.383	32907.1
693.73	33132.86
694.077	32996.59
694.423	33014.44
694.769	32907.33
695.116	32786.65
695.462	32654.9
695.808	32610.39
696.155	32538.3
696.501	32411.07
696.847	32537.17
697.193	32221.7
697.539	32322.48
697.885	32046.56
698.231	31985.77
698.577	31983.51
698.923	31894.47
699.269	31816.28
699.614	31720.24
699.96	31645.67
700.306	31721.82
700.651	31538.55
700.997	31405.45
701.342	31394.82
701.688	31369.29
702.033	31214.26
702.379	31172.46
702.724	31095.85
703.069	31092.69
703.415	30798.23
703.76	30711.23
704.105	30882.97
704.45	30802.75
704.795	30631.68
705.14	30597.11
705.485	30493.38
705.83	30314.17
706.175	30431.23
706.52	30299.94
706.865	30249.54
707.209	30340.16
707.554	30029.66
707.899	30195.76
708.243	29905.15
708.588	29974.52
708.932	29735.88
709.277	29759.84
709.621	29685.04
709.966	29608.2
710.31	29577.92
710.654	29378.61
710.998	29408.89
711.342	29376.35
711.687	29238.95
712.031	29166.63
712.375	29035.11
712.719	29052.96
713.063	29043.47
713.407	29038.5
713.75	29002.12
714.094	28923.48
714.438	28790.6
714.782	28893.42
715.125	28614.33
715.469	28767.1
715.812	28573.88
716.156	28436.26
716.499	28422.02
716.843	28484.84
717.186	28377.28
717.53	28445.52
717.873	28437.84
718.216	28402.81
718.559	28317.84
718.902	28010.96
719.246	28105.87
719.589	28104.52
719.932	27982.94
720.275	27980
720.617	27905.42
720.96	27880.57
721.303	27836.73
721.646	27825.43
721.989	27655.49
722.331	27794.69
722.674	27698.65
723.016	27568.48
723.359	27656.62
723.701	27586.56
724.044	27437.19
724.386	27290.07
724.729	27316.51
725.071	27443.74
725.413	27434.25
725.755	27333.24
726.097	27233.8
726.439	27061.6
726.782	27195.61
727.124	27243.07
727.465	27064.99
727.807	26958.56
728.149	26909.29
728.491	26873.14
728.833	26943.87
729.175	26813.25
729.516	26827.26
729.858	26663.2
730.199	26740.71
730.541	26709.07
730.882	26682.86
731.224	26782.06
731.565	26482.19
731.906	26510.43
732.248	26542.3
732.589	26300.49
732.93	26285.35
733.271	26249.65
733.612	26337.1
733.953	26408.51
734.294	26293.72
734.635	26089.88
734.976	26238.12
735.317	26041.52
735.658	26093.49
735.999	26079.03
736.339	25986.38
736.68	26029.32
737.021	25893.27
737.361	25873.61
737.702	25975.98
738.042	25898.25
738.383	25808.76
738.723	25799.27
739.063	25754.75
739.404	25759.49
739.744	25643.34
740.084	25518.82
740.424	25640.4
740.764	25632.04
741.104	25649.44
741.444	25487.86
741.784	25394.3
742.124	25410.35
742.464	25390.01
742.804	25289.22
743.143	25183.01
743.483	25330.35
743.823	25234.53
744.162	25089.91
744.502	25133.75
744.841	25015.56
745.181	25133.29
745.52	24989.12
745.86	25112.28
746.199	25072.28
746.538	24948.21
746.877	25009.46
747.216	24981.43
747.556	24872.06
747.895	24881.32
748.234	24774.43
748.573	24724.72
748.911	24780.99
749.25	24727.43
749.589	24573.76
749.928	24695.57
750.267	24670.26
750.605	24537.15
750.944	24488.79
751.283	24345.97
751.621	24436.82
751.96	24363.6
752.298	24251.74
752.636	24289.47
752.975	24165.18
753.313	24064.4
753.651	24142.59
753.989	23985.53
754.327	23956.15
754.666	23817.62
755.004	23915.92
755.342	23915.47
755.679	23935.13
756.017	23625.54
756.355	23764.29
756.693	23550.96
757.031	23634.58
757.368	23538.76
757.706	23509.16
758.044	23396.39
758.381	23393.9
758.719	23397.52
759.056	23345.32
759.394	23256.73
759.731	22980.36
