Data from hue_110_FLMS001491_00035.txt Node
Date: Tue Feb 07 17:01:14 GMT 2017
User: dcchb
Spectrometer: FLMS00149
Trigger mode: 0
Integration Time (sec): 2.000000E-2
Scans to average: 10
Electric dark correction enabled: true
Nonlinearity correction enabled: false
Boxcar width: 0
XAxis mode: Wavelengths
Number of Pixels in Spectrum: 2048
>>>>>Begin Spectral Data<<<<<
341.393	-22.01
341.776	-22.01
342.16	-22.01
342.543	-57.03
342.927	-52.51
343.31	-60.65
343.693	-75.11
344.077	-81.66
344.46	-53.64
344.843	-62.46
345.226	-42.57
345.61	-17.71
345.993	-7.99
346.376	-9.8
346.759	4.21
347.142	38.33
347.525	26.36
347.908	58.44
348.291	81.04
348.674	90.31
349.057	112.91
349.44	121.49
349.823	158.33
350.206	149.52
350.588	221.83
350.971	208.05
351.354	222.51
351.737	239.01
352.119	249.4
352.502	275.84
352.884	275.39
353.267	307.25
353.65	292.56
354.032	293.47
354.414	314.71
354.797	317.87
355.179	328.27
355.562	322.39
355.944	318.55
356.326	323.97
356.709	318.32
357.091	340.47
357.473	336.4
357.855	347.25
358.238	344.09
358.62	355.61
359.002	335.73
359.384	346.12
359.766	343.64
360.148	361.94
360.53	351.32
360.912	331.21
361.294	327.82
361.676	328.49
362.057	330.75
362.439	342.96
362.821	337.76
363.203	328.04
363.584	330.75
363.966	323.07
364.348	335.5
364.729	335.5
365.111	348.83
365.493	314.71
365.874	308.38
366.256	323.52
366.637	307.7
367.019	306.57
367.4	308.38
367.781	301.6
368.163	328.72
368.544	307.25
368.925	318.78
369.306	328.27
369.688	301.6
370.069	315.16
370.45	318.1
370.831	322.39
371.212	320.13
371.593	323.07
371.974	322.62
372.355	307.48
372.736	329.62
373.117	315.61
373.498	325.78
373.879	328.95
374.26	305.44
374.641	309.96
375.021	317.42
375.402	344.76
375.783	332.34
376.163	318.78
376.544	328.49
376.925	331.43
377.305	342.96
377.686	328.95
378.066	344.99
378.447	342.51
378.827	344.54
379.208	323.07
379.588	329.85
379.968	330.75
380.349	340.47
380.729	333.92
381.109	349.51
381.489	333.24
381.87	344.09
382.25	351.77
382.63	344.54
383.01	331.66
383.39	349.06
383.77	353.35
384.15	340.92
384.53	349.28
384.91	364.65
385.29	359.68
385.67	351.32
386.049	358.32
386.429	363.3
386.809	357.42
387.189	366.23
387.568	361.71
387.948	349.74
388.328	370.3
388.707	382.05
389.087	377.31
389.466	368.04
389.846	353.8
390.225	371.2
390.605	369.17
390.984	392.67
391.363	380.24
391.743	401.26
392.122	390.64
392.501	373.01
392.881	376.18
393.26	396.29
393.639	393.35
394.018	377.98
394.397	376.85
394.776	371.88
395.155	392.9
395.534	396.51
395.913	397.87
396.292	386.35
396.671	412.56
397.05	390.87
397.429	381.83
397.808	389.06
398.186	396.06
398.565	419.57
398.944	408.72
399.323	416.18
399.701	394.48
400.08	399
400.458	428.15
400.837	412.56
401.215	426.34
401.594	400.58
401.972	419.79
402.351	415.27
402.729	406.68
403.107	438.55
403.486	422.5
403.864	441.71
404.242	425.89
404.62	427.7
404.999	428.6
405.377	434.03
405.755	441.94
406.133	425.67
406.511	431.77
406.889	457.98
407.267	452.56
407.645	455.27
408.023	462.95
408.401	473.35
408.779	458.89
409.156	450.07
409.534	453.01
409.912	464.08
410.29	476.74
410.667	482.84
411.045	459.34
411.422	471.09
411.8	470.86
412.178	470.64
412.555	479
412.933	483.74
413.31	518.32
413.687	501.6
414.065	505.89
414.442	503.63
414.819	490.3
415.197	512.67
415.574	514.93
415.951	502.05
416.328	519.22
416.705	516.51
417.082	524.2
417.46	547.47
417.837	523.74
418.214	537.53
418.591	549.51
418.967	564.42
419.344	545.21
419.721	541.14
420.098	544.76
420.475	564.42
420.852	555.15
421.228	556.51
421.605	573.23
421.982	566.68
422.358	567.13
422.735	584.98
423.111	570.75
423.488	596.96
423.864	577.53
424.241	579.79
424.617	591.76
424.994	590.86
425.37	589.73
425.746	599
426.123	621.37
426.499	613.91
426.875	619.79
427.251	609.16
427.627	642.61
428.003	640.58
428.379	650.07
428.756	648.26
429.132	645.32
429.507	628.15
429.883	647.81
430.259	681.25
430.635	695.26
431.011	680.12
431.387	685.09
431.763	712.21
432.138	684.87
432.514	709.5
432.89	702.04
433.265	721.48
433.641	740.23
434.016	711.76
434.392	734.59
434.767	738.2
435.143	721.25
435.518	733.46
435.894	752.66
436.269	767.35
436.644	780.23
437.02	752.66
437.395	784.75
437.77	791.53
438.145	830.63
438.52	813.68
438.895	815.94
439.271	819.1
439.646	841.7
440.021	845.32
440.395	823.62
440.77	838.31
441.145	846.22
441.52	854.58
441.895	865.43
442.27	879.21
442.645	849.61
443.019	865.2
443.394	855.49
443.769	869.27
444.143	875.82
444.518	880.34
444.892	894.58
445.267	908.37
445.641	902.26
446.016	930.06
446.39	911.3
446.764	947.23
447.139	940.91
447.513	926.67
447.887	927.8
448.262	944.07
448.636	958.08
449.01	962.38
449.384	951.3
449.758	959.66
450.132	987.91
450.506	991.08
450.88	997.86
451.254	1004.41
451.628	1029.27
452.002	996.27
452.376	1016.61
452.75	1039.44
453.123	1058.87
453.497	1032.66
453.871	1069.49
454.244	1063.62
454.618	1082.15
454.992	1090.73
455.365	1114.46
455.739	1113.56
456.112	1156.04
456.486	1135.7
456.859	1156.27
457.232	1169.83
457.606	1184.97
457.979	1213.67
458.352	1208.7
458.725	1237.4
459.099	1236.72
459.472	1252.99
459.845	1268.81
460.218	1272.42
460.591	1300.67
460.964	1309.94
461.337	1340.22
461.71	1389.94
462.083	1366.43
462.456	1379.54
462.829	1390.39
463.201	1425.87
463.574	1383.16
463.947	1436.94
464.32	1475.36
464.692	1494.11
465.065	1491.18
465.438	1546.32
465.81	1563.26
466.183	1560.1
466.555	1593.55
466.928	1610.72
467.3	1623.38
467.672	1644.17
468.045	1669.25
468.417	1704.73
468.789	1709.93
469.161	1749.93
469.534	1801.9
469.906	1830.6
470.278	1866.98
470.65	1879.19
471.022	1944.72
471.394	1959.86
471.766	2012.97
472.138	2022.46
472.51	2035.79
472.882	2129.35
473.253	2158.95
473.625	2196.47
473.997	2262
474.369	2281.66
474.74	2320.98
475.112	2384.94
475.484	2445.5
475.855	2539.96
476.227	2571.37
476.598	2646.17
476.97	2716
477.341	2790.12
477.713	2852.72
478.084	2858.15
478.455	2995.54
478.827	3026.28
479.198	3138.14
479.569	3196.44
479.94	3311.01
480.311	3331.35
480.682	3495.42
481.053	3572.48
481.424	3671.23
481.795	3784.45
482.166	3872.13
482.537	3959.81
482.908	4075.06
483.279	4226.24
483.65	4353.47
484.021	4428.05
484.391	4570.42
484.762	4633.01
485.133	4715.5
485.503	4835.04
485.874	4998.65
486.244	5135.37
486.615	5268.25
486.985	5437.51
487.356	5515.93
487.726	5674.12
488.097	5806.77
488.467	5863.49
488.837	6098.06
489.207	6177.61
489.578	6403.36
489.948	6489.01
490.318	6643.81
490.688	6800.41
491.058	6916.34
491.428	7098.71
491.798	7210.57
492.168	7432.49
492.538	7624.8
492.908	7747.73
493.278	7839.71
493.648	8017.56
494.017	8206.25
494.387	8256.87
494.757	8418.9
495.126	8580.93
495.496	8686.69
495.866	8797.42
496.235	8937.99
496.605	9111.09
496.974	9213.68
497.344	9363.96
497.713	9468.37
498.082	9622.26
498.452	9749.49
498.821	9844.4
499.19	10008.92
499.559	10133.21
499.928	10186.99
500.298	10398.29
500.667	10483.26
501.036	10460.88
501.405	10677.15
501.774	10754.89
502.143	10931.83
502.512	10915.33
502.88	11077.59
503.249	11221.77
503.618	11244.82
503.987	11311.03
504.356	11492.95
504.724	11504.25
505.093	11577.01
505.462	11663.11
505.83	11786.5
506.199	11887.96
506.567	12011.35
506.936	12063.33
507.304	12193.72
507.672	12321.4
508.041	12362.98
508.409	12491.56
508.777	12521.85
509.145	12694.72
509.514	12555.52
509.882	12748.96
510.25	12798.22
510.618	12787.83
510.986	12848.39
511.354	13000.93
511.722	13017.88
512.09	13238.66
512.458	13184.2
512.826	13300.36
513.193	13342.62
513.561	13451.09
513.929	13436.62
514.297	13558.43
514.664	13555.04
515.032	13689.72
515.4	13809.04
515.767	13751.87
516.135	13798.42
516.502	13782.15
516.869	14043.16
517.237	13973.33
517.604	13954.12
517.972	14100.56
518.339	14031.64
518.706	14131.52
519.073	14104.4
519.44	14212.2
519.808	14257.62
520.175	14256.94
520.542	14451.74
520.909	14443.38
521.276	14415.36
521.643	14499.65
522.009	14616.25
522.376	14652.86
522.743	14678.85
523.11	14731.73
523.477	14799.75
523.843	14869.81
524.21	15077.26
524.577	15029.8
524.943	15056.47
525.31	15009.24
525.676	15113.87
526.043	15156.58
526.409	15158.84
526.776	15303.24
527.142	15281.1
527.508	15333.52
527.874	15346.4
528.241	15368.32
528.607	15376.23
528.973	15425.95
529.339	15379.17
529.705	15500.52
530.071	15561.77
530.437	15550.47
530.803	15573.97
531.169	15569
531.535	15496.91
531.901	15487.64
532.267	15431.15
532.632	15524.48
532.998	15475.21
533.364	15601.54
533.73	15555.21
534.095	15624.14
534.461	15517.25
534.826	15604.48
535.192	15581.65
535.557	15640.86
535.923	15493.52
536.288	15582.78
536.653	15574.87
537.019	15412.39
537.384	15371.26
537.749	15404.71
538.114	15419.85
538.479	15387.08
538.845	15398.61
539.21	15328.78
539.575	15285.62
539.94	15360.42
540.305	15365.84
540.67	15208.55
541.034	15324.48
541.399	15274.99
541.764	15124.49
542.129	15256.69
542.494	15297.82
542.858	15225.28
543.223	15053.08
543.587	15146.86
543.952	14979.18
544.316	15047.43
544.681	15009.24
545.045	14968.79
545.41	15028.22
545.774	15034.32
546.138	14939.41
546.503	14829.36
546.867	14794.78
547.231	14913.65
547.595	14896.47
547.959	14779.87
548.324	14764.27
548.688	14718.85
549.052	14689.47
549.416	14635.01
549.779	14632.75
550.143	14623.26
550.507	14670.49
550.871	14612.41
551.235	14623.49
551.599	14595.24
551.962	14623.49
552.326	14551.62
552.689	14568.8
553.053	14455.13
553.417	14416.49
553.78	14536.26
554.143	14424.39
554.507	14484.96
554.87	14483.6
555.234	14455.58
555.597	14435.47
555.96	14446.09
556.323	14441.34
556.686	14363.38
557.05	14398.63
557.413	14356.15
557.776	14326.09
558.139	14350.95
558.502	14364.96
558.865	14267.56
559.228	14350.95
559.59	14318.86
559.953	14363.61
560.316	14425.75
560.679	14450.38
561.041	14375.81
561.404	14429.37
561.767	14465.98
562.129	14320.44
562.492	14433.66
562.854	14397.05
563.217	14423.04
563.579	14444.51
563.941	14471.4
564.304	14506.88
564.666	14563.37
565.028	14530.15
565.39	14460.78
565.753	14546.2
566.115	14550.72
566.477	14576.93
566.839	14606.31
567.201	14720.43
567.563	14624.16
567.925	14669.13
568.287	14660.55
568.648	14624.16
569.01	14753.43
569.372	14853.76
569.734	14693.99
570.095	14685.86
570.457	14838.62
570.819	14827.32
571.18	14785.52
571.542	14888.56
571.903	14851.28
572.265	14909.58
572.626	14959.52
572.987	14830.71
573.349	14898.05
573.71	14961.33
574.071	15002.23
574.432	14912.97
574.794	14991.16
575.155	14943.93
575.516	14917.72
575.877	15010.14
576.238	14993.65
576.599	15096.92
576.96	14934.89
577.32	14962.46
577.681	14998.16
578.042	15077.26
578.403	15006.3
578.763	15006.53
579.124	15027.54
579.485	15075
579.845	15054.43
580.206	15084.04
580.566	15003.81
580.927	15042.01
581.287	15101.21
581.648	15091.5
582.008	15161.32
582.368	15001.1
582.728	15066.64
583.089	15021.89
583.449	15053.3
583.809	15016.47
584.169	15067.99
584.529	14964.72
584.889	15106.64
585.249	14956.36
585.609	14903.25
585.969	15017.37
586.329	14787.32
586.688	14981.89
587.048	14967.21
587.408	14917.04
587.768	14970.82
588.127	14937.83
588.487	14919.07
588.846	15046.98
589.206	14855.57
589.565	14886.76
589.925	14973.53
590.284	14891.5
590.643	14910.71
591.003	14916.81
591.362	14983.7
591.721	14863.71
592.08	14868.22
592.44	14881.33
592.799	14831.84
593.158	14823.48
593.517	14868.22
593.876	14881.56
594.235	14787.32
594.593	14815.34
594.952	14755.23
595.311	14719.08
595.67	14776.7
596.029	14853.76
596.387	14849.47
596.746	14787.55
597.104	14702.35
597.463	14693.54
597.822	14855.34
598.18	14734.22
598.538	14676.14
598.897	14771.73
599.255	14619.19
599.613	14874.1
599.972	14693.99
600.33	14779.87
600.688	14779.41
601.046	14703.26
601.404	14802.69
601.762	14809.02
602.12	14834.78
602.478	14867.32
602.836	14826.87
603.194	14742.58
603.552	14747.78
603.91	14650.38
604.268	14810.15
604.625	14740.32
604.983	14855.12
605.341	14710.94
605.698	14804.05
606.056	14804.27
606.413	14792.52
606.771	14859.19
607.128	14809.24
607.485	14677.95
607.843	14780.09
608.2	14775.8
608.557	14761.34
608.914	14742.35
609.272	14894.66
609.629	14886.08
609.986	14898.96
610.343	14879.98
610.7	14956.58
611.057	14889.92
611.414	14898.73
611.771	14942.57
612.127	15038.84
612.484	14987.77
612.841	15024.15
613.198	14862.12
613.554	14985.28
613.911	15130.59
614.267	15033.87
614.624	14928.34
614.98	14928.34
615.337	15088.11
615.693	15091.04
616.05	15093.3
616.406	15137.37
616.762	15023.93
617.118	15169.23
617.475	15106.86
617.831	15210.14
618.187	15157.26
618.543	15190.48
618.899	15260.98
619.255	15225.5
619.611	15148.44
619.967	15277.03
620.323	15281.32
620.678	15226.86
621.034	15086.52
621.39	15209.68
621.746	15174.43
622.101	15349.12
622.457	15097.82
622.812	15185.28
623.168	15285.39
623.523	15252.4
623.879	15302.11
624.234	15169.23
624.589	15220.98
624.945	15263.24
625.3	15255.33
625.655	15163.36
626.01	15256.69
626.365	15315.67
626.72	15219.63
627.075	15204.49
627.43	15240.19
627.785	15230.48
628.14	15262.56
628.495	15290.13
628.85	15278.38
629.205	15178.05
629.559	15222.57
629.914	15186.86
630.269	15122.91
630.623	15099.18
630.978	15084.72
631.332	15170.14
631.687	15150.93
632.041	15166.07
632.396	15162.23
632.75	15083.36
633.104	15037.03
633.459	15118.39
633.813	14984.61
634.167	15020.76
634.521	14995.45
634.875	14972.85
635.229	14966.3
635.583	14856.47
635.937	14925.85
636.291	14854.89
636.645	14920.65
636.999	14828.9
637.352	14870.71
637.706	14733.77
638.06	14859.19
638.413	14783.71
638.767	14754.33
639.121	14819.64
639.474	14745.52
639.828	14746.65
640.181	14771.28
640.534	14669.59
640.888	14628.91
641.241	14630.49
641.594	14734.67
641.947	14695.57
642.301	14663.94
642.654	14670.26
643.007	14702.13
643.36	14634.33
643.713	14656.25
644.066	14642.47
644.419	14585.75
644.771	14480.66
645.124	14387.79
645.477	14355.92
645.83	14117.06
646.182	14223.04
646.535	14135.36
646.888	14199.99
647.24	14132.2
647.593	14208.81
647.945	14061.47
648.298	14007.68
648.65	14044.07
649.002	14079.77
649.355	14218.75
649.707	14119.09
650.059	14178.07
650.411	14318.41
650.763	14371.74
651.115	14522.25
651.467	14476.37
651.819	14462.81
652.171	14382.59
652.523	14402.93
652.875	14479.31
653.227	14398.41
653.578	14485.64
653.93	14462.13
654.282	14321.35
654.633	14385.75
654.985	14381.46
655.337	14394.79
655.688	14483.38
656.039	14548.46
656.391	14362.25
656.742	14430.5
657.094	14470.95
657.445	14403.6
657.796	14473.88
658.147	14375.81
658.498	14358.86
658.849	14451.74
659.2	14438.18
659.551	14474.79
659.902	14444.73
660.253	14415.13
660.604	14425.52
660.955	14362.93
661.306	14410.38
661.656	14407.67
662.007	14411.06
662.358	14449.25
662.708	14451.74
663.059	14492.42
663.409	14330.39
663.76	14449.03
664.11	14433.43
664.461	14450.16
664.811	14545.3
665.161	14458.07
665.511	14456.48
665.862	14523.6
666.212	14445.19
666.562	14507.56
666.912	14441.57
667.262	14388.46
667.612	14493.77
667.962	14460.1
668.312	14432.98
668.662	14520.66
669.011	14417.39
669.361	14431.4
669.711	14456.71
670.06	14402.7
670.41	14380.33
670.76	14411.29
671.109	14422.13
671.459	14404.96
671.808	14397.5
672.157	14440.67
672.507	14289.71
672.856	14414.68
673.205	14322.25
673.554	14301.46
673.904	14286.77
674.253	14393.66
674.602	14335.13
674.951	14035.93
675.3	14019.66
675.649	14238.64
675.998	14244.29
676.346	14257.85
676.695	14287.68
677.044	14198.64
677.393	14179.66
677.741	14175.14
678.09	14152.76
678.438	14162.03
678.787	14187.56
679.135	14206.77
679.484	14036.83
679.832	14136.49
680.181	14108.92
680.529	14037.96
680.877	13948.48
681.225	13971.07
681.573	14112.54
681.922	13979.66
682.27	13936.05
682.618	13804.3
682.966	13862.38
683.314	13917.97
683.661	13856.27
684.009	13802.04
684.357	13795.48
684.705	13811.08
685.053	13779.44
685.4	13662.38
685.748	13721.36
686.095	13734.7
686.443	13527.47
686.79	13550.07
687.138	13583.29
687.485	13548.49
687.832	13562.72
688.18	13491.31
688.527	13374.93
688.874	13408.83
689.221	13365.89
689.568	13343.29
689.915	13305.1
690.262	13331.09
690.609	13271.66
690.956	13181.49
691.303	13154.37
691.65	13111.66
691.997	13052.68
692.344	13007.48
692.69	12932.46
693.037	12943.53
693.383	12727.04
693.73	12786.47
694.077	12855.85
694.423	12757.09
694.769	12703.76
695.116	12724.78
695.462	12668.06
695.808	12602.3
696.155	12695.17
696.501	12568.85
696.847	12483.43
697.193	12428.97
697.539	12491.11
697.885	12444.33
698.231	12333.83
698.577	12351.91
698.923	12240.05
699.269	12162.76
699.614	12121.18
699.96	12154.62
700.306	12141.74
700.651	11993.95
700.997	11991.24
701.342	11974.29
701.688	11860.39
702.033	11847.97
702.379	11848.19
702.724	11816.1
703.069	11774.07
703.415	11697.01
703.76	11667.18
704.105	11643.22
704.45	11591.02
704.795	11608.2
705.14	11511.03
705.485	11553.74
705.83	11472.83
706.175	11466.28
706.52	11417.47
706.865	11432.61
707.209	11339.96
707.554	11393.97
707.899	11369.33
708.243	11286.17
708.588	11212.5
708.932	11156.91
709.277	11189.9
709.621	11120.53
709.966	11023.81
710.31	11087.08
710.654	10911.04
710.998	10968.89
711.342	10996.46
711.687	10906.97
712.031	10924.6
712.375	10869.01
712.719	10803.02
713.063	10877.14
713.407	10872.17
713.75	10791.5
714.094	10795.79
714.438	10749.92
714.782	10722.57
715.125	10704.72
715.469	10714.66
715.812	10604.83
716.156	10620.88
716.499	10550.15
716.843	10621.1
717.186	10547.21
717.53	10646.64
717.873	10520.54
718.216	10538.62
718.559	10444.16
718.902	10354.22
719.246	10389.7
719.589	10442.58
719.932	10433.09
720.275	10389.25
720.617	10415.91
720.96	10298.85
721.303	10369.59
721.646	10349.93
721.989	10272.41
722.331	10397.16
722.674	10389.02
723.016	10354.9
723.359	10286.42
723.701	10299.08
724.044	10236.48
724.386	10243.26
724.729	10313.77
725.071	10233.54
725.413	10252.08
725.755	10288.01
726.097	10198.97
726.439	10136.6
726.782	10139.99
727.124	10152.19
727.465	10110.61
727.807	10181.79
728.149	10080.1
728.491	10128.46
728.833	10062.7
729.175	10087.33
729.516	10087.56
729.858	10136.6
730.199	10116.03
730.541	10124.62
730.882	10136.6
731.224	10147.45
731.565	10081.46
731.906	10120.55
732.248	10022.93
732.589	10086.2
732.93	10027
733.271	10053.44
733.612	10122.36
733.953	10085.3
734.294	10012.53
734.635	10023.83
734.976	10106.09
735.317	10046.88
735.658	10091.63
735.999	10066.77
736.339	10074.45
736.68	10090.05
737.021	10070.84
737.361	10012.08
737.702	10110.16
738.042	10093.21
738.383	10065.19
738.723	10093.44
739.063	10092.98
739.404	10172.53
739.744	10144.06
740.084	10158.52
740.424	10148.8
740.764	10191.06
741.104	10166.43
741.444	10189.93
741.784	10164.39
742.124	10137.95
742.464	10222.92
742.804	10245.52
743.143	10211.17
743.483	10250.95
743.823	10190.38
744.162	10270.61
744.502	10377.5
744.841	10285.75
745.181	10393.09
745.52	10429.7
745.86	10534.1
746.199	10534.33
746.538	10512.86
746.877	10603.7
747.216	10741.78
747.556	10677.15
747.895	10739.29
748.234	10813.19
748.573	10817.03
748.911	10892.74
749.25	10948.33
749.589	11002.11
749.928	11076.69
750.267	11221.54
750.605	11222.67
750.944	11289.56
751.283	11394.87
751.621	11428.09
751.96	11510.57
752.298	11628.54
752.636	11777.68
752.975	11808.64
753.313	11878.7
753.651	12047.28
753.989	12184.91
754.327	12257.22
754.666	12302.42
755.004	12549.42
755.342	12617.89
755.679	12814.04
756.017	12858.56
