Data from hue_300_FLMS001491_00011.txt Node
Date: Tue Feb 07 15:50:21 GMT 2017
User: dcchb
Spectrometer: FLMS00149
Trigger mode: 0
Integration Time (sec): 2.000000E-2
Scans to average: 10
Electric dark correction enabled: true
Nonlinearity correction enabled: false
Boxcar width: 0
XAxis mode: Wavelengths
Number of Pixels in Spectrum: 2048
>>>>>Begin Spectral Data<<<<<
341.393	4.96
341.776	4.96
342.16	4.96
342.543	-67.13
342.927	-75.04
343.31	-72.78
343.693	-58.09
344.077	-59.9
344.46	-64.65
344.843	-47.24
345.226	-62.61
345.61	-37.98
345.993	-2.73
346.376	5.86
346.759	36.6
347.142	13.77
347.525	26.43
347.908	28.23
348.291	72.3
348.674	115.69
349.057	107.1
349.44	110.94
349.823	140.1
350.206	168.34
350.588	178.51
350.971	197.27
351.354	228.23
351.737	231.84
352.119	256.25
352.502	258.28
352.884	270.71
353.267	271.62
353.65	276.59
354.032	293.76
354.414	313.88
354.797	303.03
355.179	334.44
355.562	313.42
355.944	308.45
356.326	333.31
356.709	334.21
357.091	323.82
357.473	335.12
357.855	345.51
358.238	336.7
358.62	345.97
359.002	343.25
359.384	343.71
359.766	341.9
360.148	333.99
360.53	331.05
360.912	331.95
361.294	334.89
361.676	317.72
362.057	340.54
362.439	347.55
362.821	320.66
363.203	306.19
363.584	312.29
363.966	306.87
364.348	338.51
364.729	312.52
365.111	335.8
365.493	318.17
365.874	314.1
366.256	294.22
366.637	326.08
367.019	312.75
367.4	320.43
367.781	306.64
368.163	309.58
368.544	321.56
368.925	292.86
369.306	324.95
369.688	299.64
370.069	303.93
370.45	307.77
370.831	305.06
371.212	325.63
371.593	308.68
371.974	316.36
372.355	317.04
372.736	301.22
373.117	317.04
373.498	301.9
373.879	312.29
374.26	316.59
374.641	304.61
375.021	323.82
375.402	322.24
375.783	332.18
376.163	330.82
376.544	325.85
376.925	318.85
377.305	332.86
377.686	335.34
378.066	328.79
378.447	322.92
378.827	317.72
379.208	326.3
379.588	333.54
379.968	343.48
380.349	334.44
380.729	348.45
381.109	319.75
381.489	338.28
381.87	332.41
382.25	324.27
382.63	326.3
383.01	343.03
383.39	345.06
383.77	336.02
384.15	344.84
384.53	359.52
384.91	344.84
385.29	346.42
385.67	341.9
386.049	311.39
386.429	337.15
386.809	339.86
387.189	320.43
387.568	351.39
387.948	373.54
388.328	362.01
388.707	350.26
389.087	329.47
389.466	339.19
389.846	380.31
390.225	367.66
390.605	370.6
390.984	369.02
391.363	369.47
391.743	363.37
392.122	384.83
392.501	351.62
392.881	368.79
393.26	364.5
393.639	388.9
394.018	373.76
394.397	372.86
394.776	383.03
395.155	389.81
395.534	376.93
395.913	382.12
396.292	364.5
396.671	385.51
397.05	383.93
397.429	391.16
397.808	383.93
398.186	396.59
398.565	397.49
398.944	380.31
399.323	373.31
399.701	421.67
400.08	404.5
400.458	422.12
400.837	397.04
401.215	417.6
401.594	398.62
401.972	415.57
402.351	410.37
402.729	411.95
403.107	400.43
403.486	425.06
403.864	418.96
404.242	413.53
404.62	434.32
404.999	440.2
405.377	427.55
405.755	410.82
406.133	424.16
406.511	444.27
406.889	472.29
407.267	474.55
407.645	432.29
408.023	469.8
408.401	463.02
408.779	479.52
409.156	466.19
409.534	491.72
409.912	472.29
410.29	470.03
410.667	495.79
411.045	505.96
411.422	508.22
411.8	518.16
412.178	499.63
412.555	525.17
412.933	510.48
413.31	531.05
413.687	552.29
414.065	556.36
414.442	542.12
414.819	560.42
415.197	575.79
415.574	562.46
415.951	610.37
416.328	591.83
416.705	636.58
417.082	612.63
417.46	643.13
417.837	613.53
418.214	643.58
418.591	644.71
418.967	667.09
419.344	665.96
419.721	667.31
420.098	698.05
420.475	686.52
420.852	703.92
421.228	686.97
421.605	696.69
421.982	729.01
422.358	717.93
422.735	734.66
423.111	746.18
423.488	757.48
423.864	765.16
424.241	778.95
424.617	785.28
424.994	762.9
425.37	800.42
425.746	799.29
426.123	820.76
426.499	790.7
426.875	819.17
427.251	812.85
427.627	837.7
428.003	865.05
428.379	861.21
428.756	845.84
429.132	866.86
429.507	874.77
429.883	899.17
430.259	892.39
430.635	902.79
431.011	942.79
431.387	944.14
431.763	953.41
432.138	958.38
432.514	999.51
432.89	984.14
433.265	1020.07
433.641	1003.12
434.016	1012.39
434.392	998.83
434.767	1042.44
435.143	1027.76
435.518	1029.34
435.894	1078.83
436.269	1045.61
436.644	1103.69
437.02	1100.07
437.395	1086.96
437.77	1120.41
438.145	1121.76
438.52	1128.32
438.895	1133.52
439.271	1168.99
439.646	1155.44
440.021	1168.77
440.395	1164.93
440.77	1200.18
441.145	1199.5
441.52	1191.14
441.895	1218.03
442.27	1205.15
442.645	1207.64
443.019	1215.32
443.394	1221.2
443.769	1230.01
444.143	1205.6
444.518	1236.34
444.892	1249.44
445.267	1250.57
445.641	1250.35
446.016	1232.95
446.39	1273.62
446.764	1287.41
447.139	1262.78
447.513	1256.22
447.887	1292.61
448.262	1274.53
448.636	1280.86
449.01	1288.99
449.384	1299.84
449.758	1328.76
450.132	1342.1
450.506	1339.84
450.88	1309.1
451.254	1298.93
451.628	1325.37
452.002	1359.72
452.376	1343.91
452.75	1362.44
453.123	1340.52
453.497	1388.65
453.871	1364.92
454.244	1378.25
454.618	1395.2
454.992	1410.12
455.365	1394.3
455.739	1414.86
456.112	1441.08
456.486	1442.21
456.859	1455.54
457.232	1459.83
457.606	1489.66
457.979	1494.18
458.352	1540.06
458.725	1485.82
459.099	1497.12
459.472	1537.8
459.845	1519.49
460.218	1531.7
460.591	1535.54
460.964	1561.07
461.337	1593.84
461.71	1580.51
462.083	1576.67
462.456	1585.25
462.829	1601.07
463.201	1617.57
463.574	1616.89
463.947	1634.07
464.32	1679.26
464.692	1636.1
465.065	1675.87
465.438	1698.25
465.81	1727.4
466.183	1701.86
466.555	1725.36
466.928	1779.15
467.3	1743.89
467.672	1780.73
468.045	1785.02
468.417	1774.18
468.789	1778.02
469.161	1798.81
469.534	1819.37
469.906	1856.89
470.278	1848.3
470.65	1872.03
471.022	1878.58
471.394	1907.51
471.766	1926.71
472.138	1931.69
472.51	1959.48
472.882	1953.15
473.253	1990.22
473.625	2021.63
473.997	2017.56
474.369	2052.59
474.74	2057.33
475.112	2068.86
475.484	2095.3
475.855	2108.63
476.227	2137.33
476.598	2209.65
476.97	2174.39
477.341	2193.15
477.713	2245.35
478.084	2223.88
478.455	2258.23
478.827	2295.29
479.198	2319.02
479.569	2327.61
479.94	2352.47
480.311	2392.92
480.682	2430.2
481.053	2464.78
481.424	2480.15
481.795	2472.01
482.166	2488.28
482.537	2518.34
482.908	2541.39
483.279	2555.17
483.65	2588.17
484.021	2612.12
484.391	2636.53
484.762	2645.79
485.133	2664.1
485.503	2699.35
485.874	2706.36
486.244	2721.95
486.615	2754.26
486.985	2755.85
487.356	2814.15
487.726	2826.35
488.097	2910.87
488.467	2855.73
488.837	2920.59
489.207	2884.2
489.578	2972.11
489.948	2994.48
490.318	2978.89
490.688	2981.38
491.058	3030.64
491.428	3053.01
491.798	3086.68
492.168	3076.74
492.538	3133.46
492.908	3157.19
493.278	3179.11
493.648	3157.87
494.017	3195.83
494.387	3249.17
494.757	3254.36
495.126	3250.3
495.496	3255.49
495.866	3276.96
496.235	3302.05
496.605	3310.18
496.974	3289.16
497.344	3360.35
497.713	3368.26
498.082	3370.52
498.452	3389.05
498.821	3417.07
499.19	3378.88
499.559	3432.21
499.928	3447.58
500.298	3419.56
500.667	3489.16
501.036	3499.55
501.405	3488.48
501.774	3485.54
502.143	3499.78
502.512	3493.68
502.88	3516.05
503.249	3537.29
503.618	3603.05
503.987	3594.92
504.356	3589.27
504.724	3570.51
505.093	3602.6
505.462	3597.18
505.83	3591.53
506.199	3631.08
506.567	3703.17
506.936	3625.2
507.304	3648.03
507.672	3674.24
508.041	3653
508.409	3677.63
508.777	3722.37
509.145	3738.64
509.514	3718.08
509.882	3731.87
510.25	3746.55
510.618	3764.18
510.986	3756.95
511.354	3782.03
511.722	3768.47
512.09	3836.04
512.458	3807.8
512.826	3819.55
513.193	3840.79
513.561	3845.08
513.929	3897.06
514.297	3890.51
514.664	3841.92
515.032	3883.95
515.4	3931.41
515.767	3889.15
516.135	3927.79
516.502	3896.15
516.869	3888.47
517.237	3923.27
517.604	3916.04
517.972	3945.19
518.339	3985.64
518.706	3976.38
519.073	4001.91
519.44	3998.75
519.808	4002.82
520.175	3965.53
520.542	4003.95
520.909	4029.26
521.276	4029.48
521.643	4029.94
522.009	4054.34
522.376	4099.31
522.743	4105.19
523.11	4101.57
523.477	4172.31
523.843	4172.31
524.21	4154
524.577	4210.5
524.943	4160.55
525.31	4194.23
525.676	4216.37
526.043	4278.52
526.409	4242.13
526.776	4278.97
527.142	4276.71
527.508	4306.31
527.874	4345.86
528.241	4372.07
528.607	4357.16
528.973	4414.56
529.339	4396.48
529.705	4423.15
530.071	4461.56
530.437	4491.39
530.803	4515.8
531.169	4537.04
531.535	4513.99
531.901	4478.29
532.267	4501.11
532.632	4563.26
532.998	4557.15
533.364	4636.25
533.73	4576.14
534.095	4666.53
534.461	4685.51
534.826	4686.19
535.192	4647.55
535.557	4704.04
535.923	4723.93
536.288	4718.96
536.653	4742.23
537.019	4753.31
537.384	4783.14
537.749	4815.68
538.114	4833.76
538.479	4843.25
538.845	4863.59
539.21	4824.27
539.575	4863.59
539.94	4902.46
540.305	4906.3
540.67	4904.72
541.034	4923.47
541.399	4960.76
541.764	4954.66
542.129	4959.86
542.494	5012.74
542.858	5053.64
543.223	5077.82
543.587	5114.43
543.952	5090.25
544.316	5103.13
544.681	5090.25
545.045	5126.18
545.41	5160.53
545.774	5175.67
546.138	5192.17
546.503	5220.64
546.867	5242.33
547.231	5304.71
547.595	5318.26
547.959	5314.65
548.324	5321.65
548.688	5315.55
549.052	5340.64
549.416	5397.13
549.779	5343.35
550.143	5392.61
550.507	5415.44
550.871	5477.36
551.235	5435.32
551.599	5480.97
551.962	5466.51
552.326	5502.21
552.689	5480.29
553.053	5466.73
553.417	5545.15
553.78	5609.78
554.143	5549.22
554.507	5582.21
554.87	5601.87
555.234	5602.55
555.597	5631.93
555.96	5636.45
556.323	5676.45
556.686	5631.48
557.05	5691.36
557.413	5683
557.776	5761.87
558.139	5745.37
558.502	5721.64
558.865	5732.49
559.228	5769.55
559.59	5806.84
559.953	5788.76
560.316	5942.43
560.679	5840.06
561.041	5906.95
561.404	5918.02
561.767	5956.21
562.129	5922.32
562.492	5992.6
562.854	5967.06
563.217	5960.96
563.579	5999.83
563.941	6038.47
564.304	6056.55
564.666	6048.19
565.028	6053.84
565.39	6072.37
565.753	6108.98
566.115	6134.74
566.477	6127.96
566.839	6176.09
567.201	6182.2
567.563	6228.75
567.925	6269.88
568.287	6228.3
568.648	6261.29
569.01	6315.98
569.372	6305.81
569.734	6307.62
570.095	6383.55
570.457	6407.95
570.819	6468.06
571.18	6469.19
571.542	6478.46
571.903	6521.4
572.265	6594.39
572.626	6566.14
572.987	6634.39
573.349	6695.4
573.71	6724.1
574.071	6710.32
574.432	6852.24
574.794	6853.82
575.155	6903.31
575.516	6912.8
575.877	6933.81
576.238	7063.75
576.599	7133.81
576.96	7138.33
577.32	7181.94
577.681	7290.42
578.042	7365.89
578.403	7458.32
578.763	7555.49
579.124	7630.75
579.485	7741.7
579.845	7807.69
580.206	7894.47
580.566	7986.22
580.927	8091.52
581.287	8250.39
581.648	8398.18
582.008	8522.25
582.368	8676.82
582.728	8898.28
583.089	8930.37
583.449	9140.99
583.809	9233.19
584.169	9488.1
584.529	9628.66
584.889	9849.9
585.249	9955.2
585.609	10138.7
585.969	10373.27
586.329	10547.28
586.688	10799.48
587.048	10989.98
587.408	11135.96
587.768	11449.63
588.127	11752.67
588.487	11860.01
588.846	12214.35
589.206	12376.38
589.565	12723.49
589.925	12954.22
590.284	13200.77
590.643	13455.68
591.003	13809.79
591.362	14121.65
591.721	14298.37
592.08	14595.31
592.44	14923.89
592.799	15202.07
593.158	15391.9
593.517	15753.92
593.876	16037.08
594.235	16357.07
594.593	16596.16
594.952	16965.64
595.311	17072.76
595.67	17519.3
596.029	17887.2
596.387	18258.04
596.746	18507.07
597.104	18787.29
597.463	18984.57
597.822	19380.72
598.18	19546.59
598.538	19901.84
598.897	20240.81
599.255	20388.38
599.613	20966.89
599.972	21194.46
600.33	21511.74
600.688	21756.48
601.046	22068.78
601.404	22444.82
601.762	22653.18
602.12	23064.92
602.478	23225.36
602.836	23556.65
603.194	23722.07
603.552	23896.53
603.91	24100.14
604.268	24562.73
604.625	24674.37
604.983	25049.04
605.341	25211.3
605.698	25652.19
606.056	25733.55
606.413	26009.92
606.771	26450.36
607.128	26543.69
607.485	26672.05
607.843	26987.3
608.2	27135.77
608.557	27687.85
608.914	27626.15
609.272	28007.16
609.629	28265.01
609.986	28443.98
610.343	28597.65
610.7	28899.56
611.057	29154.02
611.414	29154.02
611.771	29525.76
612.127	29723.5
612.484	29850.5
612.841	30257.5
613.198	30155.13
613.554	30516.92
613.911	30623.59
614.267	30906.29
614.624	31004.82
614.98	31230.58
615.337	31506.95
615.693	31633.05
616.05	31656.55
616.406	32050.44
616.762	31983.1
617.118	32115.75
617.475	32229.65
617.831	32485.23
618.187	32577.89
618.543	32775.17
618.899	32960.93
619.255	33042.28
619.611	33081.38
619.967	33323.4
620.323	33444.53
620.678	33412.89
621.034	33548.03
621.39	33538.31
621.746	33674.58
622.101	34209.71
622.457	34008.36
622.812	34210.16
623.168	34266.66
623.523	34341.23
623.879	34534.45
624.234	34405.18
624.589	34575.12
624.945	34732.63
625.3	34862.12
625.655	34815.79
626.01	34977.82
626.365	35015.11
626.72	35096.69
627.075	35063.7
627.43	35106.18
627.785	35233.41
628.14	35323.8
628.495	35443.35
628.85	35433.63
629.205	35378.72
629.559	35600.41
629.914	35454.87
630.269	35534.42
630.623	35439.05
630.978	35490.13
631.332	35678.82
631.687	35769.67
632.041	35728.54
632.396	35799.5
632.75	35636.79
633.104	35708.43
633.459	35770.57
633.813	35701.42
634.167	35744.81
634.521	35715.88
634.875	35817.8
635.229	35807.63
635.583	35723.57
635.937	35690.57
636.291	35740.06
636.645	35718.82
636.999	35709.56
637.352	35936.89
637.706	35605.38
638.06	35800.85
638.413	35717.46
638.767	35649.22
639.121	35881.3
639.474	35578.03
639.828	35737.58
640.181	35669.1
640.534	35866.16
640.888	35584.36
641.241	35508.66
641.594	35605.83
641.947	35696
642.301	35586.39
642.654	35770.12
643.007	35860.29
643.36	35788.88
643.713	35628.65
644.066	35740.29
644.419	35530.58
644.771	35397.02
645.124	35118.84
645.477	35058.5
645.83	34891.27
646.182	34736.93
646.535	34700.99
646.888	34703.25
647.24	34581
647.593	34787.09
647.945	34760.43
648.298	34552.52
648.65	34485.86
649.002	34619.64
649.355	34674.33
649.707	34580.77
650.059	34693.31
650.411	35164.94
650.763	35279.74
651.115	35465.27
651.467	35433.18
651.819	35494.87
652.171	35399.51
652.523	35413.52
652.875	35332.84
653.227	35225.05
653.578	35541.2
653.93	35384.82
654.282	35215.78
654.633	35273.18
654.985	35303.92
655.337	35257.59
655.688	35375.55
656.039	35366.74
656.391	35131.04
656.742	35286.52
657.094	35184.82
657.445	35469.79
657.796	35298.04
658.147	35099.4
658.498	35211.49
658.849	35124.03
659.2	35199.74
659.551	35104.6
659.902	35174.43
660.253	35084.04
660.604	35215.56
660.955	35026.41
661.306	35140.08
661.656	35100.08
662.007	35015.34
662.358	35114.09
662.708	35203.58
663.059	35055.56
663.409	34884.27
663.76	35232.05
664.11	34978.5
664.461	35159.29
664.811	35085.39
665.161	35139.17
665.511	35027.99
665.862	35129.91
666.212	35169.46
666.562	35196.8
666.912	35122.23
667.262	34997.26
667.612	34988.22
667.962	35186.86
668.312	35099.4
668.662	35297.36
669.011	35053.53
669.361	35095.33
669.711	35048.78
670.06	35006.75
670.41	34946.41
670.76	34999.29
671.109	35084.04
671.459	34958.61
671.808	34958.39
672.157	35031.16
672.507	34706.19
672.856	34848.11
673.205	34975.11
673.554	34919.97
673.904	34886.75
674.253	35046.07
674.602	34759.75
674.951	34327.22
675.3	34126.77
675.649	34704.16
675.998	34742.12
676.346	34748.9
676.695	34837.49
677.044	34522.47
677.393	34595.23
677.741	34652.86
678.09	34718.85
678.438	34521.79
678.787	34676.14
679.135	34572.18
679.484	34310.72
679.832	34551.39
680.181	34348.24
680.529	34460.55
680.877	34279.31
681.225	34261.23
681.573	34496.93
681.922	34174.91
682.27	34199.99
682.618	34163.61
682.966	34055.14
683.314	34085.87
683.661	34129.26
684.009	33929.26
684.357	33839.1
684.705	33704.86
685.053	33896.04
685.4	33748.03
685.748	33511.65
686.095	33593
686.443	33481.37
686.79	33512.55
687.138	33470.29
687.485	33470.74
687.832	33216.51
688.18	33433.46
688.527	33102.39
688.874	33056.07
689.221	33007.25
689.568	33003.41
689.915	32877.54
690.262	32941.72
690.609	32843.87
690.956	32764.1
691.303	32738.56
691.65	32638.9
691.997	32646.36
692.344	32309.64
692.69	32462.18
693.037	32470.32
693.383	32156.2
693.73	32259.25
694.077	32188.07
694.423	32037.11
694.769	32082.98
695.116	31901.75
695.462	31872.14
695.808	31781.07
696.155	31754.18
696.501	31557.12
696.847	31464.47
697.193	31246.62
697.539	31428.31
697.885	31198.26
698.231	31053.18
698.577	31073.07
698.923	31183.57
699.269	30879.4
699.614	30817.93
699.96	30697.94
700.306	30731.38
700.651	30618.16
700.997	30449.58
701.342	30478.73
701.688	30414.78
702.033	30457.26
702.379	30265.4
702.724	30360.09
703.069	30316.02
703.415	29905.19
703.76	29943.83
704.105	29944.06
704.45	29921.68
704.795	29576.16
705.14	29495.71
705.485	29638.98
705.83	29495.71
706.175	29599.66
706.52	29490.96
706.865	29421.81
707.209	29277.63
707.554	29179.56
707.899	29266.79
708.243	29081.71
708.588	29043.06
708.932	28884.2
709.277	28952.9
709.621	28923.52
709.966	28696.18
710.31	28687.14
710.654	28567.14
710.998	28692.11
711.342	28548.39
711.687	28470.2
712.031	28327.15
712.375	28307.72
712.719	28355.85
713.063	28168.51
713.407	28429.52
713.75	28120.38
714.094	28095.74
714.438	28024.33
714.782	28041.06
715.125	27910.66
715.469	27896.2
715.812	27817.33
716.156	27662.08
716.499	27648.75
716.843	27757.45
717.186	27482.43
717.53	27754.28
717.873	27611.46
718.216	27498.7
718.559	27452.37
718.902	27326.27
719.246	27381.64
719.589	27359.04
719.932	27052.61
720.275	27205.15
720.617	27201.08
720.96	27058.94
721.303	27059.61
721.646	27069.56
721.989	26981.2
722.331	26990.24
722.674	26759.73
723.016	26778.26
723.359	26830.92
723.701	26781.2
724.044	26671.15
724.386	26629.57
724.729	26703.69
725.071	26601.55
725.413	26420.53
725.755	26540.3
726.097	26365.85
726.439	26242.46
726.782	26282.68
727.124	26546.86
727.465	26387.77
727.807	26276.13
728.149	26278.39
728.491	26143.03
728.833	26131.73
729.175	25970.38
729.516	26048.11
729.858	26024.39
730.199	26049.24
730.541	26045.4
730.882	25884.73
731.224	25973.31
731.565	25808.57
731.906	25791.17
732.248	25858.51
732.589	25743.49
732.93	25596.37
733.271	25604.06
733.612	25772.19
733.953	25663.94
734.294	25574.91
734.635	25524.96
734.976	25569.71
735.317	25385.31
735.658	25490.84
735.999	25414.68
736.339	25407.91
736.68	25456.27
737.021	25347.57
737.361	25163.39
737.702	25331.98
738.042	25287
738.383	25216.05
738.723	25201.58
739.063	25166.33
739.404	25122.49
739.744	25125.65
740.084	24978.31
740.424	25038.42
740.764	24959.33
741.104	25053.11
741.444	24842.04
741.784	24883.63
742.124	24845.89
742.464	24869.16
742.804	24841.59
743.143	24784.19
743.483	24763.63
743.823	24674.59
744.162	24671.2
744.502	24680.69
744.841	24554.82
745.181	24774.02
745.52	24510.08
745.86	24581.71
746.199	24575.84
746.538	24504.2
746.877	24669.62
747.216	24443.18
747.556	24536.74
747.895	24477.53
748.234	24310.76
748.573	24347.59
748.911	24500.81
749.25	24351.66
749.589	24173.14
749.928	24312.11
750.267	24414.26
750.605	24177.2
750.944	24154.6
751.283	24110.76
751.621	24195.51
751.96	24071.44
752.298	24108.28
752.636	24051.1
752.975	23961.16
753.313	23925.46
753.651	24041.61
753.989	23773.37
754.327	23813.37
754.666	23706.71
755.004	23776.54
755.342	23905.35
755.679	23782.41
756.017	23736.99
756.355	23753.26
756.693	23644.34
757.031	23725.92
757.368	23702.64
757.706	23665.58
758.044	23527.05
758.381	23503.77
758.719	23406.15
759.056	23466.26
759.394	23485.02
759.731	23229.88
