Data from hue_190_FLMS001491_00024.txt Node
Date: Tue Feb 07 16:45:03 GMT 2017
User: dcchb
Spectrometer: FLMS00149
Trigger mode: 0
Integration Time (sec): 2.000000E-2
Scans to average: 10
Electric dark correction enabled: true
Nonlinearity correction enabled: false
Boxcar width: 0
XAxis mode: Wavelengths
Number of Pixels in Spectrum: 2048
>>>>>Begin Spectral Data<<<<<
341.393	12.54
341.776	12.54
342.16	12.54
342.543	-55.93
342.927	-55.7
343.31	-79.66
343.693	-69.94
344.077	-69.49
344.46	-48.02
344.843	-68.59
345.226	-42.15
345.61	-20.68
345.993	-24.52
346.376	4.63
346.759	-1.69
347.142	29.72
347.525	65.2
347.908	47.34
348.291	66.78
348.674	89.83
349.057	121.24
349.44	111.97
349.823	152.43
350.206	170.5
350.588	188.36
350.971	209.6
351.354	216.15
351.737	235.81
352.119	250.05
352.502	265.19
352.884	274
353.267	297.96
353.65	282.37
354.032	300.9
354.414	313.1
354.797	302.25
355.179	331.86
355.562	322.36
355.944	323.72
356.326	347
356.709	335.02
357.091	336.6
357.473	344.28
357.855	336.38
358.238	342.02
358.62	347.22
359.002	350.39
359.384	357.39
359.766	333.66
360.148	345.87
360.53	335.25
360.912	334.79
361.294	344.74
361.676	307
362.057	317.84
362.439	329.82
362.821	330.73
363.203	348.13
363.584	324.85
363.966	330.73
364.348	347
364.729	333.44
365.111	302.93
365.493	292.76
365.874	328.24
366.256	320.56
366.637	316.94
367.019	305.87
367.4	334.12
367.781	298.41
368.163	298.41
368.544	281.24
368.925	316.49
369.306	311.74
369.688	333.44
370.069	308.13
370.45	315.36
370.831	298.86
371.212	280.11
371.593	304.74
371.974	325.08
372.355	320.56
372.736	319.88
373.117	319.65
373.498	317.17
373.879	317.84
374.26	321.23
374.641	318.3
375.021	309.03
375.402	301.8
375.783	311.07
376.163	303.38
376.544	332.53
376.925	340.44
377.305	317.39
377.686	304.51
378.066	332.99
378.447	322.59
378.827	324.62
379.208	323.95
379.588	306.09
379.968	323.04
380.349	326.88
380.729	330.27
381.109	328.92
381.489	332.31
381.87	344.74
382.25	336.6
382.63	331.18
383.01	327.56
383.39	350.61
383.77	339.99
384.15	350.84
384.53	326.66
384.91	321.01
385.29	336.38
385.67	347.67
386.049	324.62
386.429	320.78
386.809	332.99
387.189	331.18
387.568	352.19
387.948	352.42
388.328	320.78
388.707	333.89
389.087	349.26
389.466	340.44
389.846	347.22
390.225	342.25
390.605	337.28
390.984	341.12
391.363	347.22
391.743	356.26
392.122	351.52
392.501	352.87
392.881	360.33
393.26	372.08
393.639	361.69
394.018	339.31
394.397	343.61
394.776	360.56
395.155	374.57
395.534	406.2
395.913	368.69
396.292	382.93
396.671	357.62
397.05	365.08
397.429	377.96
397.808	393.55
398.186	370.5
398.565	396.71
398.944	397.39
399.323	389.48
399.701	386.09
400.08	387.45
400.458	371.63
400.837	403.04
401.215	382.02
401.594	398.52
401.972	404.85
402.351	407.56
402.729	394.23
403.107	414.79
403.486	402.36
403.864	401.23
404.242	405.07
404.62	410.27
404.999	417.5
405.377	411.4
405.755	425.41
406.133	418.41
406.511	443.04
406.889	459.99
407.267	450.5
407.645	479.2
408.023	458.18
408.401	474.68
408.779	469.03
409.156	459.08
409.534	479.65
409.912	483.94
410.29	496.37
410.667	487.56
411.045	493.89
411.422	491.85
411.8	512.87
412.178	520.55
412.555	534.11
412.933	574.79
413.31	559.19
413.687	562.36
414.065	591.96
414.442	581.34
414.819	568.23
415.197	576.6
415.574	588.57
415.951	615.69
416.328	612.07
416.705	608.23
417.082	626.31
417.46	651.85
417.837	672.19
418.214	661.79
418.591	669.25
418.967	682.35
419.344	657.27
419.721	691.62
420.098	698.4
420.475	718.74
420.852	714.9
421.228	728.68
421.605	755.12
421.982	752.41
422.358	774.33
422.735	784.27
423.111	797.38
423.488	807.78
423.864	843.03
424.241	868.79
424.617	852.29
424.994	855.46
425.37	885.74
425.746	878.28
426.123	899.3
426.499	902.01
426.875	928.22
427.251	906.98
427.627	935.68
428.003	943.59
428.379	970.71
428.756	997.15
429.132	992.86
429.507	1016.13
429.883	1011.84
430.259	1039.18
430.635	1044.61
431.011	1048.9
431.387	1077.82
431.763	1078.05
432.138	1075.79
432.514	1111.04
432.89	1143.81
433.265	1151.04
433.641	1174.55
434.016	1170.03
434.392	1205.51
434.767	1226.3
435.143	1231.95
435.518	1281.89
435.894	1282.11
436.269	1301.32
436.644	1335.22
437.02	1376.8
437.395	1406.63
437.77	1430.81
438.145	1437.14
438.52	1440.75
438.895	1465.84
439.271	1481.66
439.646	1541.54
440.021	1539.51
440.395	1537.02
440.77	1563.24
441.145	1592.61
441.52	1613.4
441.895	1636.45
442.27	1659.73
442.645	1657.24
443.019	1702.44
443.394	1701.76
443.769	1708.99
444.143	1725.49
444.518	1774.3
444.892	1753.74
445.267	1778.82
445.641	1786.28
446.016	1813.17
446.39	1836.22
446.764	1847.97
447.139	1835.32
447.513	1912.61
447.887	1879.39
448.262	1895.66
448.636	1903.11
449.01	1970.23
449.384	1969.55
449.758	1958.03
450.132	2025.37
450.506	1995.31
450.88	2023.11
451.254	2037.12
451.628	2066.5
452.002	2077.12
452.376	2084.58
452.75	2126.84
453.123	2121.64
453.497	2159.6
453.871	2168.87
454.244	2225.82
454.618	2231.01
454.992	2254.29
455.365	2269.88
455.739	2303.78
456.112	2332.93
456.486	2367.28
456.859	2399.15
457.232	2434.4
457.606	2438.24
457.979	2435.98
458.352	2517.11
458.725	2578.12
459.099	2568.63
459.472	2643.66
459.845	2655.64
460.218	2671.46
460.591	2692.47
460.964	2678.23
461.337	2791.23
461.71	2812.69
462.083	2814.05
462.456	2862.18
462.829	2880.49
463.201	2885.91
463.574	2956.19
463.947	2974.95
464.32	3009.3
464.692	3069.64
465.065	3095.62
465.438	3161.84
465.81	3168.39
466.183	3231.89
466.555	3312.57
466.928	3325
467.3	3312.34
467.672	3398.44
468.045	3462.85
468.417	3480.93
468.789	3491.09
469.161	3529.96
469.534	3624.88
469.906	3698.55
470.278	3683.41
470.65	3771.77
471.022	3814.7
471.394	3914.59
471.766	3946.22
472.138	3988.26
472.51	4078.2
472.882	4105.32
473.253	4191.64
473.625	4240.68
473.997	4350.06
474.369	4348.25
474.74	4369.49
475.112	4479.32
475.484	4577.17
475.855	4618.3
476.227	4656.71
476.598	4797.73
476.97	4914.33
477.341	4942.13
477.713	5014.44
478.084	5066.19
478.455	5211.95
478.827	5242.01
479.198	5357.26
479.569	5361.1
479.94	5521.78
480.311	5618.04
480.682	5749.57
481.053	5858.49
481.424	5909.56
481.795	6026.85
482.166	6049.9
482.537	6170.12
482.908	6347.52
483.279	6381.87
483.65	6432.26
484.021	6585.48
484.391	6714.29
484.762	6736.66
485.133	6832.48
485.503	6925.35
485.874	7028.85
486.244	7102.75
486.615	7292.58
486.985	7337.55
487.356	7459.35
487.726	7544.32
488.097	7668.16
488.467	7714.71
488.837	7906.57
489.207	7953.35
489.578	8064.08
489.948	8189.5
490.318	8248.26
490.688	8316.05
491.058	8401.47
491.428	8514.47
491.798	8600.11
492.168	8743.16
492.538	8768.92
492.908	8842.14
493.278	8946.09
493.648	9061.12
494.017	9081.23
494.387	9178.63
494.757	9239.87
495.126	9309.7
495.496	9308.34
495.866	9417.27
496.235	9464.5
496.605	9508.11
496.974	9550.37
497.344	9603.02
497.713	9723.7
498.082	9777.48
498.452	9816.58
498.821	9852.28
499.19	9873.75
499.559	9971.83
499.928	9996.01
500.298	10036.91
500.667	10071.71
501.036	10053.41
501.405	10188.77
501.774	10198.94
502.143	10205.04
502.512	10254.53
502.88	10349.45
503.249	10337.69
503.618	10372.27
503.987	10359.84
504.356	10386.51
504.724	10467.18
505.093	10494.53
505.462	10539.72
505.83	10554.86
506.199	10593.96
506.567	10673.96
506.936	10668.08
507.304	10712.6
507.672	10746.72
508.041	10759.6
508.409	10821.98
508.777	10894.29
509.145	10876.66
509.514	10859.04
509.882	10866.49
510.25	10872.37
510.618	10916.21
510.986	10914.63
511.354	10988.98
511.722	11035.08
512.09	11113.95
512.458	10976.1
512.826	11110.33
513.193	11064.68
513.561	11077.79
513.929	11128.86
514.297	11166.37
514.664	11200.72
515.032	11149.42
515.4	11250.21
515.767	11179.48
516.135	11192.36
516.502	11123.44
516.869	11259.7
517.237	11228.74
517.604	11190.78
517.972	11294.05
518.339	11239.82
518.706	11191.01
519.073	11186.49
519.44	11193.04
519.808	11255.86
520.175	11247.27
520.542	11323.43
520.909	11320.72
521.276	11287.5
521.643	11234.62
522.009	11271.23
522.376	11290.66
522.743	11320.95
523.11	11343.77
523.477	11415.18
523.843	11371.57
524.21	11401.4
524.577	11478.46
524.943	11406.14
525.31	11318.46
525.676	11448.85
526.043	11418.57
526.409	11487.49
526.776	11342.87
527.142	11383.77
527.508	11408.85
527.874	11365.01
528.241	11402.98
528.607	11362.3
528.973	11335.18
529.339	11290.66
529.705	11298.57
530.071	11304.45
530.437	11267.16
530.803	11193.94
531.169	11211.34
531.535	11192.36
531.901	11127.96
532.267	11159.37
532.632	11096.32
532.998	11101.52
533.364	11023.78
533.73	10965.02
534.095	10958.24
534.461	10951.69
534.826	10912.59
535.192	10897.91
535.557	10948.07
535.923	10774.52
536.288	10724.58
536.653	10696.33
537.019	10574.3
537.384	10547.41
537.749	10547.63
538.114	10517.35
538.479	10341.54
538.845	10344.93
539.21	10353.29
539.575	10263.57
539.94	10260.18
540.305	10283.68
540.67	10234.19
541.034	10104.03
541.399	10091.6
541.764	10010.92
542.129	10037.82
542.494	9914.2
542.858	9893.19
543.223	9870.81
543.587	9779.74
543.952	9699.52
544.316	9662.91
544.681	9665.85
545.045	9631.5
545.41	9525.29
545.774	9493.65
546.138	9398.28
546.503	9359.19
546.867	9305.86
547.231	9388.34
547.595	9298.63
547.959	9205.52
548.324	9144.73
548.688	9090.95
549.052	9112.42
549.416	8990.16
549.779	8884.85
550.143	8913.1
550.507	8916.71
550.871	8783.38
551.235	8787.45
551.599	8701.58
551.962	8691.18
552.326	8638.53
552.689	8697.29
553.053	8534.8
553.417	8524.41
553.78	8591.98
554.143	8490.29
554.507	8391.53
554.87	8437.18
555.234	8456.84
555.597	8286.45
555.96	8341.14
556.323	8257.97
556.686	8222.95
557.05	8204.64
557.413	8168.03
557.776	8119.67
558.139	8133.68
558.502	8082.39
558.865	8060.24
559.228	8052.33
559.59	7980.47
559.953	7966.46
560.316	7948.15
560.679	7883.97
561.041	7920.81
561.404	7951.32
561.767	7930.75
562.129	7812.56
562.492	7856.63
562.854	7776.86
563.217	7786.57
563.579	7803.98
563.941	7836.97
564.304	7798.78
564.666	7804.43
565.028	7788.83
565.39	7820.47
565.753	7768.27
566.115	7716.52
566.477	7757.88
566.839	7709.06
567.201	7750.87
567.563	7661.15
567.925	7683.75
568.287	7706.8
568.648	7663.41
569.01	7648.27
569.372	7723.3
569.734	7614.15
570.095	7658.44
570.457	7726.69
570.819	7644.43
571.18	7620.93
571.542	7627.71
571.903	7608.95
572.265	7622.96
572.626	7591.33
572.987	7578.44
573.349	7573.7
573.71	7617.09
574.071	7585.9
574.432	7596.52
574.794	7652.34
575.155	7627.03
575.516	7580.03
575.877	7634.26
576.238	7595.17
576.599	7586.81
576.96	7543.64
577.32	7574.38
577.681	7613.92
578.042	7505.23
578.403	7542.74
578.763	7535.28
579.124	7522.63
579.485	7594.94
579.845	7487.6
580.206	7462.29
580.566	7493.48
580.927	7446.02
581.287	7498.22
581.648	7506.36
582.008	7499.8
582.368	7462.74
582.728	7454.38
583.089	7490.54
583.449	7416.19
583.809	7437.21
584.169	7391.33
584.529	7373.93
584.889	7396.75
585.249	7348.62
585.609	7329.64
585.969	7353.59
586.329	7351.33
586.688	7343.2
587.048	7282.86
587.408	7330.32
587.768	7290.54
588.127	7302.75
588.487	7302.29
588.846	7296.19
589.206	7220.04
589.565	7300.03
589.925	7298
590.284	7213.26
590.643	7273.59
591.003	7300.49
591.362	7242.41
591.721	7188.17
592.08	7224.1
592.44	7166.25
592.799	7162.64
593.158	7220.49
593.517	7231.11
593.876	7251.67
594.235	7213.48
594.593	7133.48
594.952	7196.53
595.311	7112.47
595.67	7138.23
596.029	7154.73
596.387	7125.35
596.746	7173.03
597.104	7034.5
597.463	7124.45
597.822	7127.16
598.18	7032.7
598.538	7032.92
598.897	7085.35
599.255	7020.27
599.613	7148.85
599.972	7088.74
600.33	7082.64
600.688	7042.87
601.046	7056.2
601.404	7077.22
601.762	7030.44
602.12	7018.91
602.478	7086.93
602.836	7082.86
603.194	7004
603.552	7026.14
603.91	7045.58
604.268	7016.65
604.625	6998.35
604.983	6993.83
605.341	6954.05
605.698	7044.22
606.056	7060.27
606.413	7003.09
606.771	6957.9
607.128	7032.47
607.485	6969.65
607.843	7035.63
608.2	6996.09
608.557	7024.34
608.914	7018.23
609.272	7023.66
609.629	7021.17
609.986	7025.69
610.343	6986.82
610.7	7103.2
611.057	7046.71
611.414	7008.97
611.771	6993.6
612.127	7021.85
612.484	6989.08
612.841	7008.06
613.198	7077.67
613.554	7032.47
613.911	7092.81
614.267	7111.11
614.624	7053.49
614.98	7060.94
615.337	7176.87
615.693	7107.27
616.05	7052.36
616.406	7073.83
616.762	7091.68
617.118	7047.61
617.475	7089.64
617.831	7080.38
618.187	7084.9
618.543	7060.49
618.899	7125.12
619.255	7087.84
619.611	7114.28
619.967	7110.43
620.323	7178.68
620.678	7152.02
621.034	7071.79
621.39	7097.78
621.746	7072.24
622.101	7180.49
622.457	7091.68
622.812	7101.17
623.168	7154.05
623.523	7152.47
623.879	7166.93
624.234	7092.36
624.589	7085.35
624.945	7074.96
625.3	7067.5
625.655	7024.56
626.01	7045.13
626.365	7088.06
626.72	7103.2
627.075	7115.63
627.43	7065.69
627.785	7094.39
628.14	7141.17
628.495	7040.15
628.85	7083.54
629.205	7039.02
629.559	7128.29
629.914	7016.2
630.269	7004
630.623	7086.03
630.978	7013.04
631.332	7069.08
631.687	7045.58
632.041	6995.41
632.396	7018.46
632.75	7034.28
633.104	6994.28
633.459	7002.64
633.813	6993.83
634.167	6982.3
634.521	6876.32
634.875	6945.02
635.229	6980.95
635.583	6914.06
635.937	6843.55
636.291	6928.07
636.645	6875.86
636.999	6848.29
637.352	6895.75
637.706	6783.66
638.06	6862.53
638.413	6839.93
638.767	6804.91
639.121	6884
639.474	6795.64
639.828	6860.95
640.181	6794.96
640.534	6806.26
640.888	6802.87
641.241	6776.43
641.594	6833.61
641.947	6847.16
642.301	6747.28
642.654	6785.92
643.007	6780.5
643.36	6756.77
643.713	6759.03
644.066	6790.44
644.419	6711.12
644.771	6721.07
645.124	6671.35
645.477	6614.63
645.83	6612.59
646.182	6600.84
646.535	6595.65
646.888	6541.18
647.24	6513.84
647.593	6573.95
647.945	6645.36
648.298	6514.52
648.65	6563.78
649.002	6550.45
649.355	6587.74
649.707	6512.48
650.059	6586.38
650.411	6651.01
650.763	6678.13
651.115	6784.57
651.467	6693.95
651.819	6718.13
652.171	6773.27
652.523	6678.36
652.875	6737.79
653.227	6638.36
653.578	6768.3
653.93	6688.3
654.282	6694.63
654.633	6655.76
654.985	6672.71
655.337	6686.49
655.688	6720.16
656.039	6708.86
656.391	6700.73
656.742	6696.43
657.094	6742.08
657.445	6753.16
657.796	6703.44
658.147	6762.42
658.498	6717.45
658.849	6806.04
659.2	6734.4
659.551	6759.48
659.902	6784.57
660.253	6757.68
660.604	6754.06
660.955	6732.82
661.306	6751.57
661.656	6751.35
662.007	6799.26
662.358	6781.4
662.708	6780.73
663.059	6765.58
663.409	6787.51
663.76	6824.79
664.11	6806.94
664.461	6863.89
664.811	6823.21
665.161	6795.41
665.511	6801.97
665.862	6817.56
666.212	6861.4
666.562	6825.24
666.912	6838.8
667.262	6851.46
667.612	6832.25
667.962	6851.68
668.312	6892.14
668.662	6917.22
669.011	6806.04
669.361	6762.87
669.711	6804.91
670.06	6837.45
670.41	6803.1
670.76	6805.13
671.109	6851.23
671.459	6781.63
671.808	6845.81
672.157	6806.26
672.507	6789.76
672.856	6787.51
673.205	6759.26
673.554	6788.86
673.904	6818.01
674.253	6797.9
674.602	6731.69
674.951	6645.36
675.3	6629.77
675.649	6739.6
675.998	6747.05
676.346	6738.01
676.695	6753.38
677.044	6647.17
677.393	6720.61
677.741	6707.06
678.09	6680.16
678.438	6659.6
678.787	6691.24
679.135	6695.3
679.484	6663.44
679.832	6625.25
680.181	6631.8
680.529	6633.16
680.877	6611.92
681.225	6602.88
681.573	6573.73
681.922	6574.18
682.27	6569.21
682.618	6575.31
682.966	6526.04
683.314	6524.46
683.661	6514.29
684.009	6507.29
684.357	6461.64
684.705	6456.44
685.053	6440.85
685.4	6453.95
685.748	6412.6
686.095	6421.19
686.443	6388.65
686.79	6376.67
687.138	6359.49
687.485	6342.09
687.832	6346.84
688.18	6305.03
688.527	6333.73
688.874	6337.57
689.221	6294.41
689.568	6222.55
689.915	6264.13
690.262	6226.16
690.609	6167.41
690.956	6145.04
691.303	6177.13
691.65	6161.53
691.997	6121.99
692.344	6093.06
692.69	6049.22
693.037	6082.21
693.383	5977.81
693.73	6032.27
694.077	6004.7
694.423	5942.78
694.769	5953.63
695.116	5944.36
695.462	5853.97
695.808	5848.32
696.155	5881.77
696.501	5850.13
696.847	5811.26
697.193	5811.94
697.539	5759.28
697.885	5720.64
698.231	5751.83
698.577	5721.32
698.923	5694.2
699.269	5685.84
699.614	5650.13
699.96	5618.5
700.306	5627.31
700.651	5553.87
700.997	5590.47
701.342	5530.59
701.688	5547.31
702.033	5499.86
702.379	5516.35
702.724	5457.82
703.069	5439.74
703.415	5349.12
703.76	5391.84
704.105	5394.55
704.45	5355.45
704.795	5326.3
705.14	5339.18
705.485	5317.26
705.83	5281.78
706.175	5271.84
706.52	5299.18
706.865	5266.42
707.209	5238.17
707.554	5163.14
707.899	5231.84
708.243	5158.4
708.588	5140.32
708.932	5120.88
709.277	5113.42
709.621	5084.5
709.966	5081.79
710.31	5114.55
710.654	5043.6
710.998	5067.55
711.342	5074.33
711.687	5085.18
712.031	5020.09
712.375	4999.3
712.719	4963.82
713.063	5006.76
713.407	5042.01
713.75	4970.83
714.094	4973.54
714.438	4938.74
714.782	4939.42
715.125	4942.81
715.469	4938.97
715.812	4887.89
716.156	4849.03
716.499	4911.85
716.843	4901.45
717.186	4908.23
717.53	4903.71
717.873	4866.65
718.216	4847.67
718.559	4845.41
718.902	4881.34
719.246	4831.17
719.589	4813.09
719.932	4842.02
720.275	4798.86
720.617	4798.86
720.96	4818.74
721.303	4852.19
721.646	4847.67
721.989	4741.46
722.331	4806.09
722.674	4802.25
723.016	4816.03
723.359	4746.2
723.701	4794.79
724.044	4781.91
724.386	4737.16
724.729	4828.46
725.071	4755.69
725.413	4774.22
725.755	4764.73
726.097	4763.83
726.439	4743.27
726.782	4768.58
727.124	4755.47
727.465	4720.89
727.807	4764.51
728.149	4755.92
728.491	4731.06
728.833	4730.84
729.175	4748.01
729.516	4712.76
729.858	4750.27
730.199	4732.42
730.541	4747.56
730.882	4741.91
731.224	4741.01
731.565	4769.93
731.906	4776.48
732.248	4745.52
732.589	4716.37
732.93	4789.59
733.271	4742.14
733.612	4755.69
733.953	4754.56
734.294	4736.49
734.635	4786.2
734.976	4795.69
735.317	4795.92
735.658	4801.79
735.999	4759.99
736.339	4779.42
736.68	4831.85
737.021	4806.99
737.361	4781
737.702	4853.09
738.042	4825.3
738.383	4839.53
738.723	4849.25
739.063	4852.64
739.404	4885.63
739.744	4905.75
740.084	4866.65
740.424	4886.31
740.764	4916.82
741.104	4922.92
741.444	4976.93
741.784	4930.83
742.124	4973.32
742.464	5042.24
742.804	5050.15
743.143	5047.44
743.483	5044.95
743.823	5075.46
744.162	5101.22
744.502	5116.81
744.841	5163.14
745.181	5216.7
745.52	5244.95
745.86	5267.09
746.199	5315
746.538	5319.97
746.877	5371.72
747.216	5432.29
747.556	5409.24
747.895	5464.15
748.234	5564.94
748.573	5570.36
748.911	5678.83
749.25	5744.14
749.589	5758.38
749.928	5811.26
750.267	5938.49
750.605	5927.19
750.944	6024.36
751.283	6103
751.621	6170.35
751.96	6248.99
752.298	6376.89
752.636	6461.64
752.975	6530.34
753.313	6648.07
753.651	6742.76
753.989	6893.04
754.327	6914.06
754.666	7026.14
755.004	7178.91
755.342	7360.6
755.679	7512.46
756.017	7531.44
756.355	7768.04
756.693	7871.32
757.031	8014.37
757.368	8104.31
757.706	8297.75
758.044	8442.15
758.381	8631.98
758.719	8780
759.056	8993.32
759.394	9178.63
759.731	9231.06
760.068	9450.49
760.405	9506.53
760.743	9707.43
761.08	9937.03
761.417	10102.22
761.754	10217.92
762.091	10558.93
762.428	10608.42
762.765	10744.69
763.102	11005.02
763.438	11204.34
763.775	11339.25
764.112	11529.3
764.449	11708.51
764.785	11837.54
765.122	11952.57
765.458	12213.8
765.795	12348.04
766.131	12606.34
766.467	12674.36
766.804	12811.3
