Data from hue_300_FLMS001491_00067.txt Node
Date: Tue Feb 07 15:51:03 GMT 2017
User: dcchb
Spectrometer: FLMS00149
Trigger mode: 0
Integration Time (sec): 2.000000E-2
Scans to average: 10
Electric dark correction enabled: true
Nonlinearity correction enabled: false
Boxcar width: 0
XAxis mode: Wavelengths
Number of Pixels in Spectrum: 2048
>>>>>Begin Spectral Data<<<<<
341.393	-10.4
341.776	-10.4
342.16	-10.4
342.543	-68.02
342.927	-64.63
343.31	-54.69
343.693	-89.72
344.077	-78.64
344.46	-42.94
344.843	-37.06
345.226	-48.81
345.61	-29.6
345.993	-7.91
346.376	4.07
346.759	-1.36
347.142	25.08
347.525	51.52
347.908	53.33
348.291	75.93
348.674	76.16
349.057	104.63
349.44	104.18
349.823	151.63
350.206	148.24
350.588	180.33
350.971	196.83
351.354	222.14
351.737	244.97
352.119	240.9
352.502	257.62
352.884	282.93
353.267	277.28
353.65	291.07
354.032	308.47
354.414	322.48
354.797	308.69
355.179	311.18
355.562	299.65
355.944	325.87
356.326	326.32
356.709	347.79
357.091	315.7
357.473	324.74
357.855	334.68
358.238	333.1
358.62	345.08
359.002	334.23
359.384	339.88
359.766	347.34
360.148	338.97
360.53	351.86
360.912	346.43
361.294	313.66
361.676	334.23
362.057	325.42
362.439	336.94
362.821	324.96
363.203	323.16
363.584	313.66
363.966	327.45
364.348	308.69
364.729	327.45
365.111	310.73
365.493	327.9
365.874	323.83
366.256	324.06
366.637	333.32
367.019	305.98
367.4	317.28
367.781	297.39
368.163	300.56
368.544	312.08
368.925	299.88
369.306	319.54
369.688	317.73
370.069	302.82
370.45	297.62
370.831	297.17
371.212	308.92
371.593	295.59
371.974	341.91
372.355	292.2
372.736	321.35
373.117	307.56
373.498	328.58
373.879	313.89
374.26	310.95
374.641	313.44
375.021	313.66
375.402	322.93
375.783	312.31
376.163	305.3
376.544	304.17
376.925	346.88
377.305	325.64
377.686	320.44
378.066	308.01
378.447	328.8
378.827	338.3
379.208	331.97
379.588	355.92
379.968	334.23
380.349	332.65
380.729	343.95
381.109	331.74
381.489	321.8
381.87	345.98
382.25	341.91
382.63	350.95
383.01	334.68
383.39	343.72
383.77	341.91
384.15	342.82
384.53	365.41
384.91	351.86
385.29	350.95
385.67	364.74
386.049	340.33
386.429	375.13
386.809	346.66
387.189	359.54
387.568	371.52
387.948	361.57
388.328	359.76
388.707	365.87
389.087	367.67
389.466	387.56
389.846	364.74
390.225	368.58
390.605	367.67
390.984	388.46
391.363	387.79
391.743	377.84
392.122	383.72
392.501	381.46
392.881	384.17
393.26	366.09
393.639	381.91
394.018	396.15
394.397	402.48
394.776	383.49
395.155	387.33
395.534	389.82
395.913	372.42
396.292	405.87
396.671	400.22
397.05	376.26
397.429	391.63
397.808	363.15
398.186	402.48
398.565	418.52
398.944	403.15
399.323	426.43
399.701	419.2
400.08	419.2
400.458	399.31
400.837	409.03
401.215	403.15
401.594	448.8
401.972	437.5
402.351	431.85
402.729	437.28
403.107	447.22
403.486	456.26
403.864	433.89
404.242	450.38
404.62	459.2
404.999	436.15
405.377	449.03
405.755	449.48
406.133	458.29
406.511	471.85
406.889	482.02
407.267	486.99
407.645	472.3
408.023	480.21
408.401	514.11
408.779	509.37
409.156	511.4
409.534	538.52
409.912	519.53
410.29	522.02
410.667	519.53
411.045	529.03
411.422	538.52
411.8	560.44
412.178	557.95
412.555	564.96
412.933	569.25
413.31	574.45
413.687	589.36
414.065	618.51
414.442	606.09
414.819	593.66
415.197	608.8
415.574	622.13
415.951	649.47
416.328	654.45
416.705	655.35
417.082	635.01
417.46	656.71
417.837	680.21
418.214	693.09
418.591	704.39
418.967	734.44
419.344	712.75
419.721	727.44
420.098	715.69
420.475	765.63
420.852	758.17
421.228	752.3
421.605	767.21
421.982	776.48
422.358	777.83
422.735	789.58
423.111	793.43
423.488	791.62
423.864	834.1
424.241	849.47
424.617	829.36
424.994	819.19
425.37	842.01
425.746	840.2
426.123	895.8
426.499	860.77
426.875	882.46
427.251	914.33
427.627	917.26
428.003	930.15
428.379	934.44
428.756	943.25
429.132	941.9
429.507	947.77
429.883	955.68
430.259	970.14
430.635	991.84
431.011	987.77
431.387	1026.64
431.763	1045.17
432.138	1053.76
432.514	1061.22
432.89	1056.02
433.265	1112.74
433.641	1113.42
434.016	1118.61
434.392	1131.04
434.767	1134.66
435.143	1136.02
435.518	1157.94
435.894	1143.02
436.269	1179.86
436.644	1165.39
437.02	1197.48
437.395	1219.4
437.77	1230.93
438.145	1241.78
438.52	1258.5
438.895	1237.26
439.271	1274.54
439.646	1279.97
440.021	1295.79
440.395	1281.77
440.77	1305.95
441.145	1285.84
441.52	1331.26
441.895	1323.58
442.27	1349.8
442.645	1365.16
443.019	1335.11
443.394	1345.73
443.769	1352.96
444.143	1363.81
444.518	1372.17
444.892	1381.88
445.267	1366.97
445.641	1409.91
446.016	1415.56
446.39	1400.19
446.764	1422.56
447.139	1420.08
447.513	1422.56
447.887	1394.09
448.262	1423.92
448.636	1446.29
449.01	1441.54
449.384	1437.25
449.758	1436.12
450.132	1490.58
450.506	1474.54
450.88	1486.51
451.254	1471.83
451.628	1506.85
452.002	1514.99
452.376	1522.45
452.75	1532.39
453.123	1521.32
453.497	1519.96
453.871	1572.61
454.244	1566.74
454.618	1552.73
454.992	1615.78
455.365	1602.67
455.739	1620.07
456.112	1630.69
456.486	1605.61
456.859	1636.34
457.232	1646.06
457.606	1634.99
457.979	1663.01
458.352	1740.75
458.725	1723.57
459.099	1723.57
459.472	1776.9
459.845	1759.73
460.218	1750.91
460.591	1787.07
460.964	1799.5
461.337	1820.97
461.71	1846.96
462.083	1842.21
462.456	1845.6
462.829	1865.04
463.201	1891.25
463.574	1857.8
463.947	1896
464.32	1977.35
464.692	1929.67
465.065	1975.54
465.438	1987.29
465.81	1995.43
466.183	2005.37
466.555	2050.79
466.928	2030.23
467.3	2079.04
467.672	2086.72
468.045	2090.34
468.417	2072.04
468.789	2096.89
469.161	2134.18
469.534	2154.52
469.906	2208.98
470.278	2190
470.65	2198.59
471.022	2255.76
471.394	2246.04
471.766	2240.39
472.138	2278.13
472.51	2330.11
472.882	2363.78
473.253	2394.06
473.625	2358.81
473.997	2410.11
474.369	2448.75
474.74	2434.06
475.112	2467.73
475.484	2504.34
475.855	2512.7
476.227	2571.23
476.598	2589.54
476.97	2615.3
477.341	2664.34
477.713	2683.09
478.084	2687.84
478.455	2772.13
478.827	2801.51
479.198	2869.3
479.569	2831.56
479.94	2857.55
480.311	2903.65
480.682	2926.02
481.053	2978.9
481.424	3027.04
481.795	3028.85
482.166	3065
482.537	3121.73
482.908	3199.24
483.279	3176.19
483.65	3205.34
484.021	3248.28
484.391	3254.15
484.762	3284.66
485.133	3302.51
485.503	3311.55
485.874	3386.13
486.244	3404.88
486.615	3489.4
486.985	3492.79
487.356	3557.65
487.726	3551.32
488.097	3592.22
488.467	3629.74
488.837	3649.17
489.207	3698.66
489.578	3672.67
489.948	3740.69
490.318	3789.05
490.688	3822.5
491.058	3820.92
491.428	3851.2
491.798	3884.64
492.168	3934.13
492.538	3984.3
492.908	3996.96
493.278	4051.42
493.648	4072.66
494.017	4091.87
494.387	4146.56
494.757	4165.09
495.126	4142.72
495.496	4168.93
495.866	4217.74
496.235	4199.66
496.605	4267.23
496.974	4235.59
497.344	4268.59
497.713	4305.42
498.082	4369.38
498.452	4346.1
498.821	4418.19
499.19	4354.01
499.559	4429.94
499.928	4436.72
500.298	4442.6
500.667	4483.72
501.036	4467.91
501.405	4490.05
501.774	4533.89
502.143	4566.66
502.512	4602.14
502.88	4631.52
503.249	4621.12
503.618	4620.22
503.987	4639.2
504.356	4668.8
504.724	4674.45
505.093	4701.57
505.462	4656.83
505.83	4732.76
506.199	4779.54
506.567	4744.51
506.936	4798.74
507.304	4821.12
507.672	4798.29
508.041	4858.18
508.409	4873.09
508.777	4911.96
509.145	4877.16
509.514	4907.44
509.882	4921
510.25	4965.07
510.618	5005.07
510.986	5025.4
511.354	5016.14
511.722	5036.7
512.09	5121.22
512.458	5057.27
512.826	5113.54
513.193	5117.15
513.561	5091.62
513.929	5198.06
514.297	5168.45
514.664	5163.71
515.032	5165.97
515.4	5252.29
515.767	5184.95
516.135	5228.56
516.502	5240.09
516.869	5314.44
517.237	5254.55
517.604	5252.29
517.972	5319.63
518.339	5419.29
518.706	5367.99
519.073	5387.43
519.44	5389.24
519.808	5406.41
520.175	5449.8
520.542	5476.47
520.909	5452.06
521.276	5472.85
521.643	5523.02
522.009	5563.7
522.376	5590.14
522.743	5581.1
523.11	5609.34
523.477	5676.46
523.843	5649.57
524.21	5712.62
524.577	5695.67
524.943	5763.69
525.31	5784.48
525.676	5814.54
526.043	5872.61
526.409	5908.77
526.776	5909.9
527.142	5949.22
527.508	5969.79
527.874	6036
528.241	6049.56
528.607	6026.51
528.973	6078.03
529.339	6032.84
529.705	6135.88
530.071	6178.37
530.437	6188.99
530.803	6215.66
531.169	6257.91
531.535	6247.07
531.901	6243.23
532.267	6287.52
532.632	6345.82
532.998	6334.07
533.364	6386.72
533.73	6356.44
534.095	6421.53
534.461	6463.56
534.826	6560.73
535.192	6508.98
535.557	6567.06
535.923	6559.38
536.288	6586.49
536.653	6627.4
537.019	6637.57
537.384	6652.48
537.749	6730.67
538.114	6688.19
538.479	6706.04
538.845	6715.08
539.21	6711.69
539.575	6803.21
539.94	6843.66
540.305	6883.21
540.67	6824.91
541.034	6875.75
541.399	6931.57
541.764	6963.66
542.129	7008.86
542.494	7038.46
542.858	7004.11
543.223	6996.2
543.587	7082.75
543.952	7138.34
544.316	7151.68
544.681	7084.79
545.045	7239.58
545.41	7275.74
545.774	7302.18
546.138	7246.82
546.503	7306.25
546.867	7264.22
547.231	7313.25
547.595	7362.52
547.959	7429.18
548.324	7462.63
548.688	7460.59
549.052	7474.15
549.416	7519.8
549.779	7528.39
550.143	7516.86
550.507	7558.9
550.871	7642.96
551.235	7579.91
551.599	7635.96
551.962	7707.37
552.326	7671.21
552.689	7692.23
553.053	7646.35
553.417	7754.15
553.78	7824.88
554.143	7814.94
554.507	7810.64
554.87	7856.52
555.234	7905.78
555.597	7856.74
555.96	7958.21
556.323	7922.28
556.686	8014.25
557.05	7990.52
557.413	8051.09
557.776	7997.08
558.139	8088.6
558.502	8108.04
558.865	8091.31
559.228	8099.9
559.59	8197.07
559.953	8156.85
560.316	8303.51
560.679	8234.59
561.041	8307.13
561.404	8275.26
561.767	8343.06
562.129	8378.99
562.492	8388.93
562.854	8352.32
563.217	8426.9
563.579	8515.48
563.941	8492.88
564.304	8524.3
564.666	8532.43
565.028	8587.57
565.39	8582.83
565.753	8653.78
566.115	8672.31
566.477	8651.98
566.839	8758.87
567.201	8764.06
567.563	8751.41
567.925	8896.04
568.287	8841.58
568.648	8871.63
569.01	8910.73
569.372	9035.02
569.734	8916.38
570.095	9059.2
570.457	9118.63
570.819	9119.53
571.18	9111.17
571.542	9118.86
571.903	9216.93
572.265	9265.97
572.626	9306.65
572.987	9352.3
573.349	9395.23
573.71	9465.29
574.071	9472.07
574.432	9540.99
574.794	9634.77
575.155	9653.08
575.516	9679.29
575.877	9757.26
576.238	9855.79
576.599	9940.98
576.96	9933.07
577.32	10042.22
577.681	10184.59
578.042	10244.02
578.403	10299.39
578.763	10456.9
579.124	10500.06
579.485	10573.51
579.845	10729.89
580.206	10873.61
580.566	10918.81
580.927	11029.54
581.287	11244.9
581.648	11333.04
582.008	11563.99
582.368	11605.8
582.728	11881.72
583.089	11961.95
583.449	12090.53
583.809	12262.28
584.169	12472.21
584.529	12570.06
584.889	12941.58
585.249	13034.91
585.609	13150.84
585.969	13471.28
586.329	13651.17
586.688	13929.35
587.048	14138.61
587.408	14271.49
587.768	14501.31
588.127	14684.13
588.487	15124.12
588.846	15348.3
589.206	15466.03
589.565	15808.17
589.925	16096.98
590.284	16280.02
590.643	16569.51
591.003	16916.84
591.362	17096.27
591.721	17477.96
592.08	17706.65
592.44	18039.75
592.799	18280.2
593.158	18568.1
593.517	18771.03
593.876	19222.09
594.235	19387.29
594.593	19765.58
594.952	19990.21
595.311	20336.41
595.67	20606.69
596.029	21020.92
596.387	21287.8
596.746	21666.32
597.104	21927.11
597.463	22278.96
597.822	22589.91
598.18	22728.44
598.538	23017.93
598.897	23469.21
599.255	23487.74
599.613	24149.42
599.972	24130.21
600.33	24522.97
600.688	24804.77
601.046	25096.74
601.404	25485.88
601.762	25699.21
602.12	25996.38
602.478	26324.51
602.836	26451.06
603.194	26755.91
603.552	26918.16
603.91	27172.84
604.268	27372.84
604.625	27723.34
604.983	28137.11
605.341	28165.14
605.698	28418.01
606.056	28793.37
606.413	28962.4
606.771	29245.11
607.128	29502.95
607.485	29551.99
607.843	29869.27
608.2	30204.63
608.557	30469.71
608.914	30551.29
609.272	30896.59
609.629	31165.73
609.986	31489.57
610.343	31339.06
610.7	31869.67
611.057	31958.26
611.414	32102.43
611.771	32419.49
612.127	32633.72
612.484	32739.7
612.841	32997.78
613.198	33085.23
613.554	33255.17
613.911	33551.21
614.267	33712.56
614.624	33920.92
614.98	34066.45
615.337	34418.3
615.693	34333.56
616.05	34470.28
616.406	34762.25
616.762	34792.31
617.118	34973.54
617.475	34982.13
617.831	35277.26
618.187	35362.23
618.543	35472.74
618.899	35675.9
619.255	35815.1
619.611	35867.76
619.967	36133.97
620.323	36302.32
620.678	36258.71
621.034	36392.26
621.39	36522.2
621.746	36502.32
622.101	36953.6
622.457	36757.45
622.812	37000.61
623.168	37090.32
623.523	37168.29
623.879	37351.56
624.234	37253.26
624.589	37401.05
624.945	37583.42
625.3	37699.12
625.655	37656.86
626.01	37641.5
626.365	37897.99
626.72	37913.13
627.075	37819.12
627.43	37926.69
627.785	37808.05
628.14	37983.18
628.495	38149.51
628.85	38173.23
629.205	38094.59
629.559	38325.32
629.914	38239.45
630.269	38311.99
630.623	38346.34
630.978	38257.3
631.332	38493.45
631.687	38630.17
632.041	38337.75
632.396	38373.23
632.75	38375.04
633.104	38492.32
633.459	38469.04
633.813	38328.26
634.167	38425.2
634.521	38506.11
634.875	38513.79
635.229	38461.14
635.583	38388.37
635.937	38410.29
636.291	38482.15
636.645	38527.35
636.999	38419.55
637.352	38615.93
637.706	38352.21
638.06	38499.78
638.413	38504.98
638.767	38353.57
639.121	38503.62
639.474	38209.16
639.828	38354.25
640.181	38384.08
640.534	38466.11
640.888	38357.41
641.241	38229.05
641.594	38209.84
641.947	38413.23
642.301	38302.72
642.654	38343.62
643.007	38424.98
643.36	38321.48
643.713	38191.54
644.066	38435.37
644.419	38204.42
644.771	38101.37
645.124	37736.41
645.477	37609.18
645.83	37314.5
646.182	37324.44
646.535	37231.56
646.888	37252.13
647.24	36998.12
647.593	37356.08
647.945	37360.15
648.298	37121.06
648.65	37069.31
649.002	36987.95
649.355	37229.3
649.707	37163.09
650.059	37304.78
650.411	37648.28
650.763	37801.04
651.115	38035.38
651.467	37976.63
651.819	37873.81
652.171	37928.49
652.523	37953.58
652.875	37825.22
653.227	37803.3
653.578	38006.68
653.93	37919.68
654.282	37784.54
654.633	37648.28
654.985	37872
655.337	37786.8
655.688	37837.65
656.039	37900.92
656.391	37757.43
656.742	37633.13
657.094	37725.79
657.445	37856.86
657.796	37875.61
658.147	37746.35
658.498	37775.05
658.849	37826.58
659.2	37722.17
659.551	37754.04
659.902	37817.08
660.253	37617.09
660.604	37690.08
660.955	37579.58
661.306	37794.03
661.656	37682.17
662.007	37662.51
662.358	37670.87
662.708	37770.08
663.059	37628.84
663.409	37372.58
663.76	37670.42
664.11	37754.49
664.461	37597.43
664.811	37692.34
665.161	37593.14
665.511	37529.63
665.862	37577.99
666.212	37615.73
666.562	37701.83
666.912	37649.41
667.262	37533.25
667.612	37698.44
667.962	37581.61
668.312	37491.22
668.662	37600.14
669.011	37640.37
669.361	37723.98
669.711	37626.36
670.06	37502.52
670.41	37468.17
670.76	37333.48
671.109	37546.13
671.459	37396.76
671.808	37463.42
672.157	37376.42
672.507	37169.87
672.856	37337.32
673.205	37465.23
673.554	37508.62
673.904	37322.41
674.253	37469.75
674.602	37341.39
674.951	36828.64
675.3	36627.51
675.649	37376.64
675.998	37131.23
676.346	37141.4
676.695	37329.64
677.044	37044
677.393	37129.87
677.741	37152.02
678.09	37179.14
678.438	37053.94
678.787	37093.04
679.135	37112.24
679.484	36805.13
679.832	37069.53
680.181	36742.99
680.529	36968.07
680.877	36814.63
681.225	36782.08
681.573	36934.62
681.922	36676.1
682.27	36449.66
682.618	36635.19
682.966	36496.89
683.314	36635.42
683.661	36494.18
684.009	36317.24
684.357	36197.47
684.705	36324.02
685.053	36282.66
685.4	36167.18
685.748	36000.41
686.095	36053.29
686.443	35847.87
686.79	35889.68
687.138	35881.77
687.485	35717.48
687.832	35752.28
688.18	35552.74
688.527	35544.38
688.874	35548.22
689.221	35614.88
689.568	35299.64
689.915	35256.25
690.262	35310.48
690.609	35148.68
690.956	35142.13
691.303	35045.86
691.65	34830.5
691.997	34768.35
692.344	34665.98
692.69	34640.22
693.037	34747.11
693.383	34414.46
693.73	34488.36
694.077	34439.09
694.423	34426.21
694.769	34196.84
695.116	34157.07
695.462	34096.73
695.808	34027.13
696.155	33996.39
696.501	33754.82
696.847	33793.24
697.193	33554.15
697.539	33679.57
697.885	33383.3
698.231	33393.02
698.577	33428.5
698.923	33337.2
699.269	33068.96
699.614	33010.66
699.96	33015.86
700.306	32841.62
700.651	32847.05
700.997	32799.82
701.342	32605.24
701.688	32652.47
702.033	32556.43
702.379	32537.45
702.724	32368.41
703.069	32412.71
703.415	32086.61
703.76	32112.38
704.105	32027.41
704.45	31954.19
704.795	31772.95
705.14	31673.97
705.485	31694.99
705.83	31630.13
706.175	31660.86
706.52	31606.85
706.865	31467.65
707.209	31427.65
707.554	31306.75
707.899	31331.61
708.243	31202.8
708.588	31238.05
708.932	30885.06
709.277	30979.75
709.621	30932.75
709.966	30744.5
710.31	30818.85
710.654	30472.87
710.998	30492.98
711.342	30604.62
711.687	30602.81
712.031	30310.62
712.375	30372.08
712.719	30288.02
713.063	30130.96
713.407	30251.86
713.75	30123.05
714.094	30155.14
714.438	29972.77
714.782	30021.36
715.125	29899.33
715.469	29903.85
715.812	29803.74
716.156	29553.12
716.499	29691.42
716.843	29754.92
717.186	29531.2
717.53	29625.44
717.873	29604.19
718.216	29562.39
718.559	29466.57
718.902	29215.95
719.246	29265.45
719.589	29124.88
719.932	29083.76
720.275	29179.57
720.617	29148.84
720.96	29026.58
721.303	29030.2
721.646	29035.85
721.989	28790.88
722.331	28888.28
722.674	28737.78
723.016	28812.12
723.359	28783.65
723.701	28694.84
724.044	28473.38
724.386	28399.25
724.729	28530.1
725.071	28484.22
725.413	28342.08
725.755	28364
726.097	28398.58
726.439	28177.34
726.782	28206.26
727.124	28154.74
727.465	28133.72
727.807	28155.64
728.149	28028.19
728.491	27914.07
728.833	27990.9
729.175	27992.94
729.516	27849.89
729.858	27750.68
730.199	27887.4
730.541	27865.03
730.882	27823.68
731.224	27910.23
731.565	27610.8
731.906	27716.11
732.248	27729.67
732.589	27451.93
732.93	27405.16
733.271	27490.12
733.612	27561.54
733.953	27488.77
734.294	27344.37
734.635	27418.71
734.976	27393.4
735.317	27238.61
735.658	27244.03
735.999	27281.09
736.339	27122.22
736.68	27280.64
737.021	27123.35
737.361	27123.58
737.702	27173.75
738.042	27165.16
738.383	27002.91
738.723	27137.14
739.063	26939.18
739.404	26976.01
739.744	26912.51
740.084	26903.47
740.424	26874.77
740.764	26828.67
741.104	26771.95
741.444	26738.73
741.784	26642.24
742.124	26561.56
742.464	26639.3
742.804	26533.99
743.143	26591.17
743.483	26534.67
743.823	26369.7
744.162	26273.21
744.502	26507.78
744.841	26395.69
745.181	26511.62
745.52	26279.31
745.86	26434.56
746.199	26345.97
746.538	26338.29
746.877	26292.87
747.216	26269.14
747.556	26234.34
747.895	26206.77
748.234	26168.58
748.573	26187.33
748.911	26023.27
749.25	26110.27
749.589	25975.59
749.928	25983.95
750.267	26149.14
750.605	26012.2
750.944	25890.17
751.283	25865.76
751.621	25891.52
751.96	25707.57
752.298	25763.16
752.636	25816.95
752.975	25655.14
753.313	25482.27
753.651	25634.81
753.989	25418.77
754.327	25554.36
754.666	25358.43
755.004	25495.37
755.342	25563.85
755.679	25410.63
756.017	25386.9
756.355	25496.73
756.693	25340.35
757.031	25290.86
757.368	25120.7
757.706	25246.34
758.044	25075.05
758.381	25100.13
758.719	24964.77
759.056	25023.07
