Data from hue_36_FLMS001491_00054.txt Node
Date: Tue Feb 07 17:29:59 GMT 2017
User: dcchb
Spectrometer: FLMS00149
Trigger mode: 0
Integration Time (sec): 2.000000E-2
Scans to average: 10
Electric dark correction enabled: true
Nonlinearity correction enabled: false
Boxcar width: 0
XAxis mode: Wavelengths
Number of Pixels in Spectrum: 2048
>>>>>Begin Spectral Data<<<<<
341.393	1.13
341.776	1.13
342.16	1.13
342.543	-62.15
342.927	-71.86
343.31	-70.28
343.693	-58.76
344.077	-76.38
344.46	-48.59
344.843	-43.39
345.226	-54.01
345.61	-38.64
345.993	-23.95
346.376	9.72
346.759	13.56
347.142	26.89
347.525	35.48
347.908	73.67
348.291	70.51
348.674	73.9
349.057	110.28
349.44	129.71
349.823	148.47
350.206	153.67
350.588	191.86
350.971	220.56
351.354	243.38
351.737	220.11
352.119	241.12
352.502	257.17
352.884	280.22
353.267	288.81
353.65	274.57
354.032	304.62
354.414	312.31
354.797	310.5
355.179	324.74
355.562	288.13
355.944	335.81
356.326	351.63
356.709	328.8
357.091	342.59
357.473	349.82
357.855	348.01
358.238	356.6
358.62	330.84
359.002	331.06
359.384	360.44
359.766	331.06
360.148	331.97
360.53	321.57
360.912	334.68
361.294	331.29
361.676	333.78
362.057	324.29
362.439	320.44
362.821	343.95
363.203	316.15
363.584	340.56
363.966	330.61
364.348	310.95
364.729	328.8
365.111	303.27
365.493	299.65
365.874	313.66
366.256	317.96
366.637	332.65
367.019	309.6
367.4	310.27
367.781	332.42
368.163	315.7
368.544	306.43
368.925	308.69
369.306	321.35
369.688	340.1
370.069	309.14
370.45	310.95
370.831	315.47
371.212	333.78
371.593	296.94
371.974	308.47
372.355	335.13
372.736	324.29
373.117	328.13
373.498	328.35
373.879	307.34
374.26	333.78
374.641	327.45
375.021	317.28
375.402	329.03
375.783	322.25
376.163	307.11
376.544	320.67
376.925	336.04
377.305	330.16
377.686	322.93
378.066	325.64
378.447	309.14
378.827	325.42
379.208	312.53
379.588	326.09
379.968	344.85
380.349	321.57
380.729	330.39
381.109	328.8
381.489	348.24
381.87	333.1
382.25	341.01
382.63	338.75
383.01	329.03
383.39	345.3
383.77	346.88
384.15	348.69
384.53	345.53
384.91	326.55
385.29	324.29
385.67	335.81
386.049	361.12
386.429	343.95
386.809	358.18
387.189	347.79
387.568	364.74
387.948	345.53
388.328	344.85
388.707	342.59
389.087	364.51
389.466	380.33
389.846	343.95
390.225	352.08
390.605	356.15
390.984	357.96
391.363	371.06
391.743	365.41
392.122	355.7
392.501	363.61
392.881	369.03
393.26	371.06
393.639	380.1
394.018	362.7
394.397	368.58
394.776	367.67
395.155	366.77
395.534	361.35
395.913	376.49
396.292	389.14
396.671	380.78
397.05	398.63
397.429	379.65
397.808	381.68
398.186	363.38
398.565	372.65
398.944	400.22
399.323	397.73
399.701	358.86
400.08	367.22
400.458	398.18
400.837	382.14
401.215	409.03
401.594	387.33
401.972	395.7
402.351	397.73
402.729	389.82
403.107	410.61
403.486	403.15
403.864	416.71
404.242	413.77
404.62	421.01
404.999	430.27
405.377	405.41
405.755	384.62
406.133	407.67
406.511	409.03
406.889	403.83
407.267	410.84
407.645	414.45
408.023	419.2
408.401	408.58
408.779	432.53
409.156	413.32
409.534	425.98
409.912	411.74
410.29	414.9
410.667	431.63
411.045	433.21
411.422	426.66
411.8	434.79
412.178	434.56
412.555	440.67
412.933	456.26
413.31	430.27
413.687	461.23
414.065	451.74
414.442	463.26
414.819	463.26
415.197	469.37
415.574	456.94
415.951	465.07
416.328	464.17
416.705	458.29
417.082	471.4
417.46	469.59
417.837	466.2
418.214	475.92
418.591	485.18
418.967	482.02
419.344	478.86
419.721	498.07
420.098	488.12
420.475	506.2
420.852	528.35
421.228	502.81
421.605	516.37
421.982	495.58
422.358	499.87
422.735	512.53
423.111	528.57
423.488	509.82
423.864	523.83
424.241	536.03
424.617	532.64
424.994	528.35
425.37	542.81
425.746	532.42
426.123	541.68
426.499	526.99
426.875	515.47
427.251	549.59
427.627	541.23
428.003	578.29
428.379	562.92
428.756	575.58
429.132	569.02
429.507	562.47
429.883	560.66
430.259	583.26
430.635	592.75
431.011	579.19
431.387	586.65
431.763	595.69
432.138	583.49
432.514	591.4
432.89	603.6
433.265	619.64
433.641	610.15
434.016	614.45
434.392	638.4
434.767	629.14
435.143	596.37
435.518	636.59
435.894	671.39
436.269	642.69
436.644	642.47
437.02	668.91
437.395	646.99
437.77	689.25
438.145	668.91
438.52	678.63
438.895	682.47
439.271	677.04
439.646	675.91
440.021	682.69
440.395	687.67
440.77	667.33
441.145	698.51
441.52	709.59
441.895	709.81
442.27	725.86
442.645	688.12
443.019	729.92
443.394	726.31
443.769	752.52
444.143	733.31
444.518	736.48
444.892	741.68
445.267	743.26
445.641	748.68
446.016	760.88
446.39	751.17
446.764	763.82
447.139	756.14
447.513	745.29
447.887	781
448.262	766.31
448.636	774.44
449.01	774.22
449.384	787.78
449.758	791.17
450.132	794.1
450.506	803.82
450.88	784.84
451.254	798.85
451.628	804.95
452.002	834.55
452.376	816.93
452.75	814.67
453.123	829.81
453.497	868.23
453.871	846.98
454.244	830.03
454.618	855.8
454.992	862.12
455.365	873.88
455.739	907.55
456.112	893.99
456.486	920.88
456.859	915.91
457.232	932.4
457.606	914.55
457.979	922.01
458.352	970.37
458.725	938.51
459.099	937.83
459.472	965.62
459.845	969.24
460.218	983.48
460.591	1010.14
460.964	995.45
461.337	1046.98
461.71	1051.5
462.083	1017.6
462.456	1050.14
462.829	1029.35
463.201	1079.97
463.574	1067.54
463.947	1091.27
464.32	1102.12
464.692	1123.59
465.065	1123.36
465.438	1132.17
465.81	1182.34
466.183	1169.46
466.555	1214.88
466.928	1195.45
467.3	1198.61
467.672	1235
468.045	1266.41
468.417	1250.59
468.789	1284.71
469.161	1313.86
469.534	1322.68
469.906	1349.34
470.278	1345.95
470.65	1393.86
471.022	1411.94
471.394	1450.36
471.766	1470.47
472.138	1472.96
472.51	1491.49
472.882	1534.87
473.253	1536.23
473.625	1580.3
473.997	1614.87
474.369	1648.77
474.74	1707.53
475.112	1754.53
475.484	1767.41
475.855	1819.39
476.227	1816
476.598	1865.71
476.97	1910.01
477.341	1965.15
477.713	1994.3
478.084	2031.13
478.455	2070.91
478.827	2138.47
479.198	2207.17
479.569	2241.75
479.94	2333.72
480.311	2364.68
480.682	2428.86
481.053	2507.28
481.424	2578.46
481.795	2612.13
482.166	2694.62
482.537	2761.06
482.908	2813.71
483.279	2871.34
483.65	2956.98
484.021	3050.99
484.391	3100.48
484.762	3173.02
485.133	3278.78
485.503	3338.67
485.874	3438.33
486.244	3533.92
486.615	3592.22
486.985	3689.39
487.356	3762.84
487.726	3893.68
488.097	3951.08
488.467	4043.06
488.837	4140.91
489.207	4257.52
489.578	4371.41
489.948	4414.12
490.318	4478.3
490.688	4623.61
491.058	4704.51
491.428	4811.62
491.798	4904.96
492.168	5036.25
492.538	5146.98
492.908	5267.66
493.278	5298.84
493.648	5358.05
494.017	5444.83
494.387	5607.31
494.757	5674.88
495.126	5789.45
495.496	5859.05
495.866	5946.06
496.235	6058.15
496.605	6132.72
496.974	6149.89
497.344	6254.3
497.713	6395.99
498.082	6431.24
498.452	6640.5
498.821	6663.33
499.19	6718.24
499.559	6803.66
499.928	6928.41
500.298	6991.91
500.667	7083.2
501.036	7080.27
501.405	7237.32
501.774	7219.25
502.143	7398.68
502.512	7407.04
502.88	7508.05
503.249	7514.15
503.618	7673.92
503.987	7740.36
504.356	7835.95
504.724	7847.7
505.093	7992.56
505.462	8023.29
505.83	8110.3
506.199	8163.63
506.567	8329.95
506.936	8287.47
507.304	8441.81
507.672	8516.39
508.041	8557.29
508.409	8589.38
508.777	8640.45
509.145	8742.37
509.514	8727
509.882	8876.15
510.25	8880.44
510.618	8965.41
510.986	9004.51
511.354	9155.69
511.722	9221.23
512.09	9243.6
512.458	9257.16
512.826	9384.84
513.193	9450.6
513.561	9408.79
513.929	9566.75
514.297	9651.95
514.664	9689.01
515.032	9724.94
515.4	9834.09
515.767	9930.36
516.135	10000.19
516.502	9918.61
516.869	10131.49
517.237	10115.21
517.604	10091.71
517.972	10241.76
518.339	10317.69
518.706	10344.81
519.073	10379.84
519.44	10458.48
519.808	10542.1
520.175	10566.95
520.542	10609.21
520.909	10755.42
521.276	10718.81
521.643	10879.04
522.009	10918.36
522.376	10929.66
522.743	11067.73
523.11	11122.87
523.477	11228.63
523.843	11317.22
524.21	11418.91
524.577	11471.34
524.943	11534.16
525.31	11611.67
525.676	11726.7
526.043	11802.18
526.409	11807.15
526.776	11968.95
527.142	11985
527.508	12037.88
527.874	12146.8
528.241	12231.09
528.607	12232.67
528.973	12322.39
529.339	12284.42
529.705	12499.11
530.071	12579.33
530.437	12617.75
530.803	12609.16
531.169	12765.99
531.535	12749.72
531.901	12760.79
532.267	12862.94
532.632	12896.38
532.998	12985.87
533.364	13057.51
533.73	13078.07
534.095	13230.84
534.461	13248.24
534.826	13307.67
535.192	13375.69
535.557	13420.44
535.923	13411.4
536.288	13467.89
536.653	13605.52
537.019	13512.64
537.384	13662.47
537.749	13700.66
538.114	13713.76
538.479	13697.49
538.845	13901.33
539.21	13762.35
539.575	13935
539.94	13947.43
540.305	14061.78
540.67	14047.31
541.034	14139.29
541.399	14198.72
541.764	14243.24
542.129	14287.53
542.494	14413.18
542.858	14425.84
543.223	14403.46
543.587	14661.31
543.952	14516
544.316	14667.18
544.681	14633.51
545.045	14761.65
545.41	14843.68
545.774	14840.51
546.138	14903.11
546.503	15000.51
546.867	14967.74
547.231	15111.69
547.595	15141.97
547.959	15142.65
548.324	15207.06
548.688	15199.37
549.052	15318.24
549.416	15289.09
549.779	15298.81
550.143	15418.35
550.507	15538.8
550.871	15576.09
551.235	15509.42
551.599	15726.59
551.962	15679.81
552.326	15697.44
552.689	15871.45
553.053	15846.59
553.417	15880.03
553.78	16075.06
554.143	16029.41
554.507	16133.81
554.87	16090.2
555.234	16285.45
555.597	16176.75
555.96	16265.34
556.323	16426.69
556.686	16363.41
557.05	16447.25
557.413	16584.2
557.776	16578.1
558.139	16623.52
558.502	16722.05
558.865	16789.84
559.228	16900.57
559.59	16962.04
559.953	16931.31
560.316	17136.72
560.679	17062.83
561.041	17090.17
561.404	17321.13
561.767	17352.09
562.129	17271.64
562.492	17519.31
562.854	17496.72
563.217	17487.68
563.579	17580.55
563.941	17608.8
564.304	17766.54
564.666	17805.63
565.028	17887.67
565.39	17863.71
565.753	18050.6
566.115	18064.61
566.477	18159.52
566.839	18107.77
567.201	18327.65
567.563	18268.45
567.925	18455.11
568.287	18457.59
568.648	18537.82
569.01	18708.43
569.372	18808.54
569.734	18693.75
570.095	18945.26
570.457	18923.12
570.819	19034.98
571.18	19096
571.542	19158.14
571.903	19162.43
572.265	19260.51
572.626	19342.77
572.987	19372.6
573.349	19575.53
573.71	19604
574.071	19699.6
574.432	19839.7
574.794	19916.54
575.155	19972.36
575.516	19884.67
575.877	20221.16
576.238	20288.05
576.599	20426.13
576.96	20386.58
577.32	20428.16
577.681	20708.16
578.042	20752.45
578.403	20857.98
578.763	20958.54
579.124	21083.97
579.485	21229.72
579.845	21484.18
580.206	21551.98
580.566	21659.77
580.927	21817.73
581.287	22024.73
581.648	22073.09
582.008	22378.39
582.368	22358.51
582.728	22616.13
583.089	22736.35
583.449	22852.05
583.809	23109
584.169	23341.08
584.529	23449.78
584.889	23772.93
585.249	23864.68
585.609	23870.56
585.969	24168.63
586.329	24289.98
586.688	24680.93
587.048	24823.98
587.408	24845.22
587.768	25124.31
588.127	25342.84
588.487	25456.73
588.846	25880
589.206	25972.2
589.565	26151.4
589.925	26398.63
590.284	26530.6
590.643	26795.91
591.003	27056.46
591.362	27378.26
591.721	27466.17
592.08	27687.86
592.44	28037.91
592.799	28227.05
593.158	28266.15
593.517	28423.66
593.876	28747.49
594.235	28796.53
594.593	29220.02
594.952	29453.24
595.311	29523.07
595.67	29895.26
596.029	30217.51
596.387	30447.11
596.746	30669.02
597.104	30766.42
597.463	30816.82
597.822	31215.68
598.18	31331.83
598.538	31548.55
598.897	31916.22
599.255	31671.71
599.613	32267.63
599.972	32214.29
600.33	32676.43
600.688	32647.5
601.046	32742.87
601.404	33179.01
601.762	33325.45
602.12	33583.98
602.478	33637.99
602.836	33937.41
603.194	33849.28
603.552	34100.8
603.91	34173.56
604.268	34488.36
604.625	34494.46
604.983	34647.9
605.341	34699.2
605.698	35093.09
606.056	35337.38
606.413	35247.89
606.771	35572.85
607.128	35791.6
607.485	35838.61
607.843	35844.26
608.2	36182.55
608.557	36266.39
608.914	36296.22
609.272	36654.86
609.629	36625.93
609.986	37006.03
610.343	36943.44
610.7	37316.53
611.057	37250.09
611.414	37539.8
611.771	37537.77
612.127	37789.74
612.484	37766.69
612.841	38020.92
613.198	38034.48
613.554	38091.88
613.911	38457.07
614.267	38508.82
614.624	38583.17
614.98	38713.56
615.337	38878.98
615.693	38887.79
616.05	39055.24
616.406	39300.89
616.762	39097.28
617.118	39196.71
617.475	39389.02
617.831	39410.26
618.187	39558.96
618.543	39792.85
618.899	39931.61
619.255	39945.39
619.611	39946.29
619.967	40076.23
620.323	40136.8
620.678	40176.12
621.034	40087.76
621.39	40151.49
621.746	40264.25
622.101	40705.6
622.457	40382.67
622.812	40542.44
623.168	40712.15
623.523	40686.84
623.879	40826.05
624.234	40739.49
624.589	41023.78
624.945	40897.91
625.3	41048.41
625.655	40950.56
626.01	41163.44
626.365	41129.54
626.72	41305.35
627.075	41203.44
627.43	41204.57
627.785	41247.73
628.14	41258.35
628.495	41332.47
628.85	41313.49
629.205	41226.26
629.559	41485.91
629.914	41385.13
630.269	41348.29
630.623	41375.41
630.978	41186.94
631.332	41489.98
631.687	41600.94
632.041	41495.18
632.396	41570.21
632.75	41384.67
633.104	41453.6
633.459	41309.65
633.813	41463.54
634.167	41289.08
634.521	41278.91
634.875	41450.44
635.229	41448.4
635.583	41305.35
635.937	41456.31
636.291	41356.65
636.645	41311.23
636.999	41335.41
637.352	41392.13
637.706	41084.34
638.06	41329.08
638.413	41275.98
638.767	41261.97
639.121	41304.9
639.474	41000.05
639.828	41094.06
640.181	41207.73
640.534	41022.42
640.888	41050.67
641.241	40918.47
641.594	41108.75
641.947	41109.43
642.301	41052.93
642.654	41089.09
643.007	41059.03
643.36	41028.3
643.713	41024.01
644.066	41212.48
644.419	40981.52
644.771	40634.19
645.124	40297.02
645.477	40185.61
645.83	40093.86
646.182	39968.21
646.535	39876.01
646.888	39922.34
647.24	39667.88
647.593	40015.9
647.945	39811.38
648.298	39661.56
648.65	39538.4
649.002	39541.11
649.355	39669.47
649.707	39583.14
650.059	39737.94
650.411	40077.82
650.763	40339.96
651.115	40689.33
651.467	40513.74
651.819	40492.27
652.171	40410.46
652.523	40352.61
652.875	40293.4
653.227	40105.16
653.578	40496.79
653.93	40452.95
654.282	40141.32
654.633	40198.49
654.985	40237.36
655.337	40301.99
655.688	40329.11
656.039	40432.38
656.391	40123.46
656.742	40264.25
657.094	40240.52
657.445	40368.2
657.796	40291.6
658.147	40245.5
658.498	40083.69
658.849	40191.94
659.2	40132.5
659.551	39975.45
659.902	40280.07
660.253	40273.52
660.604	40168.44
660.955	40029.91
661.306	40246.63
661.656	40154.88
662.007	40166.63
662.358	39983.58
662.708	40055.44
663.059	40041.21
663.409	39826.3
663.76	40145.61
664.11	40158.49
664.461	40045.73
664.811	40196.68
665.161	40120.3
665.511	39920.98
665.862	39958.72
666.212	40024.03
666.562	40011.83
666.912	39983.13
667.262	40009.57
667.612	39993.07
667.962	40084.82
668.312	40019.74
668.662	40125.27
669.011	40016.8
669.361	39825.39
669.711	39907.88
670.06	39845.28
670.41	39925.73
670.76	39786.3
671.109	39919.85
671.459	39845.51
671.808	39781.78
672.157	39930.48
672.507	39717.83
672.856	39685.96
673.205	39802.34
673.554	39873.53
673.904	39710.14
674.253	39946.97
674.602	39769.35
674.951	39278.97
675.3	39097.05
675.649	39724.61
675.998	39633.53
676.346	39713.08
676.695	39845.96
677.044	39533.42
677.393	39645.51
677.741	39750.14
678.09	39644.16
678.438	39385.63
678.787	39566.42
679.135	39384.05
679.484	39317.38
679.832	39460.43
680.181	39076.71
680.529	39473.31
680.877	39254.34
681.225	39121.01
681.573	39389.92
681.922	39020.44
682.27	38924.4
682.618	39007.79
682.966	38757.17
683.314	38746.1
683.661	38817.74
684.009	38623.17
684.357	38622.04
684.705	38490.51
685.053	38713.33
685.4	38607.35
685.748	38261.59
686.095	38428.37
686.443	38311.54
686.79	38230.63
687.138	38302.72
687.485	38264.53
687.832	38133.23
688.18	38110.64
688.527	38001.26
688.874	38050.52
689.221	37864.54
689.568	37761.94
689.915	37761.27
690.262	37785
690.609	37570.76
690.956	37658.44
691.303	37492.12
691.65	37427.94
691.997	37350.66
692.344	37012.81
692.69	37094.39
693.037	37163.09
693.383	36706.15
693.73	36943.44
694.077	36732.37
694.423	36710.22
694.769	36587.96
695.116	36535.08
695.462	36598.59
695.808	36431.58
696.155	36415.54
696.501	36201.53
696.847	36180.97
697.193	35990.69
697.539	36017.58
697.885	35732.85
698.231	35741.43
698.577	35669.34
698.923	35642.9
699.269	35478.39
699.614	35359.52
699.96	35354.32
700.306	35227.1
700.651	35183.26
700.997	35085.41
701.342	35009.25
701.688	35098.74
702.033	34649.03
702.379	34771.74
702.724	34741.91
703.069	34759.31
703.415	34407.68
703.76	34444.97
704.105	34380.79
704.45	34338.31
704.795	34212.89
705.14	34120.68
705.485	34039.56
705.83	33941.48
706.175	33950.97
706.52	33812.44
706.865	33688.61
707.209	33796.85
707.554	33465.56
707.899	33619.46
708.243	33398.44
708.588	33558.89
708.932	33411.1
709.277	33193.25
709.621	33189.86
709.966	32955.74
710.31	33060.15
710.654	32861.96
710.998	32871.68
711.342	32750.78
711.687	32712.59
712.031	32699.48
712.375	32459.03
712.719	32435.53
713.063	32581.29
713.407	32661.97
713.75	32370.9
714.094	32335.19
714.438	32169.78
714.782	32226.95
715.125	32097.91
715.469	32162.32
715.812	31984.92
716.156	31805.49
716.499	31815.66
716.843	31749.67
717.186	31607.98
717.53	31847.52
717.873	31784.7
718.216	31712.39
718.559	31536.35
718.902	31305.17
719.246	31522.11
719.589	31286.86
719.932	31264.49
720.275	31263.81
720.617	31153.76
720.96	31191.95
721.303	31134.55
721.646	31157.82
721.989	30968.23
722.331	31104.49
722.674	30835.35
723.016	30976.13
723.359	30864.95
723.701	30860.21
724.044	30672.19
724.386	30580.21
724.729	30727.33
725.071	30661.11
725.413	30480.78
725.755	30622.02
726.097	30459.99
726.439	30288.02
726.782	30379.31
727.124	30555.13
727.465	30148.36
727.807	30247.11
728.149	30260.67
728.491	30128.7
728.833	30248.7
729.175	30031.75
729.516	29860.91
729.858	29873.34
730.199	29961.02
730.541	29834.47
730.882	29767.8
731.224	29863.62
731.565	29684.42
731.906	29665.21
732.248	29620.01
732.589	29566
732.93	29375.95
733.271	29502.05
733.612	29471.77
733.953	29487.81
734.294	29412.56
734.635	29411.43
734.976	29386.8
735.317	29278.1
735.658	29170.98
735.999	29148.84
736.339	29190.87
736.68	29185.9
737.021	29051.21
737.361	29103.19
737.702	29087.82
738.042	28899.35
738.383	28930.09
738.723	29007.82
739.063	28838.56
739.404	28907.26
739.744	28760.83
740.084	28659.59
740.424	28660.04
740.764	28760.83
741.104	28687.38
741.444	28504.79
741.784	28508.18
742.124	28493.49
742.464	28485.35
742.804	28434.73
743.143	28331.01
743.483	28339.82
743.823	28193.61
744.162	28292.14
744.502	28113.61
744.841	28056.21
745.181	28137.11
745.52	27983.9
745.86	28018.7
746.199	28028.64
746.538	27966.04
746.877	28013.95
747.216	27990
747.556	28009.66
747.895	27847.86
748.234	27743
748.573	27821.42
748.911	27667.75
749.25	27704.13
749.589	27572.16
749.928	27523.8
750.267	27620.29
750.605	27436.34
750.944	27437.02
751.283	27378.49
751.621	27421.2
751.96	27207.19
752.298	27143.69
752.636	27348.43
752.975	27241.32
753.313	27013.53
753.651	27140.53
753.989	27080.19
754.327	26941.89
754.666	26843.81
755.004	26868.67
755.342	26885.39
755.679	26889.91
756.017	26654.44
756.355	26761.56
756.693	26534.44
757.031	26743.03
757.368	26483.15
757.706	26388.68
