Data from hue_190_FLMS001491_00040.txt Node
Date: Tue Feb 07 16:45:13 GMT 2017
User: dcchb
Spectrometer: FLMS00149
Trigger mode: 0
Integration Time (sec): 2.000000E-2
Scans to average: 10
Electric dark correction enabled: true
Nonlinearity correction enabled: false
Boxcar width: 0
XAxis mode: Wavelengths
Number of Pixels in Spectrum: 2048
>>>>>Begin Spectral Data<<<<<
341.393	-7.98
341.776	-7.98
342.16	-7.98
342.543	-51.59
342.927	-69.22
343.31	-77.58
343.693	-49.11
344.077	-52.27
344.46	-57.92
344.843	-59.96
345.226	-49.11
345.61	-27.87
345.993	-7.75
346.376	-23.12
346.759	4.22
347.142	15.3
347.525	42.87
347.908	52.36
348.291	94.84
348.674	89.64
349.057	105.46
349.44	119.02
349.823	137.1
350.206	165.12
350.588	189.98
350.971	198.12
351.354	219.58
351.737	232.47
352.119	255.52
352.502	268.62
352.884	279.92
353.267	280.15
353.65	281.5
354.032	311.11
354.414	302.52
354.797	308.4
355.179	322.18
355.562	309.07
355.944	316.76
356.326	324.21
356.709	337.55
357.091	326.02
357.473	327.83
357.855	330.54
358.238	342.07
358.62	333.03
359.002	342.52
359.384	347.49
359.766	345.91
360.148	328.06
360.53	339.36
360.912	321.05
361.294	335.74
361.676	338.68
362.057	339.13
362.439	299.58
362.821	323.31
363.203	330.54
363.584	323.31
363.966	349.07
364.348	333.25
364.729	317.44
365.111	319.47
365.493	324.21
365.874	320.37
366.256	313.82
366.637	320.15
367.019	312.01
367.4	329.64
367.781	315.4
368.163	301.16
368.544	300.94
368.925	299.58
369.306	297.32
369.688	336.64
370.069	293.48
370.45	294.16
370.831	314.95
371.212	312.69
371.593	309.98
371.974	292.58
372.355	319.92
372.736	318.57
373.117	318.11
373.498	314.72
373.879	314.5
374.26	320.15
374.641	319.69
375.021	303.2
375.402	323.31
375.783	326.7
376.163	323.31
376.544	344.78
376.925	321.95
377.305	326.7
377.686	320.6
378.066	323.08
378.447	301.62
378.827	327.6
379.208	312.24
379.588	318.79
379.968	333.03
380.349	319.69
380.729	333.48
381.109	338
381.489	310.66
381.87	330.09
382.25	314.05
382.63	346.81
383.01	326.25
383.39	334.84
383.77	335.29
384.15	336.87
384.53	336.87
384.91	337.77
385.29	318.79
385.67	351.78
386.049	350.88
386.429	359.47
386.809	348.62
387.189	347.72
387.568	363.31
387.948	344.78
388.328	344.78
388.707	346.36
389.087	355.85
389.466	370.09
389.846	353.37
390.225	353.14
390.605	363.76
390.984	356.08
391.363	353.14
391.743	356.53
392.122	374.38
392.501	362.18
392.881	373.03
393.26	371.67
393.639	370.09
394.018	370.99
394.397	372.8
394.776	372.35
395.155	376.42
395.534	388.62
395.913	382.97
396.292	374.83
396.671	370.32
397.05	390.65
397.429	382.52
397.808	384.1
398.186	390.2
398.565	408.96
398.944	396.76
399.323	377.32
399.701	385
400.08	395.85
400.458	370.32
400.837	418.45
401.215	408.73
401.594	418.45
401.972	427.26
402.351	418.68
402.729	430.43
403.107	416.19
403.486	412.12
403.864	433.82
404.242	421.84
404.62	427.71
404.999	440.37
405.377	428.39
405.755	423.42
406.133	454.38
406.511	460.48
406.889	448.96
407.267	465.45
407.645	459.8
408.023	476.75
408.401	471.33
408.779	466.58
409.156	495.74
409.534	495.06
409.912	499.58
410.29	503.19
410.667	515.17
411.045	513.59
411.422	520.37
411.8	530.76
412.178	542.97
412.555	531.21
412.933	530.31
413.31	556.98
413.687	554.72
414.065	561.5
414.442	587.94
414.819	586.58
415.197	584.55
415.574	576.86
415.951	607.6
416.328	601.72
416.705	622.74
417.082	611.44
417.46	634.49
417.837	650.08
418.214	637.2
418.591	643.3
418.967	676.3
419.344	654.38
419.721	689.18
420.098	692.57
420.475	695.96
420.852	675.17
421.228	713.13
421.605	757.42
421.982	733.92
422.358	775.95
422.735	763.98
423.111	759.46
423.488	795.84
423.864	828.61
424.241	825.9
424.617	832.9
424.994	836.29
425.37	856.63
425.746	867.48
426.123	880.58
426.499	872.67
426.875	876.52
427.251	902.05
427.627	933.69
428.003	912.67
428.379	945.89
428.756	945.44
429.132	986.57
429.507	975.5
429.883	983.86
430.259	985.67
430.635	1028.15
431.011	1040.13
431.387	1035.16
431.763	1059.79
432.138	1052.11
432.514	1072.9
432.89	1092.33
433.265	1101.37
433.641	1122.16
434.016	1144.53
434.392	1176.4
434.767	1214.59
435.143	1197.64
435.518	1204.64
435.894	1236.51
436.269	1280.8
436.644	1305.21
437.02	1328.71
437.395	1301.36
437.77	1354.7
438.145	1403.73
438.52	1396.05
438.895	1393.11
439.271	1398.08
439.646	1436.05
440.021	1476.5
440.395	1489.38
440.77	1467.69
441.145	1526.67
441.52	1517.18
441.895	1565.99
442.27	1580.23
442.645	1573.67
443.019	1628.14
443.394	1600.57
443.769	1654.8
444.143	1643.5
444.518	1661.35
444.892	1708.59
445.267	1703.84
445.641	1724.86
446.016	1742.03
446.39	1766.21
446.764	1778.64
447.139	1759.43
447.513	1762.37
447.887	1808.47
448.262	1803.95
448.636	1840.33
449.01	1841.69
449.384	1863.38
449.758	1895.7
450.132	1894.34
450.506	1900.22
450.88	1927.11
451.254	1924.62
451.628	1929.37
452.002	1977.5
452.376	1989.93
452.75	2021.8
453.123	2032.42
453.497	2086.88
453.871	2071.06
454.244	2122.36
454.618	2163.04
454.992	2135.92
455.365	2165.52
455.739	2212.53
456.112	2229.02
456.486	2268.57
456.859	2243.71
457.232	2343.6
457.606	2341.79
457.979	2386.53
458.352	2415.46
458.725	2428.11
459.099	2456.14
459.472	2508.34
459.845	2518.06
460.218	2552.4
460.591	2559.64
460.964	2594.89
461.337	2639.18
461.71	2701.1
462.083	2702.68
462.456	2726.64
462.829	2729.12
463.201	2805.96
463.574	2801.44
463.947	2859.29
464.32	2951.26
464.692	2916.46
465.065	2979.74
465.438	2991.72
465.81	3075.55
466.183	3081.43
466.555	3163.24
466.928	3165.5
467.3	3191.26
467.672	3217.7
468.045	3295.66
468.417	3325.04
468.789	3373.63
469.161	3397.35
469.534	3458.37
469.906	3561.87
470.278	3567.52
470.65	3630.34
471.022	3697.01
471.394	3741.98
471.766	3814.74
472.138	3845.7
472.51	3906.04
472.882	3956.66
473.253	4015.42
473.625	4070.1
473.997	4193.72
474.369	4158.46
474.74	4292.47
475.112	4286.37
475.484	4403.43
475.855	4483.2
476.227	4552.58
476.598	4656.08
476.97	4663.76
477.341	4748.73
477.713	4844.55
478.084	4938.78
478.455	5013.81
478.827	5093.35
479.198	5199.34
479.569	5253.58
479.94	5359.79
480.311	5384.65
480.682	5537.41
481.053	5697.41
481.424	5820.57
481.795	5839.32
482.166	5910.06
482.537	5985.53
482.908	6168.81
483.279	6189.6
483.65	6306.2
484.021	6399.31
484.391	6458.06
484.762	6571.06
485.133	6634.11
485.503	6709.36
485.874	6867.55
486.244	6944.15
486.615	7123.13
486.985	7122.68
487.356	7247.42
487.726	7242
488.097	7479.73
488.467	7492.61
488.837	7713.17
489.207	7745.26
489.578	7875.65
489.948	7987.97
490.318	8078.59
490.688	8058.02
491.058	8197.68
491.428	8262.09
491.798	8328.52
492.168	8498.69
492.538	8469.76
492.908	8653.26
493.278	8709.98
493.648	8782.98
494.017	8865.68
494.387	8920.82
494.757	8976.19
495.126	9060.71
495.496	9131.89
495.866	9184.77
496.235	9291.44
496.605	9344.99
496.974	9307.48
497.344	9452.56
497.713	9500.92
498.082	9536.4
498.452	9544.76
498.821	9568.72
499.19	9629.05
499.559	9733.01
499.928	9782.05
500.298	9824.76
500.667	9877.86
501.036	9892.32
501.405	9900.46
501.774	9915.15
502.143	10033.11
502.512	10091.19
502.88	10097.07
503.249	10136.39
503.618	10190.4
503.987	10163.5
504.356	10199.21
504.724	10274.69
505.093	10232.2
505.462	10210.06
505.83	10331.41
506.199	10382.71
506.567	10432.2
506.936	10434.01
507.304	10549.26
507.672	10556.71
508.041	10524.85
508.409	10648.69
508.777	10643.94
509.145	10739.99
509.514	10624.96
509.882	10644.85
510.25	10754.67
510.618	10740.89
510.986	10695.47
511.354	10800.32
511.722	10821.57
512.09	10900.89
512.458	10846.65
512.826	10905.18
513.193	10926.65
513.561	10895.46
513.929	10873.99
514.297	10998.96
514.664	11018.62
515.032	11012.97
515.4	11091.39
515.767	11104.04
516.135	11013.43
516.502	10918.51
516.869	11023.37
517.237	11072.63
517.604	11001.45
517.972	11080.32
518.339	11111.73
518.706	11093.2
519.073	11063.59
519.44	11086.19
519.808	11099.52
520.175	11094.1
520.542	11180.43
520.909	11198.73
521.276	11182.91
521.643	11233.53
522.009	11227.2
522.376	11183.36
522.743	11182.69
523.11	11246.41
523.477	11296.58
523.843	11216.36
524.21	11332.96
524.577	11299.75
524.943	11322.34
525.31	11307.2
525.676	11358.95
526.043	11355.11
526.409	11326.86
526.776	11424.26
527.142	11308.11
527.508	11304.72
527.874	11323.47
528.241	11308.33
528.607	11305.62
528.973	11334.55
529.339	11218.84
529.705	11275.34
530.071	11233.08
530.437	11214.1
530.803	11261.78
531.169	11274.89
531.535	11126.19
531.901	11111.28
532.267	11168.22
532.632	11119.64
532.998	11121.67
533.364	11079.86
533.73	11022.01
534.095	11055.68
534.461	10969.36
534.826	10904.73
535.192	10953.77
535.557	10894.11
535.923	10877.84
536.288	10758.29
536.653	10793.32
537.019	10764.62
537.384	10714.22
537.749	10642.81
538.114	10598.75
538.479	10579.76
538.845	10507.22
539.21	10430.62
539.575	10432.88
539.94	10435.36
540.305	10335.93
540.67	10293.67
541.034	10239.66
541.399	10267.91
541.764	10176.38
542.129	10171.41
542.494	10076.73
542.858	10025.65
543.223	10024.75
543.587	9987.24
543.952	9830.41
544.316	9796.51
544.681	9762.38
545.045	9716.51
545.41	9730.07
545.774	9645.33
546.138	9649.85
546.503	9593.12
546.867	9479.91
547.231	9601.48
547.595	9512.45
547.959	9428.38
548.324	9336.41
548.688	9231.33
549.052	9192.46
549.416	9288.5
549.779	9229.29
550.143	9104.77
550.507	9095.74
550.871	9091.89
551.235	9028.17
551.599	9040.14
551.962	8970.09
552.326	8834.05
552.689	8857.32
553.053	8773.94
553.417	8762.18
553.78	8781.62
554.143	8704.11
554.507	8693.03
554.87	8658.23
555.234	8671.34
555.597	8545.47
555.96	8509.99
556.323	8535.98
556.686	8462.98
557.05	8517.67
557.413	8472.93
557.776	8443.32
558.139	8436.32
558.502	8368.75
558.865	8256.89
559.228	8294.63
559.59	8339.15
559.953	8283.33
560.316	8282.88
560.679	8273.84
561.041	8204.91
561.404	8238.36
561.767	8267.06
562.129	8123.33
562.492	8170.11
562.854	8173.73
563.217	8149.09
563.579	8198.81
563.941	8220.28
564.304	8148.19
564.666	8180.73
565.028	8146.16
565.39	8100.73
565.753	8102.09
566.115	8106.38
566.477	8159.49
566.839	8099.83
567.201	8137.79
567.563	8087.63
567.925	8157.23
568.287	8099.15
568.648	8082.2
569.01	8130.56
569.372	8098.47
569.734	8072.03
570.095	8124.24
570.457	8119.49
570.819	8095.76
571.18	8036.78
571.542	8073.62
571.903	8091.02
572.265	8113.61
572.626	8093.28
572.987	8107.29
573.349	8017.8
573.71	8110
574.071	8071.13
574.432	8065.71
574.794	8123.11
575.155	8084.91
575.516	8065.25
575.877	8091.02
576.238	8037.01
576.599	8076.1
576.96	8095.99
577.32	8087.17
577.681	8070.45
578.042	8061.64
578.403	8007.18
578.763	8025.26
579.124	8055.08
579.485	8050.11
579.845	8049.66
580.206	8067.51
580.566	8078.14
580.927	8039.04
581.287	8045.82
581.648	7988.87
582.008	8010.57
582.368	8001.07
582.728	8006.05
583.089	7943.45
583.449	7955.43
583.809	7906.61
584.169	7910.23
584.529	7845.6
584.889	7946.84
585.249	7913.39
585.609	7913.17
585.969	7940.96
586.329	7847.41
586.688	7892.6
587.048	7909.1
587.408	7846.95
587.768	7892.15
588.127	7885.6
588.487	7831.14
588.846	7852.6
589.206	7758.82
589.565	7785.26
589.925	7870
590.284	7843.34
590.643	7831.59
591.003	7857.12
591.362	7863.23
591.721	7830.23
592.08	7835.43
592.44	7823.9
592.799	7832.94
593.158	7784.58
593.517	7756.34
593.876	7786.39
594.235	7775.09
594.593	7711.14
594.952	7703.46
595.311	7692.83
595.67	7760.18
596.029	7728.99
596.387	7775.09
596.746	7698.94
597.104	7690.35
597.463	7674.53
597.822	7688.54
598.18	7705.94
598.538	7637.02
598.897	7718.82
599.255	7644.47
599.613	7721.76
599.972	7664.36
600.33	7689.22
600.688	7592.05
601.046	7624.81
601.404	7641.08
601.762	7608.32
602.12	7724.92
602.478	7634.08
602.836	7654.64
603.194	7634.53
603.552	7669.56
603.91	7518.6
604.268	7639.05
604.625	7536.68
604.983	7614.42
605.341	7555.66
605.698	7639.5
606.056	7552.05
606.413	7596.57
606.771	7622.78
607.128	7637.24
607.485	7579.17
607.843	7604.48
608.2	7625.04
608.557	7654.87
608.914	7618.03
609.272	7686.28
609.629	7627.3
609.986	7707.07
610.343	7629.33
610.7	7698.94
611.057	7662.55
611.414	7692.61
611.771	7631.82
612.127	7668.43
612.484	7691.93
612.841	7684.25
613.198	7669.56
613.554	7709.33
613.911	7700.07
614.267	7663.68
614.624	7666.62
614.98	7658.26
615.337	7741.87
615.693	7754.98
616.05	7747.07
616.406	7749.56
616.762	7713.62
617.118	7685.38
617.475	7668.88
617.831	7725.83
618.187	7743.45
618.543	7654.19
618.899	7778.93
619.255	7833.85
619.611	7673.63
619.967	7770.57
620.323	7778.48
620.678	7711.37
621.034	7722.44
621.39	7727.41
621.746	7721.31
622.101	7783.68
622.457	7768.99
622.812	7692.61
623.168	7743.45
623.523	7739.61
623.879	7786.62
624.234	7751.14
624.589	7803.79
624.945	7716.11
625.3	7733.29
625.655	7726.73
626.01	7697.13
626.365	7751.82
626.72	7689.9
627.075	7766.96
627.43	7681.08
627.785	7675.43
628.14	7713.85
628.495	7732.83
628.85	7741.42
629.205	7661.65
629.559	7771.93
629.914	7688.09
630.269	7697.35
630.623	7636.11
630.978	7630.01
631.332	7629.11
631.687	7712.72
632.041	7642.21
632.396	7663.46
632.75	7641.76
633.104	7662.78
633.459	7544.82
633.813	7559.96
634.167	7575.78
634.521	7585.04
634.875	7577.81
635.229	7542.56
635.583	7548.21
635.937	7567.41
636.291	7481.99
636.645	7511.14
636.999	7488.32
637.352	7493.29
637.706	7470.47
638.06	7502.56
638.413	7487.87
638.767	7459.85
639.121	7477.25
639.474	7421.88
639.828	7420.75
640.181	7461.88
640.534	7412.62
640.888	7419.62
641.241	7389.34
641.594	7485.38
641.947	7430.47
642.301	7465.04
642.654	7403.35
643.007	7406.06
643.36	7400.19
643.713	7404.03
644.066	7421.2
644.419	7358.83
644.771	7289.23
645.124	7272.05
645.477	7191.15
645.83	7194.54
646.182	7127.43
646.535	7105.05
646.888	7168.1
647.24	7143.7
647.593	7137.59
647.945	7144.15
648.298	7110.48
648.65	7061.21
649.002	7040.42
649.355	7132.85
649.707	7121.55
650.059	7130.36
650.411	7185.5
650.763	7209.23
651.115	7294.43
651.467	7303.01
651.819	7238.38
652.171	7284.03
652.523	7315.44
652.875	7307.31
653.227	7267.08
653.578	7291.72
653.93	7290.59
654.282	7261.43
654.633	7222.11
654.985	7260.76
655.337	7270.25
655.688	7278.83
656.039	7341.43
656.391	7234.09
656.742	7255.11
657.094	7266.86
657.445	7285.84
657.796	7288.78
658.147	7326.06
658.498	7288.33
658.849	7313.64
659.2	7245.84
659.551	7262.79
659.902	7347.08
660.253	7312.96
660.604	7351.83
660.955	7257.82
661.306	7302.11
661.656	7271.6
662.007	7362.22
662.358	7357.93
662.708	7352.5
663.059	7334.65
663.409	7292.17
663.76	7365.39
664.11	7350.24
664.461	7354.09
664.811	7344.82
665.161	7395.67
665.511	7322.45
665.862	7341.21
666.212	7374.42
666.562	7433.86
666.912	7358.61
667.262	7344.14
667.612	7397.25
667.962	7416.91
668.312	7381.88
668.662	7439.96
669.011	7306.4
669.361	7348.21
669.711	7311.38
670.06	7394.76
670.41	7352.5
670.76	7331.71
671.109	7400.19
671.459	7289
671.808	7302.11
672.157	7312.73
672.507	7257.82
672.856	7269.12
673.205	7304.14
673.554	7346.63
673.904	7280.19
674.253	7298.04
674.602	7297.14
674.951	7215.11
675.3	7157.26
675.649	7298.27
675.998	7257.37
676.346	7269.12
676.695	7270.02
677.044	7279.06
677.393	7292.62
677.741	7289
678.09	7160.19
678.438	7187.09
678.787	7185.73
679.135	7180.08
679.484	7128.56
679.832	7167.88
680.181	7126.07
680.529	7143.24
680.877	7109.35
681.225	7110.48
681.573	7101.44
681.922	7079.29
682.27	7095.11
682.618	7060.08
682.966	7040.87
683.314	7055.79
683.661	7086.52
684.009	6973.08
684.357	6994.77
684.705	6997.71
685.053	6999.97
685.4	6943.93
685.748	6899.18
686.095	6858.28
686.443	6906.64
686.79	6899.18
687.138	6936.02
687.485	6817.6
687.832	6865.51
688.18	6874.55
688.527	6809.47
688.874	6752.52
689.221	6806.3
689.568	6719.98
689.915	6671.84
690.262	6719.07
690.609	6708.45
690.956	6679.53
691.303	6642.69
691.65	6609.02
691.997	6563.82
692.344	6540.55
692.69	6536.93
693.037	6554.56
693.383	6579.19
693.73	6533.77
694.077	6464.17
694.423	6426.43
694.769	6458.06
695.116	6393.89
695.462	6376.03
695.808	6389.37
696.155	6325.64
696.501	6336.03
696.847	6316.6
697.193	6257.39
697.539	6291.97
697.885	6221.69
698.231	6193.44
698.577	6187.34
698.923	6153.89
699.269	6133.1
699.614	6098.75
699.96	6088.81
700.306	6109.37
700.651	6045.65
700.997	6008.58
701.342	6006.1
701.688	5972.65
702.033	5960
702.379	5952.54
702.724	5962.94
703.069	5940.34
703.415	5890.4
703.76	5891.75
704.105	5846.78
704.45	5814.01
704.795	5765.65
705.14	5835.93
705.485	5791.87
705.83	5735.15
706.175	5780.79
706.52	5720.91
706.865	5717.52
707.209	5652.21
707.554	5673
707.899	5684.07
708.243	5637.52
708.588	5617.63
708.932	5611.76
709.277	5572.44
709.621	5548.48
709.966	5520.46
710.31	5628.03
710.654	5528.15
710.998	5484.76
711.342	5513.23
711.687	5485.89
712.031	5486.34
712.375	5472.78
712.719	5455.15
713.063	5461.48
713.407	5461.25
713.75	5441.14
714.094	5438.88
714.438	5342.61
714.782	5397.98
715.125	5380.58
715.469	5392.78
715.812	5351.88
716.156	5333.8
716.499	5331.31
716.843	5338.09
717.186	5308.72
717.53	5319.11
717.873	5310.07
718.216	5324.08
718.559	5310.98
718.902	5259.9
719.246	5296.29
719.589	5310.3
719.932	5263.29
720.275	5300.58
720.617	5206.57
720.96	5231.66
721.303	5237.31
721.646	5326.34
721.989	5182.39
722.331	5231.2
722.674	5221.49
723.016	5244.09
723.359	5231.43
723.701	5218.1
724.044	5151.43
724.386	5174.71
724.729	5186.91
725.071	5213.8
725.413	5184.88
725.755	5158.21
726.097	5147.36
726.439	5141.94
726.782	5113.69
727.124	5189.17
727.465	5175.61
727.807	5108.72
728.149	5104.2
728.491	5138.33
728.833	5108.95
729.175	5150.53
729.516	5174.48
729.858	5148.95
730.199	5160.02
730.541	5157.08
730.882	5164.77
731.224	5208.15
731.565	5098.55
731.906	5164.31
732.248	5117.08
732.589	5127.93
732.93	5134.94
733.271	5157.99
733.612	5108.04
733.953	5090.87
734.294	5118.21
734.635	5134.94
734.976	5129.96
735.317	5187.59
735.658	5173.13
735.999	5149.85
736.339	5155.73
736.68	5139
737.021	5221.49
737.361	5178.32
737.702	5180.36
738.042	5225.78
738.383	5210.19
738.723	5239.79
739.063	5215.39
739.404	5250.41
739.744	5250.19
740.084	5243.18
740.424	5259.45
740.764	5283.63
741.104	5288.83
741.444	5279.56
741.784	5278.89
742.124	5370.41
742.464	5309.39
742.804	5335.61
743.143	5375.38
743.483	5388.71
743.823	5413.8
744.162	5416.96
744.502	5405.66
744.841	5400.01
745.181	5489.73
745.52	5558.88
745.86	5566.11
746.199	5581.48
746.538	5621.93
746.877	5671.19
747.216	5724.52
747.556	5728.82
747.895	5781.47
748.234	5828.93
748.573	5841.13
748.911	5894.24
749.25	5989.15
749.589	5980.11
749.928	6048.58
750.267	6126.55
750.605	6193.66
750.944	6262.59
751.283	6322.48
751.621	6398.41
751.96	6409.93
752.298	6555.46
752.636	6662.81
752.975	6698.06
753.313	6761.11
753.651	6939.86
753.989	6973.98
754.327	7121.32
754.666	7198.16
755.004	7352.28
755.342	7465.5
755.679	7557.24
756.017	7677.24
756.355	7869.78
756.693	8001.75
757.031	8157.68
757.368	8182.99
757.706	8370.78
758.044	8494.4
758.381	8693.26
758.719	8802.18
759.056	9053.25
759.394	9109.75
759.731	9227.48
760.068	9389.06
760.405	9549.73
760.743	9725.78
761.08	9862.72
761.417	10039.67
761.754	10233.33
762.091	10419.32
762.428	10508.58
762.765	10719.42
763.102	10954.44
763.438	11040.54
763.775	11278.5
764.112	11417.26
764.449	11569.79
764.785	11726.17
765.122	11872.39
765.458	12020.4
765.795	12218.82
766.131	12359.6
766.467	12565.25
766.804	12648.41
