Data from hue_280_FLMS001491_00031.txt Node
Date: Tue Feb 07 15:55:10 GMT 2017
User: dcchb
Spectrometer: FLMS00149
Trigger mode: 0
Integration Time (sec): 2.000000E-2
Scans to average: 10
Electric dark correction enabled: true
Nonlinearity correction enabled: false
Boxcar width: 0
XAxis mode: Wavelengths
Number of Pixels in Spectrum: 2048
>>>>>Begin Spectral Data<<<<<
341.393	1.91
341.776	1.91
342.16	1.91
342.543	-66.11
342.927	-68.6
343.31	-59.33
343.693	-75.83
344.077	-83.29
344.46	-68.37
344.843	-54.36
345.226	-45.78
345.61	-41.48
345.993	-17.98
346.376	-0.35
346.759	4.62
347.142	28.35
347.525	44.84
347.908	73.32
348.291	88.46
348.674	81.68
349.057	125.52
349.44	135.69
349.823	137.95
350.206	140.21
350.588	173.2
350.971	215.46
351.354	221.56
351.737	226.53
352.119	237.61
352.502	252.52
352.884	254.56
353.267	269.24
353.65	296.59
354.032	273.76
354.414	283.26
354.797	276.02
355.179	290.71
355.562	304.95
355.944	324.61
356.326	307.44
356.709	314.67
357.091	317.6
357.473	310.37
357.855	314.89
358.238	321.67
358.62	336.59
359.002	325.97
359.384	356.47
359.766	325.06
360.148	315.57
360.53	332.75
360.912	319.86
361.294	326.87
361.676	336.36
362.057	322.12
362.439	317.6
362.821	327.77
363.203	308.11
363.584	322.58
363.966	317.83
364.348	316.7
364.729	327.77
365.111	307.66
365.493	327.55
365.874	308.11
366.256	293.65
366.637	303.37
367.019	313.31
367.4	298.17
367.781	312.41
368.163	298.17
368.544	301.56
368.925	301.79
369.306	310.37
369.688	317.83
370.069	316.02
370.45	286.19
370.831	301.79
371.212	302.46
371.593	297.04
371.974	327.77
372.355	289.81
372.736	291.62
373.117	303.14
373.498	298.17
373.879	318.28
374.26	295.91
374.641	296.14
375.021	318.96
375.402	335.68
375.783	321.9
376.163	311.5
376.544	328
376.925	301.33
377.305	329.81
377.686	341.78
378.066	320.09
378.447	315.34
378.827	312.18
379.208	329.36
379.588	316.93
379.968	302.01
380.349	318.51
380.729	303.82
381.109	337.72
381.489	329.36
381.87	320.77
382.25	327.32
382.63	326.87
383.01	341.56
383.39	325.29
383.77	333.2
384.15	325.06
384.53	331.62
384.91	345.4
385.29	338.85
385.67	353.76
386.049	331.16
386.429	342.91
386.809	342.69
387.189	350.15
387.568	349.24
387.948	351.95
388.328	353.76
388.707	342.24
389.087	329.58
389.466	368.45
389.846	344.95
390.225	365.06
390.605	353.08
390.984	348.79
391.363	376.13
391.743	343.37
392.122	376.59
392.501	383.59
392.881	365.74
393.26	367.09
393.639	375
394.018	369.81
394.397	376.36
394.776	373.42
395.155	377.72
395.534	370.71
395.913	381.11
396.292	387.66
396.671	405.51
397.05	388.11
397.429	382.24
397.808	392.18
398.186	378.85
398.565	403.48
398.944	400.54
399.323	406.64
399.701	397.6
400.08	403.03
400.458	408
400.837	429.69
401.215	422.01
401.594	396.92
401.972	422.23
402.351	406.42
402.729	405.74
403.107	436.47
403.486	430.6
403.864	433.76
404.242	434.89
404.62	438.05
404.999	441.67
405.377	432.4
405.755	441.22
406.133	452.29
406.511	435.12
406.889	470.14
407.267	461.33
407.645	455
408.023	487.32
408.401	465.4
408.779	466.53
409.156	496.36
409.534	488.67
409.912	488
410.29	511.05
410.667	506.07
411.045	521.44
411.422	515.57
411.8	521.89
412.178	522.57
412.555	550.82
412.933	537.71
413.31	565.28
413.687	565.73
414.065	564.15
414.442	580.65
414.819	583.13
415.197	578.16
415.574	599.41
415.951	620.65
416.328	617.48
416.705	628.78
417.082	621.78
417.46	630.59
417.837	630.36
418.214	642.12
418.591	631.27
418.967	665.62
419.344	658.16
419.721	697.03
420.098	673.53
420.475	700.87
420.852	690.7
421.228	713.75
421.605	718.95
421.982	710.59
422.358	718.05
422.735	752.62
423.111	745.16
423.488	748.55
423.864	793.52
424.241	779.74
424.617	787.87
424.994	792.85
425.37	805.73
425.746	796.01
426.123	814.77
426.499	826.29
426.875	850.92
427.251	833.98
427.627	867.19
428.003	884.37
428.379	879.85
428.756	889.79
429.132	884.6
429.507	904.48
429.883	904.03
430.259	944.25
430.635	944.03
431.011	911.04
431.387	977.93
431.763	982.9
432.138	948.55
432.514	986.06
432.89	1021.09
433.265	1020.86
433.641	1034.87
434.016	1021.99
434.392	1055.21
434.767	1090.01
435.143	1106.74
435.518	1087.75
435.894	1120.3
436.269	1143.57
436.644	1170.46
437.02	1164.36
437.395	1162.33
437.77	1191.25
438.145	1196.23
438.52	1190.58
438.895	1239.61
439.271	1221.54
439.646	1270.35
440.021	1250.24
440.395	1248.88
440.77	1257.01
441.145	1303.34
441.52	1333.85
441.895	1327.52
442.27	1334.3
442.645	1310.35
443.019	1328.88
443.394	1348.09
443.769	1340.63
444.143	1313.06
444.518	1363
444.892	1388.08
445.267	1386.5
445.641	1419.5
446.016	1385.83
446.39	1395.54
446.764	1427.18
447.139	1399.84
447.513	1445.48
447.887	1437.58
448.262	1412.27
448.636	1486.39
449.01	1493.17
449.384	1483.68
449.758	1489.33
450.132	1494.3
450.506	1511.7
450.88	1511.02
451.254	1524.58
451.628	1540.17
452.002	1561.19
452.376	1565.26
452.75	1557.12
453.123	1568.87
453.497	1589.44
453.871	1599.6
454.244	1608.64
454.618	1591.02
454.992	1640.28
455.365	1668.3
455.739	1686.61
456.112	1690.45
456.486	1695.65
456.859	1702.88
457.232	1737
457.606	1734.29
457.979	1740.39
458.352	1761.63
458.725	1826.04
459.099	1813.38
459.472	1819.71
459.845	1854.06
460.218	1848.19
460.591	1859.94
460.964	1849.32
461.337	1883.89
461.71	1904.91
462.083	1922.76
462.456	1939.48
462.829	1955.08
463.201	1972.02
463.574	1979.71
463.947	2004.34
464.32	2036.66
464.692	2054.06
465.065	2047.95
465.438	2083.21
465.81	2143.55
466.183	2118.46
466.555	2152.13
466.928	2164.11
467.3	2166.14
467.672	2193.26
468.045	2245.92
468.417	2258.12
468.789	2250.44
469.161	2245.69
469.534	2301.51
469.906	2301.73
470.278	2327.04
470.65	2350.77
471.022	2363.88
471.394	2397.32
471.766	2457.89
472.138	2440.26
472.51	2542.86
472.882	2533.14
473.253	2523.65
473.625	2566.81
473.997	2623.76
474.369	2583.08
474.74	2670.54
475.112	2660.59
475.484	2739.24
475.855	2765.22
476.227	2773.36
476.598	2818.78
476.97	2840.02
477.341	2910.53
477.713	2943.75
478.084	2930.42
478.455	2972.22
478.827	3026.01
479.198	3092.22
479.569	3122.5
479.94	3186.91
480.311	3161.15
480.682	3233.01
481.053	3293.8
481.424	3296.51
481.795	3312.55
482.166	3396.85
482.537	3400.91
482.908	3455.6
483.279	3483.62
483.65	3539.67
484.021	3598.42
484.391	3619.66
484.762	3648.36
485.133	3682.94
485.503	3710.96
485.874	3790.96
486.244	3765.88
486.615	3839.32
486.985	3872.09
487.356	3935.36
487.726	3918.41
488.097	4009.48
488.467	3959.09
488.837	4136.71
489.207	4111.4
489.578	4159.76
489.948	4190.72
490.318	4208.35
490.688	4268.01
491.058	4316.6
491.428	4344.84
491.798	4378.74
492.168	4454.22
492.538	4468.23
492.908	4512.3
493.278	4576.25
493.648	4552.3
494.017	4562.46
494.387	4599.07
494.757	4645.4
495.126	4717.04
495.496	4655.8
495.866	4685.17
496.235	4754.32
496.605	4813.31
496.974	4777.37
497.344	4786.19
497.713	4793.65
498.082	4884.72
498.452	4922.23
498.821	4931.27
499.19	4937.6
499.559	4930.59
499.928	4963.13
500.298	5018.95
500.667	5039.06
501.036	5037.03
501.405	5067.99
501.774	5049.01
502.143	5138.49
502.512	5159.06
502.88	5156.57
503.249	5140.75
503.618	5161.32
503.987	5171.04
504.356	5224.59
504.724	5251.71
505.093	5278.6
505.462	5274.76
505.83	5311.82
506.199	5285.16
506.567	5384.82
506.936	5367.42
507.304	5395.66
507.672	5399.96
508.041	5400.41
508.409	5455.32
508.777	5457.58
509.145	5520.18
509.514	5488.54
509.882	5522.21
510.25	5523.8
510.618	5545.04
510.986	5551.59
511.354	5626.17
511.722	5653.74
512.09	5685.83
512.458	5635.88
512.826	5635.2
513.193	5699.84
513.561	5712.49
513.929	5731.93
514.297	5717.24
514.664	5754.3
515.032	5764.92
515.4	5829.78
515.767	5855.54
516.135	5835.43
516.502	5849.44
516.869	5919.72
517.237	5859.83
517.604	5869.1
517.972	5853.96
518.339	5905.48
518.706	5963.78
519.073	5926.27
519.44	5934.63
519.808	6026.38
520.175	5961.52
520.542	6021.41
520.909	6029.77
521.276	6050.56
521.643	6119.49
522.009	6058.7
522.376	6147.06
522.743	6129.43
523.11	6238.58
523.477	6282.42
523.843	6324
524.21	6293.27
524.577	6260.5
524.943	6319.48
525.31	6307.73
525.676	6365.81
526.043	6393.83
526.409	6428.86
526.776	6472.02
527.142	6473.6
527.508	6500.49
527.874	6533.94
528.241	6526.93
528.607	6546.82
528.973	6554.73
529.339	6547.72
529.705	6661.17
530.071	6633.14
530.437	6694.84
530.803	6718.11
531.169	6733.93
531.535	6728.74
531.901	6782.97
532.267	6777.32
532.632	6811.9
532.998	6846.92
533.364	6843.31
533.73	6869.97
534.095	6897.77
534.461	6853.7
534.826	6935.06
535.192	6883.76
535.557	6949.75
535.923	6946.36
536.288	6951.33
536.653	7034.72
537.019	7003.76
537.384	7044.43
537.749	7033.59
538.114	7044.66
538.479	7088.5
538.845	7072.91
539.21	7037.65
539.575	7082.85
539.94	7106.58
540.305	7183.64
540.67	7133.92
541.034	7076.3
541.399	7140.7
541.764	7200.14
542.129	7194.71
542.494	7183.64
542.858	7261.83
543.223	7230.19
543.587	7253.92
543.952	7265.44
544.316	7257.99
544.681	7297.99
545.045	7321.49
545.41	7396.51
545.774	7389.96
546.138	7352.9
546.503	7351.09
546.867	7405.55
547.231	7385.44
547.595	7471.77
547.959	7481.71
548.324	7460.24
548.688	7456.17
549.052	7467.02
549.416	7499.56
549.779	7507.47
550.143	7505.89
550.507	7494.59
550.871	7506.57
551.235	7545.89
551.599	7603.74
551.962	7529.84
552.326	7569.84
552.689	7651.65
553.053	7543.86
553.417	7662.04
553.78	7706.79
554.143	7664.3
554.507	7668.82
554.87	7708.6
555.234	7761.7
555.597	7655.49
555.96	7741.59
556.323	7772.78
556.686	7713.57
557.05	7852.77
557.413	7836.28
557.776	7841.02
558.139	7863.39
558.502	7929.38
558.865	7881.47
559.228	7924.64
559.59	7916.95
559.953	7947.23
560.316	8034.24
560.679	8037.85
561.041	8128.25
561.404	8107
561.767	8135.48
562.129	8065.65
562.492	8221.35
562.854	8190.17
563.217	8172.77
563.579	8156.04
563.941	8232.65
564.304	8269.94
564.666	8260.45
565.028	8337.05
565.39	8301.58
565.753	8373.66
566.115	8365.75
566.477	8428.8
566.839	8506.77
567.201	8512.64
567.563	8477.84
567.925	8518.97
568.287	8570.04
568.648	8536.15
569.01	8607.56
569.372	8619.99
569.734	8623.6
570.095	8678.06
570.457	8701.34
570.819	8759.64
571.18	8726.2
571.542	8794.67
571.903	8795.8
572.265	8832.86
572.626	8876.25
572.987	8928.23
573.349	8952.63
573.71	8979.98
574.071	9023.36
574.432	9077.15
574.794	9104.27
575.155	9107.66
575.516	9117.37
575.877	9185.39
576.238	9150.59
576.599	9240.99
576.96	9276.24
577.32	9328.89
577.681	9330.25
578.042	9370.7
578.403	9447.08
578.763	9474.65
579.124	9508.78
579.485	9516.01
579.845	9613.41
580.206	9586.74
580.566	9630.35
580.927	9729.56
581.287	9780.63
581.648	9847.75
582.008	9878.03
582.368	9903.79
582.728	9963.68
583.089	9968.88
583.449	10026.95
583.809	10055.2
584.169	10175.65
584.529	10195.76
584.889	10312.6
585.249	10330.45
585.609	10322.31
585.969	10347.85
586.329	10437.11
586.688	10575.41
587.048	10568.63
587.408	10612.02
587.768	10680.04
588.127	10699.7
588.487	10840.49
588.846	10937.21
589.206	10870.32
589.565	10971.11
589.925	11197.32
590.284	11168.84
590.643	11227.15
591.003	11283.87
591.362	11350.08
591.721	11357.31
592.08	11429.18
592.44	11575.16
592.799	11601.38
593.158	11603.64
593.517	11739
593.876	11776.51
594.235	11771.54
594.593	11962.72
594.952	11979.67
595.311	11992.55
595.67	12078.65
596.029	12205.43
596.387	12309.15
596.746	12305.76
597.104	12340.79
597.463	12332.43
597.822	12448.36
598.18	12470.05
598.538	12472.31
598.897	12648.13
599.255	12629.37
599.613	12856.26
599.972	12745.75
600.33	12847.67
600.688	12844.51
601.046	12881.57
601.404	13016.48
601.762	13004.28
602.12	13131.73
602.478	13180.32
602.836	13140.77
603.194	13159.07
603.552	13188.68
603.91	13247.89
604.268	13364.04
604.625	13318.84
604.983	13364.04
605.341	13405.62
605.698	13472.96
606.056	13630.93
606.413	13539.86
606.771	13623.7
607.128	13644.26
607.485	13576.47
607.843	13589.8
608.2	13806.29
608.557	13840.64
608.914	13825.5
609.272	13887.87
609.629	13918.15
609.986	13956.57
610.343	13864.82
610.7	14047.19
611.057	14045.15
611.414	14122.89
611.771	14118.6
612.127	14215.09
612.484	14156.56
612.841	14254.64
613.198	14144.36
613.554	14274.98
613.911	14361.08
614.267	14384.35
614.624	14325.82
614.98	14451.02
615.337	14430.45
615.693	14430.45
616.05	14465.93
616.406	14559.49
616.762	14529.66
617.118	14516.1
617.475	14622.31
617.831	14634.74
618.187	14625.25
618.543	14618.25
618.899	14721.52
619.255	14740.05
619.611	14706.6
619.967	14785.25
620.323	14808.52
620.678	14741.86
621.034	14761.52
621.39	14806.49
621.746	14749.32
622.101	14883.78
622.457	14865.47
622.812	14821.4
623.168	14911.35
623.523	14939.14
623.879	14941.17
624.234	14890.78
624.589	14948.63
624.945	14941.63
625.3	14914.51
625.655	14915.19
626.01	14939.14
626.365	14953.38
626.72	14900.95
627.075	14825.92
627.43	14944.56
627.785	14942.08
628.14	14874.06
628.495	14896.88
628.85	15013.26
629.205	14933.27
629.559	15015.98
629.914	14977.11
630.269	14913.38
630.623	14952.7
630.978	14926.26
631.332	14962.42
631.687	14944.34
632.041	14897.56
632.396	14914.96
632.75	14819.6
633.104	14824.34
633.459	14823.21
633.813	14833.38
634.167	14800.16
634.521	14862.31
634.875	14825.7
635.229	14780.05
635.583	14676.32
635.937	14732.59
636.291	14719.49
636.645	14587.51
636.999	14745.47
637.352	14733.95
637.706	14608.98
638.06	14707.96
638.413	14644.23
638.767	14567.63
639.121	14611.92
639.474	14531.02
639.828	14577.12
640.181	14641.97
640.534	14580.96
640.888	14584.12
641.241	14516.33
641.594	14593.39
641.947	14601.52
642.301	14586.16
642.654	14507.29
643.007	14563.56
643.36	14524.24
643.713	14485.59
644.066	14553.39
644.419	14507.97
644.771	14356.11
645.124	14330.12
645.477	14237.69
645.83	14181.42
646.182	14188.88
646.535	14050.58
646.888	14109.78
647.24	14080.86
647.593	14107.3
647.945	14047.87
648.298	14024.36
648.65	14009.9
649.002	13961.77
649.355	14065.94
649.707	14069.11
650.059	14153.63
650.411	14258.03
650.763	14240.63
651.115	14447.18
651.467	14305.26
651.819	14407.63
652.171	14377.12
652.523	14367.86
652.875	14314.3
653.227	14374.41
653.578	14429.32
653.93	14337.57
654.282	14407.86
654.633	14374.64
654.985	14325.6
655.337	14296.9
655.688	14381.19
656.039	14381.19
656.391	14298.25
656.742	14290.57
657.094	14346.39
657.445	14420.96
657.796	14361.98
658.147	14347.29
658.498	14399.04
658.849	14350.68
659.2	14367.86
659.551	14386.39
659.902	14354.52
660.253	14405.82
660.604	14337.12
660.955	14262.32
661.306	14393.39
661.656	14367.4
662.007	14385.26
662.358	14430.45
662.708	14494.86
663.059	14431.13
663.409	14313.17
663.76	14475.65
664.11	14493.28
664.461	14493.96
664.811	14430.45
665.161	14483.11
665.511	14430.45
665.862	14419.15
666.212	14492.6
666.562	14438.59
666.912	14438.82
667.262	14439.49
667.612	14448.31
667.962	14448.98
668.312	14398.82
668.662	14584.57
669.011	14521.98
669.361	14430
669.711	14421.87
670.06	14464.35
670.41	14349.1
670.76	14390.45
671.109	14477.23
671.459	14346.16
671.808	14381.87
672.157	14277.69
672.507	14302.1
672.856	14353.39
673.205	14266.62
673.554	14327.86
673.904	14285.37
674.253	14346.84
674.602	14270.23
674.951	14148.2
675.3	13960.18
675.649	14221.87
675.998	14249.22
676.346	14276.56
676.695	14284.7
677.044	14166.05
677.393	14322.43
677.741	14192.04
678.09	14202.66
678.438	14146.85
678.787	14173.96
679.135	14085.83
679.484	14069.79
679.832	14023.46
680.181	14027.53
680.529	14070.69
680.877	14109.33
681.225	14026.4
681.573	14050.12
681.922	13962.9
682.27	13900.07
682.618	13878.38
682.966	13830.02
683.314	13922.44
683.661	13858.94
684.009	13710.92
684.357	13780.98
684.705	13725.84
685.053	13767.65
685.4	13802.22
685.748	13726.74
686.095	13669.57
686.443	13627.76
686.79	13549.8
687.138	13569.69
687.485	13506.18
687.832	13619.63
688.18	13542.34
688.527	13446.98
688.874	13430.93
689.221	13347.77
689.568	13357.94
689.915	13270.94
690.262	13312.74
690.609	13299.18
690.956	13144.39
691.303	13187.55
691.65	13058.51
691.997	13120.66
692.344	13021.45
692.69	12940.55
693.037	12978.29
693.383	12832.3
693.73	12908.69
694.077	12844.51
694.423	12820.78
694.769	12745.53
695.116	12739.65
695.462	12677.51
695.808	12703.27
696.155	12635.7
696.501	12565.87
696.847	12535.14
697.193	12517.74
697.539	12491.07
697.885	12435.7
698.231	12283.17
698.577	12358.64
698.923	12347.34
699.269	12185.77
699.614	12201.13
699.96	12060.57
700.306	12160.23
700.651	12044.98
700.997	11983.29
701.342	12007.24
701.688	11843.4
702.033	12024.42
702.379	11894.93
702.724	11768.38
703.069	11856.51
703.415	11697.19
703.76	11751.2
704.105	11785.55
704.45	11676.63
704.795	11517.99
705.14	11506.91
705.485	11464.66
705.83	11504.88
706.175	11457.88
706.52	11424.21
706.865	11345.11
707.209	11330.65
707.554	11358.67
707.899	11330.65
708.243	11195.96
708.588	11243.65
708.932	11220.82
709.277	11127.49
709.621	11186.25
709.966	11122.29
710.31	11132.91
710.654	10949.19
710.998	10971.34
711.342	10975.18
711.687	10940.38
712.031	10913.03
712.375	10859.93
712.719	10863.32
713.063	10879.36
713.407	10865.35
713.75	10739.48
714.094	10800.49
714.438	10737.67
714.782	10767.5
715.125	10749.19
715.469	10707.16
715.812	10610.44
716.156	10602.98
716.499	10633.94
716.843	10604.34
717.186	10550.33
717.53	10588.75
717.873	10588.3
718.216	10568.18
718.559	10506.94
718.902	10488.41
719.246	10430.33
719.589	10437.34
719.932	10474.85
720.275	10439.37
720.617	10434.85
720.96	10391.69
721.303	10440.05
721.646	10397.34
721.989	10359.37
722.331	10434.63
722.674	10368.87
723.016	10398.7
723.359	10403.22
723.701	10340.39
724.044	10271.92
724.386	10252.26
724.729	10284.8
725.071	10333.84
725.413	10252.26
725.755	10260.85
726.097	10220.85
726.439	10200.51
726.782	10151.7
727.124	10225.37
727.465	10167.52
727.807	10127.74
728.149	10132.94
728.491	10058.14
728.833	10229.66
729.175	10167.06
729.516	10093.17
729.858	10165.26
730.199	10163.45
730.541	10134.07
730.882	10114.86
731.224	10110.12
731.565	10124.35
731.906	10159.83
732.248	10188.31
732.589	10077.57
732.93	9988.08
733.271	10097.01
733.612	10101.08
733.953	10098.14
734.294	10057.01
734.635	10012.04
734.976	10044.13
735.317	10044.13
735.658	10027.63
735.999	10103.79
736.339	10079.61
736.68	10127.52
737.021	10039.83
737.361	10085.48
737.702	10123.22
738.042	10121.64
738.383	10122.54
738.723	10138.14
739.063	10168.19
739.404	10135.65
739.744	10166.16
740.084	10165.93
740.424	10169.32
740.764	10136.33
741.104	10247.06
741.444	10093.62
741.784	10141.08
742.124	10256.1
742.464	10179.94
742.804	10235.54
743.143	10200.28
743.483	10267.85
743.823	10216.1
744.162	10338.36
744.502	10393.27
744.841	10375.87
745.181	10420.84
745.52	10399.83
745.86	10498.81
746.199	10587.39
746.538	10465.36
746.877	10628.52
747.216	10717.56
747.556	10690.44
747.895	10723.66
748.234	10787.16
748.573	10851.56
748.911	10882.3
749.25	10911.68
749.589	11002.75
749.928	11088.17
750.267	11100.82
750.605	11242.97
750.944	11250.2
751.283	11327.71
751.621	11448.16
751.96	11489.74
752.298	11586.46
752.636	11672.79
752.975	11751.88
753.313	11815.83
753.651	12022.16
753.989	12000.24
754.327	12144.41
754.666	12240.68
755.004	12403.84
755.342	12502.59
755.679	12551.18
756.017	12638.64
756.355	12773.1
756.693	12926.54
757.031	13109.58
757.368	13130.83
757.706	13335.12
758.044	13389.35
758.381	13508.22
758.719	13618.72
759.056	13876.8
759.394	13922.9
759.731	14056.9
