Data from hue_10_FLMS001491_13.txt Node
Date: Mon Feb 06 15:31:29 GMT 2017
User: dcchb
Spectrometer: FLMS00149
Trigger mode: 0
Integration Time (sec): 2.000000E-2
Scans to average: 10
Electric dark correction enabled: true
Nonlinearity correction enabled: false
Boxcar width: 0
XAxis mode: Wavelengths
Number of Pixels in Spectrum: 2048
>>>>>Begin Spectral Data<<<<<
341.393	-9.18
341.776	-9.18
342.16	-9.18
342.543	-64.77
342.927	-66.13
343.31	-59.35
343.693	-88.73
344.077	-68.16
344.46	-63.42
344.843	-56.64
345.226	-41.72
345.61	-41.95
345.993	-27.94
346.376	0.76
346.759	6.19
347.142	43.7
347.525	33.98
347.908	57.94
348.291	77.37
348.674	109.23
349.057	118.73
349.44	137.03
349.823	150.59
350.206	155.56
350.588	194.43
350.971	206.86
351.354	206.41
351.737	240.53
352.119	279.17
352.502	277.59
352.884	284.6
353.267	283.69
353.65	288.44
354.032	298.38
354.414	310.59
354.797	307.2
355.179	312.84
355.562	329.12
355.944	329.57
356.326	329.57
356.709	339.96
357.091	327.31
357.473	327.76
357.855	328.44
358.238	351.71
358.62	355.78
359.002	347.42
359.384	337.25
359.766	346.29
360.148	333.86
360.53	347.42
360.912	340.87
361.294	336.35
361.676	339.28
362.057	329.79
362.439	326.86
362.821	348.55
363.203	340.41
363.584	308.1
363.966	309
364.348	314.65
364.729	318.04
365.111	320.3
365.493	310.36
365.874	327.53
366.256	331.38
366.637	303.13
367.019	302.68
367.4	318.95
367.781	313.07
368.163	324.82
368.544	324.37
368.925	309.68
369.306	318.49
369.688	295.67
370.069	293.18
370.45	299.74
370.831	306.29
371.212	319.62
371.593	316.01
371.974	321.43
372.355	307.87
372.736	312.17
373.117	313.07
373.498	317.14
373.879	308.78
374.26	313.52
374.641	302.45
375.021	292.73
375.402	319.4
375.783	325.95
376.163	299.96
376.544	334.77
376.925	327.53
377.305	323.69
377.686	333.41
378.066	311.49
378.447	319.62
378.827	331.38
379.208	319.62
379.588	331.38
379.968	338.38
380.349	338.15
380.729	310.81
381.109	332.73
381.489	322.34
381.87	324.14
382.25	332.73
382.63	313.07
383.01	326.86
383.39	322.79
383.77	337.48
384.15	351.04
384.53	337.48
384.91	346.97
385.29	344.93
385.67	377.48
386.049	350.58
386.429	354.88
386.809	345.61
387.189	358.49
387.568	356.01
387.948	356.46
388.328	339.96
388.707	354.65
389.087	347.19
389.466	350.81
389.846	348.78
390.225	371.15
390.605	357.36
390.984	342.22
391.363	376.35
391.743	369.11
392.122	352.39
392.501	346.74
392.881	350.36
393.26	357.36
393.639	352.62
394.018	363.92
394.397	374.09
394.776	357.82
395.155	362.56
395.534	382.45
395.913	383.8
396.292	377.25
396.671	369.57
397.05	381.32
397.429	370.7
397.808	374.99
398.186	381.32
398.565	368.66
398.944	368.89
399.323	383.35
399.701	374.76
400.08	391.26
400.458	380.19
400.837	391.03
401.215	386.06
401.594	397.14
401.972	394.88
402.351	372.28
402.729	383.58
403.107	401.43
403.486	394.42
403.864	382
404.242	389.68
404.62	388.32
404.999	400.07
405.377	408.66
405.755	416.34
406.133	413.86
406.511	410.24
406.889	403.24
407.267	405.05
407.645	410.02
408.023	400.53
408.401	433.52
408.779	421.99
409.156	417.47
409.534	416.8
409.912	404.14
410.29	428.55
410.667	420.86
411.045	431.03
411.422	424.93
411.8	434.2
412.178	443.01
412.555	438.72
412.933	442.56
413.31	433.75
413.687	455.44
414.065	437.36
414.442	429.45
414.819	462.9
415.197	464.03
415.574	464.71
415.951	461.09
416.328	464.03
416.705	481.65
417.082	451.6
417.46	451.6
417.837	473.07
418.214	480.98
418.591	471.94
418.967	476.23
419.344	474.2
419.721	486.17
420.098	472.39
420.475	476.91
420.852	480.98
421.228	478.72
421.605	474.2
421.982	497.02
422.358	493.18
422.735	475.55
423.111	512.61
423.488	495.21
423.864	501.99
424.241	473.52
424.617	503.35
424.994	503.12
425.37	497.92
425.746	484.14
426.123	509.22
426.499	514.2
426.875	525.95
427.251	524.14
427.627	542.67
428.003	535.66
428.379	538.38
428.756	555.78
429.132	521.65
429.507	525.49
429.883	556.23
430.259	585.83
430.635	548.09
431.011	568.88
431.387	549.67
431.763	561.43
432.138	559.62
432.514	569.56
432.89	579.28
433.265	586.28
433.641	585.61
434.016	586.74
434.392	591.71
434.767	596.45
435.143	617.92
435.518	617.24
435.894	592.84
436.269	609.33
436.644	601.65
437.02	613.63
437.395	646.62
437.77	622.89
438.145	631.71
438.52	631.25
438.895	643.91
439.271	630.35
439.646	654.3
440.021	654.98
440.395	663.57
440.77	680.07
441.145	656.79
441.52	673.74
441.895	681.2
442.27	670.35
442.645	693.17
443.019	689.11
443.394	708.09
443.769	698.82
444.143	690.01
444.518	698.6
444.892	676.68
445.267	694.53
445.641	709.67
446.016	740.18
446.39	678.71
446.764	725.72
447.139	711.48
447.513	701.76
447.887	697.24
448.262	725.94
448.636	746.28
449.01	738.82
449.384	736.56
449.758	734.53
450.132	739.5
450.506	744.25
450.88	769.56
451.254	758.93
451.628	771.14
452.002	775.66
452.376	770.01
452.75	806.17
453.123	768.2
453.497	772.27
453.871	809.1
454.244	818.14
454.618	823.34
454.992	839.84
455.365	824.47
455.739	830.12
456.112	812.04
456.486	823.79
456.859	836.22
457.232	854.07
457.606	854.3
457.979	854.53
458.352	863.79
458.725	861.76
459.099	882.77
459.472	906.5
459.845	916.22
460.218	921.19
460.591	931.59
460.964	913.96
461.337	947.86
461.71	948.99
462.083	937.01
462.456	946.05
462.829	965.26
463.201	961.64
463.574	975.65
463.947	994.18
464.32	1005.26
464.692	1025.14
465.065	1006.16
465.438	1002.32
465.81	1058.14
466.183	1047.29
466.555	1050.9
466.928	1061.75
467.3	1091.58
467.672	1085.25
468.045	1096.1
468.417	1122.99
468.789	1134.07
469.161	1161.41
469.534	1172.26
469.906	1195.08
470.278	1182.2
470.65	1199.83
471.022	1237.79
471.394	1257.45
471.766	1245.7
472.138	1275.31
472.51	1279.6
472.882	1328.86
473.253	1299.94
473.625	1342.42
473.997	1344.91
474.369	1364.79
474.74	1382.2
475.112	1407.28
475.484	1441.63
475.855	1477.33
476.227	1488.18
476.598	1518.69
476.97	1519.82
477.341	1597.33
477.713	1609.31
478.084	1589.42
478.455	1662.64
478.827	1683.43
479.198	1742.86
479.569	1703.54
479.94	1765.01
480.311	1796.87
480.682	1833.03
481.053	1871.9
481.424	1930.88
481.795	1921.16
482.166	1952.58
482.537	1979.69
482.908	2080.71
483.279	2076.64
483.65	2128.16
484.021	2145.11
484.391	2165.68
484.762	2174.04
485.133	2193.7
485.503	2291.55
485.874	2312.34
486.244	2346.46
486.615	2421.26
486.985	2393.47
487.356	2435.73
487.726	2522.05
488.097	2523.41
488.467	2562.73
488.837	2630.52
489.207	2633.24
489.578	2726.79
489.948	2738.77
490.318	2751.65
490.688	2769.05
491.058	2816.06
491.428	2844.76
491.798	2877.3
492.168	2991.64
492.538	3009.5
492.908	3020.57
493.278	3061.25
493.648	3078.42
494.017	3105.31
494.387	3172.66
494.757	3159.55
495.126	3219.44
495.496	3217.18
495.866	3291.98
496.235	3339.66
496.605	3359.77
496.974	3364.74
497.344	3391.41
497.713	3410.84
498.082	3460.33
498.452	3500.78
498.821	3515.02
499.19	3509.82
499.559	3547.79
499.928	3571.06
500.298	3609.93
500.667	3644.73
501.036	3639.99
501.405	3692.87
501.774	3670.04
502.143	3700.78
502.512	3733.32
502.88	3769.03
503.249	3764.96
503.618	3776.71
503.987	3794.11
504.356	3844.28
504.724	3806.54
505.093	3873.66
505.462	3860.77
505.83	3894.9
506.199	3944.84
506.567	4015.12
506.936	3965.18
507.304	3987.78
507.672	4060.77
508.041	4049.02
508.409	4107.1
508.777	4112.97
509.145	4142.35
509.514	4168.11
509.882	4121.33
510.25	4147.32
510.618	4184.83
510.986	4145.74
511.354	4226.64
511.722	4250.59
512.09	4231.39
512.458	4245.4
512.826	4345.96
513.193	4310.25
513.561	4277.94
513.929	4359.74
514.297	4378.27
514.664	4404.04
515.032	4395.45
515.4	4412.4
515.767	4351.83
516.135	4447.43
516.502	4399.29
516.869	4473.64
517.237	4449.23
517.604	4455.33
517.972	4498.05
518.339	4514.54
518.706	4492.85
519.073	4514.54
519.44	4540.98
519.808	4602.9
520.175	4620.98
520.542	4625.5
520.909	4667.76
521.276	4682
521.643	4674.54
522.009	4690.13
522.376	4761.99
522.743	4718.38
523.11	4750.92
523.477	4773.74
523.843	4825.72
524.21	4874.76
524.577	4853.97
524.943	4875.44
525.31	4943.01
525.676	4933.06
526.043	4963.8
526.409	4983.46
526.776	4998.6
527.142	5047.64
527.508	5078.37
527.874	5091.02
528.241	5113.62
528.607	5098.03
528.973	5196.78
529.339	5161.3
529.705	5226.16
530.071	5221.19
530.437	5273.39
530.803	5268.42
531.169	5357.68
531.535	5272.94
531.901	5343.22
532.267	5348.42
532.632	5414.63
532.998	5395.42
533.364	5423.44
533.73	5513.84
534.095	5472.94
534.461	5509.54
534.826	5525.14
535.192	5579.6
535.557	5579.37
535.923	5614.4
536.288	5610.56
536.653	5603.1
537.019	5612.82
537.384	5680.84
537.749	5698.01
538.114	5706.38
538.479	5722.19
538.845	5732.82
539.21	5766.94
539.575	5759.71
539.94	5814.62
540.305	5837.22
540.67	5858.91
541.034	5847.61
541.399	5939.59
541.764	5922.19
542.129	5956.09
542.494	5955.18
542.858	6025.01
543.223	6067.95
543.587	6042.41
543.952	6075.41
544.316	6078.12
544.681	6039.25
545.045	6122.41
545.41	6158.57
545.774	6169.19
546.138	6203.99
546.503	6229.07
546.867	6210.77
547.231	6288.51
547.595	6298
547.959	6366.7
548.324	6330.77
548.688	6360.14
549.052	6396.98
549.416	6389.52
549.779	6432.68
550.143	6473.36
550.507	6500.7
550.871	6508.39
551.235	6545.45
551.599	6527.6
551.962	6570.31
552.326	6540.48
552.689	6575.96
553.053	6609.85
553.417	6605.79
553.78	6679.23
554.143	6667.03
554.507	6690.3
554.87	6785.22
555.234	6774.37
555.597	6740.7
555.96	6773.47
556.323	6842.84
556.686	6837.42
557.05	6839
557.413	6870.19
557.776	6873.12
558.139	6866.12
558.502	6939.79
558.865	6958.09
559.228	7052.1
559.59	7005.1
559.953	7006.68
560.316	7090.29
560.679	7097.07
561.041	7136.62
561.404	7107.69
561.767	7242.83
562.129	7117.19
562.492	7184.75
562.854	7201.7
563.217	7200.8
563.579	7227.47
563.941	7269.27
564.304	7332.32
564.666	7328.93
565.028	7341.59
565.39	7372.55
565.753	7429.27
566.115	7452.32
566.477	7497.06
566.839	7483.05
567.201	7557.85
567.563	7515.37
567.925	7603.95
568.287	7621.13
568.648	7626.1
569.01	7675.82
569.372	7713.78
569.734	7702.03
570.095	7809.82
570.457	7829.48
570.819	7827.9
571.18	7817.51
571.542	7893.66
571.903	7941.12
572.265	7901.12
572.626	8002.59
572.987	8037.16
573.349	8098.18
573.71	8129.36
574.071	8105.86
574.432	8194.22
574.794	8260.88
575.155	8297.72
575.516	8303.6
575.877	8434.21
576.238	8458.85
576.599	8519.86
576.96	8584.04
577.32	8607.09
577.681	8724.6
578.042	8919.17
578.403	8911.26
578.763	8909.68
579.124	9066.29
579.485	9168.88
579.845	9245.49
580.206	9337.92
580.566	9448.65
580.927	9524.81
581.287	9737.91
581.648	9810.45
582.008	10009.54
582.368	9950.11
582.728	10221.51
583.089	10355.07
583.449	10512.12
583.809	10654.72
584.169	10835.05
584.529	10963.86
584.889	11215.16
585.249	11297.64
585.609	11437.3
585.969	11634.58
586.329	11829.6
586.688	12109.6
587.048	12207.67
587.408	12378.29
587.768	12657.15
588.127	12832.97
588.487	13008.33
588.846	13409.68
589.206	13482.89
589.565	13823.45
589.925	14030
590.284	14242.42
590.643	14501.85
591.003	14806.48
591.362	15086.24
591.721	15414.82
592.08	15591.77
592.44	15899.33
592.799	16179.77
593.158	16426.77
593.517	16617.05
593.876	17049.35
594.235	17273.98
594.593	17592.84
594.952	17866.96
595.311	18079.38
595.67	18442.09
596.029	18795.52
596.387	19158.23
596.746	19335.85
597.104	19672.56
597.463	19938.54
597.822	20285.2
598.18	20367.46
598.538	20710.27
598.897	21119.3
599.255	21285.63
599.613	21866.4
599.972	22031.14
600.33	22368.99
600.688	22447.86
601.046	22857.79
601.404	23301.39
601.762	23469.98
602.12	23902.73
602.478	24145.66
602.836	24332.78
603.194	24378.88
603.552	24803.27
603.91	24985.64
604.268	25400.32
604.625	25666.3
604.983	25991.27
605.341	26083.47
605.698	26443.23
606.056	26752.38
606.413	26932.26
606.771	27143.78
607.128	27501.73
607.485	27685.46
607.843	27870.09
608.2	28214.71
608.557	28561.14
608.914	28555.94
609.272	28877.29
609.629	29205.19
609.986	29437.28
610.343	29616.26
610.7	29948.9
611.057	30067.54
611.414	30276.12
611.771	30467.98
612.127	30799.5
612.484	31021.19
612.841	31079.72
613.198	31135.99
613.554	31384.34
613.911	31789.31
614.267	31830.89
614.624	32064.1
614.98	32188.84
615.337	32563.75
615.693	32607.36
616.05	32715.16
616.406	33126.9
616.762	33085.77
617.118	33210.74
617.475	33372.99
617.831	33622.48
618.187	33802.81
618.543	33844.17
618.899	34242.8
619.255	34203.25
619.611	34433.53
619.967	34582.68
620.323	34871.03
620.678	34723.24
621.034	34720.08
621.39	34910.35
621.746	34961.2
622.101	35478.47
622.457	35232.83
622.812	35539.72
623.168	35691.8
623.523	35702.87
623.879	35878.46
624.234	35688.41
624.589	35975.18
624.945	35962.98
625.3	36262.63
625.655	36261.28
626.01	36335.17
626.365	36410.43
626.72	36435.28
627.075	36402.52
627.43	36654.26
627.785	36551.67
628.14	36633.25
628.495	36779
628.85	36752.79
629.205	36707.14
629.559	37034.14
629.914	36949.4
630.269	36970.41
630.623	36993.69
630.978	36838.21
631.332	37128.37
631.687	37326.56
632.041	37110.52
632.396	37225.32
632.75	37198.43
633.104	37334.7
633.459	37083.63
633.813	37054.48
634.167	37230.07
634.521	37246.79
634.875	37236.85
635.229	37275.49
635.583	37188.71
635.937	37166.57
636.291	37250.4
636.645	37188.94
636.999	37343.74
637.352	37421.93
637.706	37165.89
638.06	37251.08
638.413	37312.55
638.767	37152.78
639.121	37461.7
639.474	36950.07
639.828	37188.71
640.181	37318.43
640.534	37256.05
640.888	37148.71
641.241	36995.72
641.594	37144.87
641.947	37228.48
642.301	37180.35
642.654	37225.32
643.007	37124.08
643.36	37221.25
643.713	37130.41
644.066	37240.69
644.419	37017.87
644.771	36805.67
645.124	36481.39
645.477	36528.62
645.83	36304.44
646.182	36105.12
646.535	36076.2
646.888	36123.65
647.24	35986.26
647.593	36280.71
647.945	36098.8
648.298	36032.81
648.65	36023.09
649.002	35872.81
649.355	36009.31
649.707	35949.87
650.059	36049.31
650.411	36530.42
650.763	36658.78
651.115	36955.95
651.467	36804.77
651.819	36762.73
652.171	36835.95
652.523	36746.24
652.875	36830.98
653.227	36530.2
653.578	36868.04
653.93	36839.34
654.282	36572
654.633	36682.28
654.985	36545.79
655.337	36688.39
655.688	36611.78
656.039	36718.89
656.391	36543.08
656.742	36633.47
657.094	36623.98
657.445	36621.72
657.796	36515.73
658.147	36529.52
658.498	36569.52
658.849	36622.62
659.2	36479.35
659.551	36404.33
659.902	36559.58
660.253	36501.27
660.604	36626.24
660.955	36214.73
661.306	36541.04
661.656	36401.39
662.007	36432.12
662.358	36361.39
662.708	36556.86
663.059	36461.95
663.409	36180.15
663.76	36473.93
664.11	36465.57
664.461	36548.05
664.811	36411.1
665.161	36408.84
665.511	36412.23
665.862	36465.79
666.212	36337.66
666.562	36450.2
666.912	36435.51
667.262	36521.61
667.612	36467.83
667.962	36415.85
668.312	36136.31
668.662	36445.91
669.011	36350.99
669.361	36282.52
669.711	36257.89
670.06	36214.73
670.41	36266.93
670.76	36246.14
671.109	36365.46
671.459	36207.04
671.808	36192.35
672.157	36388.05
672.507	36025.58
672.856	36102.64
673.205	36175.4
673.554	36252.92
673.904	36203.88
674.253	36289.98
674.602	36156.2
674.951	35708.3
675.3	35560.05
675.649	36126.14
675.998	36108.51
676.346	36106.71
676.695	36147.38
677.044	35895.64
677.393	36017.44
677.741	36172.24
678.09	35801.18
678.438	35895.41
678.787	35926.37
679.135	36009.53
679.484	35661.75
679.832	35907.62
680.181	35597.79
680.529	35790.33
680.877	35677.79
681.225	35593.5
681.573	35772.03
681.922	35536.33
682.27	35443.9
682.618	35418.81
682.966	35425.82
683.314	35379.49
683.661	35378.59
684.009	35139.5
684.357	35120.29
684.705	35051.14
685.053	35192.83
685.4	35118.03
685.748	34881.65
686.095	34816.57
686.443	34904.7
686.79	34683.24
687.138	34813.86
687.485	34744.48
687.832	34591.04
688.18	34662.22
688.527	34423.13
688.874	34524.83
689.221	34411.84
689.568	34440.54
689.915	34208.68
690.262	34321.89
690.609	34236.02
690.956	34077.83
691.303	34003.03
691.65	33914.67
691.997	33972.52
692.344	33775.47
692.69	33666.77
693.037	33725.07
693.383	33482.37
693.73	33558.52
694.077	33353.56
694.423	33270.85
694.769	33130.29
695.116	33108.82
695.462	33044.41
695.808	32953.34
696.155	33034.92
696.501	32847.58
696.847	32739.34
697.193	32536.63
697.539	32680.81
697.885	32435.62
698.231	32333.25
698.577	32406.01
698.923	32351.32
699.269	32207.83
699.614	31933.93
699.96	31856.87
700.306	31916.53
700.651	31833.82
700.997	31694.17
701.342	31642.19
701.688	31666.82
702.033	31662.3
702.379	31472.25
702.724	31273.39
703.069	31544.34
703.415	31167.63
703.76	31206.95
704.105	31310.45
704.45	31059.16
704.795	30808.77
705.14	30844.25
705.485	30813.96
705.83	30723.57
706.175	30778.71
706.52	30640.18
706.865	30473.41
707.209	30437.7
707.554	30313.19
707.899	30451.26
708.243	30140.31
708.588	30395.44
708.932	30013.98
709.277	30096.02
709.621	30033.19
709.966	29768.57
710.31	29890.37
710.654	29697.61
710.998	29671.85
711.342	29622.13
711.687	29581.68
712.031	29523.15
712.375	29293.55
712.719	29441.12
713.063	29299.65
713.407	29531.06
713.75	29179.66
714.094	29240.45
714.438	29184.4
714.782	29145.99
715.125	28982.83
715.469	29129.49
715.812	28968.14
716.156	28807.24
716.499	28760.46
716.843	28857.86
717.186	28655.15
717.53	28852.43
717.873	28731.76
718.216	28774.92
718.559	28540.58
718.902	28401.6
719.246	28397.53
719.589	28212
719.932	28134.26
720.275	28118.89
720.617	28263.75
720.96	28201.83
721.303	28094.71
721.646	28081.83
721.989	27873.48
722.331	28072.57
722.674	27892.91
723.016	27941.04
723.359	27866.92
723.701	27842.52
724.044	27599.36
724.386	27619.02
724.729	27757.55
725.071	27491.79
725.413	27640.71
725.755	27517.78
726.097	27421.51
726.439	27281.63
726.782	27442.3
727.124	27398.01
727.465	27211.57
727.807	27349.87
728.149	27226.04
728.491	27268.52
728.833	27213.83
729.175	27073.27
729.516	27035.76
729.858	27022.88
730.199	26931.13
730.541	26961.64
730.882	26910.34
731.224	26947.62
731.565	26727.74
731.906	26885.71
732.248	26756.67
732.589	26673.06
732.93	26609.78
733.271	26547.64
733.612	26605.03
733.953	26534.98
734.294	26576.34
734.635	26466.96
734.976	26523.46
735.317	26380.86
735.658	26395.77
735.999	26307.42
736.339	26301.54
736.68	26370.24
737.021	26286.17
737.361	26114.2
737.702	26237.13
738.042	26147.87
738.383	26049.34
738.723	26120.53
739.063	26026.97
739.404	26070.36
739.744	26111.04
740.084	25882.57
740.424	25952.85
740.764	26030.59
741.104	25904.49
741.444	25860.2
741.784	25793.3
742.124	25857.48
742.464	25765.73
742.804	25757.15
743.143	25623.37
743.483	25684.61
743.823	25574.55
744.162	25496.82
744.502	25568
744.841	25454.33
745.181	25579.98
745.52	25488.91
745.86	25458.4
746.199	25327.1
746.538	25326.42
746.877	25389.7
747.216	25346.54
747.556	25319.64
747.895	25268.35
748.234	25148.12
748.573	25089.14
748.911	24993.1
749.25	25105.64
749.589	25010.27
749.928	24904.97
750.267	24973.21
750.605	24941.12
750.944	24857.28
751.283	24845.76
751.621	24907.23
751.96	24680.79
752.298	24749.04
752.636	24763.95
752.975	24587.69
753.313	24522.6
753.651	24607.8
753.989	24493
754.327	24510.85
754.666	24323.74
755.004	24417.3
755.342	24305.89
755.679	24364.42
756.017	24186.34
756.355	24251.42
756.693	24031.77
757.031	24273.8
757.368	24039
757.706	23965.33
758.044	23933.69
758.381	23952.45
758.719	23840.14
759.056	23807.14
759.394	23794.71
759.731	23585.68
760.068	23597.88
760.405	23517.88
760.743	23489.86
761.08	23467.49
761.417	23413.25
