Data from hue_40_FLMS001491_40.txt Node
Date: Mon Feb 06 15:07:49 GMT 2017
User: dcchb
Spectrometer: FLMS00149
Trigger mode: 0
Integration Time (sec): 2.000000E-2
Scans to average: 10
Electric dark correction enabled: true
Nonlinearity correction enabled: false
Boxcar width: 0
XAxis mode: Wavelengths
Number of Pixels in Spectrum: 2048
>>>>>Begin Spectral Data<<<<<
341.393	-21.26
341.776	-21.26
342.16	-21.26
342.543	-64.65
342.927	-61.93
343.31	-70.52
343.693	-65.1
344.077	-66.91
344.46	-59
344.843	-65.1
345.226	-34.36
345.61	-27.36
345.993	-10.41
346.376	4.28
346.759	-0.92
347.142	31.17
347.525	26.65
347.908	63.49
348.291	62.13
348.674	92.41
349.057	119.53
349.44	128.57
349.823	139.87
350.206	164.05
350.588	189.13
350.971	212.41
351.354	223.71
351.737	218.74
352.119	244.05
352.502	255.8
352.884	263.26
353.267	291.05
353.65	281.11
354.032	291.96
354.414	295.12
354.797	321.56
355.179	329.24
355.562	319.53
355.944	332.86
356.326	312.97
356.709	331.5
357.091	336.47
357.473	342.12
357.855	334.89
358.238	332.63
358.62	327.43
359.002	319.07
359.384	338.73
359.766	323.14
360.148	329.69
360.53	331.28
360.912	329.47
361.294	311.62
361.676	319.07
362.057	331.28
362.439	316.14
362.821	327.66
363.203	316.59
363.584	315.68
363.966	305.51
364.348	319.07
364.729	322.24
365.111	318.4
365.493	330.82
365.874	318.4
366.256	317.04
366.637	316.14
367.019	328.79
367.4	316.81
367.781	313.42
368.163	311.62
368.544	314.33
368.925	301.67
369.306	331.73
369.688	299.19
370.069	313.65
370.45	319.07
370.831	298.74
371.212	300.99
371.593	314.33
371.974	302.35
372.355	301.45
372.736	322.01
373.117	303.93
373.498	294.89
373.879	310.94
374.26	337.38
374.641	305.51
375.021	300.32
375.402	317.72
375.783	312.07
376.163	307.32
376.544	312.29
376.925	317.49
377.305	321.79
377.686	341.9
378.066	312.07
378.447	309.81
378.827	309.58
379.208	291.5
379.588	332.63
379.968	324.27
380.349	329.92
380.729	353.42
381.109	335.8
381.489	321.56
381.87	343.25
382.25	324.27
382.63	338.06
383.01	344.16
383.39	327.43
383.77	332.41
384.15	337.38
384.53	338.28
384.91	331.28
385.29	353.87
385.67	328.56
386.049	357.72
386.429	345.29
386.809	359.07
387.189	326.98
387.568	322.01
387.948	332.41
388.328	354.55
388.707	335.8
389.087	338.51
389.466	368.11
389.846	336.02
390.225	350.03
390.605	355.91
390.984	357.72
391.363	362.91
391.743	361.56
392.122	364.04
392.501	357.94
392.881	350.26
393.26	363.59
393.639	363.14
394.018	361.33
394.397	351.84
394.776	366.53
395.155	359.52
395.534	389.13
395.913	350.94
396.292	364.72
396.671	349.36
397.05	355.91
397.429	368.56
397.808	385.96
398.186	369.02
398.565	366.3
398.944	371.95
399.323	367.43
399.701	382.57
400.08	369.02
400.458	381.9
400.837	364.72
401.215	371.05
401.594	379.18
401.972	398.39
402.351	381.67
402.729	393.2
403.107	367.66
403.486	372.41
403.864	387.55
404.242	384.83
404.62	391.61
404.999	371.95
405.377	400.88
405.755	373.08
406.133	401.78
406.511	417.15
406.889	425.74
407.267	423.48
407.645	394.78
408.023	406.3
408.401	411.05
408.779	417.6
409.156	413.31
409.534	405.62
409.912	412.18
410.29	417.38
410.667	421.44
411.045	424.83
411.422	435.68
411.8	435.45
412.178	455.79
412.555	442.01
412.933	441.78
413.31	453.99
413.687	437.26
414.065	459.63
414.442	439.3
414.819	455.12
415.197	451.27
415.574	470.93
415.951	452.18
416.328	460.09
416.705	463.02
417.082	464.38
417.46	456.7
417.837	466.87
418.214	488.11
418.591	476.81
418.967	459.63
419.344	493.08
419.721	463.93
420.098	484.94
420.475	483.36
420.852	484.94
421.228	498.05
421.605	505.74
421.982	514.1
422.358	496.02
422.735	496.92
423.111	483.36
423.488	519.97
423.864	504.38
424.241	513.64
424.617	523.14
424.994	537.6
425.37	505.74
425.746	502.35
426.123	519.07
426.499	525.85
426.875	524.04
427.251	553.64
427.627	545.51
428.003	524.49
428.379	546.86
428.756	553.42
429.132	538.95
429.507	534.66
429.883	530.82
430.259	578.28
430.635	586.41
431.011	565.62
431.387	583.02
431.763	566.3
432.138	562.46
432.514	580.76
432.89	587.54
433.265	597.26
433.641	579.18
434.016	614.66
434.392	611.5
434.767	620.31
435.143	625.51
435.518	613.53
435.894	633.42
436.269	626.41
436.644	651.27
437.02	613.08
437.395	631.83
437.77	649.01
438.145	661.66
438.52	660.31
438.895	675
439.271	643.13
439.646	663.25
440.021	686.75
440.395	688.78
440.77	691.04
441.145	672.96
441.52	690.59
441.895	696.24
442.27	699.18
442.645	694.43
443.019	704.15
443.394	700.08
443.769	726.97
444.143	679.29
444.518	697.37
444.892	712.51
445.267	716.35
445.641	704.6
446.016	747.08
446.39	739.18
446.764	728.1
447.139	754.54
447.513	735.79
447.887	734.2
448.262	753.86
448.636	738.95
449.01	731.04
449.384	767.2
449.758	773.75
450.132	761.32
450.506	748.44
450.88	787.08
451.254	780.3
451.628	788.67
452.002	779.17
452.376	799.06
452.75	789.57
453.123	809
453.497	824.82
453.871	803.13
454.244	819.63
454.618	844.94
454.992	833.41
455.365	839.06
455.739	833.18
456.112	855.78
456.486	866.63
456.859	884.48
457.232	879.96
457.606	880.19
457.979	886.74
458.352	885.84
458.725	923.58
459.099	944.37
459.472	944.59
459.845	951.37
460.218	966.51
460.591	953.41
460.964	956.34
461.337	997.47
461.71	987.08
462.083	987.53
462.456	1013.52
462.829	1003.58
463.201	1034.53
463.574	1049.9
463.947	1041.77
464.32	1055.1
464.692	1070.24
465.065	1095.32
465.438	1128.77
465.81	1094.19
466.183	1126.74
466.555	1147.98
466.928	1140.75
467.3	1160.86
467.672	1200.86
468.045	1223.23
468.417	1234.3
468.789	1239.5
469.161	1250.12
469.534	1296
469.906	1298.26
470.278	1307.52
470.65	1331.25
471.022	1369.67
471.394	1370.8
471.766	1390.46
472.138	1420.29
472.51	1470.91
472.882	1484.24
473.253	1521.08
473.625	1527.63
473.997	1573.28
474.369	1597.46
474.74	1639.04
475.112	1651.02
475.484	1691.01
475.855	1760.39
476.227	1790.9
476.598	1810.33
476.97	1834.29
477.341	1888.98
477.713	1900.27
478.084	1994.51
478.455	2032.93
478.827	2070.44
479.198	2110.21
479.569	2143.21
479.94	2199.7
480.311	2275.18
480.682	2355.86
481.053	2428.17
481.424	2479.02
481.795	2531.67
482.166	2560.82
482.537	2614.61
482.908	2717.88
483.279	2758.33
483.65	2836.07
484.021	2927.59
484.391	2967.82
484.762	3037.65
485.133	3121.49
485.503	3196.74
485.874	3308.37
486.244	3397.64
486.615	3450.06
486.985	3535.03
487.356	3633.34
487.726	3676.27
488.097	3843.5
488.467	3854.8
488.837	4015.47
489.207	4074.68
489.578	4195.58
489.948	4283.26
490.318	4373.88
490.688	4402.13
491.058	4548.57
491.428	4690.03
491.798	4749.24
492.168	4851.38
492.538	4945.17
492.908	5046.63
493.278	5193.07
493.648	5195.1
494.017	5309.68
494.387	5406.85
494.757	5501.99
495.126	5613.62
495.496	5623.11
495.866	5802.55
496.235	5854.97
496.605	5958.25
496.974	6015.87
497.344	6130.67
497.713	6191.46
498.082	6344
498.452	6380.38
498.821	6446.37
499.19	6508.29
499.559	6626.93
499.928	6718
500.298	6802.52
500.667	6913.02
501.036	6939.46
501.405	7019.91
501.774	7103.98
502.143	7172.68
502.512	7278.89
502.88	7367.02
503.249	7370.87
503.618	7467.59
503.987	7474.14
504.356	7615.6
504.724	7703.51
505.093	7735.38
505.462	7858.31
505.83	7891.76
506.199	7922.49
506.567	8082.26
506.936	8121.35
507.304	8203.84
507.672	8310.95
508.041	8369.03
508.409	8431.85
508.777	8519.08
509.145	8604.96
509.514	8621.68
509.882	8717.27
510.25	8785.29
510.618	8852.18
510.986	8870.71
511.354	8983.48
511.722	9035.45
512.09	9132.4
512.458	9196.81
512.826	9257.6
513.193	9273.41
513.561	9327.65
513.929	9382.56
514.297	9543.69
514.664	9463.47
515.032	9634.53
515.4	9702.56
515.767	9755.21
516.135	9781.88
516.502	9796.56
516.869	9962.89
517.237	9992.04
517.604	9997.92
517.972	10146.39
518.339	10144.35
518.706	10186.38
519.073	10286.5
519.44	10360.62
519.808	10464.12
520.175	10422.31
520.542	10618.01
520.909	10723.55
521.276	10633.38
521.643	10716.31
522.009	10804.9
522.376	10856.65
522.743	10938.23
523.11	11084.67
523.477	11089.64
523.843	11183.19
524.21	11316.75
524.577	11394.49
524.943	11429.97
525.31	11485.33
525.676	11501.83
526.043	11665.67
526.409	11639
526.776	11837.41
527.142	11872.22
527.508	11957.86
527.874	12030.63
528.241	12079.44
528.607	12169.84
528.973	12178.2
529.339	12210.74
529.705	12332.99
530.071	12504.06
530.437	12545.19
530.803	12542.48
531.169	12662.7
531.535	12705.87
531.901	12696.15
532.267	12803.94
532.632	12841.91
532.998	12908.57
533.364	12996.25
533.73	13047.55
534.095	13155.12
534.461	13201.45
534.826	13182.69
535.192	13223.59
535.557	13391.95
535.923	13411.38
536.288	13459.29
536.653	13541.32
537.019	13479.63
537.384	13639.18
537.749	13743.81
538.114	13656.12
538.479	13705.39
538.845	13846.63
539.21	13818.38
539.575	13885.95
539.94	13894.76
540.305	14015.66
540.67	14022.67
541.034	14076
541.399	14119.16
541.764	14145.6
542.129	14307.18
542.494	14334.07
542.858	14346.28
543.223	14317.58
543.587	14435.54
543.952	14510.34
544.316	14569.32
544.681	14576.55
545.045	14638.7
545.41	14737.23
545.774	14797.34
546.138	14845.47
546.503	14874.85
546.867	14892.48
547.231	15000.72
547.595	15057.9
547.959	15092.24
548.324	15053.38
548.688	15160.49
549.052	15200.04
549.416	15242.97
549.779	15318.91
550.143	15332.69
550.507	15485
550.871	15534.04
551.235	15531.78
551.599	15632.34
551.962	15695.84
552.326	15738.33
552.689	15746.46
553.053	15736.97
553.417	15802.73
553.78	15959.11
554.143	15932
554.507	15962.73
554.87	16069.85
555.234	16171.99
555.597	16150.07
555.96	16310.97
556.323	16285.43
556.686	16221.48
557.05	16458.99
557.413	16482.04
557.776	16510.06
558.139	16586.44
558.502	16585.09
558.865	16670.28
559.228	16819.2
559.59	16827.11
559.953	16927
560.316	17091.51
560.679	17107.56
561.041	17189.59
561.404	17254.45
561.767	17262.13
562.129	17221.91
562.492	17400.21
562.854	17507.77
563.217	17500.54
563.579	17594.78
563.941	17684.72
564.304	17692.63
564.666	17738.73
565.028	17827.99
565.39	17877.03
565.753	17983.92
566.115	18030.7
566.477	18095.78
566.839	18209.9
567.201	18223.69
567.563	18348.2
567.925	18492.16
568.287	18406.06
568.648	18551.14
569.01	18574.41
569.372	18694.41
569.734	18621.42
570.095	18713.39
570.457	18910.9
570.819	18948.41
571.18	18967.85
571.542	19116.55
571.903	19157.67
572.265	19265.47
572.626	19290.1
572.987	19352.7
573.349	19517.21
573.71	19535.07
574.071	19622.29
574.432	19674.04
574.794	19859.35
575.155	19808.73
575.516	19787.26
575.877	20106.35
576.238	20143.41
576.599	20268.38
576.96	20345.21
577.32	20443.74
577.681	20574.59
578.042	20654.13
578.403	20775.94
578.763	20852.09
579.124	20941.81
579.485	21115.81
579.845	21293.44
580.206	21344.28
580.566	21426.32
580.927	21448.24
581.287	21792.41
581.648	21735.91
582.008	21983.81
582.368	22112.85
582.728	22267.2
583.089	22391.04
583.449	22512.16
583.809	22571.82
584.169	22811.36
584.529	22787.41
584.889	23141.3
585.249	23272.37
585.609	23271.46
585.969	23523.21
586.329	23751.23
586.688	23864.67
587.048	23963.42
587.408	24231.67
587.768	24390.98
588.127	24546.01
588.487	24680.92
588.846	24935.15
589.206	24959.56
589.565	25146.9
589.925	25430.28
590.284	25541.46
590.643	25681.34
591.003	25966.76
591.362	26253.53
591.721	26329.69
592.08	26505.05
592.44	26681.32
592.799	26935.32
593.158	27085.38
593.517	27275.2
593.876	27407.17
594.235	27508.19
594.593	27792.02
594.952	27976.2
595.311	28099.59
595.67	28416.64
596.029	28601.72
596.387	28838.1
596.746	28933.91
597.104	29018.88
597.463	29177.98
597.822	29569.15
598.18	29402.83
598.538	29669.94
598.897	29899.76
599.255	29881.46
599.613	30384.5
599.972	30275.8
600.33	30528.22
600.688	30607.99
601.046	30877.37
601.404	31032.39
601.762	31106.96
602.12	31334.08
602.478	31451.14
602.836	31518.71
603.194	31606.16
603.552	31840.05
603.91	31831.92
604.268	32026.26
604.625	32106.03
604.983	32302.87
605.341	32287.05
605.698	32643.87
606.056	32718
606.413	32797.09
606.771	33063.3
607.128	33216.29
607.485	33146.23
607.843	33300.35
608.2	33456.73
608.557	33738.08
608.914	33539.89
609.272	33822.6
609.629	33972.88
609.986	34186.88
610.343	34185.98
610.7	34411.74
611.057	34331.29
611.414	34542.13
611.771	34625.52
612.127	34736.93
612.484	34925.4
612.841	35032.29
613.198	34910.71
613.554	35062.11
613.911	35262.56
614.267	35388.21
614.624	35436.34
614.98	35595.66
615.337	35764.24
615.693	35752.49
616.05	35697.13
616.406	36076.1
616.762	35914.97
617.118	36004.69
617.475	36152.93
617.831	36268.64
618.187	36399.48
618.543	36359.71
618.899	36701.17
619.255	36674.73
619.611	36539.59
619.967	36792.01
620.323	36875.4
620.678	36789.08
621.034	36822.29
621.39	36815.06
621.746	36966.92
622.101	37328.04
622.457	36978.9
622.812	37106.35
623.168	37412.34
623.523	37354.26
623.879	37327.59
624.234	37303.86
624.589	37421.15
624.945	37510.19
625.3	37595.83
625.655	37625.44
626.01	37627.25
626.365	37619.11
626.72	37673.57
627.075	37632.89
627.43	37707.92
627.785	37615.72
628.14	37562.39
628.495	37798.31
628.85	37782.5
629.205	37696.4
629.559	37825.21
629.914	37709.73
630.269	37909.72
630.623	37787.24
630.978	37581.6
631.332	37788.14
631.687	37877.63
632.041	37821.36
632.396	37834.02
632.75	37831.76
633.104	37823.62
633.459	37787.47
633.813	37710.18
634.167	37758.32
634.521	37681.48
634.875	37699.11
635.229	37655.27
635.583	37569.62
635.937	37719.22
636.291	37608.94
636.645	37741.37
636.999	37488.04
637.352	37714.47
637.706	37431.77
638.06	37706.57
638.413	37566.91
638.767	37450.98
639.121	37554.7
639.474	37309.74
639.828	37409.85
640.181	37349.29
640.534	37545.89
640.888	37384.77
641.241	37324.2
641.594	37154.26
641.947	37348.38
642.301	37142.29
642.654	37246.69
643.007	37349.51
643.36	37257.09
643.713	37163.08
644.066	37367.82
644.419	37162.85
644.771	36920.37
645.124	36527.16
645.477	36441.97
645.83	36335.98
646.182	36174.18
646.535	36056.21
646.888	36188.41
647.24	35876.56
647.593	36189.77
647.945	36081.52
648.298	35971.24
648.65	35984.35
649.002	35857.8
649.355	35908.42
649.707	35787.75
650.059	36091.47
650.411	36413.27
650.763	36549.76
651.115	36962.18
651.467	36719.92
651.819	36702.52
652.171	36540.27
652.523	36619.59
652.875	36664.33
653.227	36468.18
653.578	36596.54
653.93	36577.1
654.282	36483.32
654.633	36414.17
654.985	36457.56
655.337	36391.57
655.688	36481.96
656.039	36566.93
656.391	36367.17
656.742	36346.6
657.094	36381.85
657.445	36563.09
657.796	36427.05
658.147	36248.52
658.498	36389.99
658.849	36417.79
659.2	36319.71
659.551	36234.06
659.902	36325.13
660.253	36154.52
660.604	36413.72
660.955	36171.92
661.306	36209.2
661.656	36243.55
662.007	36138.02
662.358	36157.91
662.708	36120.84
663.059	36195.19
663.409	35991.81
663.76	36249.88
664.11	36065.48
664.461	36312.48
664.811	36169.66
665.161	36244.23
665.511	36124.23
665.862	36103.44
666.212	36185.25
666.562	36228.86
666.912	36160.62
667.262	36123.78
667.612	36168.98
667.962	36030.45
668.312	35996.55
668.662	36259.82
669.011	36154.52
669.361	36073.84
669.711	35967.4
670.06	36038.59
670.41	35937.35
670.76	36024.12
671.109	36058.92
671.459	35960.4
671.808	35817.35
672.157	36049.43
672.507	35815.32
672.856	35856.44
673.205	35838.37
673.554	35936.44
673.904	35728.54
674.253	36047.17
674.602	35877.69
674.951	35264.6
675.3	35107.99
675.649	35820.51
675.998	35639.95
676.346	35710.69
676.695	35833.85
677.044	35555.66
677.393	35697.58
677.741	35749.33
678.09	35563.8
678.438	35491.26
678.787	35519.05
679.135	35572.84
679.484	35377.81
679.832	35565.6
680.181	35528.54
680.529	35432.95
680.877	35324.71
681.225	35289.91
681.573	35519.96
681.922	35314.31
682.27	35137.59
682.618	35096.24
682.966	35041.78
683.314	35179.85
683.661	35003.59
684.009	34830.93
684.357	34769.92
684.705	34749.13
685.053	34704.61
685.4	34644.5
685.748	34476.37
686.095	34459.42
686.443	34431.85
686.79	34371.96
687.138	34522.02
687.485	34428.91
687.832	34388.69
688.18	34367.44
688.527	34257.62
688.874	34068.24
689.221	34119.99
689.568	33881.58
689.915	33901.92
690.262	33876.38
690.609	33849.49
690.956	33620.12
691.303	33642.49
691.65	33551.42
691.997	33498.77
692.344	33281.37
692.69	33260.81
693.037	33394.14
693.383	33066.46
693.73	33209.73
694.077	32952.57
694.423	32961.38
694.769	32910.98
695.116	32739.24
695.462	32748.5
695.808	32660.37
696.155	32625.12
696.501	32391
696.847	32459.92
697.193	32177.67
697.539	32339.02
697.885	32115.3
698.231	31967.05
698.577	32061.29
698.923	31932.03
699.269	31892.25
699.614	31611.58
699.96	31676.44
700.306	31643.9
700.651	31418.59
700.997	31324.13
701.342	31353.74
701.688	31346.51
702.033	31121.2
702.379	31170.24
702.724	31104.25
703.069	31167.53
703.415	30739.74
703.76	30808.89
704.105	30698.39
704.45	30723.47
704.795	30545.62
705.14	30502.69
705.485	30438.73
705.83	30347.21
706.175	30307.21
706.52	30225.41
706.865	30130.04
707.209	30143.37
707.554	29989.48
707.899	30108.8
708.243	29892.53
708.588	29862.93
708.932	29565.31
709.277	29638.75
709.621	29750.62
709.966	29565.76
710.31	29563.5
710.654	29346.33
710.998	29262.72
711.342	29358.54
711.687	29311.76
712.031	29183.4
712.375	29195.38
712.719	29107.02
713.063	29051.43
713.407	29038.32
713.75	28971.65
714.094	28902.28
714.438	28841.04
714.782	28961.26
715.125	28648.72
715.469	28810.53
715.812	28619.35
716.156	28545.22
716.499	28513.81
716.843	28430.65
717.186	28304.55
717.53	28512.68
717.873	28399.92
718.216	28311.78
718.559	28186.14
718.902	28062.3
719.246	28138.23
719.589	28028.4
719.932	27968.52
720.275	27965.8
720.617	27928.74
720.96	27815.98
721.303	27872.02
721.646	27772.81
721.989	27701.63
722.331	27735.3
722.674	27544.12
723.016	27740.05
723.359	27585.48
723.701	27502.99
724.044	27494.18
724.386	27248.76
724.729	27474.74
725.071	27264.58
725.413	27347.06
725.755	27249.44
726.097	27248.31
726.439	27046.05
726.782	27053.74
727.124	27196.56
727.465	26936.9
727.807	26862.78
728.149	26908.43
728.491	26928.32
728.833	26876.79
729.175	26717.48
729.516	26755.89
729.858	26563.58
730.199	26823.24
730.541	26672.28
730.882	26684.71
731.224	26612.62
731.565	26423.7
731.906	26527.2
732.248	26389.57
732.589	26414.21
732.93	26307.32
733.271	26133.31
733.612	26277.71
733.953	26264.61
734.294	26144.84
734.635	26150.48
734.976	26129.69
735.317	26153.65
735.658	26065.52
735.999	25998.4
736.339	25934.67
736.68	25950.72
737.021	25910.94
737.361	25815.8
737.702	25945.07
738.042	25793.66
738.383	25770.61
738.723	25761.57
739.063	25629.59
739.404	25749.14
739.744	25511.86
740.084	25477.28
740.424	25526.32
740.764	25433.89
741.104	25583.95
741.444	25299.89
741.784	25228.02
742.124	25391.18
742.464	25356.38
742.804	25250.62
743.143	25156.39
743.483	25219.89
743.823	25025.09
744.162	25047.91
744.502	25043.62
744.841	24990.97
745.181	25077.97
745.52	24963.62
745.86	25008.59
746.199	24963.85
746.538	24802.05
746.877	24939.67
747.216	25041.81
747.556	24901.48
747.895	24794.81
748.234	24743.06
748.573	24671.88
748.911	24675.5
749.25	24685.21
749.589	24500.36
749.928	24601.37
750.267	24493.81
750.605	24463.3
750.944	24406.12
751.283	24331.1
751.621	24425.11
751.96	24153.93
752.298	24248.16
752.636	24332.68
752.975	24095.17
753.313	24051.78
753.651	24026.7
753.989	23946.25
754.327	23925.91
754.666	23781.28
755.004	23859.25
755.342	23923.2
755.679	23715.97
756.017	23715.07
756.355	23661.74
756.693	23624.68
757.031	23645.69
757.368	23491.35
757.706	23421.52
