Data from hue_70_FLMS001491_55.txt Node
Date: Mon Feb 06 15:21:07 GMT 2017
User: dcchb
Spectrometer: FLMS00149
Trigger mode: 0
Integration Time (sec): 2.000000E-2
Scans to average: 10
Electric dark correction enabled: true
Nonlinearity correction enabled: false
Boxcar width: 0
XAxis mode: Wavelengths
Number of Pixels in Spectrum: 2048
>>>>>Begin Spectral Data<<<<<
341.393	-3.87
341.776	-3.87
342.16	-3.87
342.543	-46.13
342.927	-59.24
343.31	-68.5
343.693	-83.87
344.077	-65.56
344.46	-57.43
344.843	-53.81
345.226	-27.6
345.61	-45.22
345.993	-4.1
346.376	2.01
346.759	-1.16
347.142	28.9
347.525	37.71
347.908	69.8
348.291	60.99
348.674	95.79
349.057	112.06
349.44	125.39
349.823	142.34
350.206	163.13
350.588	180.31
350.971	192.28
351.354	209.23
351.737	234.77
352.119	261.43
352.502	258.95
352.884	265.5
353.267	292.17
353.65	285.16
354.032	293.75
354.414	325.84
354.797	309.34
355.179	315.67
355.562	314.54
355.944	316.8
356.326	321.32
356.709	305.95
357.091	328.78
357.473	347.76
357.855	345.95
358.238	330.36
358.62	328.55
359.002	319.74
359.384	334.65
359.766	323.58
360.148	330.13
360.53	322.22
360.912	321.32
361.294	318.61
361.676	333.97
362.057	344.82
362.439	337.82
362.821	334.2
363.203	332.84
363.584	331.04
363.966	317.7
364.348	309.79
364.729	299.4
365.111	306.4
365.493	298.95
365.874	305.73
366.256	319.74
366.637	306.63
367.019	298.95
367.4	295.11
367.781	324.71
368.163	300.08
368.544	299.62
368.925	307.53
369.306	314.99
369.688	315.22
370.069	291.94
370.45	294.65
370.831	305.27
371.212	298.49
371.593	301.21
371.974	331.71
372.355	321.55
372.736	310.47
373.117	321.77
373.498	320.42
373.879	308.66
374.26	285.61
374.641	307.99
375.021	309.12
375.402	315.44
375.783	322
376.163	329
376.544	289.46
376.925	309.57
377.305	326.29
377.686	316.35
378.066	319.29
378.447	329.23
378.827	311.83
379.208	317.7
379.588	325.16
379.968	330.58
380.349	340.08
380.729	333.52
381.109	305.73
381.489	333.07
381.87	331.04
382.25	321.77
382.63	320.42
383.01	344.14
383.39	330.36
383.77	331.26
384.15	334.43
384.53	324.93
384.91	329.68
385.29	344.14
385.67	322.68
386.049	346.86
386.429	329.68
386.809	334.65
387.189	350.7
387.568	353.63
387.948	335.78
388.328	355.89
388.707	350.02
389.087	365.84
389.466	348.44
389.846	343.24
390.225	354.99
390.605	358.61
390.984	354.31
391.363	342.11
391.743	343.92
392.122	334.88
392.501	345.5
392.881	369.23
393.26	382.11
393.639	348.66
394.018	348.89
394.397	366.97
394.776	366.52
395.155	371.71
395.534	371.71
395.913	366.97
396.292	390.24
396.671	362.22
397.05	359.28
397.429	362.67
397.808	350.47
398.186	372.39
398.565	364.26
398.944	366.29
399.323	370.81
399.701	376.69
400.08	363.58
400.458	388.21
400.837	368.55
401.215	369.68
401.594	365.39
401.972	396.8
402.351	396.8
402.729	383.92
403.107	387.08
403.486	398.38
403.864	392.5
404.242	380.07
404.62	393.63
404.999	404.03
405.377	394.54
405.755	378.27
406.133	393.63
406.511	385.05
406.889	405.16
407.267	404.93
407.645	412.39
408.023	407.42
408.401	408.1
408.779	416.01
409.156	409.45
409.534	419.17
409.912	408.32
410.29	416.01
410.667	408.55
411.045	428.44
411.422	429.11
411.8	418.72
412.178	441.54
412.555	437.7
412.933	431.37
413.31	420.53
413.687	432.05
414.065	442.9
414.442	445.61
414.819	450.13
415.197	448.55
415.574	423.01
415.951	445.84
416.328	441.54
416.705	448.32
417.082	473.63
417.46	457.13
417.837	460.75
418.214	475.89
418.591	455.33
418.967	466.17
419.344	480.19
419.721	475.44
420.098	466.17
420.475	480.86
420.852	467.76
421.228	472.28
421.605	492.84
421.982	486.06
422.358	502.33
422.735	492.39
423.111	487.19
423.488	505.04
423.864	512.95
424.241	517.7
424.617	489.22
424.994	521.54
425.37	499.62
425.746	501.88
426.123	516.34
426.499	524.25
426.875	531.03
427.251	531.48
427.627	552.05
428.003	544.82
428.379	531.94
428.756	549.34
429.132	545.95
429.507	537.58
429.883	570.13
430.259	548.43
430.635	561.99
431.011	559.96
431.387	578.71
431.763	583.46
432.138	585.95
432.514	588.2
432.89	575.32
433.265	565.83
433.641	592.5
434.016	602.89
434.392	598.15
434.767	612.16
435.143	615.77
435.518	599.96
435.894	629.79
436.269	656.45
436.644	632.27
437.02	615.1
437.395	640.63
437.77	637.47
438.145	668.43
438.52	646.51
438.895	670.24
439.271	655.55
439.646	669.78
440.021	674.08
440.395	673.17
440.77	677.02
441.145	677.02
441.52	697.13
441.895	698.94
442.27	676.56
442.645	693.96
443.019	703
443.394	693.51
443.769	701.87
444.143	690.12
444.518	737.13
444.892	722.44
445.267	715.66
445.641	724.92
446.016	736.45
446.39	736.68
446.764	756.56
447.139	727.41
447.513	731.48
447.887	750.91
448.262	743.68
448.636	738.48
449.01	737.58
449.384	766.73
449.758	758.82
450.132	772.61
450.506	780.06
450.88	760.18
451.254	807.18
451.628	780.74
452.002	791.59
452.376	779.39
452.75	813.74
453.123	798.37
453.497	821.42
453.871	826.62
454.244	836.56
454.618	840.85
454.992	867.75
455.365	846.5
455.739	879.27
456.112	887.86
456.486	880.85
456.859	869.78
457.232	923.56
457.606	913.85
457.979	912.04
458.352	918.59
458.725	944.35
459.099	929.66
459.472	942.09
459.845	962.88
460.218	965.14
460.591	986.84
460.964	968.99
461.337	1010.11
461.71	1007.85
462.083	1031.58
462.456	1027.06
462.829	1044.01
463.201	1039.49
463.574	1067.97
463.947	1060.73
464.32	1112.48
464.692	1109.55
465.065	1133.05
465.438	1174.18
465.81	1150.68
466.183	1168.53
466.555	1176.44
466.928	1205.14
467.3	1194.52
467.672	1232.48
468.045	1230.22
468.417	1279.26
468.789	1273.16
469.161	1315.42
469.534	1343.89
469.906	1375.08
470.278	1360.61
470.65	1375.98
471.022	1422.31
471.394	1457.33
471.766	1489.88
472.138	1508.63
472.51	1513.38
472.882	1562.87
473.253	1586.37
473.625	1611.91
473.997	1673.6
474.369	1707.27
474.74	1736.42
475.112	1771.45
475.484	1826.14
475.855	1858
476.227	1896.19
476.598	1929.64
476.97	1984.1
477.341	1994.27
477.713	2073.14
478.084	2109.97
478.455	2216.41
478.827	2265.67
479.198	2355.39
479.569	2335.73
479.94	2460.02
480.311	2483.52
480.682	2570.3
481.053	2669.96
481.424	2742.95
481.795	2802.61
482.166	2875.83
482.537	2960.57
482.908	3090.29
483.279	3127.8
483.65	3207.57
484.021	3323.27
484.391	3448.92
484.762	3460.67
485.133	3593.1
485.503	3709.7
485.874	3843.71
486.244	3886.65
486.615	4028.11
486.985	4097.94
487.356	4246.64
487.726	4369.12
488.097	4514.66
488.467	4507.2
488.837	4705.38
489.207	4867.41
489.578	4991.48
489.948	5131.14
490.318	5257.01
490.688	5350.11
491.058	5460.85
491.428	5673.27
491.798	5744.23
492.168	5915.97
492.538	6013.6
492.908	6195.52
493.278	6296.76
493.648	6403.87
494.017	6531.1
494.387	6700.13
494.757	6829.85
495.126	6961.37
495.496	7056.28
495.866	7216.73
496.235	7331.76
496.605	7473
496.974	7665.31
497.344	7833.66
497.713	7929.48
498.082	8056.26
498.452	8195.46
498.821	8334.44
499.19	8418.96
499.559	8560.65
499.928	8684.94
500.298	8855.33
500.667	8948.89
501.036	9023.69
501.405	9195.89
501.774	9282.21
502.143	9383.91
502.512	9521.76
502.88	9690.34
503.249	9746.16
503.618	9895.76
503.987	9965.81
504.356	10102.08
504.724	10221.62
505.093	10309.53
505.462	10352.92
505.83	10557.89
506.199	10717.88
506.567	10842.4
506.936	10962.4
507.304	11121.71
507.672	11197.42
508.041	11254.59
508.409	11351.31
508.777	11514.25
509.145	11559.67
509.514	11652.77
509.882	11867
510.25	11882.15
510.618	11993.78
510.986	12017.28
511.354	12189.26
511.722	12299.08
512.09	12422.47
512.458	12493.43
512.826	12628.34
513.193	12655.23
513.561	12767.55
513.929	12878.28
514.297	13000.53
514.664	13107.88
515.032	13207.31
515.4	13261.77
515.767	13419.05
516.135	13481.43
516.502	13441.88
516.869	13742.44
517.237	13757.8
517.604	13735.2
517.972	13875.09
518.339	14043.67
518.706	14033.28
519.073	14053.16
519.44	14141.75
519.808	14375.41
520.175	14297.67
520.542	14536.09
520.909	14546.71
521.276	14584
521.643	14767.72
522.009	14858.79
522.376	14866.93
522.743	14984.44
523.11	15110.53
523.477	15332
523.843	15321.83
524.21	15510.75
524.577	15619.22
524.943	15714.13
525.31	15733.57
525.676	15844.98
526.043	15888.59
526.409	16023.73
526.776	16114.12
527.142	16174.91
527.508	16210.62
527.874	16393.66
528.241	16438.86
528.607	16530.84
528.973	16603.83
529.339	16563.83
529.705	16712.07
530.071	16831.39
530.437	16922.01
530.803	16961.56
531.169	17060.77
531.535	17025.06
531.901	17025.29
532.267	17102.57
532.632	17217.37
532.998	17259.63
533.364	17290.36
533.73	17242.23
534.095	17493.75
534.461	17438.61
534.826	17564.48
535.192	17557.25
535.557	17639.96
535.923	17688.32
536.288	17680.86
536.653	17786.85
537.019	17668.66
537.384	17785.04
537.749	17834.08
538.114	17833.4
538.479	17779.62
538.845	17919.95
539.21	17834.76
539.575	17945.26
539.94	17849.9
540.305	17956.34
540.67	17935.09
541.034	18006.5
541.399	18004.7
541.764	18101.19
542.129	18079.04
542.494	18146.84
542.858	18152.26
543.223	18170.12
543.587	18188.65
543.952	18262.09
544.316	18218.48
544.681	18267.97
545.045	18208.98
545.41	18385.25
545.774	18270.45
546.138	18390.22
546.503	18371.47
546.867	18274.29
547.231	18419.37
547.595	18405.14
547.959	18411.69
548.324	18455.08
548.688	18460.28
549.052	18466.15
549.416	18517.45
549.779	18410.11
550.143	18565.59
550.507	18554.74
550.871	18634.96
551.235	18627.05
551.599	18640.16
551.962	18662.08
552.326	18674.73
552.689	18647.84
553.053	18641.52
553.417	18639.03
553.78	18947.5
554.143	18863.66
554.507	18885.12
554.87	18838.57
555.234	18993.6
555.597	18907.27
555.96	18993.82
556.323	19121.28
556.686	18992.92
557.05	19165.8
557.413	19109.98
557.776	19152.91
558.139	19260.93
558.502	19283.76
558.865	19187.94
559.228	19368.95
559.59	19424.55
559.953	19362.17
560.316	19610.08
560.679	19554.71
561.041	19720.36
561.404	19674.93
561.767	19825.89
562.129	19702.73
562.492	19977.53
562.854	19875.16
563.217	19882.61
563.579	20090.74
563.941	20108.14
564.304	20095.94
564.666	20285.31
565.028	20203.51
565.39	20232.21
565.753	20416.61
566.115	20427.23
566.477	20503.16
566.839	20513.56
567.201	20585.65
567.563	20648.24
567.925	20716.04
568.287	20651.41
568.648	20817.96
569.01	20805.53
569.372	20946.99
569.734	20912.42
570.095	20945.86
570.457	21038.29
570.819	20987.44
571.18	21062.47
571.542	21171.17
571.903	21313.54
572.265	21192.63
572.626	21339.3
572.987	21379.75
573.349	21364.16
573.71	21521.89
574.071	21490.48
574.432	21589.23
574.794	21621.32
575.155	21665.16
575.516	21597.14
575.877	21648.22
576.238	21734.32
576.599	21833.75
576.96	21812.28
577.32	21776.12
577.681	21904.03
578.042	21967.08
578.403	21862.45
578.763	21901.32
579.124	21956.46
579.485	22023.35
579.845	22067.87
580.206	21976.8
580.566	21970.02
580.927	22004.14
581.287	22036.23
581.648	22032.39
582.008	22204.13
582.368	22134.98
582.728	22256.11
583.089	22160.97
583.449	22076.45
583.809	22184.02
584.169	22168.43
584.529	22043.01
584.889	22210.01
585.249	22170.46
585.609	22104.48
585.969	22211.59
586.329	22140.86
586.688	22214.53
587.048	22233.29
587.408	22168.88
587.768	22113.06
588.127	22127.75
588.487	22062.22
588.846	22187.86
589.206	22031.71
589.565	22148.09
589.925	22182.21
590.284	22048.43
590.643	22085.72
591.003	22175.43
591.362	22239.16
591.721	22210.24
592.08	22214.3
592.44	22199.61
592.799	22177.69
593.158	22126.62
593.517	22210.46
593.876	22208.43
594.235	22219.27
594.593	22101.31
594.952	22263.79
595.311	22125.04
595.67	22278.03
596.029	22342.66
596.387	22303.11
596.746	22310.57
597.104	22283.91
597.463	22196
597.822	22347.63
598.18	22205.04
598.538	22143.57
598.897	22326.62
599.255	22150.8
599.613	22475.09
599.972	22275.54
600.33	22317.8
600.688	22274.19
601.046	22387.63
601.404	22393.06
601.762	22273.74
602.12	22483.9
602.478	22494.52
602.836	22478.7
603.194	22439.38
603.552	22467.18
603.91	22472.38
604.268	22535.88
604.625	22445.03
604.983	22644.8
605.341	22453.62
605.698	22622.2
606.056	22644.57
606.413	22628.53
606.771	22645.03
607.128	22663.33
607.485	22545.59
607.843	22604.58
608.2	22768.41
608.557	22758.92
608.914	22727.06
609.272	22867.85
609.629	22869.43
609.986	22947.16
610.343	22770.22
610.7	23046.37
611.057	22950.1
611.414	23007.5
611.771	22972.93
612.127	23054.96
612.484	23055.64
612.841	23176.54
613.198	23075.52
613.554	22989.2
613.911	23195.97
614.267	23098.57
614.624	23290.43
614.98	23238.91
615.337	23421.05
615.693	23313.03
616.05	23261.06
616.406	23470.54
616.762	23367.94
617.118	23431.67
617.475	23295.4
617.831	23396.87
618.187	23494.5
618.543	23555.28
618.899	23598.67
619.255	23599.8
619.611	23625.34
619.967	23668.05
620.323	23701.72
620.678	23679.58
621.034	23647.49
621.39	23561.39
621.746	23609.29
622.101	23878.67
622.457	23623.53
622.812	23698.78
623.168	23861.72
623.523	23687.48
623.879	23917.08
624.234	23742.4
624.589	23821.04
624.945	23761.83
625.3	23856.75
625.655	23879.12
626.01	23905.33
626.365	23835.28
626.72	23796.18
627.075	23839.8
627.43	23822.17
627.785	23691.33
628.14	23779.01
628.495	23725.45
628.85	23746.92
629.205	23726.58
629.559	23808.84
629.914	23661.95
630.269	23694.49
630.623	23654.04
630.978	23686.35
631.332	23801.61
631.687	23813.58
632.041	23612.01
632.396	23844.99
632.75	23687.71
633.104	23677.09
633.459	23539.92
633.813	23553.02
634.167	23642.97
634.521	23639.8
634.875	23513.48
635.229	23466.93
635.583	23420.82
635.937	23401.16
636.291	23434.84
636.645	23548.73
636.999	23393.25
637.352	23532.69
637.706	23292.47
638.06	23401.84
638.413	23399.81
638.767	23367.49
639.121	23335.4
639.474	23302.86
639.828	23173.37
640.181	23299.25
640.534	23247.95
640.888	23120.27
641.241	23057.44
641.594	23083.21
641.947	23214.95
642.301	23135.63
642.654	23114.17
643.007	23092.92
643.36	23093.83
643.713	22996.2
644.066	23211.56
644.419	22990.1
644.771	22775.19
645.124	22675.76
645.477	22642.99
645.83	22434.18
646.182	22385.37
646.535	22303.57
646.888	22398.48
647.24	22196.68
647.593	22439.38
647.945	22428.76
648.298	22305.6
648.65	22097.7
649.002	22143.57
649.355	22264.02
649.707	22193.06
650.059	22303.57
650.411	22561.86
650.763	22656.55
651.115	22852.03
651.467	22738.36
651.819	22791.46
652.171	22786.04
652.523	22718.02
652.875	22707.85
653.227	22552.6
653.578	22739.94
653.93	22731.8
654.282	22628.53
654.633	22602.77
654.985	22611.58
655.337	22598.47
655.688	22617.68
656.039	22716.21
656.391	22473.51
656.742	22562.99
657.094	22669.66
657.445	22682.77
657.796	22583.78
658.147	22703.1
658.498	22567.74
658.849	22605.25
659.2	22651.35
659.551	22665.36
659.902	22710.79
660.253	22660.62
660.604	22715.31
660.955	22580.39
661.306	22712.82
661.656	22555.31
662.007	22603.67
662.358	22679.38
662.708	22576.1
663.059	22535.65
663.409	22396.67
663.76	22588.98
664.11	22646.83
664.461	22694.06
664.811	22633.5
665.161	22542.2
665.511	22512.83
665.862	22569.32
666.212	22666.72
666.562	22622.43
666.912	22554.63
667.262	22525.03
667.612	22597.12
667.962	22654.97
668.312	22518.48
668.662	22647.29
669.011	22616.1
669.361	22539.49
669.711	22568.64
670.06	22510.57
670.41	22498.82
670.76	22475.09
671.109	22532.49
671.459	22556.44
671.808	22440.51
672.157	22624.01
672.507	22373.85
672.856	22331.81
673.205	22363.68
673.554	22479.38
673.904	22451.58
674.253	22388.76
674.602	22482.32
674.951	22004.59
675.3	21999.39
675.649	22355.99
675.998	22237.81
676.346	22289.56
676.695	22329.78
677.044	22090.92
677.393	22274.19
677.741	22289.78
678.09	22226.73
678.438	22128.2
678.787	22156.45
679.135	22164.13
679.484	22076.45
679.832	22099.5
680.181	21974.08
680.529	22012.73
680.877	21991.26
681.225	21952.61
681.573	22031.03
681.922	21929.56
682.27	21970.69
682.618	21922.56
682.966	21817.48
683.314	21939.96
683.661	21745.84
684.009	21656.35
684.357	21696.58
684.705	21644.6
685.053	21633.3
685.4	21499.75
685.748	21496.13
686.095	21531.61
686.443	21385.17
686.79	21309.02
687.138	21434.21
687.485	21287.1
687.832	21255.23
688.18	21177.72
688.527	21156.25
688.874	21202.8
689.221	21093.43
689.568	21008.91
689.915	20958.97
690.262	21049.81
690.609	20885.75
690.956	20887.11
691.303	20732.08
691.65	20642.82
691.997	20672.2
692.344	20553.1
692.69	20601.01
693.037	20584.06
693.383	20392.88
693.73	20412.54
694.077	20317.86
694.423	20277.86
694.769	20186.79
695.116	20178.42
695.462	20192.44
695.808	20015.94
696.155	20072.44
696.501	19881.48
696.847	19865.89
697.193	19790.64
697.539	19817.08
697.885	19601.04
698.231	19579.8
698.577	19635.61
698.923	19486.92
699.269	19425.68
699.614	19351.55
699.96	19321.5
700.306	19284.66
700.651	19165.12
700.997	19176.64
701.342	19051.67
701.688	18950.43
702.033	18934.39
702.379	19037.89
702.724	18910.43
703.069	18986.59
703.415	18555.87
703.76	18698.46
704.105	18711.34
704.45	18667.96
704.795	18483.78
705.14	18488.3
705.485	18464.12
705.83	18353.16
706.175	18467.96
706.52	18337.79
706.865	18235.42
707.209	18192.71
707.554	18075.43
707.899	18135.09
708.243	18194.52
708.588	18001.98
708.932	17907.07
709.277	17914.53
709.621	17798.83
709.966	17809
710.31	17868.65
710.654	17609.68
710.998	17814.42
711.342	17770.35
711.687	17543.01
712.031	17636.12
712.375	17562
712.719	17585.72
713.063	17456.24
713.407	17512.28
713.75	17367.2
714.094	17400.87
714.438	17300.08
714.782	17368.55
715.125	17232.74
715.469	17281.78
715.812	17282.23
716.156	17108.9
716.499	17188.45
716.843	17216.92
717.186	17103.02
717.53	17133.08
717.873	17143.25
718.216	17055.57
718.559	16983.03
718.902	16805.63
719.246	16943.48
719.589	16834.56
719.932	16802.24
720.275	16814.22
720.617	16809.47
720.96	16706.43
721.303	16746.42
721.646	16694
721.989	16671.85
722.331	16639.08
722.674	16561.34
723.016	16597.73
723.359	16614.68
723.701	16535.58
724.044	16514.11
724.386	16507.33
724.729	16530.61
725.071	16457.17
725.413	16416.26
725.755	16392.76
726.097	16302.82
726.439	16318.19
726.782	16345.3
727.124	16358.64
727.465	16317.51
727.807	16278.87
728.149	16283.16
728.491	16183.95
728.833	16208.81
729.175	16344.63
729.516	16191.86
729.858	16101.92
730.199	16143.05
730.541	16152.32
730.882	16142.37
731.224	16233.67
731.565	16089.94
731.906	16040.45
732.248	16087.68
732.589	16137.4
732.93	15976.73
733.271	16043.39
733.612	16095.14
733.953	16124.29
734.294	16040.23
734.635	16003.39
734.976	16045.88
735.317	15896.95
735.658	15943.51
735.999	15991.64
736.339	15897.86
736.68	15977.86
737.021	15847.01
737.361	15803.62
737.702	16043.84
738.042	15905.32
738.383	15901.7
738.723	15955.03
739.063	15899.67
739.404	15911.64
739.744	15873.45
740.084	15835.49
740.424	15915.94
740.764	15817.86
741.104	15878.2
741.444	15895.37
741.784	15858.54
742.124	15851.76
742.464	15866
742.804	15838.2
743.143	15810.86
743.483	15846.33
743.823	15831.87
744.162	15843.17
744.502	15834.58
744.841	15749.39
745.181	16008.14
745.52	15846.79
745.86	15937.63
746.199	15982.6
746.538	15947.35
746.877	16012.21
747.216	16071.64
747.556	15996.84
747.895	16067.57
748.234	16023.51
748.573	16082.49
748.911	16133.56
749.25	16099.89
749.589	16125.42
749.928	16250.84
750.267	16201.13
750.605	16194.57
750.944	16291.75
751.283	16200.22
751.621	16445.42
751.96	16429.82
752.298	16496.04
752.636	16554.56
752.975	16578.97
753.313	16557.05
753.651	16754.11
753.989	16662.81
754.327	16790.49
754.666	16804.95
755.004	16957.04
755.342	16990.03
755.679	17094.89
756.017	16955.68
756.355	17217.6
756.693	17167.88
757.031	17217.15
