Data from hue_20_FLMS001491_41.txt Node
Date: Mon Feb 06 15:34:10 GMT 2017
User: dcchb
Spectrometer: FLMS00149
Trigger mode: 0
Integration Time (sec): 2.000000E-2
Scans to average: 10
Electric dark correction enabled: true
Nonlinearity correction enabled: false
Boxcar width: 0
XAxis mode: Wavelengths
Number of Pixels in Spectrum: 2048
>>>>>Begin Spectral Data<<<<<
341.393	-0.72
341.776	-0.72
342.16	-0.72
342.543	-61.28
342.927	-65.13
343.31	-80.94
343.693	-63.54
344.077	-51.79
344.46	-70.55
344.843	-60.38
345.226	-61.74
345.61	-42.75
345.993	-34.39
346.376	28.43
346.759	2.67
347.142	32.05
347.525	32.27
347.908	72.95
348.291	84.93
348.674	101.42
349.057	111.37
349.44	121.08
349.823	134.42
350.206	153.63
350.588	184.81
350.971	212.61
351.354	245.83
351.737	227.97
352.119	239.73
352.502	249.44
352.884	282.66
353.267	285.83
353.65	313.4
354.032	312.72
354.414	323.11
354.797	325.37
355.179	330.8
355.562	321.98
355.944	329.44
356.326	359.72
356.709	334.64
357.091	348.65
357.473	360.85
357.855	339.61
358.238	356.33
358.62	357.91
359.002	366.73
359.384	347.29
359.766	339.61
360.148	345.26
360.53	348.2
360.912	333.73
361.294	325.6
361.676	336.45
362.057	332.6
362.439	309.1
362.821	338.48
363.203	332.6
363.584	335.54
363.966	327.63
364.348	341.42
364.729	315.2
365.111	327.86
365.493	333.06
365.874	318.59
366.256	338.25
366.637	305.26
367.019	306.84
367.4	311.14
367.781	329.67
368.163	321.31
368.544	330.34
368.925	313.85
369.306	317.46
369.688	310.91
370.069	339.16
370.45	325.37
370.831	320.4
371.212	329.89
371.593	332.83
371.974	323.11
372.355	293.51
372.736	329.44
373.117	331.02
373.498	302.77
373.879	311.81
374.26	311.81
374.641	324.69
375.021	338.93
375.402	322.89
375.783	338.25
376.163	321.08
376.544	320.18
376.925	329.89
377.305	333.73
377.686	370.57
378.066	326.5
378.447	334.19
378.827	338.48
379.208	337.8
379.588	332.6
379.968	344.81
380.349	335.99
380.729	361.53
381.109	330.8
381.489	352.04
381.87	347.52
382.25	365.82
382.63	338.48
383.01	331.7
383.39	351.36
383.77	353.85
384.15	360.4
384.53	361.98
384.91	363.56
385.29	342.55
385.67	360.4
386.049	386.39
386.429	368.76
386.809	354.98
387.189	363.11
387.568	393.85
387.948	356.11
388.328	360.4
388.707	362.66
389.087	359.95
389.466	385.71
389.846	357.91
390.225	357.69
390.605	360.63
390.984	382.09
391.363	374.86
391.743	374.86
392.122	377.57
392.501	385.03
392.881	386.84
393.26	395.43
393.639	397.24
394.018	388.65
394.397	383.22
394.776	393.39
395.155	392.49
395.534	396.78
395.913	411.7
396.292	402.66
396.671	395.2
397.05	406.95
397.429	396.33
397.808	402.88
398.186	396.33
398.565	416.44
398.944	416.22
399.323	407.63
399.701	396.56
400.08	413.96
400.458	432.26
400.837	416.22
401.215	418.03
401.594	425.71
401.972	424.58
402.351	424.58
402.729	431.81
403.107	441.53
403.486	422.09
403.864	435.43
404.242	438.82
404.62	444.24
404.999	436.56
405.377	427.07
405.755	448.53
406.133	444.92
406.511	443.79
406.889	464.58
407.267	468.65
407.645	476.1
408.023	440.4
408.401	465.71
408.779	469.1
409.156	457.35
409.534	457.57
409.912	465.93
410.29	454.18
410.667	479.49
411.045	482.2
411.422	473.17
411.8	513.84
412.178	496.89
412.555	498.25
412.933	480.17
413.31	482.66
413.687	510
414.065	501.19
414.442	516.55
414.819	519.04
415.197	527.85
415.574	526.95
415.951	501.64
416.328	531.92
416.705	510.68
417.082	520.62
417.46	541.41
417.837	548.42
418.214	538.47
418.591	543.9
418.967	545.93
419.344	538.02
419.721	530.34
420.098	547.06
420.475	559.94
420.852	560.39
421.228	553.16
421.605	565.37
421.982	560.17
422.358	558.14
422.735	571.47
423.111	580.06
423.488	579.6
423.864	583.22
424.241	600.17
424.617	598.59
424.994	594.07
425.37	599.94
425.746	618.02
426.123	605.14
426.499	595.2
426.875	627.74
427.251	594.29
427.627	629.77
428.003	636.1
428.379	627.74
428.756	650.34
429.132	624.57
429.507	664.35
429.883	649.21
430.259	667.06
430.635	678.13
431.011	672.03
431.387	675.87
431.763	700.05
432.138	697.11
432.514	703.22
432.89	681.75
433.265	693.95
433.641	703.67
434.016	736.89
434.392	734.85
434.767	738.02
435.143	742.99
435.518	759.49
435.894	749.32
436.269	768.3
436.644	776.21
437.02	780.95
437.395	764.68
437.77	774.4
438.145	797.22
438.52	777.11
438.895	777.34
439.271	813.5
439.646	799.48
440.021	831.12
440.395	840.61
440.77	800.39
441.145	819.37
441.52	846.72
441.895	842.2
442.27	833.61
442.645	832.03
443.019	854.85
443.394	860.95
443.769	861.4
444.143	843.1
444.518	860.73
444.892	883.32
445.267	864.34
445.641	879.26
446.016	886.94
446.39	897.34
446.764	902.08
447.139	916.54
447.513	924
447.887	898.47
448.262	920.39
448.636	929.42
449.01	922.65
449.384	933.49
449.758	953.15
450.132	946.37
450.506	974.85
450.88	980.72
451.254	963.32
451.628	965.36
452.002	960.16
452.376	987.28
452.75	998.8
453.123	1026.82
453.497	1013.04
453.871	1028.86
454.244	1036.99
454.618	1056.88
454.992	1074.28
455.365	1051.23
455.739	1089.42
456.112	1088.97
456.486	1109.08
456.859	1105.69
457.232	1110.44
457.606	1089.87
457.979	1157.89
458.352	1159.7
458.725	1156.99
459.099	1153.15
459.472	1172.36
459.845	1184.33
460.218	1208.97
460.591	1211.9
460.964	1227.72
461.337	1255.52
461.71	1223.2
462.083	1276.76
462.456	1266.82
462.829	1234.95
463.201	1305.69
463.574	1310.21
463.947	1326.25
464.32	1344.56
464.692	1356.53
465.065	1362.86
465.438	1400.6
465.81	1416.87
466.183	1433.14
466.555	1431.56
466.928	1450.31
467.3	1476.08
467.672	1470.88
468.045	1554.72
468.417	1520.37
468.789	1540.71
469.161	1564.89
469.534	1582.06
469.906	1594.27
470.278	1622.06
470.65	1642.17
471.022	1636.75
471.394	1681.5
471.766	1723.53
472.138	1703.19
472.51	1783.19
472.882	1793.36
473.253	1837.42
473.625	1841.94
473.997	1883.3
474.369	1914.94
474.74	1908.16
475.112	1975.72
475.484	1985.67
475.855	2079.22
476.227	2039.9
476.598	2060.24
476.97	2092.56
477.341	2155.83
477.713	2168.49
478.084	2256.17
478.455	2278.32
478.827	2305.21
479.198	2347.24
479.569	2369.61
479.94	2418.65
480.311	2509.5
480.682	2531.64
481.053	2568.03
481.424	2652.77
481.795	2624.75
482.166	2672.2
482.537	2744.74
482.908	2775.93
483.279	2791.3
483.65	2915.59
484.021	2937.28
484.391	2987.68
484.762	3020.67
485.133	3045.3
485.503	3091.4
485.874	3175.02
486.244	3205.07
486.615	3263.83
486.985	3306.09
487.356	3381.11
487.726	3385.86
488.097	3485.74
488.467	3549.92
488.837	3561.9
489.207	3623.82
489.578	3740.2
489.948	3714.44
490.318	3786.98
490.688	3835.79
491.058	3865.17
491.428	3919.85
491.798	3979.29
492.168	4065.61
492.538	4068.55
492.908	4159.4
493.278	4166.85
493.648	4177.47
494.017	4229
494.387	4290.47
494.757	4323.46
495.126	4325.95
495.496	4375.44
495.866	4436.23
496.235	4535.43
496.605	4507.86
496.974	4606.39
497.344	4600.51
497.713	4629.67
498.082	4692.72
498.452	4736.33
498.821	4745.6
499.19	4736.1
499.559	4808.19
499.928	4856.78
500.298	4934.97
500.667	4955.08
501.036	4944.01
501.405	5053.16
501.774	4994.85
502.143	5092.93
502.512	5043.89
502.88	5110.56
503.249	5097.68
503.618	5151.69
503.987	5200.27
504.356	5222.87
504.724	5192.82
505.093	5280.27
505.462	5251.12
505.83	5335.41
506.199	5395.75
506.567	5413.15
506.936	5403.21
507.304	5478.46
507.672	5495.18
508.041	5547.16
508.409	5528.63
508.777	5593.26
509.145	5611.79
509.514	5647.27
509.882	5610.43
510.25	5616.99
510.618	5733.14
510.986	5762.74
511.354	5779.24
511.722	5858.79
512.09	5869.63
512.458	5855.4
512.826	5913.7
513.193	5947.6
513.561	6016.52
513.929	5984.43
514.297	6023.3
514.664	6078.44
515.032	6112.57
515.4	6152.79
515.767	6162.06
516.135	6176.07
516.502	6145.11
516.869	6216.52
517.237	6247.25
517.604	6245.22
517.972	6305.1
518.339	6347.81
518.706	6373.8
519.073	6407.7
519.44	6392.33
519.808	6456.06
520.175	6476.17
520.542	6537.19
520.909	6523.18
521.276	6503.74
521.643	6645.66
522.009	6616.28
522.376	6698.09
522.743	6742.15
523.11	6758.2
523.477	6844.52
523.843	6878.65
524.21	6900.57
524.577	6942.83
524.943	6934.46
525.31	7000
525.676	7014.01
526.043	7082.48
526.409	7118.87
526.776	7194.8
527.142	7150.28
527.508	7198.41
527.874	7289.48
528.241	7327.22
528.607	7368.8
528.973	7421.23
529.339	7378.07
529.705	7521.34
530.071	7587.33
530.437	7568.35
530.803	7615.58
531.169	7734.67
531.535	7735.12
531.901	7738.74
532.267	7751.84
532.632	7830.26
532.998	7848.79
533.364	7875.68
533.73	7908
534.095	7956.36
534.461	7948.9
534.826	7996.36
535.192	8069.12
535.557	8076.81
535.923	8110.48
536.288	8145.28
536.653	8166.3
537.019	8101.44
537.384	8184.15
537.749	8246.97
538.114	8290.36
538.479	8320.42
538.845	8342.34
539.21	8346.63
539.575	8452.39
539.94	8463.46
540.305	8471.37
540.67	8468.44
541.034	8460.3
541.399	8540.52
541.764	8619.62
542.129	8621.88
542.494	8709.56
542.858	8717.47
543.223	8746.39
543.587	8764.7
543.952	8764.92
544.316	8788.43
544.681	8880.85
545.045	8839.73
545.41	8961.3
545.774	8933.96
546.138	8966.28
546.503	8964.69
546.867	9038.59
547.231	9053.73
547.595	9128.53
547.959	9149.32
548.324	9131.24
548.688	9264.35
549.052	9309.32
549.416	9186.83
549.779	9300.05
550.143	9356.55
550.507	9305.7
550.871	9378.69
551.235	9359.26
551.599	9463.44
551.962	9560.16
552.326	9535.75
552.689	9592.25
553.053	9549.09
553.417	9587.95
553.78	9709.08
554.143	9609.87
554.507	9752.92
554.87	9780.94
555.234	9806.71
555.597	9827.5
555.96	9792.92
556.323	9782.3
556.686	9903.43
557.05	9896.42
557.413	10001.73
557.776	10007.6
558.139	10039.47
558.502	10061.39
558.865	10136.41
559.228	10205.56
559.59	10232.23
559.953	10204.44
560.316	10324.21
560.679	10307.26
561.041	10353.13
561.404	10423.64
561.767	10458.89
562.129	10388.84
562.492	10483.07
562.854	10541.83
563.217	10506.35
563.579	10559.45
563.941	10693.91
564.304	10667.02
564.666	10788.15
565.028	10793.12
565.39	10753.57
565.753	10804.65
566.115	10918.99
566.477	10910.63
566.839	10946.34
567.201	10986.34
567.563	11023.17
567.925	11093
568.287	11020.68
568.648	11199.44
569.01	11244.63
569.372	11270.85
569.734	11303.16
570.095	11379.77
570.457	11389.04
570.819	11431.52
571.18	11442.59
571.542	11493.21
571.903	11589.71
572.265	11622.25
572.626	11724.17
572.987	11701.34
573.349	11714
573.71	11830.61
574.071	11884.84
574.432	11865.86
574.794	12065.18
575.155	12055.01
575.516	12046.87
575.877	12110.37
576.238	12242.57
576.599	12323.02
576.96	12335.9
577.32	12425.39
577.681	12490.02
578.042	12604.15
578.403	12638.27
578.763	12791.26
579.124	12817.93
579.485	13089.33
579.845	13131.59
580.206	13178.37
580.566	13315.09
580.927	13377.01
581.287	13554.63
581.648	13582.88
582.008	13740.84
582.368	13976.31
582.728	14005.69
583.089	14128.4
583.449	14323.65
583.809	14488.39
584.169	14625.79
584.529	14842.28
584.889	15109.39
585.249	15204.53
585.609	15320.23
585.969	15573.33
586.329	15693.78
586.688	15942.14
587.048	16204.96
587.408	16340.09
587.768	16566.53
588.127	16784.15
588.487	16886.29
588.846	17384.13
589.206	17516.33
589.565	17758.13
589.925	18077.45
590.284	18234.73
590.643	18634.5
591.003	18955.84
591.362	19168.27
591.721	19490.29
592.08	19701.59
592.44	20060.9
592.799	20251.85
593.158	20598.29
593.517	20925.51
593.876	21187.65
594.235	21438.94
594.593	21764.13
594.952	22062.2
595.311	22273.04
595.67	22646.59
596.029	23090.42
596.387	23351.66
596.746	23693.57
597.104	23884.3
597.463	24280.68
597.822	24772.87
598.18	25034.78
598.538	25093.76
598.897	25658.49
599.255	25804.48
599.613	26393.84
599.972	26600.16
600.33	27006.93
600.688	27074.27
601.046	27477.43
601.404	27934.36
601.762	28102.27
602.12	28629.94
602.478	28909.48
602.836	29155.12
603.194	29264.27
603.552	29671.95
603.91	29793.3
604.268	30306.05
604.625	30359.84
604.983	30819.49
605.341	30870.56
605.698	31333.6
606.056	31716.64
606.413	31998.44
606.771	32331.76
607.128	32686.78
607.485	32752.54
607.843	32980.33
608.2	33359.98
608.557	33761.78
608.914	33938.73
609.272	34378.49
609.629	34529.22
609.986	34734.64
610.343	34822.54
610.7	35294.4
611.057	35432.7
611.414	35682.86
611.771	35944.55
612.127	36332.79
612.484	36381.15
612.841	36717.64
613.198	36756.28
613.554	37028.14
613.911	37356.04
614.267	37483.72
614.624	37621.57
614.98	38020.2
615.337	38182.46
615.693	38322.34
616.05	38474.88
616.406	38703.35
616.762	38884.81
617.118	38888.88
617.475	39187.85
617.831	39405.25
618.187	39566.37
618.543	39817.44
618.899	40094.72
619.255	40130.43
619.611	40214.04
619.967	40325.23
620.323	40680.7
620.678	40597.76
621.034	40714.59
621.39	40803.4
621.746	40991.42
622.101	41477.29
622.457	41187.8
622.812	41418.53
623.168	41501.01
623.523	41672.53
623.879	41912.3
624.234	41757.05
624.589	41966.76
624.945	42021.23
625.3	42273.87
625.655	42213.54
626.01	42316.81
626.365	42272.97
626.72	42406.98
627.075	42476.81
627.43	42552.96
627.785	42480.87
628.14	42744.6
628.495	42874.54
628.85	42886.51
629.205	42777.59
629.559	43072.95
629.914	42986.85
630.269	43088.99
630.623	42976.23
630.978	43077.24
631.332	43256.22
631.687	43271.14
632.041	43166.73
632.396	43401.53
632.75	43182.33
633.104	43338.03
633.459	43182.33
633.813	43257.8
634.167	43173.74
634.521	43196.34
634.875	43233.4
635.229	43154.08
635.583	43118.82
635.937	43191.59
636.291	43200.63
636.645	43244.47
636.999	43308.42
637.352	43476.55
637.706	43177.81
638.06	43281.31
638.413	43369.89
638.767	43220.29
639.121	43390.68
639.474	43205.6
639.828	43269.55
640.181	43297.35
640.534	43423.45
640.888	43261.42
641.241	43153.85
641.594	43169.67
641.947	43350.23
642.301	43290.34
642.654	43148.43
643.007	43176.22
643.36	43169.9
643.713	43092.16
644.066	43303
644.419	43028.2
644.771	42749.57
645.124	42459.86
645.477	42268.68
645.83	42230.49
646.182	42182.13
646.535	41944.39
646.888	42032.52
647.24	41898.07
647.593	42176.25
647.945	42022.81
648.298	41815.58
648.65	41608.13
649.002	41641.8
649.355	41778.75
649.707	41850.16
650.059	42055.57
650.411	42378.73
650.763	42457.82
651.115	42832.28
651.467	42799.74
651.819	42769.45
652.171	42759.96
652.523	42709.57
652.875	42835.44
653.227	42550.7
653.578	42914.54
653.93	42709.34
654.282	42485.17
654.633	42456.02
654.985	42696.69
655.337	42586.18
655.688	42621.66
656.039	42668.21
656.391	42246.76
656.742	42351.16
657.094	42482.46
657.445	42400.2
657.796	42569.23
658.147	42355.91
658.498	42455.34
658.849	42436.81
659.2	42376.7
659.551	42312.52
659.902	42535.11
660.253	42284.5
660.604	42472.29
660.955	42234.1
661.306	42431.38
661.656	42275.68
662.007	42296.92
662.358	42285.85
662.708	42282.91
663.059	42303.03
663.409	41979.87
663.76	42290.6
664.11	42219.64
664.461	42276.81
664.811	42234.55
665.161	42176.93
665.511	42128.57
665.862	42223.71
666.212	42371.95
666.562	42298.73
666.912	42080.89
667.262	42157.27
667.612	42244.72
667.962	42300.54
668.312	42107.33
668.662	42392.29
669.011	42225.97
669.361	42180.77
669.711	42114.78
670.06	42061.45
670.41	41960.21
670.76	42138.51
671.109	42137.38
671.459	42139.64
671.808	41938.29
672.157	42045.18
672.507	41934.9
672.856	41941.45
673.205	41990.49
673.554	42007.21
673.904	42011.96
674.253	42069.36
674.602	41862.13
674.951	41390.28
675.3	41194.35
675.649	41849.93
675.998	41770.61
676.346	41685.64
676.695	41956.14
677.044	41688.35
677.393	41805.64
677.741	41754.11
678.09	41708.47
678.438	41525.19
678.787	41689.48
679.135	41629.37
679.484	41301.7
679.832	41561.58
680.181	41407.46
680.529	41438.19
680.877	41379.43
681.225	41289.04
681.573	41578.75
681.922	41297.85
682.27	41189.61
682.618	41183.96
682.966	41120.01
683.314	41055.38
683.661	40962.95
684.009	40867.36
684.357	40761.6
684.705	40573.13
685.053	40739.23
685.4	40654.93
685.748	40479.35
686.095	40557.99
686.443	40352.57
686.79	40371.1
687.138	40480.25
687.485	40353.92
687.832	40297.43
688.18	40362.96
688.527	40065.12
688.874	40029.41
689.221	39928.17
689.568	39896.31
689.915	39745.13
690.262	39823.09
690.609	39574.96
690.956	39494.74
691.303	39463.1
691.65	39348.3
691.997	39335.19
692.344	39176.33
692.69	39106.73
693.037	38921.65
693.383	38845.94
693.73	38839.84
694.077	38581.32
694.423	38684.14
694.769	38650.01
695.116	38383.81
695.462	38494.54
695.808	38378.61
696.155	38332.74
696.501	38088.22
696.847	38086.41
697.193	37818.62
697.539	38059.75
697.885	37640.1
698.231	37642.13
698.577	37770.49
698.923	37560.1
699.269	37321.91
699.614	37166.66
699.96	37165.53
700.306	37114.91
700.651	37020.23
700.997	36839.44
701.342	36946.78
701.688	36958.76
702.033	36693.91
702.379	36648.71
702.724	36530.3
703.069	36563.97
703.415	36062.29
703.76	36250.08
704.105	36401.49
704.45	36092.12
704.795	35982.74
705.14	35828.39
705.485	35796.98
705.83	35653.71
706.175	35774.16
706.52	35711.34
706.865	35564.22
707.209	35496.2
707.554	35306.37
707.899	35502.53
708.243	35268.86
708.588	35182.31
708.932	34929.43
709.277	34844.92
709.621	35001.75
709.966	34823
710.31	34886.05
710.654	34470.01
710.998	34565.38
711.342	34658.26
711.687	34540.97
712.031	34319.73
712.375	34301.88
712.719	34347.76
713.063	34264.59
713.407	34335.55
713.75	34017.37
714.094	34071.38
714.438	34053.98
714.782	34013.3
715.125	33861.44
715.469	33925.85
715.812	33762.46
716.156	33597.72
716.499	33548.68
716.843	33526.08
717.186	33415.12
717.53	33435.46
717.873	33552.75
718.216	33413.32
718.559	33206.09
718.902	32971.52
719.246	33091.74
719.589	33026.89
719.932	32896.27
720.275	32891.75
720.617	33006.32
720.96	32802.71
721.303	32757.74
721.646	32828.47
721.989	32564.75
722.331	32710.74
722.674	32506.22
723.016	32606.11
723.359	32484.75
723.701	32476.39
724.044	32287.47
724.386	32208.6
724.729	32305.32
725.071	32269.39
725.413	32079.79
725.755	32114.14
726.097	31966.12
726.439	31734.49
726.782	31871.21
727.124	32042.05
727.465	31760.93
727.807	31804.77
728.149	31670.54
728.491	31649.07
728.833	31626.24
729.175	31533.14
729.516	31564.78
729.858	31535.17
730.199	31580.82
730.541	31441.84
730.882	31349.87
731.224	31536.53
731.565	31072.36
731.906	31206.14
732.248	31317.1
732.589	31075.98
732.93	31038.01
733.271	30951.69
733.612	31118.01
733.953	30968.41
734.294	30874.17
734.635	30859.03
734.976	30868.3
735.317	30661.98
735.658	30651.13
735.999	30767.06
736.339	30727.96
736.68	30699.94
737.021	30438.48
737.361	30504.01
737.702	30762.09
738.042	30475.77
738.383	30263.79
738.723	30487.07
739.063	30248.65
739.404	30421.98
739.744	30301.08
740.084	30117.36
740.424	30113.74
740.764	30264.47
741.104	30122.78
741.444	30000.75
741.784	29916.01
742.124	29992.62
742.464	29920.98
742.804	29887.08
743.143	29760.31
743.483	29829
743.823	29686.18
744.162	29735.45
744.502	29832.62
744.841	29487.54
745.181	29643.02
745.52	29498.84
745.86	29507.43
746.199	29567.54
746.538	29451.39
746.877	29488.22
747.216	29491.16
747.556	29339.75
747.895	29330.94
748.234	29194.9
748.573	29252.75
748.911	29141.56
749.25	29104.5
749.589	29038.97
749.928	28938.41
750.267	29038.52
750.605	28960.78
750.944	28929.82
751.283	28818.63
751.621	28770.05
751.96	28626.78
752.298	28735.93
752.636	28568.25
752.975	28594.46
753.313	28372.32
753.651	28648.02
753.989	28352.88
754.327	28396.5
754.666	28274.69
755.004	28228.14
755.342	28212.32
755.679	28144.75
756.017	28070.18
756.355	28181.59
756.693	28031.08
757.031	28056.4
757.368	27817.08
757.706	27843.52
758.044	27731.43
758.381	27765.33
758.719	27662.96
759.056	27656.86
759.394	27606.46
