Data from hue_00_FLMS001491_52.txt Node
Date: Mon Feb 06 15:29:54 GMT 2017
User: dcchb
Spectrometer: FLMS00149
Trigger mode: 0
Integration Time (sec): 2.000000E-2
Scans to average: 10
Electric dark correction enabled: true
Nonlinearity correction enabled: false
Boxcar width: 0
XAxis mode: Wavelengths
Number of Pixels in Spectrum: 2048
>>>>>Begin Spectral Data<<<<<
341.393	-27.78
341.776	-27.78
342.16	-27.78
342.543	-67.33
342.927	-91.73
343.31	-81.79
343.693	-63.04
344.077	-47.67
344.46	-77.5
344.843	-40.66
345.226	-58.29
345.61	-26.43
345.993	-11.51
346.376	13.12
346.759	9.96
347.142	40.92
347.525	38.21
347.908	59.67
348.291	70.29
348.674	94.7
349.057	80.01
349.44	114.14
349.823	111.42
350.206	159.11
350.588	177.64
350.971	230.97
351.354	210.18
351.737	213.12
352.119	252.66
352.502	268.03
352.884	246.34
353.267	277.97
353.65	284.75
354.032	277.75
354.414	314.58
354.797	304.86
355.179	315.49
355.562	313
355.944	316.84
356.326	336.05
356.709	326.56
357.091	334.69
357.473	342.83
357.855	336.95
358.238	318.42
358.62	333.34
359.002	324.98
359.384	326.33
359.766	320.23
360.148	359.33
360.53	330.17
360.912	329.27
361.294	307.35
361.676	324.75
362.057	317.52
362.439	308.25
362.821	317.07
363.203	299.22
363.584	310.06
363.966	298.31
364.348	311.42
364.729	305.99
365.111	295.83
365.493	324.07
365.874	306.22
366.256	320.23
366.637	300.35
367.019	309.84
367.4	339.44
367.781	323.62
368.163	301.7
368.544	313
368.925	294.24
369.306	330.17
369.688	297.63
370.069	294.47
370.45	306.67
370.831	314.36
371.212	306.67
371.593	285.66
371.974	296.28
372.355	305.99
372.736	297.18
373.117	282.27
373.498	300.57
373.879	306.67
374.26	308.71
374.641	283.17
375.021	303.73
375.402	300.8
375.783	304.64
376.163	314.58
376.544	309.84
376.925	315.94
377.305	299.44
377.686	333.79
378.066	314.81
378.447	336.73
378.827	319.78
379.208	339.21
379.588	310.29
379.968	341.25
380.349	345.54
380.729	319.1
381.109	317.29
381.489	327.46
381.87	334.69
382.25	331.08
382.63	330.4
383.01	346.22
383.39	329.5
383.77	333.56
384.15	314.58
384.53	313
384.91	327.46
385.29	333.79
385.67	334.92
386.049	328.37
386.429	318.2
386.809	349.84
387.189	322.94
387.568	332.89
387.948	328.59
388.328	343.96
388.707	350.06
389.087	347.58
389.466	352.77
389.846	335.6
390.225	352.55
390.605	350.29
390.984	338.54
391.363	336.28
391.743	352.1
392.122	363.17
392.501	354.58
392.881	359.78
393.26	345.77
393.639	348.03
394.018	360.68
394.397	374.02
394.776	351.64
395.155	356.39
395.534	352.32
395.913	385.99
396.292	371.3
396.671	366.11
397.05	370.85
397.429	366.78
397.808	376.95
398.186	388.93
398.565	361.36
398.944	372.89
399.323	366.56
399.701	372.66
400.08	379.89
400.458	371.53
400.837	400.46
401.215	378.54
401.594	394.13
401.972	395.48
402.351	376.73
402.729	379.21
403.107	384.86
403.486	385.09
403.864	402.04
404.242	384.86
404.62	383.05
404.999	409.49
405.377	376.95
405.755	383.96
406.133	376.73
406.511	405.2
406.889	419.21
407.267	403.39
407.645	392.77
408.023	401.13
408.401	408.14
408.779	387.12
409.156	375.6
409.534	394.81
409.912	418.31
410.29	393
410.667	439.55
411.045	436.84
411.422	426.22
411.8	449.27
412.178	401.81
412.555	423.73
412.933	445.2
413.31	437.97
413.687	445.65
414.065	438.19
414.442	425.77
414.819	450.17
415.197	444.97
415.574	465.31
415.951	462.37
416.328	456.27
416.705	453.79
417.082	461.47
417.46	459.66
417.837	470.06
418.214	483.39
418.591	495.37
418.967	528.14
419.344	479.32
419.721	503.05
420.098	480
420.475	492.66
420.852	481.81
421.228	511.87
421.605	504.18
421.982	492.2
422.358	516.61
422.735	512.32
423.111	487.46
423.488	492.88
423.864	500.79
424.241	522.26
424.617	518.19
424.994	512.54
425.37	505.54
425.746	534.69
426.123	531.3
426.499	548.25
426.875	542.15
427.251	547.34
427.627	560.68
428.003	571.98
428.379	546.44
428.756	536.5
429.132	555.71
429.507	574.91
429.883	567.68
430.259	585.99
430.635	551.41
431.011	570.17
431.387	579.89
431.763	602.03
432.138	611.52
432.514	601.81
432.89	592.31
433.265	611.75
433.641	607.68
434.016	614.24
434.392	636.83
434.767	614.24
435.143	623.27
435.518	634.12
435.894	639.55
436.269	648.36
436.644	628.02
437.02	644.97
437.395	661.92
437.77	640.22
438.145	679.54
438.52	689.49
438.895	670.96
439.271	686.1
439.646	700.56
440.021	701.24
440.395	708.7
440.77	679.32
441.145	690.17
441.52	708.24
441.895	695.36
442.27	713.22
442.645	686.1
443.019	711.86
443.394	720.22
443.769	726.55
444.143	731.07
444.518	738.53
444.892	718.64
445.267	724.29
445.641	721.58
446.016	753.21
446.39	754.34
446.764	741.01
447.139	757.73
447.513	759.32
447.887	764.29
448.262	736.04
448.636	762.25
449.01	767.23
449.384	780.56
449.758	757.73
450.132	766.1
450.506	779.88
450.88	770.39
451.254	774.23
451.628	781.91
452.002	791.41
452.376	811.29
452.75	797.28
453.123	811.29
453.497	807.9
453.871	800.9
454.244	856.04
454.618	841.57
454.992	825.53
455.365	834.57
455.739	861.23
456.112	847
456.486	872.53
456.859	892.19
457.232	903.95
457.606	887.22
457.979	891.06
458.352	922.02
458.725	903.04
459.099	926.77
459.472	926.77
459.845	932.42
460.218	934.23
460.591	937.16
460.964	941.23
461.337	974.23
461.71	995.24
462.083	1016.71
462.456	994.56
462.829	1021.46
463.201	997.95
463.574	1009.25
463.947	1030.95
464.32	1054.45
464.692	1068.69
465.065	1073.88
465.438	1065.97
465.81	1090.15
466.183	1109.14
466.555	1108.91
466.928	1119.31
467.3	1090.38
467.672	1146.65
468.045	1155.01
468.417	1143.03
468.789	1159.08
469.161	1185.52
469.534	1190.04
469.906	1192.3
470.278	1254.9
470.65	1226.87
471.022	1267.1
471.394	1287.21
471.766	1295.35
472.138	1276.14
472.51	1341.22
472.882	1359.98
473.253	1366.98
473.625	1392.52
473.997	1413.76
474.369	1396.36
474.74	1438.39
475.112	1458.05
475.484	1497.38
475.855	1516.81
476.227	1513.87
476.598	1566.98
476.97	1554.78
477.341	1622.57
477.713	1619.18
478.084	1641.1
478.455	1673.19
478.827	1685.85
479.198	1741.44
479.569	1741.89
479.94	1794.32
480.311	1803.13
480.682	1870.7
481.053	1871.38
481.424	1888.1
481.795	1933.97
482.166	1993.41
482.537	2000.19
482.908	2028.44
483.279	2026.85
483.65	2079.06
484.021	2140.97
484.391	2177.58
484.762	2199.5
485.133	2227.53
485.503	2242.67
485.874	2328.54
486.244	2321.99
486.615	2338.71
486.985	2393.17
487.356	2437.24
487.726	2473.4
488.097	2493.73
488.467	2538.7
488.837	2585.48
489.207	2615.09
489.578	2629.78
489.948	2669.55
490.318	2708.87
490.688	2724.24
491.058	2790.22
491.428	2848.98
491.798	2873.16
492.168	2933.04
492.538	2922.42
492.908	2918.36
493.278	2994.29
493.648	3000.84
494.017	3033.61
494.387	3066.37
494.757	3121.29
495.126	3113.38
495.496	3139.14
495.866	3167.61
496.235	3209.87
496.605	3255.07
496.974	3286.48
497.344	3300.27
497.713	3326.93
498.082	3348.4
498.452	3398.34
498.821	3389.98
499.19	3414.84
499.559	3422.07
499.928	3431.34
500.298	3440.15
500.667	3459.81
501.036	3538.68
501.405	3540.26
501.774	3547.49
502.143	3576.19
502.512	3607.15
502.88	3611.67
503.249	3656.42
503.618	3637.21
503.987	3698
504.356	3709.3
504.724	3704.78
505.093	3689.63
505.462	3775.51
505.83	3770.08
506.199	3790.42
506.567	3855.05
506.936	3851.21
507.304	3851.89
507.672	3914.94
508.041	3893.25
508.409	3923.75
508.777	3949.74
509.145	3969.18
509.514	3936.18
509.882	3992.9
510.25	4030.87
510.618	4031.32
510.986	3982.96
511.354	4053.24
511.722	4080.36
512.09	4083.3
512.458	4061.15
512.826	4116.06
513.193	4118.32
513.561	4167.59
513.929	4196.97
514.297	4181.37
514.664	4189.96
515.032	4216.4
515.4	4246.91
515.767	4224.99
516.135	4288.04
516.502	4239.22
516.869	4362.61
517.237	4344.53
517.604	4321.71
517.972	4320.35
518.339	4384.08
518.706	4345.21
519.073	4386.57
519.44	4375.04
519.808	4413.01
520.175	4417.75
520.542	4480.35
520.909	4530.29
521.276	4474.47
521.643	4543.62
522.009	4511.31
522.376	4541.82
522.743	4574.36
523.11	4601.25
523.477	4645.99
523.843	4647.58
524.21	4699.55
524.577	4677.63
524.943	4760.11
525.31	4692.55
525.676	4772.77
526.043	4783.17
526.409	4783.17
526.776	4820.9
527.142	4876.72
527.508	4870.17
527.874	4909.49
528.241	4909.94
528.607	4956.49
528.973	4938.19
529.339	4964.4
529.705	5010.28
530.071	5082.14
530.437	5085.3
530.803	5132.31
531.169	5183.38
531.535	5161.46
531.901	5111.97
532.267	5170.5
532.632	5163.95
532.998	5239.88
533.364	5225.19
533.73	5240.55
534.095	5326.65
534.461	5325.98
534.826	5347.67
535.192	5383.15
535.557	5428.12
535.923	5398.97
536.288	5415.01
536.653	5457.27
537.019	5446.65
537.384	5463.83
537.749	5509.25
538.114	5485.52
538.479	5505.86
538.845	5544.05
539.21	5549.02
539.575	5559.19
539.94	5631.28
540.305	5685.29
540.67	5611.17
541.034	5647.55
541.399	5711.28
541.764	5718.28
542.129	5776.81
542.494	5805.29
542.858	5803.03
543.223	5803.03
543.587	5853.65
543.952	5852.97
544.316	5889.12
544.681	5880.09
545.045	5857.04
545.41	5968.44
545.774	6024.04
546.138	5969.8
546.503	6026.3
546.867	6114.88
547.231	6084.37
547.595	6117.14
547.959	6083.24
548.324	6073.53
548.688	6157.82
549.052	6128.44
549.416	6191.94
549.779	6154.65
550.143	6236.01
550.507	6271.71
550.871	6279.17
551.235	6260.41
551.599	6313.29
551.962	6306.29
552.326	6342.45
552.689	6392.16
553.053	6341.32
553.417	6402.11
553.78	6478.04
554.143	6459.05
554.507	6427.19
554.87	6489.11
555.234	6527.75
555.597	6502.67
555.96	6512.61
556.323	6588.99
556.686	6548.32
557.05	6614.76
557.413	6622.89
557.776	6603
558.139	6687.97
558.502	6718.93
558.865	6691.36
559.228	6709.67
559.59	6801.87
559.953	6795.54
560.316	6827.41
560.679	6845.48
561.041	6848.65
561.404	6847.97
561.767	6909.44
562.129	6925.03
562.492	6985.59
562.854	6958.93
563.217	6934.75
563.579	6970.9
563.941	7070.79
564.304	7051.58
564.666	7064.46
565.028	7103.33
565.39	7078.02
565.753	7122.76
566.115	7218.58
566.477	7225.13
566.839	7257.68
567.201	7262.42
567.563	7294.29
567.925	7306.49
568.287	7347.17
568.648	7393.72
569.01	7466.03
569.372	7455.64
569.734	7429.88
570.095	7462.64
570.457	7584.9
570.819	7522.53
571.18	7580.83
571.542	7637.33
571.903	7640.94
572.265	7709.19
572.626	7726.59
572.987	7775.85
573.349	7851.11
573.71	7859.02
574.071	7936.75
574.432	7921.16
574.794	8047.71
575.155	8118.44
575.516	8087.71
575.877	8188.05
576.238	8216.3
576.599	8275.73
576.96	8300.13
577.32	8366.57
577.681	8451.09
578.042	8493.35
578.403	8611.09
578.763	8695.6
579.124	8779.9
579.485	8836.62
579.845	8964.07
580.206	9007.91
580.566	9105.76
580.927	9174.46
581.287	9378.52
581.648	9435.02
582.008	9527.22
582.368	9703.49
582.728	9789.59
583.089	10002.24
583.449	10017.38
583.809	10162.91
584.169	10339.18
584.529	10442.45
584.889	10751.14
585.249	10756.79
585.609	10964.47
585.969	11211.92
586.329	11334.63
586.688	11487.4
587.048	11663.21
587.408	11864.79
587.768	12130.09
588.127	12266.36
588.487	12542.06
588.846	12806.91
589.206	12926
589.565	13146.34
589.925	13423.84
590.284	13618.41
590.643	13841.01
591.003	14190.6
591.362	14402.8
591.721	14593.75
592.08	14881.43
592.44	15129.56
592.799	15351.93
593.158	15634.18
593.517	15914.4
593.876	16220.6
594.235	16448.4
594.593	16798.44
594.952	17082.05
595.311	17286.57
595.67	17571.76
596.029	17925.87
596.387	18295.58
596.746	18502.13
597.104	18687.43
597.463	18983.24
597.822	19389.11
598.18	19577.13
598.538	19817.57
598.897	20145.47
599.255	20205.13
599.613	20825.68
599.972	20867.71
600.33	21256.18
600.688	21439.9
601.046	21805.54
601.404	22140.45
601.762	22269.49
602.12	22784.95
602.478	22824.05
602.836	23246.63
603.194	23253.64
603.552	23641.2
603.91	23858.6
604.268	24185.59
604.625	24305.36
604.983	24710.55
605.341	24720.27
605.698	25206.13
606.056	25541.94
606.413	25557.08
606.771	26023.28
607.128	26217.18
607.485	26252.43
607.843	26550.05
608.2	26872.98
608.557	27225.29
608.914	27132.18
609.272	27572.17
609.629	27714.99
609.986	28051.48
610.343	28134.42
610.7	28512.94
611.057	28684.23
611.414	28830.22
611.771	29093.26
612.127	29272.24
612.484	29399.47
612.841	29693.47
613.198	29701.15
613.554	29945.22
613.911	30200.8
614.267	30306.11
614.624	30427.01
614.98	30732.09
615.337	30934.34
615.693	31016.6
616.05	31208.01
616.406	31371.39
616.762	31413.65
617.118	31598.05
617.475	31751.5
617.831	31868.78
618.187	32085.27
618.543	32047.99
618.899	32424.7
619.255	32520.74
619.611	32650.68
619.967	32939.04
620.323	32899.94
620.678	32945.81
621.034	32981.97
621.39	33061.74
621.746	33122.76
622.101	33629.86
622.457	33496.76
622.812	33613.59
623.168	33718.22
623.523	33923.64
623.879	34057.2
624.234	33865.56
624.589	34106.69
624.945	34178.32
625.3	34286.8
625.655	34191.88
626.01	34417.87
626.365	34463.97
626.72	34555.72
627.075	34542.38
627.43	34501.71
627.785	34650.63
628.14	34805.2
628.495	34868.48
628.85	34921.36
629.205	34828.25
629.559	34991.18
629.914	34883.62
630.269	35090.16
630.623	35005.42
630.978	34924.75
631.332	35107.34
631.687	35104.63
632.041	35099.43
632.396	35224.17
632.75	35066.89
633.104	35268.47
633.459	35006.55
633.813	35190.73
634.167	35186.66
634.521	35343.94
634.875	35229.82
635.229	35210.84
635.583	35082.71
635.937	35258.3
636.291	35139.43
636.645	35218.75
636.999	35270.27
637.352	35327.45
637.706	35073.44
638.06	35245.19
638.413	35246.54
638.767	35121.12
639.121	35125.19
639.474	35043.16
639.828	35126.32
640.181	35239.31
640.534	35325.64
640.888	35167.68
641.241	35052.65
641.594	35319.09
641.947	35183.04
642.301	35019.66
642.654	35182.37
643.007	35243.83
643.36	34986.44
643.713	35225.53
644.066	35239.09
644.419	34946.21
644.771	34900.34
645.124	34519.11
645.477	34405.44
645.83	34261.26
646.182	34110.53
646.535	34009.52
646.888	34193.47
647.24	34000.25
647.593	34259
647.945	34180.81
648.298	34096.07
648.65	33884.32
649.002	33845.68
649.355	33957.09
649.707	33908.95
650.059	34053.13
650.411	34598.43
650.763	34412.22
651.115	34781.47
651.467	34726.33
651.819	34738.08
652.171	34645.66
652.523	34608.82
652.875	34597.75
653.227	34565.43
653.578	34779.44
653.93	34515.04
654.282	34427.81
654.633	34390.75
654.985	34561.14
655.337	34471.2
655.688	34451.76
656.039	34578.77
656.391	34437.75
656.742	34442.05
657.094	34411.76
657.445	34533.34
657.796	34379.45
658.147	34412.44
658.498	34359.34
658.849	34563.63
659.2	34349.17
659.551	34360.92
659.902	34503.97
660.253	34502.84
660.604	34456.06
660.955	34313.69
661.306	34532.44
661.656	34288.6
662.007	34409.96
662.358	34426
662.708	34306.23
663.059	34190.98
663.409	34083.41
663.76	34286.8
664.11	34341.94
664.461	34400.01
664.811	34420.8
665.161	34301.49
665.511	34334.93
665.862	34234.59
666.212	34393.91
666.562	34284.31
666.912	34219.45
667.262	34201.15
667.612	34263.29
667.962	34186.01
668.312	34263.52
668.662	34317.53
669.011	34145.56
669.361	34112.56
669.711	34138.55
670.06	34093.58
670.41	34215.84
670.76	34037.54
671.109	34343.29
671.459	34082.06
671.808	34018.33
672.157	34230.07
672.507	34069.17
672.856	34039.8
673.205	33965.45
673.554	34142.17
673.904	34042.51
674.253	34209.06
674.602	33993.7
674.951	33503.31
675.3	33429.19
675.649	33916.64
675.998	33907.6
676.346	33847.94
676.695	34133.35
677.044	33737.21
677.393	33705.12
677.741	33917.99
678.09	33874.83
678.438	33694.04
678.787	33660.15
679.135	33749.86
679.484	33534.95
679.832	33627.15
680.181	33504.22
680.529	33526.82
680.877	33539.47
681.225	33511.9
681.573	33695.17
681.922	33310.1
682.27	33253.83
682.618	33418.12
682.966	33364.11
683.314	33367.72
683.661	33327.05
684.009	33013.38
684.357	32979.94
684.705	32890.22
685.053	33107.17
685.4	32937.91
685.748	32819.94
686.095	32760.28
686.443	32797.34
686.79	32711.47
687.138	32714.86
687.485	32725.71
687.832	32555.09
688.18	32645.26
688.527	32446.84
688.874	32460.4
689.221	32317.81
689.568	32136.57
689.915	32242.1
690.262	32249.79
690.609	32135.21
690.956	31992.62
691.303	31940.87
691.65	31683.93
691.997	31756.24
692.344	31644.83
692.69	31599.18
693.037	31603.93
693.383	31337.04
693.73	31425.63
694.077	31411.39
694.423	31296.59
694.769	31144.96
695.116	31196.93
695.462	31081.46
695.808	30939.54
696.155	30996.04
696.501	30766.66
696.847	30822.71
697.193	30532.54
697.539	30789.04
697.885	30399.67
698.231	30430.17
698.577	30332.55
698.923	30349.95
699.269	30189.05
699.614	30065.89
699.96	30111.54
700.306	29992.9
700.651	29904.09
700.997	29820.02
701.342	29741.38
701.688	29728.27
702.033	29567.6
702.379	29527.15
702.724	29409.41
703.069	29453.48
703.415	29196.08
703.76	29255.74
704.105	29168.96
704.45	29135.52
704.795	28929.87
705.14	28888.75
705.485	28937.78
705.83	28785.7
706.175	28819.82
706.52	28770.11
706.865	28698.47
707.209	28580.73
707.554	28523.11
707.899	28555.87
708.243	28406.72
708.588	28314.07
708.932	28102.33
709.277	28328.53
709.621	28095.55
709.966	28054.64
710.31	28085.6
710.654	27816.23
710.998	27982.56
711.342	27884.7
711.687	27970.8
712.031	27813.75
712.375	27571.49
712.719	27720.64
713.063	27556.8
713.407	27627.99
713.75	27520.65
714.094	27380.31
714.438	27288.56
714.782	27386.64
715.125	27302.8
715.469	27270.26
715.812	27082.92
716.156	26921.34
716.499	27094.89
716.843	26979.42
717.186	26914.56
717.53	26971.06
717.873	26922.24
718.216	26917.95
718.559	26746.43
718.902	26649.71
719.246	26717.73
719.589	26524.97
719.932	26458.75
720.275	26406.55
720.617	26456.27
720.96	26399.55
721.303	26397.06
721.646	26341.47
721.989	26238.19
722.331	26305.76
722.674	26199.1
723.016	26212.66
723.359	26179.44
723.701	26078.65
724.044	25982.38
724.386	25898.32
724.729	26051.53
725.071	25880.24
725.413	25836.62
725.755	25802.73
726.097	25842.72
726.439	25639.79
726.782	25678.21
727.124	25780.81
727.465	25545.11
727.807	25589.4
728.149	25509.17
728.491	25471.21
728.833	25514.15
729.175	25237.99
729.516	25454.49
729.858	25364.54
730.199	25321.16
730.541	25188.96
730.882	25334.04
731.224	25312.34
731.565	25237.77
731.906	25168.84
732.248	25106.92
732.589	24926.14
732.93	24859.47
733.271	24889.76
733.612	24998.45
733.953	25025.8
734.294	24764.11
734.635	24776.54
734.976	24873.48
735.317	24681.85
735.658	24726.37
735.999	24763.66
736.339	24679.14
736.68	24757.56
737.021	24598.46
737.361	24494.06
737.702	24631.46
738.042	24492.93
738.383	24517.79
738.723	24430.11
739.063	24370.22
739.404	24469.88
739.744	24332.48
740.084	24205.93
740.424	24328.41
740.764	24207.74
741.104	24310.56
741.444	24193.5
741.784	24026.73
742.124	24154.18
742.464	24091.81
742.804	24061.98
743.143	23999.61
743.483	23942.66
743.823	23900.63
744.162	23836.45
744.502	23891.36
744.841	23782.89
745.181	23988.31
745.52	23773.4
745.86	23671.26
746.199	23761.2
746.538	23681.65
746.877	23758.26
747.216	23713.06
747.556	23614.31
747.895	23621.31
748.234	23480.75
748.573	23439.4
748.911	23422.22
749.25	23471.49
749.589	23379.51
749.928	23304.94
750.267	23360.53
750.605	23319.4
750.944	23264.26
751.283	23220.42
751.621	23214.54
751.96	23070.59
752.298	23027.21
752.636	23031.05
752.975	22989.01
753.313	22932.97
753.651	22941.78
753.989	22772.52
754.327	22893.42
754.666	22694.56
755.004	22859.75
755.342	22770.71
755.679	22753.99
756.017	22551.06
756.355	22561.68
756.693	22474.9
757.031	22465.41
757.368	22334.34
757.706	22412.53
758.044	22244.18
758.381	22316.49
758.719	22233.78
759.056	22271.29
759.394	22136.83
759.731	22002.15
760.068	21963.96
760.405	21905.88
760.743	21897.74
761.08	21961.02
