Data from hue_240_FLMS001491_00035.txt Node
Date: Tue Feb 07 16:35:24 GMT 2017
User: dcchb
Spectrometer: FLMS00149
Trigger mode: 0
Integration Time (sec): 2.000000E-2
Scans to average: 10
Electric dark correction enabled: true
Nonlinearity correction enabled: false
Boxcar width: 0
XAxis mode: Wavelengths
Number of Pixels in Spectrum: 2048
>>>>>Begin Spectral Data<<<<<
341.393	-14.93
341.776	-14.93
342.16	-14.93
342.543	-59.22
342.927	-70.07
343.31	-75.72
343.693	-69.16
344.077	-57.19
344.46	-70.07
344.843	-50.18
345.226	-51.99
345.61	-27.58
345.993	-19.67
346.376	7.67
346.759	24.62
347.142	4.51
347.525	37.5
347.908	65.52
348.291	76.82
348.674	90.15
349.057	114.79
349.44	132.86
349.823	153.43
350.206	174.22
350.588	180.77
350.971	210.6
351.354	216.48
351.737	223.93
352.119	229.58
352.502	253.31
352.884	280.43
353.267	277.49
353.65	278.62
354.032	281.11
354.414	298.51
354.797	310.03
355.179	290.37
355.562	321.11
355.944	328.11
356.326	332.86
356.709	348.45
357.091	320.2
357.473	336.7
357.855	324.5
358.238	319.07
358.62	333.31
359.002	321.33
359.384	323.37
359.766	329.69
360.148	320.66
360.53	329.92
360.912	333.31
361.294	346.19
361.676	320.43
362.057	311.84
362.439	319.75
362.821	311.16
363.203	323.82
363.584	322.01
363.966	314.55
364.348	334.44
364.729	310.49
365.111	306.64
365.493	316.59
365.874	312.97
366.256	331.28
366.637	323.82
367.019	316.59
367.4	299.19
367.781	313.88
368.163	325.4
368.544	323.37
368.925	305.74
369.306	312.75
369.688	302.58
370.069	305.06
370.45	299.86
370.831	307.55
371.212	297.61
371.593	311.16
371.974	306.42
372.355	326.08
372.736	306.64
373.117	326.53
373.498	304.38
373.879	317.49
374.26	313.42
374.641	305.29
375.021	311.84
375.402	325.4
375.783	324.05
376.163	314.1
376.544	307.55
376.925	316.14
377.305	295.57
377.686	329.92
378.066	329.02
378.447	328.34
378.827	307.1
379.208	329.92
379.588	324.72
379.968	316.36
380.349	324.72
380.729	310.49
381.109	356.13
381.489	307.55
381.87	312.29
382.25	338.06
382.63	347.55
383.01	331.28
383.39	349.58
383.77	334.21
384.15	321.56
384.53	327.66
384.91	344.16
385.29	357.72
385.67	345.29
386.049	330.6
386.429	349.13
386.809	332.41
387.189	362.69
387.568	362.01
387.948	345.29
388.328	349.58
388.707	358.17
389.087	363.59
389.466	364.72
389.846	346.64
390.225	348.45
390.605	351.16
390.984	362.69
391.363	361.56
391.743	354.55
392.122	375.8
392.501	363.14
392.881	365.4
393.26	385.06
393.639	373.76
394.018	376.02
394.397	374.21
394.776	363.82
395.155	389.81
395.534	379.64
395.913	383.03
396.292	377.15
396.671	367.43
397.05	399.3
397.429	373.99
397.808	394.78
398.186	395.23
398.565	383.48
398.944	403.59
399.323	385.74
399.701	397.72
400.08	397.94
400.458	416.25
400.837	407.88
401.215	399.98
401.594	398.85
401.972	406.08
402.351	430.03
402.729	427.09
403.107	418.96
403.486	434.1
403.864	422.57
404.242	431.39
404.62	423.93
404.999	434.78
405.377	437.04
405.755	436.58
406.133	436.81
406.511	438.84
406.889	430.71
407.267	460.31
407.645	469.13
408.023	475.23
408.401	465.74
408.779	454.44
409.156	473.42
409.534	488.33
409.912	476.58
410.29	486.75
410.667	490.59
411.045	517.26
411.422	510.48
411.8	510.71
412.178	493.98
412.555	514.55
412.933	521.78
413.31	510.25
413.687	535.34
414.065	552.29
414.442	525.85
414.819	556.81
415.197	564.94
415.574	569.91
415.951	567.2
416.328	574.66
416.705	600.2
417.082	599.52
417.46	582.12
417.837	614.66
418.214	636.81
418.591	620.76
418.967	617.82
419.344	635.45
419.721	638.39
420.098	642
420.475	641.55
420.852	642.68
421.228	661.89
421.605	680.19
421.982	683.81
422.358	697.59
422.735	689.46
423.111	683.13
423.488	725.39
423.864	724.26
424.241	722.23
424.617	745.5
424.994	744.37
425.37	736.92
425.746	761.32
426.123	793.19
426.499	790.7
426.875	796.12
427.251	796.35
427.627	806.29
428.003	819.85
428.379	806.07
428.756	841.77
429.132	824.14
429.507	869.12
429.883	857.14
430.259	864.14
430.635	878.61
431.011	902.34
431.387	914.99
431.763	924.03
432.138	920.64
432.514	945.27
432.89	942.56
433.265	980.98
433.641	977.81
434.016	973.52
434.392	997.93
434.767	1014.65
435.143	1041.31
435.518	1034.99
435.894	1052.84
436.269	1086.28
436.644	1080.41
437.02	1117.92
437.395	1112.05
437.77	1134.65
438.145	1124.02
438.52	1159.05
438.895	1159.73
439.271	1177.81
439.646	1198.37
440.021	1210.58
440.395	1214.64
440.77	1224.81
441.145	1257.35
441.52	1251.7
441.895	1279.05
442.27	1270.69
442.645	1287.41
443.019	1303.23
443.394	1325.6
443.769	1303.91
444.143	1310.46
444.518	1347.07
444.892	1348.88
445.267	1349.55
445.641	1371.7
446.016	1392.94
446.39	1388.2
446.764	1412.83
447.139	1412.15
447.513	1408.31
447.887	1415.99
448.262	1387.29
448.636	1428.42
449.01	1448.76
449.384	1464.58
449.758	1454.41
450.132	1470.68
450.506	1526.95
450.88	1514.97
451.254	1494.41
451.628	1550
452.002	1541.41
452.376	1556.1
452.75	1570.79
453.123	1543.67
453.497	1559.94
453.871	1608.31
454.244	1658.93
454.618	1628.19
454.992	1671.35
455.365	1665.25
455.739	1714.52
456.112	1751.35
456.486	1743.67
456.859	1734.4
457.232	1774.63
457.606	1770.33
457.979	1782.31
458.352	1823.89
458.725	1858.02
459.099	1860.28
459.472	1884.91
459.845	1895.53
460.218	1917
460.591	1947.73
460.964	1943.89
461.337	1989.09
461.71	2006.49
462.083	2046.49
462.456	2050.1
462.829	2034.73
463.201	2080.61
463.574	2059.59
463.947	2113.83
464.32	2120.61
464.692	2168.29
465.065	2181.17
465.438	2192.7
465.81	2244.9
466.183	2232.24
466.555	2314.95
466.928	2327.61
467.3	2315.63
467.672	2339.81
468.045	2376.87
468.417	2423.2
468.789	2359.25
469.161	2456.87
469.534	2499.13
469.906	2507.04
470.278	2512.01
470.65	2549.98
471.022	2607.6
471.394	2676.3
471.766	2668.84
472.138	2682.85
472.51	2701.61
472.882	2781.61
473.253	2779.57
473.625	2837.2
473.997	2881.49
474.369	2893.92
474.74	2929.4
475.112	2987.93
475.484	2976.4
475.855	3041.71
476.227	3056.63
476.598	3158.32
476.97	3192.67
477.341	3286.68
477.713	3266.79
478.084	3309.28
478.455	3375.72
478.827	3403.06
479.198	3475.37
479.569	3473.11
479.94	3597.63
480.311	3581.59
480.682	3658.65
481.053	3732.54
481.424	3793.33
481.795	3792.43
482.166	3843.05
482.537	3873.78
482.908	3957.85
483.279	4024.96
483.65	4076.04
484.021	4140.67
484.391	4170.27
484.762	4208.46
485.133	4201.01
485.503	4314.9
485.874	4374.11
486.244	4404.39
486.615	4470.83
486.985	4515.8
487.356	4606.19
487.726	4591.28
488.097	4643.25
488.467	4708.11
488.837	4780.2
489.207	4845.73
489.578	4872.85
489.948	4948.56
490.318	5020.64
490.688	4958.5
491.058	5025.39
491.428	5110.59
491.798	5149
492.168	5286.85
492.538	5232.16
492.908	5325.5
493.278	5396.68
493.648	5355.78
494.017	5422.89
494.387	5498.6
494.757	5468.32
495.126	5563
495.496	5577.92
495.866	5591.93
496.235	5621.98
496.605	5672.83
496.974	5718.71
497.344	5773.39
497.713	5769.55
498.082	5813.39
498.452	5887.74
498.821	5889.77
499.19	5813.17
499.559	5939.26
499.928	5973.84
500.298	5997.34
500.667	6042.76
501.036	6021.3
501.405	6095.19
501.774	6077.34
502.143	6120.28
502.512	6158.24
502.88	6209.09
503.249	6191.01
503.618	6160.5
503.987	6209.31
504.356	6254.51
504.724	6308.07
505.093	6304.23
505.462	6342.87
505.83	6385.81
506.199	6386.03
506.567	6472.58
506.936	6397.11
507.304	6470.1
507.672	6503.32
508.041	6503.32
508.409	6564.56
508.777	6588.74
509.145	6593.71
509.514	6578.12
509.882	6658.12
510.25	6651.56
510.618	6667.16
510.986	6683.43
511.354	6738.11
511.722	6780.37
512.09	6855.17
512.458	6834.38
512.826	6800.03
513.193	6808.39
513.561	6827.6
513.929	6935.4
514.297	6912.8
514.664	6930.43
515.032	6913.7
515.4	6972.91
515.767	7012.23
516.135	7010.87
516.502	6918.22
516.869	7056.98
517.237	7023.53
517.604	7046.13
517.972	7068.5
518.339	7114.83
518.706	7054.26
519.073	7087.71
519.44	7084.32
519.808	7173.36
520.175	7148.27
520.542	7226.91
520.909	7232.11
521.276	7237.54
521.643	7219.68
522.009	7293.58
522.376	7304.2
522.743	7347.82
523.11	7393.69
523.477	7388.72
523.843	7381.94
524.21	7505.33
524.577	7491.31
524.943	7456.06
525.31	7451.09
525.676	7495.38
526.043	7545.78
526.409	7558.66
526.776	7564.08
527.142	7556.17
527.508	7601.82
527.874	7633.46
528.241	7681.59
528.607	7665.55
528.973	7652.67
529.339	7621.71
529.705	7677.98
530.071	7721.82
530.437	7727.47
530.803	7787.13
531.169	7815.15
531.535	7766.11
531.901	7830.51
532.267	7776.5
532.632	7766.11
532.998	7807.24
533.364	7790.52
533.73	7801.36
534.095	7805.2
534.461	7768.82
534.826	7821.25
535.192	7811.31
535.557	7867.58
535.923	7794.36
536.288	7838.2
536.653	7779.22
537.019	7797.97
537.384	7789.39
537.749	7805.66
538.114	7772.89
538.479	7829.38
538.845	7816.05
539.21	7783.06
539.575	7836.39
539.94	7807.69
540.305	7757.75
540.67	7814.02
541.034	7777.63
541.399	7845.2
541.764	7790.06
542.129	7734.7
542.494	7772.44
542.858	7751.19
543.223	7750.06
543.587	7802.04
543.952	7748.71
544.316	7747.35
544.681	7795.71
545.045	7711.42
545.41	7667.13
545.774	7754.13
546.138	7710.74
546.503	7710.29
546.867	7750.74
547.231	7724.75
547.595	7702.16
547.959	7733.79
548.324	7650.41
548.688	7666
549.052	7701.7
549.416	7663.29
549.779	7642.27
550.143	7631.88
550.507	7683.4
550.871	7701.03
551.235	7618.77
551.599	7773.11
551.962	7739.67
552.326	7696.05
552.689	7688.82
553.053	7645.21
553.417	7627.13
553.78	7753.45
554.143	7644.76
554.507	7639.78
554.87	7657.86
555.234	7735.83
555.597	7691.08
555.96	7700.8
556.323	7644.76
556.686	7655.83
557.05	7650.41
557.413	7754.58
557.776	7740.12
558.139	7751.87
558.502	7777.18
558.865	7772.89
559.228	7765.21
559.59	7760.01
559.953	7792.55
560.316	7783.28
560.679	7811.98
561.041	7833.9
561.404	7892.89
561.767	7874.13
562.129	7869.16
562.492	7921.13
562.854	7925.43
563.217	7864.86
563.579	7907.8
563.941	7870.51
564.304	7981.47
564.666	7975.82
565.028	7948.03
565.39	7979.44
565.753	8061.92
566.115	8077.29
566.477	8087.91
566.839	8085.87
567.201	8174.46
567.563	8144.4
567.925	8170.84
568.287	8131.3
568.648	8144.86
569.01	8166.32
569.372	8221.46
569.734	8217.85
570.095	8247.9
570.457	8347.56
570.819	8286.1
571.18	8263.95
571.542	8229.15
571.903	8334.91
572.265	8320.67
572.626	8417.62
572.987	8386.88
573.349	8374.23
573.71	8483.15
574.071	8422.82
574.432	8486.99
574.794	8549.82
575.155	8530.38
575.516	8541.68
575.877	8542.13
576.238	8555.47
576.599	8625.3
576.96	8590.04
577.32	8619.19
577.681	8657.61
578.042	8653.54
578.403	8682.24
578.763	8671.85
579.124	8714.56
579.485	8708.46
579.845	8681.79
580.206	8701.9
580.566	8689.47
580.927	8711.62
581.287	8799.08
581.648	8752.75
582.008	8783.26
582.368	8786.42
582.728	8773.31
583.089	8785.74
583.449	8811.05
583.809	8881.11
584.169	8862.35
584.529	8851.73
584.889	8882.01
585.249	8915.46
585.609	8861.9
585.969	8918.4
586.329	8891.73
586.688	8957.26
587.048	8926.76
587.408	8938.51
587.768	8966.08
588.127	8977.38
588.487	8937.15
588.846	9031.16
589.206	8984.16
589.565	8905.97
589.925	8975.8
590.284	8985.06
590.643	9014.66
591.003	9076.58
591.362	9057.15
591.721	9027.32
592.08	9049.01
592.44	9114.77
592.799	9084.49
593.158	9038.62
593.517	9056.7
593.876	9095.57
594.235	9085.62
594.593	9118.39
594.952	9091.05
595.311	9011.95
595.67	9091.95
596.029	9151.84
596.387	9180.31
596.746	9169.91
597.104	9163.59
597.463	9110.71
597.822	9176.02
598.18	9073.19
598.538	9162.46
598.897	9198.39
599.255	9152.97
599.613	9235.45
599.972	9172.63
600.33	9231.61
600.688	9177.82
601.046	9153.19
601.404	9242
601.762	9248.78
602.12	9252.17
602.478	9273.64
602.836	9201.1
603.194	9160.87
603.552	9265.05
603.91	9187.31
604.268	9252.85
604.625	9197.71
604.983	9255.34
605.341	9220.99
605.698	9287.65
606.056	9231.83
606.413	9280.87
606.771	9309.35
607.128	9308.89
607.485	9310.7
607.843	9321.32
608.2	9370.13
608.557	9378.5
608.914	9350.25
609.272	9398.16
609.629	9432.51
609.986	9441.09
610.343	9385.5
610.7	9473.86
611.057	9394.99
611.414	9414.43
611.771	9362.68
612.127	9455.33
612.484	9468.21
612.841	9470.25
613.198	9472.96
613.554	9417.59
613.911	9517.93
614.267	9486.06
614.624	9500.3
614.98	9500.53
615.337	9502.56
615.693	9536.23
616.05	9545.72
616.406	9544.59
616.762	9517.48
617.118	9589.34
617.475	9561.99
617.831	9629.11
618.187	9599.73
618.543	9561.09
618.899	9646.74
619.255	9643.57
619.611	9624.14
619.967	9605.83
620.323	9622.78
620.678	9605.61
621.034	9601.54
621.39	9584.37
621.746	9633.86
622.101	9660.75
622.457	9567.19
622.812	9644.25
623.168	9592.73
623.523	9639.28
623.879	9705.04
624.234	9542.33
624.589	9568.32
624.945	9661.43
625.3	9659.17
625.655	9563.58
626.01	9624.14
626.365	9605.61
626.72	9598.83
627.075	9571.71
627.43	9586.85
627.785	9658.26
628.14	9547.76
628.495	9603.8
628.85	9552.05
629.205	9575.78
629.559	9607.64
629.914	9518.83
630.269	9569.9
630.623	9489.91
630.978	9473.41
631.332	9580.07
631.687	9516.8
632.041	9483.8
632.396	9485.39
632.75	9435.9
633.104	9519.51
633.459	9476.57
633.813	9459.85
634.167	9451.26
634.521	9449.68
634.875	9384.15
635.229	9427.76
635.583	9345.5
635.937	9358.38
636.291	9341.89
636.645	9385.05
636.999	9344.37
637.352	9308.89
637.706	9256.01
638.06	9386.86
638.413	9281.32
638.767	9320.19
639.121	9337.37
639.474	9245.62
639.828	9296.92
640.181	9273.19
640.534	9236.35
640.888	9270.25
641.241	9190.48
641.594	9195.68
641.947	9204.72
642.301	9221.66
642.654	9155.23
643.007	9215.56
643.36	9227.99
643.713	9126.53
644.066	9179.86
644.419	9162.46
644.771	9085.85
645.124	9053.76
645.477	8952.29
645.83	8909.58
646.182	8945.29
646.535	8849.02
646.888	8909.81
647.24	8824.16
647.593	8876.81
647.945	8830.49
648.298	8829.81
648.65	8765.41
649.002	8752.75
649.355	8813.77
649.707	8734.67
650.059	8793.88
650.411	8974.44
650.763	8966.08
651.115	9004.49
651.467	8973.08
651.819	9036.13
652.171	8993.65
652.523	8992.29
652.875	8956.59
653.227	8873.42
653.578	8977.83
653.93	8957.49
654.282	8904.84
654.633	8923.37
654.985	8976.02
655.337	8895.35
655.688	8909.36
656.039	8991.16
656.391	8903.48
656.742	8998.62
657.094	8977.15
657.445	8955.23
657.796	8996.36
658.147	8958.62
658.498	8941.67
658.849	8967.43
659.2	8999.98
659.551	8908.23
659.902	8900.54
660.253	8944.16
660.604	8934.89
660.955	8934.89
661.306	8928.56
661.656	8877.94
662.007	8912.97
662.358	8918.4
662.708	8917.72
663.059	8915.46
663.409	8863.03
663.76	8922.92
664.11	8926.76
664.461	8955
664.811	8985.06
665.161	8893.09
665.511	8939.41
665.862	8985.96
666.212	8887.44
666.562	8939.86
666.912	8964.95
667.262	8933.54
667.612	8978.73
667.962	8961.78
668.312	8916.36
668.662	8965.63
669.011	8955
669.361	8877.49
669.711	9006.98
670.06	8869.58
670.41	8965.63
670.76	8872.75
671.109	8816.7
671.459	8871.84
671.808	8850.83
672.157	8966.3
672.507	8856.93
672.856	8848.34
673.205	8816.25
673.554	8859.41
673.904	8862.35
674.253	8860.32
674.602	8767.89
674.951	8687.22
675.3	8697.16
675.649	8782.58
675.998	8807.89
676.346	8754.11
676.695	8779.42
677.044	8727.44
677.393	8814.44
677.741	8731.51
678.09	8725.18
678.438	8733.77
678.787	8751.85
679.135	8774.22
679.484	8710.04
679.832	8719.3
680.181	8703.49
680.529	8722.69
680.877	8687.67
681.225	8654
681.573	8697.16
681.922	8583.94
682.27	8546.43
682.618	8619.19
682.966	8535.81
683.314	8550.95
683.661	8507.78
684.009	8509.59
684.357	8482.47
684.705	8483.38
685.053	8518.86
685.4	8478.41
685.748	8362.25
686.095	8456.03
686.443	8319.32
686.79	8356.15
687.138	8356.6
687.485	8392.99
687.832	8306.89
688.18	8343.72
688.527	8295.81
688.874	8247.23
689.221	8269.82
689.568	8242.26
689.915	8206.32
690.262	8229.6
690.609	8136.95
690.956	8162.94
691.303	8144.63
691.65	8071.64
691.997	8029.83
692.344	8113.22
692.69	7951.64
693.037	7997.06
693.383	7958.19
693.73	7992.54
694.077	7938.31
694.423	7908.25
694.769	7844.75
695.116	7845.66
695.462	7892.21
695.808	7817.41
696.155	7809.95
696.501	7800.01
696.847	7751.87
697.193	7706.68
697.539	7763.17
697.885	7664.87
698.231	7638.66
698.577	7641.37
698.923	7616.06
699.269	7550.3
699.614	7500.58
699.96	7497.42
700.306	7496.06
700.651	7460.35
700.997	7463.29
701.342	7422.39
701.688	7437.98
702.033	7360.92
702.379	7415.38
702.724	7344.43
703.069	7304.43
703.415	7270.08
703.76	7223.75
704.105	7251.77
704.45	7238.67
704.795	7183.3
705.14	7181.49
705.485	7206.8
705.83	7120.48
706.175	7201.38
706.52	7138.78
706.865	7084.77
707.209	7081.61
707.554	7015.17
707.899	7025.79
708.243	7023.98
708.588	6940.59
708.932	6936.3
709.277	6945.11
709.621	6929.3
709.966	6917.54
710.31	6874.38
710.654	6872.57
710.998	6772.46
711.342	6873.03
711.687	6820.37
712.031	6804.55
712.375	6795.97
712.719	6746.7
713.063	6786.93
713.407	6755.97
713.75	6745.12
714.094	6723.2
714.438	6691.34
714.782	6729.3
715.125	6729.53
715.469	6700.15
715.812	6639.59
716.156	6577.44
716.499	6684.56
716.843	6662.64
717.186	6614.05
717.53	6593.94
717.873	6680.71
718.216	6587.61
718.559	6597.33
718.902	6520.49
719.246	6546.48
719.589	6595.07
719.932	6582.64
720.275	6459.48
720.617	6504.67
720.96	6485.01
721.303	6476.43
721.646	6553.49
721.989	6460.38
722.331	6506.03
722.674	6478.91
723.016	6509.87
723.359	6455.64
723.701	6488.63
724.044	6424.45
724.386	6404.34
724.729	6422.87
725.071	6449.31
725.413	6391.68
725.755	6379.71
726.097	6429.87
726.439	6365.69
726.782	6393.94
727.124	6439.14
727.465	6371.12
727.807	6353.94
728.149	6361.85
728.491	6320.72
728.833	6351.68
729.175	6338.35
729.516	6358.46
729.858	6336.32
730.199	6310.78
730.541	6348.52
730.882	6369.76
731.224	6338.58
731.565	6339.71
731.906	6360.27
732.248	6340.84
732.589	6300.84
732.93	6288.63
733.271	6207.96
733.612	6294.51
733.953	6320.95
734.294	6292.02
734.635	6242.31
734.976	6201.4
735.317	6233.72
735.658	6261.97
735.999	6301.97
736.339	6243.44
736.68	6287.28
737.021	6255.41
737.361	6289.54
737.702	6248.86
738.042	6283.21
738.383	6272.36
738.723	6306.94
739.063	6317.33
739.404	6307.16
739.744	6312.14
740.084	6257
740.424	6268.07
740.764	6304.9
741.104	6310.78
741.444	6292.48
741.784	6298.13
742.124	6341.29
742.464	6348.97
742.804	6307.62
743.143	6392.81
743.483	6373.38
743.823	6349.88
744.162	6371.34
744.502	6412.92
744.841	6384.9
745.181	6440.49
745.52	6449.31
745.86	6447.73
746.199	6520.27
746.538	6487.27
746.877	6580.15
747.216	6569.98
747.556	6557.78
747.895	6633.26
748.234	6642.07
748.573	6591.9
748.911	6624.44
749.25	6648.4
749.589	6733.14
749.928	6804.33
750.267	6836.87
750.605	6840.94
750.944	6900.6
751.283	6896.3
751.621	7038.67
751.96	6990.31
752.298	7074.38
752.636	7113.47
752.975	7189.18
753.313	7214.71
753.651	7355.95
753.989	7306.01
754.327	7426.23
754.666	7381.49
755.004	7537.41
755.342	7566.11
755.679	7642.95
756.017	7725.66
756.355	7844.98
756.693	7910.74
757.031	7989.15
757.368	8077.51
757.706	8125.87
758.044	8191.18
758.381	8334.68
758.719	8410.84
759.056	8467.79
759.394	8563.6
759.731	8597.73
760.068	8722.69
760.405	8835.01
760.743	8861
761.08	8996.13
761.417	9081.55
761.754	9185.28
762.091	9278.61
762.428	9414.88
762.765	9401.55
763.102	9540.3
763.438	9571.03
763.775	9713.18
764.112	9827.75
764.449	9904.36
764.785	9918.6
765.122	9970.35
765.458	10085.6
765.795	10206.27
766.131	10227.29
766.467	10411.46
766.804	10433.84
767.14	10452.82
767.476	10619.37
767.812	10614.17
768.148	10700.5
768.485	10703.43
768.821	10765.13
769.157	10833.37
769.492	10957.89
