Data from hue_320_FLMS001491_52.txt Node
Date: Mon Feb 06 15:47:23 GMT 2017
User: dcchb
Spectrometer: FLMS00149
Trigger mode: 0
Integration Time (sec): 2.000000E-2
Scans to average: 10
Electric dark correction enabled: true
Nonlinearity correction enabled: false
Boxcar width: 0
XAxis mode: Wavelengths
Number of Pixels in Spectrum: 2048
>>>>>Begin Spectral Data<<<<<
341.393	-16.81
341.776	-16.81
342.16	-16.81
342.543	-58.39
342.927	-55.9
343.31	-62.91
343.693	-83.7
344.077	-63.13
344.46	-64.94
344.843	-33.08
345.226	-49.8
345.61	-45.51
345.993	-29.46
346.376	-6.86
346.759	23.19
347.142	32
347.525	31.1
347.908	50.31
348.291	97.09
348.674	94.38
349.057	111.32
349.44	134.37
349.823	157.88
350.206	167.59
350.588	206.69
350.971	222.96
351.354	231.77
351.737	249.63
352.119	253.24
352.502	269.06
352.884	261.6
353.267	285.78
353.65	299.57
354.032	292.11
354.414	312
354.797	312
355.179	307.48
355.562	316.52
355.944	322.39
356.326	328.72
356.709	334.6
357.091	345.44
357.473	332.79
357.855	336.63
358.238	339.79
358.62	341.6
359.002	342.28
359.384	312.9
359.766	324.2
360.148	351.32
360.53	341.38
360.912	334.82
361.294	302.73
361.676	314.71
362.057	332.56
362.439	350.64
362.821	325.56
363.203	337.08
363.584	328.27
363.966	350.87
364.348	323.75
364.729	321.49
365.111	340.02
365.493	307.03
365.874	302.05
366.256	317.65
366.637	310.87
367.019	338.44
367.4	301.38
367.781	307.7
368.163	312.22
368.544	312.45
368.925	306.12
369.306	329.85
369.688	313.13
370.069	319.23
370.45	312.9
370.831	326.91
371.212	315.16
371.593	301.15
371.974	309.06
372.355	319.68
372.736	325.78
373.117	313.81
373.498	307.48
373.879	339.57
374.26	302.51
374.641	337.08
375.021	324.43
375.402	332.11
375.783	307.03
376.163	334.6
376.544	325.56
376.925	319.45
377.305	313.58
377.686	320.13
378.066	314.03
378.447	327.36
378.827	333.01
379.208	356.97
379.588	319.68
379.968	339.12
380.349	339.34
380.729	320.58
381.109	347.48
381.489	323.97
381.87	340.92
382.25	342.96
382.63	334.6
383.01	317.65
383.39	331.66
383.77	345.22
384.15	333.47
384.53	334.37
384.91	338.89
385.29	351.54
385.67	344.31
386.049	367.59
386.429	336.86
386.809	342.96
387.189	349.74
387.568	349.51
387.948	353.13
388.328	340.25
388.707	353.58
389.087	350.87
389.466	363.75
389.846	357.65
390.225	369.4
390.605	386.12
390.984	367.36
391.363	358.78
391.743	368.49
392.122	372.33
392.501	373.46
392.881	368.49
393.26	362.62
393.639	379.79
394.018	376.63
394.397	357.42
394.776	403.97
395.155	371.66
395.534	393.13
395.913	384.31
396.292	387.25
396.671	365.78
397.05	389.28
397.429	388.83
397.808	388.38
398.186	387.48
398.565	385.67
398.944	390.87
399.323	379.11
399.701	395.84
400.08	380.24
400.458	385.22
400.837	403.52
401.215	422.28
401.594	391.77
401.972	387.93
402.351	418.21
402.729	420.7
403.107	408.94
403.486	434.03
403.864	417.76
404.242	400.81
404.62	411.66
404.999	448.27
405.377	422.73
405.755	431.09
406.133	421.83
406.511	435.84
406.889	444.88
407.267	434.25
407.645	472.67
408.023	463.63
408.401	461.37
408.779	462.28
409.156	457.08
409.534	480.13
409.912	488.94
410.29	469.06
410.667	473.35
411.045	487.81
411.422	484.87
411.8	509.05
412.178	503.86
412.555	496.4
412.933	521.03
413.31	517.87
413.687	541.37
414.065	559.22
414.442	516.06
414.819	543.4
415.197	555.38
415.574	550.86
415.951	584.31
416.328	581.14
416.705	596.74
417.082	574.59
417.46	584.31
417.837	611.88
418.214	599
418.591	610.52
418.967	605.32
419.344	625.44
419.721	615.72
420.098	628.37
420.475	650.75
420.852	634.02
421.228	666.11
421.605	638.77
421.982	652.55
422.358	654.81
422.735	669.5
423.111	664.3
423.488	685.09
423.864	700.24
424.241	704.08
424.617	685.77
424.994	707.69
425.37	715.83
425.746	697.98
426.123	733
426.499	705.21
426.875	711.08
427.251	772.32
427.627	770.52
428.003	771.87
428.379	754.92
428.756	777.97
429.132	776.39
429.507	813.45
429.883	806.67
430.259	814.58
430.635	831.31
431.011	822.27
431.387	850.74
431.763	867.46
432.138	867.46
432.514	864.3
432.89	902.04
433.265	886.22
433.641	881.47
434.016	907.69
434.392	911.3
434.767	932.77
435.143	937.97
435.518	909.5
435.894	924.18
436.269	968.93
436.644	956.73
437.02	980.23
437.395	985.88
437.77	975.26
438.145	1011.41
438.52	1020.91
438.895	1003.73
439.271	1026.33
439.646	1028.81
440.021	1026.1
440.395	1027.91
440.77	1030.62
441.145	1044.86
441.52	1073.33
441.895	1065.42
442.27	1078.76
442.645	1093.67
443.019	1099.1
443.394	1073.11
443.769	1123.28
444.143	1076.72
444.518	1137.06
444.892	1116.27
445.267	1125.54
445.641	1134.35
446.016	1113.33
446.39	1149.49
446.764	1144.74
447.139	1118.76
447.513	1125.54
447.887	1121.24
448.262	1163.27
448.636	1164.63
449.01	1173.9
449.384	1166.89
449.758	1175.48
450.132	1190.62
450.506	1178.42
450.88	1184.74
451.254	1179.55
451.628	1178.64
452.002	1213.44
452.376	1205.76
452.75	1206.21
453.123	1203.05
453.497	1248.92
453.871	1254.8
454.244	1269.94
454.618	1299.99
454.992	1279.66
455.365	1282.82
455.739	1298.19
456.112	1309.94
456.486	1319.2
456.859	1307
457.232	1329.6
457.606	1329.82
457.979	1332.08
458.352	1355.59
458.725	1380.67
459.099	1383.83
459.472	1391.07
459.845	1386.55
460.218	1419.54
460.591	1418.86
460.964	1409.37
461.337	1445.53
461.71	1461.12
462.083	1487.79
462.456	1478.52
462.829	1495.24
463.201	1494.79
463.574	1506.77
463.947	1500.67
464.32	1544.51
464.692	1567.33
465.065	1575.47
465.438	1600.33
465.81	1593.09
466.183	1597.16
466.555	1640.1
466.928	1614.34
467.3	1650.95
467.672	1653.21
468.045	1665.63
468.417	1697.72
468.789	1713.77
469.161	1698.4
469.534	1745.86
469.906	1743.6
470.278	1761.22
470.65	1757.38
471.022	1800.55
471.394	1820.43
471.766	1843.03
472.138	1835.57
472.51	1873.54
472.882	1893.42
473.253	1918.06
473.625	1946.53
473.997	1935.46
474.369	1988.34
474.74	1994.21
475.112	2018.62
475.484	2019.07
475.855	2044.83
476.227	2083.48
476.598	2118.28
476.97	2121.22
477.341	2153.08
477.713	2172.97
478.084	2175.9
478.455	2243.25
478.827	2242.57
479.198	2297.48
479.569	2303.81
479.94	2324.37
480.311	2374.09
480.682	2398.04
481.053	2460.87
481.424	2487.08
481.795	2487.99
482.166	2548.77
482.537	2546.74
482.908	2562.11
483.279	2590.81
483.65	2625.16
484.021	2664.93
484.391	2697.7
484.762	2720.75
485.133	2740.41
485.503	2711.48
485.874	2799.16
486.244	2805.04
486.615	2875.32
486.985	2903.12
487.356	2956.9
487.726	2976.33
488.097	3003
488.467	2993.28
488.837	3052.04
489.207	3047.29
489.578	3128.19
489.948	3132.71
490.318	3188.53
490.688	3192.83
491.058	3186.5
491.428	3244.8
491.798	3255.87
492.168	3278.02
492.538	3327.74
492.908	3312.37
493.278	3368.64
493.648	3342.65
494.017	3430.79
494.387	3402.99
494.757	3486.38
495.126	3465.36
495.496	3492.48
495.866	3552.36
496.235	3588.75
496.605	3594.85
496.974	3625.58
497.344	3623.55
497.713	3617.9
498.082	3673.94
498.452	3698.8
498.821	3706.26
499.19	3693.15
499.559	3758.01
499.928	3746.26
500.298	3791.45
500.667	3759.36
501.036	3774.05
501.405	3802.75
501.774	3801.17
502.143	3861.73
502.512	3823.32
502.88	3890.21
503.249	3892.24
503.618	3912.35
503.987	3902.86
504.356	3938.57
504.724	3905.8
505.093	3948.06
505.462	3981.05
505.83	3973.37
506.199	3985.12
506.567	4049.98
506.936	4024.67
507.304	4063.99
507.672	4110.77
508.041	4087.94
508.409	4113.25
508.777	4138.79
509.145	4152.12
509.514	4117.1
509.882	4158
510.25	4197.09
510.618	4178.34
510.986	4213.36
511.354	4237.54
511.722	4285.23
512.09	4282.51
512.458	4286.36
512.826	4289.07
513.193	4286.58
513.561	4303.3
513.929	4336.98
514.297	4367.48
514.664	4373.59
515.032	4382.62
515.4	4362.29
515.767	4420.59
516.135	4423.08
516.502	4386.47
516.869	4453.36
517.237	4452
517.604	4440.48
517.972	4455.39
518.339	4466.24
518.706	4490.19
519.073	4483.41
519.44	4523.64
519.808	4576.97
520.175	4500.36
520.542	4593.92
520.909	4607.7
521.276	4563.64
521.643	4606.35
522.009	4640.02
522.376	4672.11
522.743	4674.59
523.11	4706.01
523.477	4761.37
523.843	4739
524.21	4801.14
524.577	4823.74
524.943	4812.44
525.31	4875.95
525.676	4878.88
526.043	4862.16
526.409	4900.58
526.776	4919.33
527.142	4979.45
527.508	4971.76
527.874	4979.45
528.241	5045.66
528.607	5029.39
528.973	5070.74
529.339	5083.85
529.705	5149.16
530.071	5149.61
530.437	5163.4
530.803	5212.21
531.169	5225.77
531.535	5281.58
531.901	5238.65
532.267	5249.95
532.632	5298.08
532.998	5305.54
533.364	5299.21
533.73	5348.25
534.095	5396.16
534.461	5394.12
534.826	5486.32
535.192	5495.82
535.557	5484.52
535.923	5466.21
536.288	5531.52
536.653	5525.19
537.019	5573.33
537.384	5569.49
537.749	5587.34
538.114	5636.38
538.479	5625.76
538.845	5662.14
539.21	5746.2
539.575	5705.08
539.94	5683.83
540.305	5785.07
540.67	5745.3
541.034	5785.3
541.399	5811.51
541.764	5863.94
542.129	5855.58
542.494	5898.74
542.858	5890.83
543.223	5880.89
543.587	5943.04
543.952	5960.89
544.316	6026.2
544.681	6018.51
545.045	6044.73
545.41	6084.95
545.774	6161.56
546.138	6136.25
546.503	6164.72
546.867	6174.22
547.231	6262.58
547.595	6218.51
547.959	6214.22
548.324	6204.72
548.688	6290.6
549.052	6245.17
549.416	6341.44
549.779	6336.47
550.143	6308.45
550.507	6357.49
550.871	6388.45
551.235	6407.66
551.599	6400.42
551.962	6473.64
552.326	6472.97
552.689	6482.68
553.053	6516.81
553.417	6512.06
553.78	6571.49
554.143	6572.85
554.507	6578.27
554.87	6659.85
555.234	6681.32
555.597	6676.12
555.96	6700.3
556.323	6684.71
556.686	6693.52
557.05	6748.66
557.413	6750.92
557.776	6754.99
558.139	6821.2
558.502	6850.81
558.865	6869.57
559.228	6895.1
559.59	6946.4
559.953	6933.97
560.316	6953.4
560.679	6943.69
561.041	6971.94
561.404	7031.14
561.767	7015.32
562.129	6999.73
562.492	7061.88
562.854	7048.77
563.217	7065.72
563.579	7092.16
563.941	7147.75
564.304	7157.69
564.666	7225.94
565.028	7262.32
565.39	7237.24
565.753	7283.57
566.115	7315.88
566.477	7331.47
566.839	7382.77
567.201	7353.39
567.563	7347.52
567.925	7427.52
568.287	7511.81
568.648	7475.2
569.01	7496.44
569.372	7571.92
569.734	7547.29
570.095	7567.63
570.457	7712.03
570.819	7670
571.18	7712.48
571.542	7701.63
571.903	7702.54
572.265	7800.84
572.626	7862.99
572.987	7882.65
573.349	8004.9
573.71	7946.37
574.071	8035.41
574.432	8063.43
574.794	8140.27
575.155	8144.11
575.516	8299.81
575.877	8244.9
576.238	8349.07
576.599	8394.72
576.96	8556.98
577.32	8533.7
577.681	8697.09
578.042	8723.75
578.403	8750.65
578.763	8827.25
579.124	8925.33
579.485	9073.35
579.845	9115.83
580.206	9239.45
580.566	9319.67
580.927	9532.77
581.287	9600.11
581.648	9690.06
582.008	9906.32
582.368	9984.29
582.728	10173.89
583.089	10262.24
583.449	10398.06
583.809	10548.34
584.169	10777.94
584.529	10867.65
584.889	11164.82
585.249	11276
585.609	11404.14
585.969	11687.07
586.329	11821.75
586.688	12122.76
587.048	12304.45
587.408	12484.33
587.768	12682.52
588.127	12924.1
588.487	13123.41
588.846	13485.66
589.206	13601.59
589.565	13870.74
589.925	14301.91
590.284	14402.93
590.643	14803.14
591.003	15002.46
591.362	15284.49
591.721	15544.82
592.08	15860.97
592.44	16177.79
592.799	16460.27
593.158	16611.23
593.517	16891.45
593.876	17232.91
594.235	17463.41
594.593	17820.69
594.952	18051.19
595.311	18297.06
595.67	18704.06
596.029	19090.71
596.387	19325.28
596.746	19652.96
597.104	19794.87
597.463	20295.88
597.822	20668.52
598.18	20709.65
598.538	21059.93
598.897	21404.78
599.255	21589.4
599.613	22200.24
599.972	22292.66
600.33	22703.5
600.688	22788.92
601.046	23167.89
601.404	23395.23
601.762	23652.17
602.12	24157.92
602.478	24381.87
602.836	24709.77
603.194	24794.29
603.552	25206.03
603.91	25292.58
604.268	25598.56
604.625	25887.14
604.983	26290.07
605.341	26325.55
605.698	26665.2
606.056	27054.8
606.413	27231.74
606.771	27564.61
607.128	27741.56
607.485	27882.8
607.843	28184.03
608.2	28524.14
608.557	28748.09
608.914	28944.69
609.272	29216.77
609.629	29411.35
609.986	29740.6
610.343	29903.08
610.7	30164.77
611.057	30421.94
611.414	30509.85
611.771	30857.41
612.127	31121.36
612.484	31197.06
612.841	31514.34
613.198	31574.68
613.554	31750.04
613.911	31949.13
614.267	32145.74
614.624	32211.27
614.98	32557.25
615.337	32750.69
615.693	32861.42
616.05	32968.09
616.406	33340.06
616.762	33338.47
617.118	33442.2
617.475	33547.96
617.831	33938.23
618.187	33912.24
618.543	34067.04
618.899	34427.48
619.255	34509.74
619.611	34714.93
619.967	34937.75
620.323	35021.37
620.678	34868.15
621.034	34920.35
621.39	35185.43
621.746	35161.25
622.101	35735.92
622.457	35499.09
622.812	35747.68
623.168	35796.49
623.523	35857.5
623.879	36112.64
624.234	35917.39
624.589	36217.72
624.945	36416.81
625.3	36488.67
625.655	36538.39
626.01	36466.98
626.365	36647.54
626.72	36580.2
627.075	36739.97
627.43	36812.51
627.785	36802.79
628.14	36841.66
628.495	37018.83
628.85	36938.15
629.205	36961.43
629.559	37204.81
629.914	37235.09
630.269	37212.27
630.623	37252.27
630.978	37162.55
631.332	37326.17
631.687	37572.71
632.041	37304.7
632.396	37446.39
632.75	37242.55
633.104	37487.97
633.459	37347.63
633.813	37280.97
634.167	37371.59
634.521	37333.62
634.875	37486.16
635.229	37445.94
635.583	37369.78
635.937	37411.13
636.291	37412.72
636.645	37404.13
636.999	37515.09
637.352	37594.86
637.706	37376.79
638.06	37525.93
638.413	37520.96
638.767	37386.05
639.121	37495.65
639.474	37317.58
639.828	37419.5
640.181	37447.74
640.534	37567.74
640.888	37410.91
641.241	37314.19
641.594	37360.97
641.947	37557.8
642.301	37471.25
642.654	37393.96
643.007	37445.26
643.36	37560.74
643.713	37249.78
644.066	37450.68
644.419	37330.69
644.771	37090.24
645.124	36685.28
645.477	36766.86
645.83	36600.76
646.182	36488.9
646.535	36356.47
646.888	36420.43
647.24	36217.95
647.593	36468.79
647.945	36302.01
648.298	36200.09
648.65	36189.47
649.002	36051.4
649.355	36251.62
649.707	36165.07
650.059	36341.56
650.411	36731.38
650.763	36856.57
651.115	37280.97
651.467	37124.14
651.819	37062.67
652.171	37028.32
652.523	37073.06
652.875	37029.45
653.227	36739.74
653.578	37160.29
653.93	37018.15
654.282	36886.4
654.633	36674.88
654.985	36905.16
655.337	36906.52
655.688	36911.71
656.039	36874.43
656.391	36669.46
656.742	36657.03
657.094	36728.67
657.445	36823.13
657.796	36735.45
658.147	36703.13
658.498	36784.26
658.849	36803.47
659.2	36878.72
659.551	36713.75
659.902	36743.58
660.253	36659.97
660.604	36876.69
660.955	36537.71
661.306	36851.6
661.656	36608.44
662.007	36718.05
662.358	36642.79
662.708	36789.68
663.059	36562.57
663.409	36392.4
663.76	36606.18
664.11	36676.01
664.461	36747.88
664.811	36654.32
665.161	36615.68
665.511	36453.19
665.862	36789.91
666.212	36683.92
666.562	36671.49
666.912	36563.47
667.262	36548.33
667.612	36634.43
667.962	36600.31
668.312	36516.47
668.662	36659.74
669.011	36611.16
669.361	36484.83
669.711	36439.41
670.06	36458.39
670.41	36413.65
670.76	36377.94
671.109	36612.51
671.459	36384.72
671.808	36411.84
672.157	36416.58
672.507	36193.77
672.856	36247.55
673.205	36416.36
673.554	36397.38
673.904	36361.22
674.253	36554.21
674.602	36340.43
674.951	35783.61
675.3	35739.31
675.649	36252.97
675.998	36182.47
676.346	36224.27
676.695	36374.33
677.044	36048.46
677.393	36256.59
677.741	36185.86
678.09	36180.21
678.438	36119.87
678.787	36135.24
679.135	36106.31
679.484	36003.26
679.832	36057.27
680.181	35800.1
680.529	36001.68
680.877	35926.2
681.225	35805.53
681.573	36000.32
681.922	35718.52
682.27	35601.47
682.618	35684.63
682.966	35501.13
683.314	35638.3
683.661	35491.41
684.009	35389.95
684.357	35272.66
684.705	35371.64
685.053	35297.52
685.4	35260.23
685.748	35083.74
686.095	35097.75
686.443	34935.27
686.79	34920.58
687.138	34899.56
687.485	34837.42
687.832	34937.3
688.18	34863.63
688.527	34737.76
688.874	34740.47
689.221	34594.94
689.568	34522.85
689.915	34423.42
690.262	34369.63
690.609	34443.98
690.956	34222.29
691.303	34316.75
691.65	34129.87
691.997	34089.64
692.344	33850.1
692.69	33883.77
693.037	33840.83
693.383	33683.78
693.73	33627.28
694.077	33548.64
694.423	33608.3
694.769	33509.54
695.116	33385.25
695.462	33376.89
695.808	33110.91
696.155	33133.51
696.501	33043.57
696.847	33045.83
697.193	32731.26
697.539	32963.12
697.885	32658.49
698.231	32564.93
698.577	32517.25
698.923	32613.52
699.269	32382.11
699.614	32212.4
699.96	32112.07
700.306	32211.95
700.651	31965.63
700.997	31986.19
701.342	31910.49
701.688	31857.16
702.033	31800.44
702.379	31677.73
702.724	31581.46
703.069	31739.42
703.415	31333.55
703.76	31509.82
704.105	31368.58
704.45	31425.3
704.795	31135.59
705.14	31112.54
705.485	31113
705.83	30863.06
706.175	30922.94
706.52	30839.33
706.865	30780.12
707.209	30730.86
707.554	30574.48
707.899	30746.68
708.243	30485.22
708.588	30486.35
708.932	30224.88
709.277	30276.41
709.621	30185.56
709.966	30077.99
710.31	30148.05
710.654	29820.37
710.998	30024.89
711.342	29977.88
711.687	29893.82
712.031	29686.59
712.375	29666.71
712.719	29731.11
713.063	29597.1
713.407	29566.82
713.75	29455.86
714.094	29576.54
714.438	29311.23
714.782	29323.21
715.125	29245.47
715.469	29259.48
715.812	29049.09
716.156	29011.36
716.499	28927.06
716.843	28963
717.186	28805.94
717.53	28991.47
717.873	28821.53
718.216	28867.63
718.559	28719.61
718.902	28606.62
719.246	28620.63
719.589	28486.4
719.932	28469.22
720.275	28394.42
720.617	28424.7
720.96	28392.62
721.303	28333.41
721.646	28332.28
721.989	28178.61
722.331	28275.78
722.674	28234.65
723.016	28212.05
723.359	28181.32
723.701	28145.39
724.044	27949.46
724.386	27771.39
724.729	28022.68
725.071	27807.55
725.413	27776.13
725.755	27802.12
726.097	27709.47
726.439	27525.97
726.782	27568.46
727.124	27786.98
727.465	27491.4
727.807	27461.79
728.149	27600.09
728.491	27420.66
728.833	27408.69
729.175	27337.95
729.516	27279.65
729.858	27214.11
730.199	27201.23
730.541	27217.5
730.882	27220.22
731.224	27243.49
731.565	26970.28
731.906	27006.44
732.248	26968.25
732.589	26867.68
732.93	26767.12
733.271	26866.33
733.612	26827.46
733.953	26758.08
734.294	26644.41
734.635	26742.26
734.976	26690.74
735.317	26503.4
735.658	26528.94
735.999	26511.76
736.339	26425.44
736.68	26530.97
737.021	26332.56
737.361	26274.48
737.702	26458.43
738.042	26371.65
738.383	26293.46
738.723	26289.85
739.063	26196.51
739.404	26300.01
739.744	26194.71
740.084	26132.34
740.424	26132.11
740.764	26031.77
741.104	25968.27
741.444	25894.15
741.784	25849.41
742.124	26011.43
742.464	25985.45
742.804	25810.54
743.143	25751.33
743.483	25785.23
743.823	25653.03
744.162	25570.77
744.502	25690.54
744.841	25498.68
745.181	25734.83
745.52	25505.23
745.86	25480.15
746.199	25409.19
746.538	25437.89
746.877	25491.22
747.216	25348.4
747.556	25236.99
747.895	25279.7
748.234	25140.95
748.573	25136.2
748.911	25165.36
749.25	25165.36
749.589	25113.38
749.928	24999.26
750.267	25080.16
750.605	25078.13
750.944	24968.52
751.283	24849.43
751.621	24868.87
751.96	24786.61
752.298	24768.53
752.636	24664.35
752.975	24517.01
753.313	24630.91
753.651	24633.39
753.989	24408.09
754.327	24415.54
754.666	24321.99
755.004	24342.33
755.342	24352.95
755.679	24300.52
756.017	24060.53
756.355	24152.27
756.693	24097.59
757.031	24025.95
757.368	24007.42
757.706	23852.4
758.044	23834.09
758.381	23871.6
758.719	23830.25
759.056	23780.31
759.394	23688.33
759.731	23404.27
