Data from hue_32_FLMS001491_00018.txt Node
Date: Tue Feb 07 17:22:59 GMT 2017
User: dcchb
Spectrometer: FLMS00149
Trigger mode: 0
Integration Time (sec): 2.000000E-2
Scans to average: 10
Electric dark correction enabled: true
Nonlinearity correction enabled: false
Boxcar width: 0
XAxis mode: Wavelengths
Number of Pixels in Spectrum: 2048
>>>>>Begin Spectral Data<<<<<
341.393	-14.41
341.776	-14.41
342.16	-14.41
342.543	-50.79
342.927	-57.34
343.31	-67.74
343.693	-67.51
344.077	-77.68
344.46	-52.82
344.843	-48.08
345.226	-30.68
345.61	-33.61
345.993	-33.84
346.376	-12.37
346.759	3.9
347.142	33.28
347.525	38.25
347.908	48.87
348.291	79.15
348.674	94.97
349.057	125.93
349.44	110.56
349.823	132.71
350.206	161.86
350.588	213.16
350.971	223.55
351.354	230.56
351.737	247.28
352.119	251.8
352.502	264.46
352.884	297.45
353.267	283.89
353.65	292.93
354.032	290.9
354.414	313.95
354.797	311.23
355.179	329.54
355.562	316.66
355.944	345.81
356.326	322.99
356.709	352.82
357.091	338.35
357.473	351.01
357.855	356.88
358.238	336.54
358.62	341.97
359.002	343.1
359.384	358.01
359.766	329.99
360.148	360.95
360.53	347.84
360.912	329.09
361.294	332.7
361.676	332.7
362.057	343.1
362.439	328.86
362.821	321.18
363.203	329.31
363.584	336.54
363.966	313.72
364.348	335.64
364.729	332.03
365.111	312.82
365.493	331.12
365.874	315.53
366.256	320.5
366.637	327.73
367.019	310.56
367.4	329.77
367.781	306.72
368.163	314.85
368.544	312.59
368.925	315.75
369.306	334.51
369.688	337
370.069	329.77
370.45	303.33
370.831	289.54
371.212	319.37
371.593	315.3
371.974	311.46
372.355	311.69
372.736	320.95
373.117	324.57
373.498	324.57
373.879	303.78
374.26	315.3
374.641	312.82
375.021	311.23
375.402	330.9
375.783	330.22
376.163	333.83
376.544	333.38
376.925	321.86
377.305	330.9
377.686	328.86
378.066	351.69
378.447	339.48
378.827	336.77
379.208	327.28
379.588	335.41
379.968	352.82
380.349	333.83
380.729	340.39
381.109	322.99
381.489	329.54
381.87	331.12
382.25	335.87
382.63	328.41
383.01	341.29
383.39	331.12
383.77	341.06
384.15	346.94
384.53	343.1
384.91	335.19
385.29	361.4
385.67	347.39
386.049	368.86
386.429	352.14
386.809	371.12
387.189	356.88
387.568	361.18
387.948	385.58
388.328	343.32
388.707	382.19
389.087	390.55
389.466	369.31
389.846	375.41
390.225	354.62
390.605	365.47
390.984	384
391.363	382.19
391.743	364.11
392.122	373.38
392.501	374.51
392.881	378.13
393.26	370.22
393.639	400.5
394.018	379.03
394.397	386.71
394.776	392.14
395.155	383.1
395.534	396.66
395.913	391.01
396.292	407.28
396.671	398.69
397.05	375.41
397.429	416.77
397.808	393.94
398.186	400.05
398.565	401.63
398.944	374.96
399.323	402.31
399.701	406.37
400.08	400.5
400.458	409.31
400.837	390.55
401.215	395.98
401.594	417.22
401.972	393.94
402.351	419.48
402.729	412.02
403.107	411.57
403.486	413.15
403.864	409.99
404.242	418.35
404.62	425.13
404.999	424.68
405.377	437.33
405.755	423.55
406.133	421.06
406.511	415.19
406.889	433.27
407.267	443.89
407.645	462.42
408.023	434.17
408.401	433.27
408.779	438.24
409.156	448.41
409.534	449.31
409.912	441.4
410.29	460.84
410.667	450.67
411.045	447.73
411.422	462.87
411.8	453.83
412.178	482.98
412.555	465.13
412.933	478.01
413.31	468.52
413.687	494.05
414.065	481.63
414.442	501.74
414.819	506.71
415.197	484.34
415.574	515.52
415.951	515.52
416.328	518.46
416.705	503.77
417.082	502.42
417.46	515.98
417.837	516.43
418.214	527.5
418.591	516.43
418.967	508.52
419.344	523.88
419.721	535.86
420.098	539.7
420.475	540.61
420.852	532.92
421.228	552.58
421.605	545.13
421.982	551
422.358	545.13
422.735	552.13
423.111	533.83
423.488	569.99
423.864	564.79
424.241	556.65
424.617	559.82
424.994	574.05
425.37	559.14
425.746	583.32
426.123	571.34
426.499	572.92
426.875	597.55
427.251	590.55
427.627	593.04
428.003	609.76
428.379	610.21
428.756	612.47
429.132	609.98
429.507	609.98
429.883	606.14
430.259	643.2
430.635	623.09
431.011	632.13
431.387	636.88
431.763	643.66
432.138	653.15
432.514	651.11
432.89	666.48
433.265	694.5
433.641	685.91
434.016	664.9
434.392	711.9
434.767	700.38
435.143	667.38
435.518	692.69
435.894	711.68
436.269	693.82
436.644	722.52
437.02	714.61
437.395	719.36
437.77	716.65
438.145	731.79
438.52	729.75
438.895	743.09
439.271	753.26
439.646	773.82
440.021	750.09
440.395	789.87
440.77	781.73
441.145	783.99
441.52	762.3
441.895	793.26
442.27	790.77
442.645	808.85
443.019	802.3
443.394	777.66
443.769	815.18
444.143	795.52
444.518	815.18
444.892	818.57
445.267	825.57
445.641	838.23
446.016	831.67
446.39	833.48
446.764	830.32
447.139	857.66
447.513	838.68
447.887	854.5
448.262	859.92
448.636	868.73
449.01	870.77
449.384	869.64
449.758	861.05
450.132	887.04
450.506	886.81
450.88	884.1
451.254	889.98
451.628	903.08
452.002	907.6
452.376	908.96
452.75	937.43
453.123	936.3
453.497	933.14
453.871	951.44
454.244	965
454.618	970.2
454.992	976.08
455.365	972.46
455.739	1000.93
456.112	1014.49
456.486	1006.58
456.859	1023.08
457.232	1026.92
457.606	1040.71
457.979	1026.47
458.352	1075.28
458.725	1077.99
459.099	1110.99
459.472	1098.11
459.845	1075.28
460.218	1121.38
460.591	1116.86
460.964	1122.74
461.337	1148.27
461.71	1183.98
462.083	1173.81
462.456	1191.21
462.829	1200.02
463.201	1192.57
463.574	1217.43
463.947	1203.19
464.32	1249.29
464.692	1265.79
465.065	1284.54
465.438	1279.34
465.81	1284.77
466.183	1328.61
466.555	1334.26
466.928	1335.84
467.3	1358.66
467.672	1381.49
468.045	1416.06
468.417	1398.44
468.789	1430.3
469.161	1451.77
469.534	1446.12
469.906	1499
470.278	1525.44
470.65	1539
471.022	1582.61
471.394	1590.3
471.766	1613.12
472.138	1655.61
472.51	1656.28
472.882	1723.85
473.253	1729.28
473.625	1751.2
473.997	1797.52
474.369	1828.93
474.74	1818.99
475.112	1876.17
475.484	1940.57
475.855	1948.25
476.227	1985.32
476.598	2030.74
476.97	2075.48
477.341	2102.15
477.713	2169.72
478.084	2205.2
478.455	2252.65
478.827	2292.65
479.198	2349.37
479.569	2405.19
479.94	2465.08
480.311	2503.72
480.682	2573.55
481.053	2659.87
481.424	2727.22
481.795	2721.34
482.166	2814.45
482.537	2828.68
482.908	2945.06
483.279	2994.78
483.65	3069.81
484.021	3159.3
484.391	3210.14
484.762	3227.77
485.133	3327.65
485.503	3428.44
485.874	3504.82
486.244	3538.95
486.615	3647.87
486.985	3735.55
487.356	3794.76
487.726	3849.22
488.097	3953.62
488.467	4051.25
488.837	4156.11
489.207	4207.4
489.578	4289.89
489.948	4360.17
490.318	4449.66
490.688	4514.06
491.058	4639.48
491.428	4696.43
491.798	4749.99
492.168	4887.61
492.538	4938.01
492.908	5051
493.278	5115.63
493.648	5153.37
494.017	5246.02
494.387	5344.77
494.757	5394.94
495.126	5521.95
495.496	5505.9
495.866	5601.49
496.235	5704.54
496.605	5789.96
496.974	5838.55
497.344	5915.61
497.713	6036.06
498.082	6047.13
498.452	6126.45
498.821	6200.12
499.19	6221.81
499.559	6300
499.928	6342.94
500.298	6438.31
500.667	6463.39
501.036	6538.64
501.405	6617.06
501.774	6691.18
502.143	6771.63
502.512	6820.22
502.88	6867.45
503.249	6874.68
503.618	6981.34
503.987	7047.1
504.356	7126.65
504.724	7161.22
505.093	7128.23
505.462	7226.53
505.83	7269.24
506.199	7424.72
506.567	7449.58
506.936	7504.94
507.304	7583.36
507.672	7637.82
508.041	7759.4
508.409	7775.22
508.777	7802.56
509.145	7919.85
509.514	7922.79
509.882	7921.2
510.25	7906.52
510.618	8034.87
510.986	8072.16
511.354	8160.29
511.722	8242.78
512.09	8292.49
512.458	8264.47
512.826	8328.88
513.193	8406.39
513.561	8496.56
513.929	8404.81
514.297	8486.61
514.664	8579.94
515.032	8698.36
515.4	8704.01
515.767	8770.67
516.135	8763.67
516.502	8739.49
516.869	8876.43
517.237	8919.6
517.604	8909.88
517.972	9005.24
518.339	9058.12
518.706	9033.94
519.073	9044.34
519.44	9132.7
519.808	9243.66
520.175	9203.66
520.542	9327.04
520.909	9368.62
521.276	9331.34
521.643	9503.76
522.009	9551.44
522.376	9565.68
522.743	9634.38
523.11	9743.76
523.477	9829.85
523.843	9829.85
524.21	9896.52
524.577	10035.72
524.943	10068.49
525.31	10083.86
525.676	10182.84
526.043	10247.92
526.409	10287.92
526.776	10340.8
527.142	10420.8
527.508	10439.1
527.874	10514.13
528.241	10531.53
528.607	10558.87
528.973	10672.09
529.339	10651.3
529.705	10776.72
530.071	10853.78
530.437	10915.25
530.803	10992.76
531.169	11053.55
531.535	11033.21
531.901	10971.75
532.267	11169.03
532.632	11218.97
532.998	11248.12
533.364	11387.1
533.73	11345.97
534.095	11395.46
534.461	11512.3
534.826	11514.1
535.192	11583.71
535.557	11657.38
535.923	11585.06
536.288	11760.65
536.653	11700.09
537.019	11738.28
537.384	11873.64
537.749	11883.59
538.114	11894.43
538.479	11959.52
538.845	11982.57
539.21	11983.02
539.575	12014.2
539.94	12075.9
540.305	12234.99
540.67	12147.53
541.034	12227.76
541.399	12322.22
541.764	12307.53
542.129	12354.99
542.494	12506.85
542.858	12487.41
543.223	12474.53
543.587	12528.99
543.952	12585.94
544.316	12608.76
544.681	12716.78
545.045	12653.28
545.41	12808.31
545.774	12872.94
546.138	12882.2
546.503	12953.39
546.867	12990.45
547.231	13090.79
547.595	13079.49
547.959	13117.68
548.324	13215.3
548.688	13267.5
549.052	13225.02
549.416	13321.74
549.779	13303.21
550.143	13381.63
550.507	13492.36
550.871	13562.19
551.235	13509.08
551.599	13634.95
551.962	13579.36
552.326	13774.16
552.689	13775.74
553.053	13719.02
553.417	13803.76
553.78	13929.41
554.143	13801.5
554.507	13968.05
554.87	13979.35
555.234	14168.95
555.597	14041.72
555.96	14214.15
556.323	14193.81
556.686	14229.74
557.05	14296.4
557.413	14285.1
557.776	14445.33
558.139	14484.87
558.502	14445.55
558.865	14451.65
559.228	14572.78
559.59	14596.06
559.953	14636.06
560.316	14812.1
560.679	14790.4
561.041	14904.98
561.404	14860.46
561.767	14968.7
562.129	14933.68
562.492	15141.58
562.854	15183.61
563.217	15103.39
563.579	15213.22
563.941	15313.78
564.304	15396.26
564.666	15419.31
565.028	15460.44
565.39	15445.07
565.753	15509.25
566.115	15635.35
566.477	15677.38
566.839	15746.08
567.201	15820.43
567.563	15809.81
567.925	15877.15
568.287	15898.17
568.648	15856.36
569.01	16069.24
569.372	16165.51
569.734	16148.11
570.095	16240.31
570.457	16378.38
570.819	16294.54
571.18	16424.71
571.542	16495.22
571.903	16621.09
572.265	16596.68
572.626	16739.5
572.987	16835.55
573.349	16890.46
573.71	17047.74
574.071	17090.68
574.432	17075.77
574.794	17349.66
575.155	17258.13
575.516	17298.58
575.877	17473.95
576.238	17459.94
576.599	17686.82
576.96	17730.21
577.32	17903.09
577.681	18068.06
578.042	18026.93
578.403	18201.16
578.763	18351.66
579.124	18434.83
579.485	18658.32
579.845	18852.67
580.206	19014.47
580.566	19169.95
580.927	19135.15
581.287	19455.36
581.648	19499.66
582.008	19737.16
582.368	19883.83
582.728	20067.33
583.089	20258.73
583.449	20380.54
583.809	20653.52
584.169	20811.94
584.529	20958.6
584.889	21390.68
585.249	21432.04
585.609	21643.1
585.969	21954.96
586.329	22089.65
586.688	22325.57
587.048	22597.2
587.408	22725.11
587.768	22930.3
588.127	23162.61
588.487	23425.43
588.846	23815.93
589.206	23911.97
589.565	24242.36
589.925	24551.28
590.284	24791.27
590.643	25024.03
591.003	25377.47
591.362	25747.18
591.721	25903.1
592.08	26218.12
592.44	26569.75
592.799	26783.53
593.158	26964.32
593.517	27307.14
593.876	27611.31
594.235	27771.53
594.593	28022.37
594.952	28472.08
595.311	28623.48
595.67	28916.36
596.029	29290.59
596.387	29492.84
596.746	29849.44
597.104	29996.1
597.463	30214.63
597.822	30705.24
598.18	30720.38
598.538	30983.42
598.897	31339.8
599.255	31348.38
599.613	32107.23
599.972	32171.87
600.33	32347.68
600.688	32509.48
601.046	32931.17
601.404	33181.33
601.762	33279.86
602.12	33779.06
602.478	33805.95
602.836	34189.67
603.194	34158.71
603.552	34458.81
603.91	34591.69
604.268	34829.65
604.625	35125.23
604.983	35317.09
605.341	35444.1
605.698	35766.57
606.056	35952.78
606.413	36154.59
606.771	36442.49
607.128	36724.74
607.485	36665.99
607.843	36947.79
608.2	37213.54
608.557	37458.51
608.914	37483.36
609.272	37933.75
609.629	37954.99
609.986	38307.75
610.343	38238.6
610.7	38658.02
611.057	38778.25
611.414	38805.59
611.771	39183.88
612.127	39406.25
612.484	39398.12
612.841	39712.46
613.198	39667.49
613.554	39867.93
613.911	39956.75
614.267	40163.52
614.624	40231.99
614.98	40422.04
615.337	40657.29
615.693	40808.48
616.05	40765.76
616.406	41056.38
616.762	40992.88
617.118	41059.99
617.475	41229.93
617.831	41577.27
618.187	41581.56
618.543	41693.65
618.899	42079.85
619.255	42120.76
619.611	42115.33
619.967	42212.96
620.323	42355.55
620.678	42432.16
621.034	42302.67
621.39	42411.37
621.746	42557.81
622.101	42944.69
622.457	42697.01
622.812	42932.94
623.168	43123.67
623.523	43085.7
623.879	43351.01
624.234	42948.53
624.589	43347.17
624.945	43248.18
625.3	43358.92
625.655	43449.31
626.01	43523.43
626.365	43572.7
626.72	43645.01
627.075	43718.68
627.43	43776.08
627.785	43664.22
628.14	43740.15
628.495	43966.81
628.85	43759.58
629.205	43696.76
629.559	43848.85
629.914	43860.37
630.269	43899.02
630.623	43903.53
630.978	43844.78
631.332	44073.93
631.687	44153.47
632.041	43982.85
632.396	44084.1
632.75	43952.12
633.104	44092.91
633.459	43872.35
633.813	43969.52
634.167	43988.05
634.521	43971.78
634.875	44009.75
635.229	43961.39
635.583	43827.83
635.937	43755.06
636.291	43728.62
636.645	43921.16
636.999	43772.01
637.352	44042.29
637.706	43776.98
638.06	43926.81
638.413	43842.97
638.767	43882.52
639.121	43996.19
639.474	43715.07
639.828	43770.43
640.181	43709.87
640.534	43947.15
640.888	43699.02
641.241	43697.66
641.594	43814.27
641.947	43898.11
642.301	43779.24
642.654	43751.22
643.007	43767.49
643.36	43701.73
643.713	43705.8
644.066	43871.9
644.419	43537.22
644.771	43314.4
645.124	42973.84
645.477	42849.1
645.83	42625.15
646.182	42544.93
646.535	42440.3
646.888	42477.36
647.24	42372.28
647.593	42473.97
647.945	42578.6
648.298	42316.01
648.65	42304.48
649.002	42064.94
649.355	42355.55
649.707	42288.44
650.059	42490.92
650.411	42811.36
650.763	43059.72
651.115	43266.49
651.467	43162.09
651.819	43051.58
652.171	42966.61
652.523	43056.55
652.875	43012.26
653.227	42861.08
653.578	43209.32
653.93	43002.77
654.282	42934.29
654.633	42870.34
654.985	42934.97
655.337	43017.46
655.688	42862.21
656.039	43047.29
656.391	42773.62
656.742	42905.37
657.094	42896.33
657.445	43019.26
657.796	43007.06
658.147	42730.46
658.498	42757.58
658.849	42864.01
659.2	42788.54
659.551	42630.35
659.902	42940.17
660.253	42656.79
660.604	42797.58
660.955	42571.37
661.306	42730.23
661.656	42781.76
662.007	42840.51
662.358	42655.21
662.708	42703.57
663.059	42597.81
663.409	42506.51
663.76	42902.21
664.11	42690.69
664.461	42628.77
664.811	42864.01
665.161	42769.33
665.511	42694.08
665.862	42530.92
666.212	42809.78
666.562	42626.51
666.912	42556.45
667.262	42464.7
667.612	42538.82
667.962	42498.6
668.312	42605.04
668.662	42809.33
669.011	42663.57
669.361	42353.29
669.711	42579.95
670.06	42418.38
670.41	42509.22
670.76	42418.83
671.109	42557.13
671.459	42594.87
671.808	42466.06
672.157	42505.83
672.507	42234.65
672.856	42217.25
673.205	42360.75
673.554	42494.76
673.904	42375.67
674.253	42443.01
674.602	42287.98
674.951	41607.32
675.3	41717.38
675.649	42211.83
675.998	42220.19
676.346	42269.91
676.695	42369.11
677.044	42072.17
677.393	42236.46
677.741	42310.58
678.09	42066.3
678.438	42097.25
678.787	42105.62
679.135	42066.07
679.484	41841.89
679.832	41901.55
680.181	41792.86
680.529	41797.6
680.877	41722.35
681.225	41604.16
681.573	41931.84
681.922	41643.71
682.27	41555.35
682.618	41504.5
682.966	41579.75
683.314	41480.77
683.661	41341.79
684.009	41295.92
684.357	41182.7
684.705	41209.14
685.053	41111.74
685.4	41182.48
685.748	40952.2
686.095	40962.6
686.443	40754.47
686.79	40661.36
687.138	40821.13
687.485	40790.62
687.832	40569.16
688.18	40772.77
688.527	40538.88
688.874	40510.4
689.221	40299.56
689.568	40248.49
689.915	40177.08
690.262	40100.02
690.609	39906.58
690.956	39872.91
691.303	39783.42
691.65	39877.88
691.997	39755.62
692.344	39604.66
692.69	39443.77
693.037	39563.99
693.383	39181.63
693.73	39358.12
694.077	39167.39
694.423	39093.49
694.769	38991.57
695.116	38938.69
695.462	38777.79
695.808	38763.78
696.155	38749.77
696.501	38529.66
696.847	38640.4
697.193	38353.62
697.539	38365.38
697.885	38213.06
698.231	38207.64
698.577	38008.55
698.923	37903.47
699.269	37833.41
699.614	37642.23
699.96	37762.45
700.306	37537.37
700.651	37468.45
700.997	37280.88
701.342	37263.94
701.688	37092.19
702.033	37135.8
702.379	37199.08
702.724	36941.01
703.069	36985.98
703.415	36591.64
703.76	36686.55
704.105	36696.49
704.45	36474.58
704.795	36383.51
705.14	36355.03
705.485	36237.97
705.83	36169.05
706.175	36201.82
706.52	35943.07
706.865	35994.14
707.209	35853.35
707.554	35711.21
707.899	35845.89
708.243	35726.35
708.588	35516.64
708.932	35321.61
709.277	35332.23
709.621	35376.3
709.966	35080.04
710.31	35245.91
710.654	34876.65
710.998	35006.14
711.342	35027.84
711.687	34861.74
712.031	34763.44
712.375	34680.05
712.719	34712.14
713.063	34585.59
713.407	34743.78
713.75	34364.35
714.094	34473.95
714.438	34297.46
714.782	34452.48
715.125	34170.46
715.469	34227.41
715.812	34040.74
716.156	33841.65
716.499	33977.92
716.843	33958.03
717.186	33749
717.53	33985.38
717.873	33942.21
718.216	33785.61
718.559	33689.34
718.902	33449.35
719.246	33423.81
719.589	33402.57
719.932	33340.87
720.275	33287.32
720.617	33214.78
720.96	33280.09
721.303	33124.38
721.646	33098.85
721.989	32991.96
722.331	32995.35
722.674	32981.11
723.016	32977.72
723.359	32852.98
723.701	32779.99
724.044	32674
724.386	32640.55
724.729	32693.89
725.071	32664.28
725.413	32570.5
725.755	32494.12
726.097	32411.86
726.439	32164.41
726.782	32209.61
727.124	32398.53
727.465	32200.34
727.807	32130.74
728.149	32069.5
728.491	32022.49
728.833	32013.9
729.175	31953.34
729.516	31905.43
729.858	31911.31
730.199	31895.94
730.541	31744.08
730.882	31629.06
731.224	31869.5
731.565	31582.05
731.906	31679.68
732.248	31683.52
732.589	31606.68
732.93	31371.44
733.271	31338.44
733.612	31347.25
733.953	31425.44
734.294	31333.24
734.635	31271.32
734.976	31285.79
735.317	31061.61
735.658	31144.1
735.999	31210.76
736.339	31004.21
736.68	31127.37
737.021	31078.11
737.361	30896.87
737.702	31018.9
738.042	30912.69
738.383	30808.06
738.723	30898.45
739.063	30608.74
739.404	30814.61
739.744	30645.8
740.084	30604.22
740.424	30587.27
740.764	30499.82
741.104	30669.98
741.444	30300.95
741.784	30449.2
742.124	30292.59
742.464	30310.22
742.804	30219.83
743.143	30243.56
743.483	30163.78
743.823	30011.47
744.162	30157.46
744.502	30140.96
744.841	29983.22
745.181	30117.68
745.52	29978.03
745.86	30029.32
746.199	29966.05
746.538	29822.78
746.877	29882.43
747.216	29851.47
747.556	29744.36
747.895	29758.82
748.234	29656.23
748.573	29728.77
748.911	29538.49
749.25	29450.58
749.589	29447.87
749.928	29421.43
750.267	29430.47
750.605	29347.31
750.944	29306.86
751.283	29122.91
751.621	29298.04
751.96	29044.04
752.298	29161.1
752.636	29056.02
752.975	28947.77
753.313	28879.3
753.651	28934.21
753.989	28863.25
754.327	28876.13
754.666	28623.71
755.004	28767.44
755.342	28729.92
755.679	28635.69
756.017	28473.66
756.355	28635.91
756.693	28453.55
757.031	28497.16
757.368	28217.62
757.706	28169.49
