Data from hue_50_FLMS001491_97.txt Node
Date: Mon Feb 06 15:11:22 GMT 2017
User: dcchb
Spectrometer: FLMS00149
Trigger mode: 0
Integration Time (sec): 2.000000E-2
Scans to average: 10
Electric dark correction enabled: true
Nonlinearity correction enabled: false
Boxcar width: 0
XAxis mode: Wavelengths
Number of Pixels in Spectrum: 2048
>>>>>Begin Spectral Data<<<<<
341.393	-19.87
341.776	-19.87
342.16	-19.87
342.543	-64.39
342.927	-59.42
343.31	-64.39
343.693	-70.72
344.077	-83.37
344.46	-60.78
344.843	-40.21
345.226	-44.73
345.61	-37.27
345.993	-37.27
346.376	5.44
346.759	10.86
347.142	26.68
347.525	50.86
347.908	54.02
348.291	75.04
348.674	88.6
349.057	127.24
349.44	130.63
349.823	130.18
350.206	160.69
350.588	198.88
350.971	210.63
351.354	216.73
351.737	253.11
352.119	245.21
352.502	261.93
352.884	264.19
353.267	285.66
353.65	304.64
354.032	314.81
354.414	309.61
354.797	327.92
355.179	321.36
355.562	317.29
355.944	323.17
356.326	322.27
356.709	318.42
357.091	332.66
357.473	348.25
357.855	354.58
358.238	334.69
358.62	337.86
359.002	354.58
359.384	345.99
359.766	322.94
360.148	344.19
360.53	357.07
360.912	341.47
361.294	339.89
361.676	342.6
362.057	333.11
362.439	344.19
362.821	345.54
363.203	303.73
363.584	325.43
363.966	340.57
364.348	310.51
364.729	321.59
365.111	306.45
365.493	310.29
365.874	324.53
366.256	324.75
366.637	304.64
367.019	312.1
367.4	306.67
367.781	306.67
368.163	288.14
368.544	322.04
368.925	322.27
369.306	332.43
369.688	323.17
370.069	303.06
370.45	347.58
370.831	338.54
371.212	322.27
371.593	314.81
371.974	315.94
372.355	329.27
372.736	303.06
373.117	313.23
373.498	321.36
373.879	328.14
374.26	339.89
374.641	291.98
375.021	329.5
375.402	324.53
375.783	328.82
376.163	325.43
376.544	345.99
376.925	341.93
377.305	336.73
377.686	327.01
378.066	329.05
378.447	337.18
378.827	330.85
379.208	352.77
379.588	340.8
379.968	333.56
380.349	340.57
380.729	324.98
381.109	348.71
381.489	337.41
381.87	337.18
382.25	354.81
382.63	359.55
383.01	347.8
383.39	375.37
383.77	354.58
384.15	336.28
384.53	353.68
384.91	358.42
385.29	365.43
385.67	368.59
386.049	363.17
386.429	353.45
386.809	366.33
387.189	372.89
387.568	372.43
387.948	362.26
388.328	390.29
388.707	371.3
389.087	366.33
389.466	381.02
389.846	372.66
390.225	374.02
390.605	370.17
390.984	374.02
391.363	394.58
391.743	407.69
392.122	392.09
392.501	380.12
392.881	386.22
393.26	409.04
393.639	390.06
394.018	388.03
394.397	364.75
394.776	383.73
395.155	373.11
395.534	376.95
395.913	391.64
396.292	398.87
396.671	391.42
397.05	379.67
397.429	381.7
397.808	396.39
398.186	393
398.565	393
398.944	397.07
399.323	424.64
399.701	419.44
400.08	420.12
400.458	424.18
400.837	408.36
401.215	404.52
401.594	412.21
401.972	420.57
402.351	427.8
402.729	438.65
403.107	422.38
403.486	416.95
403.864	430.06
404.242	414.47
404.62	415.14
404.999	457.63
405.377	452.43
405.755	419.66
406.133	438.19
406.511	431.64
406.889	457.18
407.267	465.54
407.645	458.53
408.023	449.27
408.401	440.45
408.779	435.93
409.156	475.03
409.534	482.71
409.912	475.03
410.29	468.93
410.667	497.18
411.045	485.88
411.422	485.2
411.8	479.78
412.178	487.01
412.555	526.1
412.933	502.37
413.31	506.89
413.687	495.14
414.065	505.99
414.442	504.63
414.819	499.66
415.197	522.71
415.574	510.74
415.951	508.93
416.328	520.68
416.705	526.1
417.082	515.03
417.46	524.52
417.837	544.18
418.214	533.79
418.591	541.92
418.967	517.29
419.344	540.79
419.721	554.8
420.098	566.78
420.475	554.12
420.852	557.74
421.228	563.84
421.605	584.63
421.982	574.01
422.358	566.55
422.735	581.47
423.111	568.36
423.488	588.25
423.864	598.87
424.241	602.94
424.617	599.77
424.994	627.12
425.37	609.26
425.746	615.59
426.123	598.19
426.499	613.78
426.875	617.4
427.251	650.39
427.627	618.75
428.003	639.55
428.379	650.84
428.756	658.98
429.132	667.57
429.507	672.54
429.883	666.21
430.259	677.74
430.635	676.38
431.011	687.23
431.387	665.76
431.763	687.68
432.138	691.07
432.514	693.78
432.89	698.3
433.265	728.13
433.641	716.15
434.016	737.85
434.392	723.84
434.767	744.63
435.143	749.15
435.518	758.41
435.894	742.37
436.269	763.61
436.644	765.42
437.02	803.83
437.395	789.37
437.77	773.55
438.145	813.33
438.52	776.94
438.895	797.28
439.271	835.25
439.646	837.05
440.021	829.14
440.395	814.91
440.77	815.59
441.145	830.27
441.52	858.52
441.895	850.16
442.27	858.3
442.645	849.71
443.019	864.4
443.394	868.01
443.769	860.1
444.143	874.34
444.518	919.09
444.892	892.65
445.267	905.98
445.641	912.76
446.016	914.11
446.39	923.15
446.764	919.31
447.139	893.55
447.513	912.08
447.887	901.01
448.262	934.23
448.636	936.26
449.01	933.32
449.384	953.21
449.758	995.24
450.132	976.26
450.506	999.99
450.88	990.27
451.254	983.49
451.628	998.86
452.002	1000.89
452.376	1023.49
452.75	1038.4
453.123	1010.38
453.497	1043.83
453.871	1038.4
454.244	1088.35
454.618	1085.41
454.992	1077.5
455.365	1091.06
455.739	1096.93
456.112	1129.02
456.486	1141.45
456.859	1143.94
457.232	1165.63
457.606	1152.3
457.979	1202.69
458.352	1202.47
458.725	1204.5
459.099	1190.27
459.472	1230.04
459.845	1271.85
460.218	1245.18
460.591	1263.26
460.964	1297.16
461.337	1310.94
461.71	1319.98
462.083	1317.72
462.456	1368.57
462.829	1374.67
463.201	1363.14
463.574	1381.45
463.947	1368.11
464.32	1442.01
464.692	1450.37
465.065	1440.2
465.438	1458.73
465.81	1484.95
466.183	1524.72
466.555	1549.8
466.928	1574.21
467.3	1553.42
467.672	1580.76
468.045	1640.42
468.417	1639.29
468.789	1680.87
469.161	1726.75
469.534	1730.14
469.906	1771.72
470.278	1762.68
470.65	1833.64
471.022	1850.59
471.394	1873.41
471.766	1894.65
472.138	1934.43
472.51	1979.62
472.882	2008.55
473.253	2053.75
473.625	2062.56
473.997	2094.87
474.369	2143.01
474.74	2210.13
475.112	2230.01
475.484	2276.11
475.855	2343
476.227	2381.87
476.598	2449.44
476.97	2498.93
477.341	2524.92
477.713	2612.6
478.084	2666.84
478.455	2724.91
478.827	2774.4
479.198	2901.18
479.569	2923.55
479.94	3038.35
480.311	3050.33
480.682	3194.73
481.053	3267.5
481.424	3375.52
481.795	3390.21
482.166	3507.49
482.537	3567.38
482.908	3693.02
483.279	3802.63
483.65	3945.22
484.021	4022.28
484.391	4100.47
484.762	4171.66
485.133	4250.52
485.503	4361.48
485.874	4506.79
486.244	4615.03
486.615	4717.18
486.985	4873.78
487.356	4959.43
487.726	5082.37
488.097	5215.02
488.467	5315.35
488.837	5530.04
489.207	5624.95
489.578	5780.65
489.948	5829.47
490.318	6054.32
490.688	6168.44
491.058	6290.7
491.428	6408.21
491.798	6469.67
492.168	6757.8
492.538	6834.41
492.908	7002.09
493.278	7136.78
493.648	7211.58
494.017	7340.84
494.387	7505.81
494.757	7683.65
495.126	7802.07
495.496	7916.87
495.866	7972.46
496.235	8238.22
496.605	8305.78
496.974	8403.41
497.344	8544.2
497.713	8730.63
498.082	8816.05
498.452	9061.7
498.821	9149.38
499.19	9251.3
499.559	9389.37
499.928	9464.17
500.298	9668.01
500.667	9733.32
501.036	9845.4
501.405	10019.19
501.774	10099.18
502.143	10207.66
502.512	10348.67
502.88	10515.9
503.249	10594.99
503.618	10731.03
503.987	10792.27
504.356	10870.91
504.724	11081.76
505.093	11143.22
505.462	11212.15
505.83	11277.68
506.199	11458.92
506.567	11695.75
506.936	11827.5
507.304	11867.5
507.672	11985.46
508.041	12117.21
508.409	12258
508.777	12401.72
509.145	12542.06
509.514	12596.07
509.882	12738.21
510.25	12792.9
510.618	12952.67
510.986	12952.22
511.354	13122.15
511.722	13320.57
512.09	13448.25
512.458	13441.92
512.826	13490.05
513.193	13627.23
513.561	13723.72
513.929	13927.78
514.297	14039.42
514.664	14124.16
515.032	14260.88
515.4	14342.91
515.767	14519.18
516.135	14570.7
516.502	14537.26
516.869	14782.68
517.237	14980.64
517.604	14922.79
517.972	15161.2
518.339	15171.37
518.706	15262.21
519.073	15344.7
519.44	15565.25
519.808	15734.52
520.175	15701.75
520.542	15821.52
520.909	15938.8
521.276	16039.14
521.643	16184.45
522.009	16356.65
522.376	16403.88
522.743	16562.06
523.11	16676.41
523.477	16951.43
523.843	16985.56
524.21	17184.65
524.577	17273.01
524.943	17421.25
525.31	17507.12
525.676	17685.2
526.043	17841.8
526.409	17760.68
526.776	17998.41
527.142	18153.44
527.508	18188.01
527.874	18279.53
528.241	18439.98
528.607	18531.73
528.973	18713.87
529.339	18716.81
529.705	18888.78
530.071	19007.88
530.437	19084.94
530.803	19277.25
531.169	19370.35
531.535	19409.22
531.901	19467.75
532.267	19526.28
532.632	19670.01
532.998	19836.1
533.364	19942.99
533.73	19893.05
534.095	20166.26
534.461	20128.98
534.826	20340.95
535.192	20298.69
535.557	20639.02
535.923	20505.92
536.288	20648.28
536.653	20787.26
537.019	20704.78
537.384	20923.76
537.749	20955.62
538.114	20991.1
538.479	21055.28
538.845	21212.56
539.21	21209.17
539.575	21375.72
539.94	21287.59
540.305	21515.61
540.67	21500.69
541.034	21579.79
541.399	21682.83
541.764	21755.83
542.129	21759.44
542.494	21895.03
542.858	22010.96
543.223	21945.88
543.587	22145.42
543.952	22128.92
544.316	22304.51
544.681	22273.55
545.045	22401.46
545.41	22535.92
545.774	22540.89
546.138	22535.92
546.503	22703.82
546.867	22690.49
547.231	22937.26
547.595	22911.73
547.959	23036.47
548.324	23091.61
548.688	23192.62
549.052	23229.69
549.416	23229.91
549.779	23289.35
550.143	23364.37
550.507	23536.57
550.871	23613.4
551.235	23553.75
551.599	23843.23
551.962	23921.42
552.326	23935.2
552.689	24056.78
553.053	23978.82
553.417	24034.41
553.78	24366.83
554.143	24288.64
554.507	24412.93
554.87	24440.28
555.234	24743.54
555.597	24627.84
555.96	24705.35
556.323	24813.82
556.686	25008.62
557.05	25111.22
557.413	25096.53
557.776	25184.66
558.139	25389.86
558.502	25417.65
558.865	25536.29
559.228	25545.78
559.59	25736.29
559.953	25780.58
560.316	26032.1
560.679	26029.16
561.041	26118.42
561.404	26225.31
561.767	26461.92
562.129	26369.49
562.492	26640.67
562.854	26681.8
563.217	26720.22
563.579	26743.27
563.941	26965.18
564.304	27116.14
564.666	27227.77
565.028	27329.69
565.39	27371.5
565.753	27522.91
566.115	27724.48
566.477	27709.12
566.839	27791.15
567.201	27984.14
567.563	28015.32
567.925	28157.01
568.287	28107.98
568.648	28412.15
569.01	28357.69
569.372	28594.97
569.734	28507.29
570.095	28820.5
570.457	28750.22
570.819	29008.52
571.18	28943.21
571.542	29149.3
571.903	29197.21
572.265	29366.25
572.626	29340.03
572.987	29456.41
573.349	29646.47
573.71	29712.45
574.071	29740.7
574.432	29937.08
574.794	30223.4
575.155	30166.45
575.516	30143.85
575.877	30217.07
576.238	30342.49
576.599	30511.98
576.96	30605.99
577.32	30703.84
577.681	30918.52
578.042	30982.02
578.403	31048.24
578.763	31074.68
579.124	31414.33
579.485	31406.42
579.845	31583.36
580.206	31553.76
580.566	31521.22
580.927	31633.98
581.287	31991.72
581.648	31872.4
582.008	32005.27
582.368	32147.19
582.728	32262.22
583.089	32352.84
583.449	32317.81
583.809	32566.62
584.169	32678.93
584.529	32616.11
584.889	32986.72
585.249	32984.01
585.609	32841.18
585.969	33167.73
586.329	33216.09
586.688	33383.54
587.048	33441.85
587.408	33495.18
587.768	33520.49
588.127	33577.44
588.487	33759.8
588.846	34138.55
589.206	33889.52
589.565	34013.36
589.925	34294.25
590.284	34162.51
590.643	34402.73
591.003	34616.28
591.362	34624.64
591.721	34734.47
592.08	34678.88
592.44	34974.69
592.799	34980.34
593.158	35016.27
593.517	35123.84
593.876	35364.96
594.235	35330.16
594.593	35605.63
594.952	35594.56
595.311	35674.56
595.67	35726.76
596.029	36114.09
596.387	36090.36
596.746	36173.53
597.104	36109.8
597.463	36131.72
597.822	36320.87
598.18	36306.63
598.538	36230.02
598.897	36633.63
599.255	36396.8
599.613	37057.8
599.972	36804.92
600.33	36955.43
600.688	36781.65
601.046	37020.51
601.404	37351.12
601.762	37164.46
602.12	37431.8
602.478	37653.94
602.836	37692.81
603.194	37428.41
603.552	37533.26
603.91	37520.84
604.268	37822.52
604.625	37723.32
604.983	38052.8
605.341	37661.85
605.698	38134.83
606.056	38257.54
606.413	38152.23
606.771	38382.51
607.128	38445.1
607.485	38231.33
607.843	38461.6
608.2	38722.84
608.557	38767.58
608.914	38700.69
609.272	38876.28
609.629	38959.22
609.986	39173.9
610.343	39001.25
610.7	39342.03
611.057	39291.64
611.414	39345.65
611.771	39464.74
612.127	39634.9
612.484	39594.91
612.841	39871.73
613.198	39573.21
613.554	39785.18
613.911	39981.11
614.267	39915.57
614.624	39941.34
614.98	40077.83
615.337	40244.61
615.693	40241.44
616.05	40300.42
616.406	40603.69
616.762	40373.87
617.118	40514.66
617.475	40523.92
617.831	40708.32
618.187	40732.5
618.543	40883.68
618.899	40923.23
619.255	40936.56
619.611	40921.42
619.967	41131.59
620.323	41147.41
620.678	41110.35
621.034	41046.62
621.39	41118.71
621.746	41071.25
622.101	41454.29
622.457	41139.72
622.812	41303.11
623.168	41429.21
623.523	41422.43
623.879	41425.37
624.234	41180.85
624.589	41327.52
624.945	41483.9
625.3	41545.59
625.655	41497
626.01	41479.83
626.365	41634.85
626.72	41563.67
627.075	41560.96
627.43	41468.3
627.785	41581.52
628.14	41533.84
628.495	41620.39
628.85	41539.03
629.205	41512.14
629.559	41764.79
629.914	41492.93
630.269	41689.31
630.623	41470.34
630.978	41627.85
631.332	41724.11
631.687	41899.03
632.041	41665.81
632.396	41760.95
632.75	41537.45
633.104	41738.8
633.459	41486.61
633.813	41618.58
634.167	41480.51
634.521	41573.16
634.875	41537
635.229	41468.75
635.583	41409.55
635.937	41328.87
636.291	41432.15
636.645	41417.91
636.999	41295.88
637.352	41358.02
637.706	41135.43
638.06	41436.44
638.413	41177.24
638.767	41112.61
639.121	41257.01
639.474	41020.86
639.828	40976.79
640.181	41057.01
640.534	40906.28
640.888	40935.43
641.241	40773.41
641.594	40948.99
641.947	40940.86
642.301	40910.12
642.654	41052.95
643.007	40905.38
643.36	40797.81
643.713	40905.61
644.066	40899.96
644.419	40694.54
644.771	40397.82
645.124	40154.21
645.477	40031.28
645.83	39821.57
646.182	39718.97
646.535	39518.07
646.888	39789.93
647.24	39460.9
647.593	39648.24
647.945	39591.29
648.298	39283.95
648.65	39412.31
649.002	39112.21
649.355	39424.51
649.707	39199.66
650.059	39452.08
650.411	39927.78
650.763	40020.2
651.115	40342.91
651.467	40122.57
651.819	40191.27
652.171	40059.53
652.523	40088.45
652.875	40146.08
653.227	40004.84
653.578	40241.44
653.93	40068.79
654.282	40008
654.633	39895.24
654.985	39844.62
655.337	40008.23
655.688	39968.68
656.039	40052.29
656.391	39812.98
656.742	39757.84
657.094	39739.31
657.445	39844.84
657.796	39873.54
658.147	39842.58
658.498	39651.4
658.849	39757.39
659.2	39850.49
659.551	39650.5
659.902	39694.11
660.253	39616.6
660.604	39757.84
660.955	39589.71
661.306	39769.36
661.656	39675.13
662.007	39665.64
662.358	39627.22
662.708	39626.32
663.059	39620.67
663.409	39375.25
663.76	39649.14
664.11	39668.35
664.461	39652.3
664.811	39509.94
665.161	39521.23
665.511	39436.49
665.862	39556.94
666.212	39802.58
666.562	39638.07
666.912	39532.53
667.262	39442.37
667.612	39488.02
667.962	39463.38
668.312	39507.22
668.662	39593.78
669.011	39472.65
669.361	39373.67
669.711	39448.69
670.06	39371.63
670.41	39357.4
670.76	39445.3
671.109	39479.2
671.459	39275.82
671.808	39216.61
672.157	39321.24
672.507	39186.55
672.856	39031.76
673.205	38992.89
673.554	39308.13
673.904	39105.43
674.253	39206.89
674.602	39152.21
674.951	38594.03
675.3	38334.6
675.649	39083.51
675.998	38953.11
676.346	39007.12
676.695	39084.18
677.044	38918.76
677.393	39069.04
677.741	39083.73
678.09	39000.34
678.438	38770.97
678.787	38789.28
679.135	39038.08
679.484	38606.23
679.832	38751.99
680.181	38683.29
680.529	38805.1
680.877	38463.64
681.225	38691.2
681.573	38829.5
681.922	38452.34
682.27	38271.78
682.618	38350.19
682.966	38373.92
683.314	38332.79
683.661	38266.58
684.009	38146.58
684.357	38018
684.705	37906.14
685.053	37926.47
685.4	37950.43
685.748	37881.96
686.095	37880.15
686.443	37698.91
686.79	37579.14
687.138	37607.16
687.485	37675.41
687.832	37359.26
688.18	37427.96
688.527	37537.33
688.874	37310.67
689.221	37232.26
689.568	37160.39
689.915	37022.09
690.262	36993.39
690.609	36894.41
690.956	36856.22
691.303	36707.07
691.65	36652.84
691.997	36631.37
692.344	36467.3
692.69	36345.05
693.037	36408.55
693.383	36295.56
693.73	36325.39
694.077	36051.5
694.423	36108.67
694.769	35950.48
695.116	35947.77
695.462	35774.44
695.808	35765.4
696.155	35755.46
696.501	35579.64
696.847	35545.07
697.193	35295.58
697.539	35376.26
697.885	35166.1
698.231	34981.24
698.577	35139.2
698.923	34981.69
699.269	34903.96
699.614	34613.79
699.96	34676.62
700.306	34594.58
700.651	34477.98
700.997	34380.35
701.342	34357.53
701.688	34217.65
702.033	34222.84
702.379	34155.95
702.724	34076.86
703.069	34053.81
703.415	33629.41
703.76	33793.02
704.105	33760.26
704.45	33708.96
704.795	33468.51
705.14	33444.78
705.485	33370.89
705.83	33241.17
706.175	33261.51
706.52	33130.22
706.865	32976.55
707.209	33031.01
707.554	32851.81
707.899	32933.39
708.243	32813.61
708.588	32739.49
708.932	32520.74
709.277	32635.31
709.621	32478.71
709.966	32259.73
710.31	32315.55
710.654	31918.5
710.998	32133.63
711.342	32032.39
711.687	32163.69
712.031	31920.3
712.375	31770.7
712.719	31856.13
713.063	31818.16
713.407	31819.97
713.75	31613.65
714.094	31641.67
714.438	31508.34
714.782	31540.65
715.125	31380.21
715.469	31442.8
715.812	31321.45
716.156	31178.4
716.499	31206.65
716.843	31243.49
717.186	30911.52
717.53	31129.59
717.873	31191.51
718.216	31018.41
718.559	30869.94
718.902	30655.48
719.246	30776.61
719.589	30669.26
719.932	30559.89
720.275	30504.52
720.617	30547.23
720.96	30436.5
721.303	30338.2
721.646	30471.08
721.989	30180.46
722.331	30290.74
722.674	30034.93
723.016	30181.14
723.359	30181.59
723.701	30291.65
724.044	29987.93
724.386	29884.43
724.729	29922.39
725.071	29902.05
725.413	29908.61
725.755	29817.54
726.097	29746.12
726.439	29545.23
726.782	29571.89
727.124	29617.09
727.465	29518.33
727.807	29388.85
728.149	29422.29
728.491	29366.25
728.833	29276.76
729.175	29206.03
729.516	29220.04
729.858	29169.64
730.199	29147.95
730.541	29035.18
730.882	28986.37
731.224	29154.73
731.565	28813.72
731.906	28983.66
732.248	28935.52
732.589	28715.87
732.93	28872.02
733.271	28754.74
733.612	28709.54
733.953	28728.07
734.294	28533.05
734.635	28517.23
734.976	28671.8
735.317	28601.07
735.658	28507.51
735.999	28490.11
736.339	28385.48
736.68	28480.17
737.021	28394.75
737.361	28241.31
737.702	28443.11
738.042	28281.08
738.383	28292.15
738.723	28230.91
739.063	28096.22
739.404	28087.64
739.744	28051.03
740.084	28044.02
740.424	27992.27
740.764	27866.17
741.104	27941.65
741.444	27791.83
741.784	27802.67
742.124	27792.28
742.464	27777.81
742.804	27594.32
743.143	27530.14
743.483	27688.1
743.823	27519.97
744.162	27467.77
744.502	27552.96
744.841	27378.05
745.181	27375.79
745.52	27296.47
745.86	27319.52
746.199	27271.16
746.538	27189.13
746.877	27410.37
747.216	27327.88
747.556	27086.31
747.895	27180.99
748.234	27101.45
748.573	27035.69
748.911	26959.76
749.25	26901.45
749.589	26830.95
749.928	26737.16
750.267	26769.71
750.605	26701.46
750.944	26610.84
751.283	26631.18
751.621	26687.45
751.96	26410.85
752.298	26480.45
752.636	26446.32
752.975	26357.29
753.313	26262.83
753.651	26392.54
753.989	26196.39
754.327	26209.72
754.666	25948.26
755.004	26050.4
755.342	26114.13
755.679	26064.19
756.017	25796.62
