Data from hue_220_FLMS001491_00064.txt Node
Date: Tue Feb 07 16:39:47 GMT 2017
User: dcchb
Spectrometer: FLMS00149
Trigger mode: 0
Integration Time (sec): 2.000000E-2
Scans to average: 10
Electric dark correction enabled: true
Nonlinearity correction enabled: false
Boxcar width: 0
XAxis mode: Wavelengths
Number of Pixels in Spectrum: 2048
>>>>>Begin Spectral Data<<<<<
341.393	-30.06
341.776	-30.06
342.16	-30.06
342.543	-64.41
342.927	-60.56
343.31	-64.63
343.693	-69.15
344.077	-69.15
344.46	-59.21
344.843	-43.16
345.226	-45.42
345.61	-21.24
345.993	-28.25
346.376	-3.84
346.759	16.72
347.142	25.54
347.525	31.86
347.908	54.24
348.291	81.58
348.674	88.81
349.057	105.31
349.44	115.7
349.823	138.3
350.206	165.42
350.588	188.02
350.971	202.03
351.354	222.14
351.737	224.63
352.119	246.1
352.502	253.1
352.884	271.63
353.267	271.41
353.65	281.35
354.032	277.05
354.414	299.65
354.797	305.08
355.179	300.56
355.562	329.03
355.944	317.73
356.326	300.56
356.709	333.55
357.091	335.36
357.473	350.27
357.855	315.7
358.238	320.67
358.62	356.15
359.002	315.92
359.384	345.75
359.766	342.82
360.148	313.21
360.53	323.38
360.912	334.23
361.294	341.23
361.676	334.45
362.057	334.68
362.439	302.82
362.821	334.23
363.203	336.49
363.584	332.19
363.966	320.9
364.348	334
364.729	314.57
365.111	310.05
365.493	303.27
365.874	297.85
366.256	325.19
366.637	316.6
367.019	312.31
367.4	308.92
367.781	317.51
368.163	295.81
368.544	287.45
368.925	298.52
369.306	320.44
369.688	317.28
370.069	303.49
370.45	340.78
370.831	302.82
371.212	318.41
371.593	311.86
371.974	300.56
372.355	296.26
372.736	313.44
373.117	315.92
373.498	306.88
373.879	314.57
374.26	332.65
374.641	325.19
375.021	317.51
375.402	315.02
375.783	315.02
376.163	331.29
376.544	328.8
376.925	318.41
377.305	298.75
377.686	314.34
378.066	324.06
378.447	341.69
378.827	318.64
379.208	330.84
379.588	310.5
379.968	329.48
380.349	331.74
380.729	341.23
381.109	331.52
381.489	334.91
381.87	341.01
382.25	343.72
382.63	340.78
383.01	336.94
383.39	336.04
383.77	360.67
384.15	343.27
384.53	333.32
384.91	323.83
385.29	325.64
385.67	345.3
386.049	348.47
386.429	359.54
386.809	338.07
387.189	325.64
387.568	348.92
387.948	340.33
388.328	354.79
388.707	351.18
389.087	344.85
389.466	359.09
389.846	348.47
390.225	349.14
390.605	341.69
390.984	358.86
391.363	357.5
391.743	339.88
392.122	352.08
392.501	336.71
392.881	364.74
393.26	372.65
393.639	362.93
394.018	369.03
394.397	362.7
394.776	390.05
395.155	383.72
395.534	396.6
395.913	364.06
396.292	380.1
396.671	390.27
397.05	380.1
397.429	386.43
397.808	374.91
398.186	376.49
398.565	359.99
398.944	381.68
399.323	394.11
399.701	386.66
400.08	392.76
400.458	412.19
400.837	395.92
401.215	409.48
401.594	403.83
401.972	401.8
402.351	408.35
402.729	423.04
403.107	419.88
403.486	424.17
403.864	440.67
404.242	434.11
404.62	413.55
404.999	457.39
405.377	445.86
405.755	439.31
406.133	452.42
406.511	434.79
406.889	447.22
407.267	444.73
407.645	448.35
408.023	465.52
408.401	462.59
408.779	457.39
409.156	480.21
409.534	491.74
409.912	501
410.29	500.78
410.667	509.59
411.045	493.77
411.422	522.92
411.8	513.88
412.178	547.33
412.555	537.61
412.933	558.4
413.31	546.88
413.687	564.96
414.065	568.57
414.442	588.01
414.819	585.52
415.197	590.94
415.574	599.76
415.951	593.43
416.328	610.38
416.705	618.06
417.082	644.05
417.46	628.91
417.837	656.48
418.214	683.15
418.591	665.97
418.967	656.93
419.344	692.86
419.721	674.33
420.098	705.74
420.475	683.6
420.852	715.69
421.228	711.62
421.605	721.34
421.982	755.91
422.358	769.92
422.735	766.08
423.111	775.8
423.488	795.23
423.864	823.93
424.241	813.76
424.617	820.32
424.994	856.25
425.37	881.33
425.746	880.88
426.123	879.52
426.499	880.2
426.875	875.46
427.251	885.4
427.627	941.67
428.003	959.75
428.379	951.39
428.756	954.33
429.132	982.8
429.507	978.96
429.883	1002.23
430.259	998.84
430.635	1016.02
431.011	1029.13
431.387	1035.9
431.763	1052.18
432.138	1063.47
432.514	1091.95
432.89	1121.1
433.265	1137.37
433.641	1160.42
434.016	1132.17
434.392	1190.25
434.767	1197.93
435.143	1235.67
435.518	1254.66
435.894	1269.12
436.269	1278.38
436.644	1304.82
437.02	1330.13
437.395	1354.54
437.77	1353.64
438.145	1396.12
438.52	1413.07
438.895	1422.34
439.271	1431.15
439.646	1477.02
440.021	1470.7
440.395	1508.21
440.77	1486.06
441.145	1515.21
441.52	1590.24
441.895	1545.95
442.27	1571.71
442.645	1566.96
443.019	1639.28
443.394	1625.27
443.769	1644.93
444.143	1665.27
444.518	1701.88
444.892	1690.35
445.267	1691.25
445.641	1702.33
446.016	1723.8
446.39	1723.34
446.764	1750.24
447.139	1778.48
447.513	1799.05
447.887	1797.69
448.262	1789.33
448.636	1792.27
449.01	1852.15
449.384	1810.8
449.758	1856
450.132	1864.58
450.506	1907.29
450.88	1901.19
451.254	1881.76
451.628	1930.57
452.002	1966.73
452.376	1975.32
452.75	1969.89
453.123	1993.39
453.497	2029.55
453.871	2042.88
454.244	2075.43
454.618	2105.26
454.992	2071.36
455.365	2135.54
455.739	2144.35
456.112	2218.7
456.486	2192.94
456.859	2205.14
457.232	2217.12
457.606	2266.38
457.979	2290.11
458.352	2289.88
458.725	2335.98
459.099	2379.15
459.472	2410.33
459.845	2432.7
460.218	2436.09
460.591	2437.9
460.964	2482.65
461.337	2498.92
461.71	2540.05
462.083	2594.51
462.456	2593.6
462.829	2600.84
463.201	2625.02
463.574	2669.31
463.947	2671.34
464.32	2749.31
464.692	2755.63
465.065	2770.77
465.438	2823.2
465.81	2835.41
466.183	2876.31
466.555	2920.15
466.928	2982.52
467.3	2916.53
467.672	2956.53
468.045	3051.67
468.417	3035.4
468.789	3061.16
469.161	3121.95
469.534	3127.15
469.906	3222.51
470.278	3262.97
470.65	3241.72
471.022	3280.59
471.394	3370.53
471.766	3357.88
472.138	3451.66
472.51	3475.16
472.882	3521.72
473.253	3579.11
473.625	3628.61
473.997	3667.47
474.369	3702.73
474.74	3728.94
475.112	3777.75
475.484	3827.7
475.855	3874.47
476.227	3908.6
476.598	4033.79
476.97	3999.67
477.341	4107.24
477.713	4176.16
478.084	4159.44
478.455	4259.32
478.827	4300.68
479.198	4416.38
479.569	4422.48
479.94	4508.81
480.311	4554.23
480.682	4657.73
481.053	4729.14
481.424	4785.86
481.795	4820.89
482.166	4825.86
482.537	4917.61
482.908	5029.02
483.279	5048.45
483.65	5135.91
484.021	5226.98
484.391	5184.72
484.762	5276.25
485.133	5322.8
485.503	5375
485.874	5500.42
486.244	5507.43
486.615	5597.37
486.985	5655.67
487.356	5748.78
487.726	5818.6
488.097	5886.17
488.467	5919.84
488.837	6016.34
489.207	6048.43
489.578	6104.02
489.948	6188.31
490.318	6201.87
490.688	6280.29
491.058	6315.54
491.428	6407.29
491.798	6449.1
492.168	6528.19
492.538	6533.39
492.908	6579.94
493.278	6712.14
493.648	6704
494.017	6766.83
494.387	6848.41
494.757	6823.78
495.126	6913.04
495.496	6897.45
495.866	6945.58
496.235	6993.26
496.605	7020.15
496.974	7085.69
497.344	7077.33
497.713	7150.32
498.082	7180.15
498.452	7233.48
498.821	7231.45
499.19	7260.6
499.559	7348.73
499.928	7353.7
500.298	7410.65
500.667	7454.72
501.036	7436.87
501.405	7483.19
501.774	7474.83
502.143	7461.27
502.512	7585.11
502.88	7583.98
503.249	7580.59
503.618	7574.72
503.987	7628.95
504.356	7661.49
504.724	7577.43
505.093	7660.36
505.462	7711.44
505.83	7759.8
506.199	7768.38
506.567	7839.12
506.936	7831.88
507.304	7867.36
507.672	7935.61
508.041	7898.78
508.409	7935.61
508.777	7944.88
509.145	7960.47
509.514	8000.02
509.882	8003.18
510.25	8038.66
510.618	8002.73
510.986	8020.81
511.354	8055.38
511.722	8079.34
512.09	8149.16
512.458	8076.62
512.826	8125.89
513.193	8200.69
513.561	8160.46
513.929	8146
514.297	8237.52
514.664	8231.87
515.032	8186.23
515.4	8249.27
515.767	8271.19
516.135	8213.57
516.502	8179.67
516.869	8323.62
517.237	8325.43
517.604	8214.25
517.972	8303.06
518.339	8322.49
518.706	8307.58
519.073	8326.11
519.44	8331.98
519.808	8324.07
520.175	8320.69
520.542	8341.93
520.909	8383.96
521.276	8362.27
521.643	8418.99
522.009	8370.63
522.376	8412.66
522.743	8368.59
523.11	8440
523.477	8439.1
523.843	8487.46
524.21	8503.51
524.577	8495.14
524.943	8515.93
525.31	8523.39
525.676	8504.41
526.043	8588.47
526.409	8505.77
526.776	8596.16
527.142	8542.6
527.508	8546.22
527.874	8613.78
528.241	8540.79
528.607	8574.69
528.973	8548.25
529.339	8516.84
529.705	8597.06
530.071	8563.16
530.437	8573.56
530.803	8554.13
531.169	8586.21
531.535	8582.15
531.901	8524.52
532.267	8520.23
532.632	8529.04
532.998	8455.37
533.364	8541.7
533.73	8441.59
534.095	8526.1
534.461	8433.22
534.826	8430.51
535.192	8480
535.557	8463.73
535.923	8406.56
536.288	8417.41
536.653	8393.45
537.019	8379.89
537.384	8392.55
537.749	8387.8
538.114	8339.22
538.479	8253.57
538.845	8262.38
539.21	8238.88
539.575	8247.01
539.94	8217.41
540.305	8250.18
540.67	8139.22
541.034	8185.1
541.399	8106.23
541.764	8123.4
542.129	8094.02
542.494	8037.75
542.858	8047.02
543.223	8068.04
543.587	8027.13
543.952	8026.46
544.316	7958.43
544.681	7915.95
545.045	7946.91
545.41	7921.15
545.774	7920.47
546.138	7804.99
546.503	7836.86
546.867	7804.31
547.231	7848.83
547.595	7847.7
547.959	7767.71
548.324	7753.02
548.688	7713.47
549.052	7738.33
549.416	7622.17
549.779	7601.61
550.143	7656.52
550.507	7594.15
550.871	7605.22
551.235	7558.9
551.599	7620.82
551.962	7540.37
552.326	7441.84
552.689	7584.89
553.053	7478.67
553.417	7434.61
553.78	7532.91
554.143	7411.33
554.507	7426.47
554.87	7461.05
555.234	7400.03
555.597	7381.05
555.96	7350.77
556.323	7346.7
556.686	7326.36
557.05	7354.38
557.413	7349.64
557.776	7319.36
558.139	7328.17
558.502	7330.43
558.865	7296.08
559.228	7343.99
559.59	7329.98
559.953	7227.15
560.316	7340.37
560.679	7300.82
561.041	7350.09
561.404	7304.67
561.767	7293.82
562.129	7303.31
562.492	7339.47
562.854	7249.98
563.217	7270.77
563.579	7277.32
563.941	7307.83
564.304	7286.59
564.666	7336.76
565.028	7341.73
565.39	7345.57
565.753	7323.42
566.115	7315.06
566.477	7368.62
566.839	7313.48
567.201	7399.13
567.563	7381.5
567.925	7434.15
568.287	7368.85
568.648	7333.82
569.01	7391.44
569.372	7405
569.734	7389.86
570.095	7423.76
570.457	7461.95
570.819	7435.28
571.18	7425.79
571.542	7456.3
571.903	7502.63
572.265	7493.14
572.626	7486.13
572.987	7520.71
573.349	7528.16
573.71	7521.38
574.071	7562.74
574.432	7597.54
574.794	7566.81
575.155	7607.03
575.516	7596.86
575.877	7630.08
576.238	7630.08
576.599	7655.62
576.96	7633.47
577.32	7647.71
577.681	7636.41
578.042	7661.95
578.403	7723.19
578.763	7699.46
579.124	7680.02
579.485	7733.81
579.845	7790.53
580.206	7740.81
580.566	7746.24
580.927	7702.4
581.287	7815.16
581.648	7786.01
582.008	7846.57
582.368	7843.18
582.728	7882.96
583.089	7890.87
583.449	7858.55
583.809	7826.23
584.169	7909.85
584.529	7898.55
584.889	7906.46
585.249	7913.46
585.609	7905.1
585.969	7965.89
586.329	7925.67
586.688	8026.68
587.048	7964.08
587.408	8006.34
587.768	7974.71
588.127	8031.2
588.487	7958.43
588.846	8091.99
589.206	7967.93
589.565	8044.99
589.925	8113.68
590.284	8027.36
590.643	8097.19
591.003	8088.83
591.362	8165.21
591.721	8144.19
592.08	8179.22
592.44	8124.76
592.799	8190.75
593.158	8148.49
593.517	8134.7
593.876	8192.55
594.235	8152.1
594.593	8219.9
594.952	8153.91
595.311	8125.21
595.67	8188.26
596.029	8306
596.387	8300.8
596.746	8316.39
597.104	8213.12
597.463	8265.32
597.822	8276.39
598.18	8193
598.538	8185.32
598.897	8356.84
599.255	8209.5
599.613	8280.46
599.972	8266.9
600.33	8292.89
600.688	8301.7
601.046	8313.91
601.404	8351.87
601.762	8310.74
602.12	8353.68
602.478	8296.96
602.836	8366.56
603.194	8324.98
603.552	8352.32
603.91	8295.6
604.268	8428.03
604.625	8316.84
604.983	8396.39
605.341	8325.88
605.698	8450.17
606.056	8359.78
606.413	8386.67
606.771	8450.4
607.128	8417.18
607.485	8392.77
607.843	8403.39
608.2	8399.1
608.557	8488.36
608.914	8426.45
609.272	8444.3
609.629	8518.65
609.986	8515.93
610.343	8425.32
610.7	8549.15
611.057	8586.67
611.414	8560
611.771	8571.98
612.127	8600
612.484	8569.94
612.841	8543.96
613.198	8562.03
613.554	8570.62
613.911	8604.07
614.267	8626.44
614.624	8608.81
614.98	8599.1
615.337	8558.65
615.693	8614.91
616.05	8578.76
616.406	8702.37
616.762	8641.13
617.118	8608.59
617.475	8587.8
617.831	8755.93
618.187	8648.81
618.543	8634.58
618.899	8752.09
619.255	8658.76
619.611	8687
619.967	8795.93
620.323	8727.45
620.678	8764.06
621.034	8717.51
621.39	8738.53
621.746	8678.19
622.101	8763.39
622.457	8713.22
622.812	8714.8
623.168	8725.65
623.523	8775.14
623.879	8717.51
624.234	8654.69
624.589	8687.68
624.945	8773.1
625.3	8749.83
625.655	8771.75
626.01	8714.8
626.365	8722.71
626.72	8710.51
627.075	8695.82
627.43	8698.08
627.785	8689.04
628.14	8694.46
628.495	8731.3
628.85	8683.39
629.205	8659.89
629.559	8694.91
629.914	8629.15
630.269	8658.76
630.623	8598.64
630.978	8704.63
631.332	8678.64
631.687	8739.66
632.041	8668.25
632.396	8611.07
632.75	8577.4
633.104	8637.74
633.459	8567.91
633.813	8581.02
634.167	8597.29
634.521	8518.87
634.875	8629.38
635.229	8556.84
635.583	8501.25
635.937	8521.81
636.291	8461.02
636.645	8478.65
636.999	8518.42
637.352	8459.66
637.706	8401.59
638.06	8447.91
638.413	8469.83
638.767	8428.7
639.121	8422.83
639.474	8425.99
639.828	8425.32
640.181	8386.45
640.534	8439.1
640.888	8395.94
641.241	8352.55
641.594	8403.85
641.947	8404.52
642.301	8355.26
642.654	8420.12
643.007	8404.98
643.36	8391.19
643.713	8376.28
644.066	8350.97
644.419	8284.08
644.771	8327.69
645.124	8212.21
645.477	8209.28
645.83	8173.8
646.182	8133.35
646.535	8126.34
646.888	8191.65
647.24	8131.31
647.593	8091.76
647.945	8108.04
648.298	8104.19
648.65	8082.95
649.002	8025.55
649.355	8068.04
649.707	8053.12
650.059	8176.96
650.411	8218.99
650.763	8241.14
651.115	8298.76
651.467	8259.67
651.819	8275.26
652.171	8244.75
652.523	8234.13
652.875	8259.22
653.227	8201.14
653.578	8301.48
653.93	8210.18
654.282	8243.63
654.633	8199.78
654.985	8279.78
655.337	8214.25
655.688	8233.46
656.039	8260.57
656.391	8220.57
656.742	8209.73
657.094	8223.51
657.445	8293.12
657.796	8223.06
658.147	8228.48
658.498	8206.34
658.849	8313.23
659.2	8284.08
659.551	8298.76
659.902	8302.83
660.253	8270.29
660.604	8297.86
660.955	8286.11
661.306	8343.74
661.656	8260.35
662.007	8311.65
662.358	8256.05
662.708	8259.22
663.059	8294.92
663.409	8261.7
663.76	8309.61
664.11	8294.47
664.461	8347.58
664.811	8366.79
665.161	8307.8
665.511	8263.96
665.862	8340.12
666.212	8338.76
666.562	8321.36
666.912	8301.7
667.262	8307.8
667.612	8331.08
667.962	8327.69
668.312	8374.47
668.662	8383.96
669.011	8324.98
669.361	8350.97
669.711	8320.01
670.06	8315.26
670.41	8314.58
670.76	8351.42
671.109	8337.18
671.459	8282.04
671.808	8275.04
672.157	8360.01
672.507	8279.33
672.856	8311.42
673.205	8285.43
673.554	8289.95
673.904	8208.82
674.253	8330.18
674.602	8318.88
674.951	8100.35
675.3	8147.36
675.649	8274.81
675.998	8254.47
676.346	8177.41
676.695	8282.27
677.044	8209.5
677.393	8182.16
677.741	8187.13
678.09	8161.82
678.438	8164.98
678.787	8220.57
679.135	8115.04
679.484	8042.27
679.832	8075.95
680.181	8063.52
680.529	8149.16
680.877	8079.79
681.225	8068.26
681.573	8083.86
681.922	8066.68
682.27	7976.29
682.618	8045.89
682.966	8026.68
683.314	8061.48
683.661	7987.59
684.009	7965.21
684.357	7941.26
684.705	7898.32
685.053	7929.96
685.4	7884.31
685.748	7802.96
686.095	7819.91
686.443	7809.51
686.79	7784.43
687.138	7811.55
687.485	7751.66
687.832	7779.23
688.18	7752.34
688.527	7721.6
688.874	7680.02
689.221	7661.95
689.568	7623.3
689.915	7674.6
690.262	7630.99
690.609	7553.93
690.956	7614.49
691.303	7525.68
691.65	7461.95
691.997	7435.28
692.344	7529.52
692.69	7397.32
693.037	7463.31
693.383	7386.47
693.73	7373.59
694.077	7347.38
694.423	7352.12
694.769	7349.64
695.116	7324.55
695.462	7264.67
695.808	7229.64
696.155	7247.49
696.501	7214.05
696.847	7122.07
697.193	7092.02
697.539	7128.4
697.885	7099.7
698.231	7107.38
698.577	7056.54
698.923	7067.84
699.269	7015.63
699.614	7021.96
699.96	6857.9
700.306	6897.45
700.651	6853.61
700.997	6832.14
701.342	6882.76
701.688	6853.38
702.033	6832.36
702.379	6785.36
702.724	6762.53
703.069	6756.21
703.415	6662.2
703.76	6645.47
704.105	6707.62
704.45	6650.67
704.795	6598.7
705.14	6593.5
705.485	6534.29
705.83	6502.43
706.175	6558.47
706.52	6546.04
706.865	6440.06
707.209	6445.25
707.554	6427.63
707.899	6496.33
708.243	6442.09
708.588	6396.67
708.932	6348.08
709.277	6344.92
709.621	6377.01
709.966	6284.81
710.31	6357.35
710.654	6278.48
710.998	6260.4
711.342	6275.54
711.687	6223.79
712.031	6236.45
712.375	6226.05
712.719	6240.06
713.063	6205.71
713.407	6233.06
713.75	6185.37
714.094	6168.43
714.438	6106.96
714.782	6193.96
715.125	6119.61
715.469	6150.12
715.812	6141.76
716.156	6087.3
716.499	6107.86
716.843	6096.11
717.186	6000.52
717.53	6032.84
717.873	6053.4
718.216	6038.26
718.559	6020.63
718.902	6026.51
719.246	6010.24
719.589	6012.5
719.932	5969.79
720.275	5960.07
720.617	5984.02
720.96	5972.95
721.303	5939.28
721.646	6012.72
721.989	5927.08
722.331	5955.55
722.674	5930.69
723.016	5943.57
723.359	5955.78
723.701	5937.25
724.044	5899.73
724.386	5897.25
724.729	5956
725.071	5936.57
725.413	5910.58
725.755	5952.16
726.097	5948.32
726.439	5803.92
726.782	5852.95
727.124	5875.55
727.465	5842.78
727.807	5841.2
728.149	5886.4
728.491	5856.12
728.833	5865.61
729.175	5870.35
729.516	5828.77
729.858	5772.05
730.199	5840.07
730.541	5852.28
730.882	5856.8
731.224	5866.29
731.565	5797.81
731.906	5864.93
732.248	5873.52
732.589	5816.12
732.93	5807.08
733.271	5800.75
733.612	5841.2
733.953	5879.17
734.294	5817.47
734.635	5787.87
734.976	5872.39
735.317	5812.73
735.658	5819.06
735.999	5878.94
736.339	5857.02
736.68	5890.24
737.021	5906.96
737.361	5833.07
737.702	5889.11
738.042	5860.18
738.383	5853.63
738.723	5898.6
739.063	5906.06
739.404	5895.44
739.744	5941.09
740.084	5942.67
740.424	5879.17
740.764	5928.88
741.104	5990.12
741.444	5968.43
741.784	5998.03
742.124	6033.74
742.464	6018.82
742.804	5985.61
743.143	6046.85
743.483	6008.66
743.823	5989.9
744.162	6075.09
744.502	6134.08
744.841	6091.59
745.181	6181.76
745.52	6226.5
745.86	6279.38
746.199	6287.74
746.538	6275.32
746.877	6341.75
747.216	6346.5
747.556	6447.29
747.895	6461.75
748.234	6448.64
748.573	6551.69
748.911	6621.07
749.25	6625.81
749.589	6692.03
749.928	6810.44
750.267	6830.33
750.605	6868.97
750.944	6942.42
751.283	6976.77
751.621	7136.76
751.96	7143.09
752.298	7263.54
752.636	7355.29
752.975	7411.1
753.313	7476.19
753.651	7629.4
753.989	7705.11
754.327	7817.2
754.666	7911.66
755.004	8005.89
755.342	8150.52
755.679	8310.29
756.017	8328.37
756.355	8513.9
756.693	8616.27
757.031	8750.28
757.368	8878.41
757.706	9004.28
758.044	9115.47
758.381	9338.06
758.719	9467.77
759.056	9596.36
759.394	9762.46
759.731	9853.53
760.068	10080.41
760.405	10164.7
760.743	10330.8
761.08	10535.54
761.417	10741.64
761.754	10874.52
762.091	11095.08
762.428	11177.79
762.765	11350.89
763.102	11507.95
763.438	11700.26
763.775	11883.08
764.112	11974.37
764.449	12179.79
764.785	12422.05
765.122	12454.14
765.458	12641.02
765.795	12774.35
766.131	13049.83
766.467	13111.97
766.804	13262.48
767.14	13291.18
767.476	13556.25
767.812	13655.69
768.148	13860.88
768.485	13831.95
768.821	14104.71
769.157	14251.38
