Data from hue_26_FLMS001491_00031.txt Node
Date: Tue Feb 07 17:13:54 GMT 2017
User: dcchb
Spectrometer: FLMS00149
Trigger mode: 0
Integration Time (sec): 2.000000E-2
Scans to average: 10
Electric dark correction enabled: true
Nonlinearity correction enabled: false
Boxcar width: 0
XAxis mode: Wavelengths
Number of Pixels in Spectrum: 2048
>>>>>Begin Spectral Data<<<<<
341.393	-13.83
341.776	-13.83
342.16	-13.83
342.543	-69.87
342.927	-70.77
343.31	-63.54
343.693	-46.37
344.077	-60.38
344.46	-63.32
344.843	-50.44
345.226	-47.95
345.61	-37.1
345.993	-17.22
346.376	-13.6
346.759	3.8
347.142	38.37
347.525	33.86
347.908	57.58
348.291	74.98
348.674	88.77
349.057	102.55
349.44	122.67
349.823	146.62
350.206	178.71
350.588	215.09
350.971	217.13
351.354	228.2
351.737	232.04
352.119	240.18
352.502	269.56
352.884	256.22
353.267	300.74
353.65	297.8
354.032	321.98
354.414	305.94
354.797	321.98
355.179	319.95
355.562	327.86
355.944	345.03
356.326	339.16
356.709	335.99
357.091	337.58
357.473	339.38
357.855	314.98
358.238	343.23
358.62	355.2
359.002	355.2
359.384	330.57
359.766	340.29
360.148	333.51
360.53	341.87
360.912	348.88
361.294	314.07
361.676	312.04
362.057	334.86
362.439	334.41
362.821	341.19
363.203	330.8
363.584	306.84
363.966	324.47
364.348	344.58
364.729	321.31
365.111	312.94
365.493	311.36
365.874	305.49
366.256	315.88
366.637	299.61
367.019	332.38
367.4	335.54
367.781	325.6
368.163	315.2
368.544	305.26
368.925	330.57
369.306	305.26
369.688	319.27
370.069	305.71
370.45	326.5
370.831	310.23
371.212	311.36
371.593	333.28
371.974	316.56
372.355	293.06
372.736	325.37
373.117	315.66
373.498	312.72
373.879	305.49
374.26	312.94
374.641	326.73
375.021	315.2
375.402	317.69
375.783	314.07
376.163	312.27
376.544	331.02
376.925	311.59
377.305	341.42
377.686	335.09
378.066	333.28
378.447	314.75
378.827	320.18
379.208	335.09
379.588	330.34
379.968	347.29
380.349	339.61
380.729	328.08
381.109	327.18
381.489	326.95
381.87	348.42
382.25	330.12
382.63	337.8
383.01	353.17
383.39	341.64
383.77	325.37
384.15	352.72
384.53	336.67
384.91	344.81
385.29	355.65
385.67	343.45
386.049	361.3
386.429	349.1
386.809	359.95
387.189	353.62
387.568	359.04
387.948	378.25
388.328	364.92
388.707	347.75
389.087	357.69
389.466	338.03
389.846	351.81
390.225	359.5
390.605	355.65
390.984	386.61
391.363	387.29
391.743	373.28
392.122	366.05
392.501	371.25
392.881	363.56
393.26	373.06
393.639	395.43
394.018	376.67
394.397	392.26
394.776	363.79
395.155	365.6
395.534	384.35
395.913	387.97
396.292	377.8
396.671	390.23
397.05	392.04
397.429	391.81
397.808	404.92
398.186	381.64
398.565	372.15
398.944	398.82
399.323	383.45
399.701	387.29
400.08	377.57
400.458	397.69
400.837	406.73
401.215	395.43
401.594	393.62
401.972	390.91
402.351	395.65
402.729	405.37
403.107	415.09
403.486	397.69
403.864	435.2
404.242	426.16
404.62	411.92
404.999	415.09
405.377	421.87
405.755	421.87
406.133	431.58
406.511	418.25
406.889	428.42
407.267	443.79
407.645	442.21
408.023	462.32
408.401	434.07
408.779	451.92
409.156	448.08
409.534	454.18
409.912	427.29
410.29	458.02
410.667	435.2
411.045	482.43
411.422	469.55
411.8	471.81
412.178	482.43
412.555	464.13
412.933	457.35
413.31	497.12
413.687	483.11
414.065	484.24
414.442	489.89
414.819	478.82
415.197	480.4
415.574	489.21
415.951	497.8
416.328	474.75
416.705	515.65
417.082	496.22
417.46	492.6
417.837	502.54
418.214	479.04
418.591	495.54
418.967	526.72
419.344	526.27
419.721	508.87
420.098	510
420.475	524.01
420.852	524.01
421.228	538.02
421.605	555.42
421.982	524.46
422.358	547.29
422.735	545.71
423.111	555.88
423.488	548.64
423.864	535.08
424.241	552.03
424.617	572.15
424.994	571.24
425.37	582.99
425.746	569.43
426.123	546.16
426.499	564.24
426.875	570.34
427.251	601.98
427.627	565.37
428.003	623.67
428.379	590.45
428.756	581.41
429.132	617.34
429.507	597.68
429.883	601.07
430.259	638.81
430.635	615.53
431.011	614.63
431.387	634.52
431.763	632.48
432.138	640.39
432.514	636.33
432.89	636.1
433.265	668.64
433.641	692.82
434.016	704.8
434.392	687.85
434.767	672.03
435.143	669.09
435.518	710.9
435.894	684.23
436.269	708.87
436.644	705.48
437.02	718.58
437.395	705.25
437.77	717.45
438.145	731.69
438.52	754.74
438.895	744.8
439.271	724.68
439.646	743.44
440.021	743.89
440.395	759.94
440.77	747.28
441.145	757.68
441.52	762.88
441.895	769.43
442.27	777.11
442.645	772.37
443.019	811.46
443.394	801.52
443.769	812.82
444.143	787.06
444.518	811.46
444.892	793.84
445.267	807.39
445.641	810.11
446.016	822.53
446.39	834.51
446.764	828.41
447.139	818.47
447.513	839.26
447.887	837.68
448.262	842.65
448.636	840.39
449.01	865.47
449.384	851.01
449.758	853.27
450.132	872.03
450.506	886.04
450.88	879.26
451.254	881.52
451.628	890.56
452.002	919.26
452.376	907.73
452.75	904.57
453.123	920.84
453.497	925.81
453.871	953.38
454.244	945.47
454.618	962.42
454.992	952.7
455.365	945.7
455.739	992.93
456.112	992.02
456.486	1028.18
456.859	1012.81
457.232	1034.96
457.606	1030.89
457.979	1031.34
458.352	1034.51
458.725	1081.06
459.099	1103.66
459.472	1081.29
459.845	1107.05
460.218	1095.97
460.591	1097.1
460.964	1111.57
461.337	1124.9
461.71	1143.2
462.083	1159.93
462.456	1152.47
462.829	1193.82
463.201	1196.31
463.574	1167.84
463.947	1206.71
464.32	1231.34
464.692	1240.6
465.065	1227.27
465.438	1258.91
465.81	1277.44
466.183	1287.38
466.555	1306.36
466.928	1334.84
467.3	1313.6
467.672	1359.47
468.045	1383.88
468.417	1394.05
468.789	1402.18
469.161	1399.47
469.534	1456.87
469.906	1472.24
470.278	1472.24
470.65	1480.82
471.022	1510.65
471.394	1566.92
471.766	1576.19
472.138	1574.61
472.51	1595.85
472.882	1645.79
473.253	1648.28
473.625	1688.73
473.997	1716.52
474.369	1765.56
474.74	1734.83
475.112	1790.87
475.484	1820.25
475.855	1838.55
476.227	1882.85
476.598	1891.21
476.97	1940.7
477.341	1990.87
477.713	2019.57
478.084	2057.53
478.455	2097.3
478.827	2139.34
479.198	2192.67
479.569	2219.56
479.94	2250.52
480.311	2273.34
480.682	2321.93
481.053	2415.94
481.424	2449.84
481.795	2480.8
482.166	2500.23
482.537	2531.42
482.908	2599.44
483.279	2614.58
483.65	2730.51
484.021	2774.57
484.391	2801.69
484.762	2829.04
485.133	2889.6
485.503	2909.94
485.874	2995.81
486.244	3017.73
486.615	3078.29
486.985	3135.92
487.356	3237.61
487.726	3281.23
488.097	3322.58
488.467	3390.6
488.837	3446.19
489.207	3478.51
489.578	3540.2
489.948	3584.04
490.318	3634.21
490.688	3653.19
491.058	3717.37
491.428	3785.39
491.798	3824.49
492.168	3921.66
492.538	3955.79
492.908	3988.78
493.278	4068.1
493.648	4023.35
494.017	4139.74
494.387	4191.94
494.757	4230.81
495.126	4271.26
495.496	4304.03
495.866	4372.95
496.235	4407.75
496.605	4402.55
496.974	4449.33
497.344	4510.35
497.713	4572.72
498.082	4579.95
498.452	4595.99
498.821	4696.56
499.19	4651.81
499.559	4710.79
499.928	4758.48
500.298	4820.4
500.667	4844.8
501.036	4862.2
501.405	4927.06
501.774	4928.19
502.143	4963.67
502.512	4989.43
502.88	5082.99
503.249	5036.44
503.618	5154.85
503.987	5120.73
504.356	5115.53
504.724	5186.94
505.093	5170.22
505.462	5250.67
505.83	5270.33
506.199	5304.45
506.567	5341.74
506.936	5352.81
507.304	5396.2
507.672	5460.38
508.041	5467.16
508.409	5492.47
508.777	5535.63
509.145	5549.19
509.514	5569.75
509.882	5623.76
510.25	5621.05
510.618	5638
510.986	5661.28
511.354	5742.41
511.722	5723.42
512.09	5797.32
512.458	5787.6
512.826	5825.12
513.193	5851.1
513.561	5930.42
513.929	5934.26
514.297	5951.21
514.664	5982.63
515.032	6004.32
515.4	6064.66
515.767	6102.4
516.135	6104.88
516.502	6081.83
516.869	6158.44
517.237	6173.35
517.604	6146.91
517.972	6255.39
518.339	6269.4
518.706	6241.83
519.073	6296.97
519.44	6270.53
519.808	6356.63
520.175	6363.86
520.542	6385.1
520.909	6425.33
521.276	6429.85
521.643	6475.04
522.009	6526.79
522.376	6556.17
522.743	6603.17
523.11	6612.89
523.477	6696.05
523.843	6707.8
524.21	6734.24
524.577	6802.26
524.943	6806.78
525.31	6882.49
525.676	6922.94
526.043	6900.57
526.409	6947.12
526.776	7056.27
527.142	7047.68
527.508	7026.21
527.874	7071.64
528.241	7156.61
528.607	7182.14
528.973	7256.94
529.339	7268.24
529.705	7346.88
530.071	7341.69
530.437	7396.37
530.803	7434.34
531.169	7459.2
531.535	7446.54
531.901	7467.78
532.267	7562.24
532.632	7567.44
532.998	7610.83
533.364	7631.17
533.73	7689.92
534.095	7731.28
534.461	7799.75
534.826	7830.94
535.192	7829.81
535.557	7878.39
535.923	7929.92
536.288	7934.89
536.653	7999.52
537.019	7934.44
537.384	7998.62
537.749	8027.77
538.114	8069.35
538.479	8053.98
538.845	8114.09
539.21	8139.18
539.575	8179.4
539.94	8232.28
540.305	8300.98
540.67	8214.43
541.034	8302.56
541.399	8407.42
541.764	8365.61
542.129	8371.26
542.494	8502.11
542.858	8483.58
543.223	8431.6
543.587	8519.28
543.952	8532.39
544.316	8570.58
544.681	8595.66
545.045	8643.12
545.41	8712.72
545.774	8680.86
546.138	8754.08
546.503	8711.14
546.867	8813.96
547.231	8861.19
547.595	8905.94
547.959	8899.61
548.324	8940.97
548.688	8980.06
549.052	8953.85
549.416	8933.06
549.779	8994.07
550.143	9055.31
550.507	9105.25
550.871	9169.21
551.235	9166.27
551.599	9202.2
551.962	9184.57
552.326	9211.47
552.689	9297.11
553.053	9310.67
553.417	9258.92
553.78	9417.11
554.143	9394.51
554.507	9412.59
554.87	9512.48
555.234	9535.75
555.597	9438.13
555.96	9496.66
556.323	9605.58
556.686	9520.39
557.05	9663.21
557.413	9681.96
557.776	9792.47
558.139	9769.19
558.502	9774.39
558.865	9802.64
559.228	9855.97
559.59	9876.76
559.953	9871.11
560.316	10061.84
560.679	10033.82
561.041	10044.67
561.404	10091.67
561.767	10106.81
562.129	10088.73
562.492	10162.18
562.854	10237.65
563.217	10144.32
563.579	10222.97
563.941	10263.42
564.304	10315.17
564.666	10380.93
565.028	10418.21
565.39	10444.2
565.753	10505.67
566.115	10547.93
566.477	10543.86
566.839	10567.82
567.201	10709.96
567.563	10654.14
567.925	10708.38
568.287	10790.63
568.648	10710.18
569.01	10775.95
569.372	10886.23
569.734	10941.14
570.095	10968.71
570.457	11034.02
570.819	11057.29
571.18	11057.52
571.542	11208.25
571.903	11188.59
572.265	11251.87
572.626	11323.05
572.987	11398.53
573.349	11367.79
573.71	11471.52
574.071	11575.02
574.432	11572.08
574.794	11756.48
575.155	11648.01
575.516	11705.64
575.877	11778.4
576.238	11843.26
576.599	11978.63
576.96	11977.95
577.32	12104.95
577.681	12252.52
578.042	12309.24
578.403	12411.16
578.763	12452.74
579.124	12466.97
579.485	12655.44
579.845	12899.05
580.206	12898.38
580.566	12974.76
580.927	13073.96
581.287	13209.1
581.648	13348.31
582.008	13504.24
582.368	13659.94
582.728	13869.42
583.089	14012.7
583.449	14106.71
583.809	14274.38
584.169	14440.03
584.529	14610.42
584.889	14987.13
585.249	15019.45
585.609	15124.76
585.969	15510.74
586.329	15709.38
586.688	15886.77
587.048	16121.79
587.408	16307.78
587.768	16491.73
588.127	16809.01
588.487	16953.64
588.846	17379.61
589.206	17438.6
589.565	17669.1
589.925	18041.29
590.284	18208.29
590.643	18541.62
591.003	18939.8
591.362	19048.04
591.721	19437.41
592.08	19686.22
592.44	19974.12
592.799	20318.29
593.158	20454.79
593.517	20819.52
593.876	21146.97
594.235	21396.01
594.593	21620.41
594.952	22021.75
595.311	22197.11
595.67	22603.66
596.029	22937.66
596.387	23330.19
596.746	23610.64
597.104	23856.73
597.463	23994.13
597.822	24448.35
598.18	24755.69
598.538	24938.51
598.897	25424.6
599.255	25481.55
599.613	26240.4
599.972	26229.78
600.33	26457.34
600.688	26827.95
601.046	27182.97
601.404	27547.26
601.762	27702.73
602.12	27992.89
602.478	28302.72
602.836	28643.72
603.194	28659.54
603.552	28990.38
603.91	29112.41
604.268	29724.6
604.625	29853.41
604.983	30218.82
605.341	30326.62
605.698	30763.89
606.056	31022.19
606.413	31303.09
606.771	31517.1
607.128	31867.37
607.485	31759.57
607.843	32207.92
608.2	32618.53
608.557	32891.97
608.914	32778.53
609.272	33318.4
609.629	33455.35
609.986	33818.96
610.343	33847.2
610.7	34280.86
611.057	34354.53
611.414	34587.97
611.771	34783
612.127	35067.51
612.484	35260.95
612.841	35555.86
613.198	35652.13
613.554	35732.8
613.911	36172.57
614.267	36398.55
614.624	36446
614.98	36557.41
615.337	36990.85
615.693	36869.95
616.05	37043.73
616.406	37452.53
616.762	37333.21
617.118	37554.22
617.475	37694.79
617.831	37949.47
618.187	38054.78
618.543	38257.03
618.899	38441.66
619.255	38509.45
619.611	38636
619.967	38770.01
620.323	39053.62
620.678	38950.57
621.034	38996.9
621.39	39262.43
621.746	39221.07
622.101	39750.78
622.457	39418.36
622.812	39821.74
623.168	39905.35
623.523	40041.62
623.879	40090.88
624.234	39954.61
624.589	40381.95
624.945	40242.06
625.3	40510.3
625.655	40443.19
626.01	40700.36
626.365	40771.54
626.72	40644.54
627.075	40792.33
627.43	40828.71
627.785	40854.02
628.14	40875.49
628.495	41023.74
628.85	40961.82
629.205	40953.68
629.559	41214.24
629.914	41109.16
630.269	41167.91
630.623	41156.16
630.978	41029.16
631.332	41452.2
631.687	41606.1
632.041	41356.84
632.396	41347.8
632.75	41432.09
633.104	41588.47
633.459	41302.83
633.813	41363.16
634.167	41562.48
634.521	41400
634.875	41504.86
635.229	41345.76
635.583	41388.25
635.937	41404.29
636.291	41317.29
636.645	41435.7
636.999	41363.16
637.352	41417.17
637.706	41367.68
638.06	41387.57
638.413	41362.49
638.767	41450.39
639.121	41414.24
639.474	41170.85
639.828	41448.13
640.181	41342.83
640.534	41427.79
640.888	41182.6
641.241	41191.64
641.594	41400
641.947	41412.65
642.301	41360.9
642.654	41371.07
643.007	41264.41
643.36	41245.2
643.713	41195.71
644.066	41468.47
644.419	41100.12
644.771	40837.98
645.124	40674.37
645.477	40592.34
645.83	40238.67
646.182	40178.56
646.535	40034.84
646.888	40281.61
647.24	39984.67
647.593	40241.84
647.945	40058.79
648.298	40039.58
648.65	39879.59
649.002	39833.03
649.355	40047.27
649.707	40012.69
650.059	40278.22
650.411	40668.94
650.763	40815.83
651.115	41021.48
651.467	40903.06
651.819	40923.18
652.171	40680.7
652.523	40848.6
652.875	40753.46
653.227	40523.19
653.578	40902.16
653.93	40748.49
654.282	40681.83
654.633	40572.22
654.985	40687.48
655.337	40691.09
655.688	40675.27
656.039	40861.71
656.391	40489.29
656.742	40658.32
657.094	40636.4
657.445	40803.4
657.796	40650.41
658.147	40486.58
658.498	40716.4
658.849	40533.13
659.2	40489.51
659.551	40375.85
659.902	40701.49
660.253	40523.64
660.604	40564.31
660.955	40450.87
661.306	40543.98
661.656	40322.29
662.007	40480.48
662.358	40395.51
662.708	40476.86
663.059	40339.69
663.409	40281.16
663.76	40680.02
664.11	40461.72
664.461	40603.64
664.811	40471.66
665.161	40522.06
665.511	40324.77
665.862	40383.53
666.212	40461.72
666.562	40502.4
666.912	40385.79
667.262	40322.97
667.612	40319.8
667.962	40510.53
668.312	40437.09
668.662	40435.96
669.011	40486.8
669.361	40397.99
669.711	40440.48
670.06	40255.62
670.41	40267.6
670.76	40149.86
671.109	40479.12
671.459	40317.99
671.808	40295.62
672.157	40191.9
672.507	39983.31
672.856	40030.54
673.205	40188.96
673.554	40323.64
673.904	39965.01
674.253	40295.62
674.602	40139.24
674.951	39645.24
675.3	39474.4
675.649	40112.12
675.998	40099.24
676.346	40090.88
676.695	40097.43
677.044	39868.29
677.393	40047.04
677.741	40060.37
678.09	39930.21
678.438	39659.25
678.787	39806.37
679.135	39832.58
679.484	39685.24
679.832	39729.99
680.181	39487.28
680.529	39567.73
680.877	39540.61
681.225	39485.25
681.573	39812.47
681.922	39420.16
682.27	39320.28
682.618	39288.87
682.966	39316.21
683.314	39308.98
683.661	39306.04
684.009	39087.97
684.357	39109.89
684.705	39026.5
685.053	39003
685.4	39039.16
685.748	38805.49
686.095	38815.89
686.443	38748.54
686.79	38562.79
687.138	38764.59
687.485	38670.81
687.832	38470.58
688.18	38611.6
688.527	38438.95
688.874	38385.39
689.221	38329.8
689.568	38244.38
689.915	38020.43
690.262	38149.91
690.609	37996.47
690.956	37910.6
691.303	37868.57
691.65	37684.62
691.997	37728.68
692.344	37463.83
692.69	37417.5
693.037	37459.76
693.383	37109.26
693.73	37338.41
694.077	37061.36
694.423	36981.81
694.769	36968.48
695.116	36815.03
695.462	36912.21
695.808	36906.11
696.155	36953.79
696.501	36526.45
696.847	36607.36
697.193	36343.41
697.539	36365.56
697.885	36218.44
698.231	36105.22
698.577	36024.1
698.923	35967.83
699.269	35864.1
699.614	35676.76
699.96	35542.98
700.306	35605.58
700.651	35575.29
700.997	35208.98
701.342	35244.45
701.688	35337.33
702.033	35156.77
702.379	35152.93
702.724	35102.99
703.069	35081.3
703.415	34659.61
703.76	34685.37
704.105	34744.81
704.45	34669.1
704.795	34423.01
705.14	34297.59
705.485	34377.81
705.83	34096.01
706.175	34313.63
706.52	34133.3
706.865	34051.94
707.209	34013.07
707.554	33940.08
707.899	33747.54
708.243	33787.09
708.588	33703.25
708.932	33626.87
709.277	33399.31
709.621	33537.61
709.966	33376.26
710.31	33370.38
710.654	33088.58
710.998	33286.31
711.342	33213.32
711.687	33094.68
712.031	33002.25
712.375	32785.99
712.719	32875.93
713.063	32665.31
713.407	32714.13
713.75	32769.72
714.094	32689.04
714.438	32539.22
714.782	32606.33
715.125	32298.32
715.469	32476.39
715.812	32387.58
716.156	32177.87
716.499	32055.84
716.843	32175.16
717.186	31890.19
717.53	32144.2
717.873	32138.1
718.216	31979.23
718.559	31811.78
718.902	31685.9
719.246	31739.69
719.589	31686.81
719.932	31532.24
720.275	31506.25
720.617	31529.52
720.96	31519.35
721.303	31405.01
721.646	31520.03
721.989	31183.09
722.331	31283.65
722.674	31225.8
723.016	31290.66
723.359	31039.37
723.701	31329.3
724.044	30986.26
724.386	30906.94
724.729	31012.93
725.071	30885.47
725.413	30842.31
725.755	30778.58
726.097	30632.37
726.439	30562.77
726.782	30550.34
727.124	30867.85
727.465	30390.34
727.807	30453.39
728.149	30410.23
728.491	30222.44
728.833	30369.1
729.175	30184.25
729.516	30237.13
729.858	30224.7
730.199	30134.53
730.541	30158.94
730.882	30045.27
731.224	30043.69
731.565	30014.54
731.906	29909
732.248	29984.93
732.589	29715.56
732.93	29812.28
733.271	29828.78
733.612	29797.82
733.953	29774.09
734.294	29691.15
734.635	29687.99
734.976	29778.16
735.317	29459.52
735.658	29525.96
735.999	29459.97
736.339	29404.83
736.68	29421.78
737.021	29305.85
737.361	29260.21
737.702	29292.97
738.042	29250.94
738.383	29237.83
738.723	29165.07
739.063	29098.85
739.404	29071.74
739.744	29073.32
740.084	28970.04
740.424	29026.31
740.764	28934.79
741.104	28988.8
741.444	28844.4
741.784	28699.32
742.124	28777.28
742.464	28692.31
742.804	28627
743.143	28567.34
743.483	28669.71
743.823	28483.5
744.162	28331.42
744.502	28515.59
744.841	28337.07
745.181	28436.5
745.52	28318.76
745.86	28389.72
746.199	28302.26
746.538	28359.89
746.877	28316.95
747.216	28250.74
747.556	28306.33
747.895	28200.8
748.234	28044.42
748.573	28112.66
748.911	27981.14
749.25	28038.32
749.589	27942.05
749.928	27895.27
750.267	27923.97
750.605	27843.29
750.944	27849.85
751.283	27657.54
751.621	27693.92
751.96	27574.6
752.298	27517.65
752.636	27543.19
752.975	27451.89
753.313	27408.5
753.651	27452.12
753.989	27326.47
754.327	27356.3
754.666	27159.24
755.004	27288.73
755.342	27146.59
755.679	27188.4
756.017	27057.78
756.355	27028.17
756.693	26858.46
757.031	26974.16
757.368	26809.87
757.706	26732.59
758.044	26728.29
758.381	26750.89
758.719	26575.53
759.056	26626.15
759.394	26520.16
759.731	26431.81
