Data from hue_220_FLMS001491_00072.txt Node
Date: Tue Feb 07 16:39:55 GMT 2017
User: dcchb
Spectrometer: FLMS00149
Trigger mode: 0
Integration Time (sec): 2.000000E-2
Scans to average: 10
Electric dark correction enabled: true
Nonlinearity correction enabled: false
Boxcar width: 0
XAxis mode: Wavelengths
Number of Pixels in Spectrum: 2048
>>>>>Begin Spectral Data<<<<<
341.393	-7.68
341.776	-7.68
342.16	-7.68
342.543	-67.57
342.927	-69.83
343.31	-54.24
343.693	-42.48
344.077	-80.45
344.46	-54.46
344.843	-40.9
345.226	-45.42
345.61	-43.61
345.993	-27.12
346.376	-21.69
346.759	10.17
347.142	34.8
347.525	39.1
347.908	60.11
348.291	79.77
348.674	91.97
349.057	94.46
349.44	110.73
349.823	139.88
350.206	195.7
350.588	202.71
350.971	208.13
351.354	197.51
351.737	235.47
352.119	240.67
352.502	280.44
352.884	281.8
353.267	280.9
353.65	281.8
354.032	297.85
354.414	335.13
354.797	355.02
355.179	316.38
355.562	324.06
355.944	328.8
356.326	332.87
356.709	345.98
357.091	345.75
357.473	334
357.855	336.04
358.238	338.97
358.62	328.13
359.002	350.95
359.384	353.89
359.766	329.03
360.148	340.1
360.53	352.53
360.912	335.58
361.294	363.15
361.676	334.91
362.057	338.52
362.439	358.63
362.821	316.38
363.203	328.58
363.584	316.38
363.966	345.08
364.348	343.95
364.729	329.71
365.111	320.22
365.493	328.8
365.874	332.42
366.256	302.82
366.637	316.38
367.019	314.57
367.4	323.61
367.781	299.65
368.163	302.36
368.544	313.21
368.925	291.07
369.306	328.35
369.688	345.75
370.069	310.05
370.45	303.49
370.831	327.22
371.212	317.73
371.593	299.2
371.974	308.01
372.355	308.47
372.736	309.6
373.117	298.98
373.498	324.06
373.879	312.08
374.26	334.45
374.641	333.78
375.021	301.24
375.402	334.23
375.783	340.78
376.163	332.65
376.544	328.13
376.925	349.37
377.305	310.5
377.686	332.87
378.066	331.29
378.447	329.93
378.827	330.39
379.208	317.28
379.588	315.02
379.968	347.79
380.349	338.3
380.729	349.6
381.109	337.17
381.489	358.86
381.87	337.84
382.25	343.27
382.63	337.84
383.01	352.76
383.39	334.45
383.77	348.24
384.15	332.42
384.53	355.47
384.91	359.09
385.29	354.34
385.67	331.74
386.049	363.15
386.429	345.75
386.809	365.64
387.189	365.87
387.568	370.61
387.948	365.64
388.328	365.41
388.707	385.3
389.087	376.26
389.466	374.91
389.846	354.57
390.225	396.37
390.605	353.66
390.984	407.45
391.363	389.59
391.743	369.93
392.122	381.01
392.501	396.83
392.881	360.44
393.26	384.17
393.639	368.58
394.018	381.68
394.397	390.95
394.776	398.63
395.155	389.59
395.534	382.81
395.913	385.53
396.292	399.99
396.671	402.7
397.05	393.44
397.429	388.92
397.808	402.7
398.186	404.51
398.565	410.16
398.944	392.76
399.323	409.48
399.701	421.68
400.08	410.38
400.458	400.22
400.837	426.66
401.215	414.45
401.594	430.27
401.972	430.95
402.351	431.18
402.729	422.59
403.107	431.4
403.486	416.03
403.864	440.21
404.242	442.93
404.62	432.98
404.999	456.94
405.377	463.49
405.755	466.65
406.133	479.99
406.511	465.75
406.889	470.5
407.267	480.44
407.645	505.3
408.023	479.76
408.401	498.97
408.779	508.24
409.156	518.4
409.534	502.59
409.912	515.92
410.29	526.31
410.667	523.83
411.045	536.94
411.422	521.57
411.8	548.46
412.178	550.95
412.555	572.87
412.933	579.65
413.31	574
413.687	571.06
414.065	618.97
414.442	606.54
414.819	602.02
415.197	623.94
415.574	657.61
415.951	629.36
416.328	647.89
416.705	644.95
417.082	669.59
417.46	667.78
417.837	686.99
418.214	689.25
418.591	686.76
418.967	694.67
419.344	697.16
419.721	714.78
420.098	713.43
420.475	741.22
420.852	735.12
421.228	758.85
421.605	778.28
421.982	776.93
422.358	791.84
422.735	800.88
423.111	802.92
423.488	834.33
423.864	855.12
424.241	846.76
424.617	885.4
424.994	865.51
425.37	909.81
425.746	908
426.123	917.04
426.499	924.95
426.875	928.34
427.251	959.52
427.627	971.95
428.003	991.61
428.379	992.74
428.756	1009.01
429.132	1030.03
429.507	1032.06
429.883	1049.01
430.259	1032.52
430.635	1052.63
431.011	1079.29
431.387	1119.74
431.763	1102.34
432.138	1129.46
432.514	1121.78
432.89	1143.02
433.265	1173.75
433.641	1206.07
434.016	1213.08
434.392	1230.7
434.767	1263.92
435.143	1255.56
435.518	1321.55
435.894	1310.7
436.269	1331.94
436.644	1375.11
437.02	1407.87
437.395	1380.3
437.77	1412.39
438.145	1439.74
438.52	1476.35
438.895	1476.35
439.271	1495.55
439.646	1552.5
440.021	1587.3
440.395	1576.91
440.77	1573.97
441.145	1592.27
441.52	1635.21
441.895	1630.92
442.27	1661.43
442.645	1658.71
443.019	1656.45
443.394	1707.98
443.769	1739.16
444.143	1738.94
444.518	1746.85
444.892	1749.78
445.267	1778.03
445.641	1781.65
446.016	1817.13
446.39	1785.49
446.764	1867.75
447.139	1818.94
447.513	1851.48
447.887	1880.4
448.262	1882.66
448.636	1900.06
449.01	1912.94
449.384	1918.14
449.758	1933.06
450.132	1966.5
450.506	1949.33
450.88	1971.02
451.254	1953.17
451.628	2009.89
452.002	2063.22
452.376	2073.39
452.75	2058.7
453.123	2077.01
453.497	2106.39
453.871	2106.16
454.244	2163.11
454.618	2165.59
454.992	2205.82
455.365	2182.09
455.739	2231.81
456.112	2259.83
456.486	2277.45
456.859	2314.74
457.232	2353.84
457.606	2318.81
457.979	2352.48
458.352	2393.38
458.725	2439.26
459.099	2437
459.472	2471.57
459.845	2515.19
460.218	2513.83
460.591	2546.83
460.964	2550.89
461.337	2620.27
461.71	2637.67
462.083	2665.69
462.456	2673.6
462.829	2705.92
463.201	2737.33
463.574	2777.33
463.947	2763.09
464.32	2856.65
464.692	2858.68
465.065	2844.9
465.438	2945.01
465.81	2944.78
466.183	2977.77
466.555	3050.99
466.928	3061.84
467.3	3081.95
467.672	3059.81
468.045	3161.05
468.417	3180.93
468.789	3164.44
469.161	3235.17
469.534	3317.65
469.906	3327.37
470.278	3311.55
470.65	3360.82
471.022	3439.91
471.394	3443.3
471.766	3516.97
472.138	3565.33
472.51	3607.59
472.882	3648.27
473.253	3714.7
473.625	3731.2
473.997	3780.92
474.369	3836.74
474.74	3842.38
475.112	3922.16
475.484	3958.54
475.855	4026.79
476.227	4089.61
476.598	4153.11
476.97	4205.31
477.341	4246.22
477.713	4307.01
478.084	4297.51
478.455	4475.81
478.827	4430.84
479.198	4611.4
479.569	4552.42
479.94	4674.45
480.311	4658.63
480.682	4838.97
481.053	4856.14
481.424	4940.66
481.795	4962.36
482.166	5059.98
482.537	5095.46
482.908	5197.15
483.279	5210.48
483.65	5317.15
484.021	5424.49
484.391	5420.2
484.762	5465.84
485.133	5481.89
485.503	5584.71
485.874	5675.11
486.244	5725.05
486.615	5819.96
486.985	5858.38
487.356	5958.04
487.726	6015.89
488.097	6108.77
488.467	6134.75
488.837	6244.81
489.207	6281.87
489.578	6368.19
489.948	6393.96
490.318	6460.85
490.688	6432.15
491.058	6573.61
491.428	6667.85
491.798	6648.64
492.168	6818.35
492.538	6746.49
492.908	6852.7
493.278	6978.35
493.648	6939.93
494.017	7004.56
494.387	7050.66
494.757	7132.24
495.126	7171.11
495.496	7194.16
495.866	7169.3
496.235	7256.76
496.605	7307.38
496.974	7350.54
497.344	7409.97
497.713	7481.16
498.082	7501.72
498.452	7561.84
498.821	7488.84
499.19	7555.73
499.559	7593.92
499.928	7710.08
500.298	7675.5
500.667	7802.73
501.036	7708.5
501.405	7793.24
501.774	7794.6
502.143	7834.37
502.512	7861.49
502.88	7871.21
503.249	7907.81
503.618	7977.42
503.987	7883.63
504.356	7967.93
504.724	8018.09
505.093	8019.68
505.462	8049.51
505.83	8071.88
506.199	8118.88
506.567	8165.21
506.936	8143.06
507.304	8269.84
507.672	8293.12
508.041	8197.98
508.409	8269.16
508.777	8348.26
509.145	8344.41
509.514	8309.61
509.882	8368.14
510.25	8356.62
510.618	8346.45
510.986	8375.6
511.354	8422.15
511.722	8455.14
512.09	8537.85
512.458	8514.13
512.826	8500.57
513.193	8500.57
513.561	8537.85
513.929	8581.92
514.297	8631.41
514.664	8608.14
515.032	8585.31
515.4	8674.57
515.767	8690.39
516.135	8656.72
516.502	8597.06
516.869	8671.86
517.237	8718.87
517.604	8622.37
517.972	8756.38
518.339	8698.98
518.706	8659.43
519.073	8666.66
519.44	8740.56
519.808	8741.24
520.175	8736.04
520.542	8769.71
520.909	8795.47
521.276	8774.23
521.643	8833.89
522.009	8844.06
522.376	8823.95
522.743	8872.31
523.11	8864.17
523.477	8921.57
523.843	8961.57
524.21	8961.57
524.577	9017.84
524.943	8980.1
525.31	8988.46
525.676	8981.01
526.043	9097.16
526.409	9069.14
526.776	9129.7
527.142	9096.94
527.508	9093.09
527.874	9073.21
528.241	9147.56
528.607	9045.41
528.973	9116.14
529.339	9113.21
529.705	9073.66
530.071	9091.06
530.437	9122.02
530.803	9134.22
531.169	9131.74
531.535	9152.3
531.901	9025.07
532.267	9076.15
532.632	9086.31
532.998	9160.89
533.364	9107.33
533.73	9098.74
534.095	9134.68
534.461	9172.87
534.826	9152.75
535.192	9099.2
535.557	9070.5
535.923	9071.85
536.288	9049.71
536.653	9049.48
537.019	9061.91
537.384	9024.4
537.749	9021.46
538.114	9026.88
538.479	8999.31
538.845	8964.28
539.21	8867.56
539.575	8943.95
539.94	8890.84
540.305	8957.5
540.67	8836.83
541.034	8865.08
541.399	8860.33
541.764	8845.19
542.129	8825.08
542.494	8797.96
542.858	8776.49
543.223	8733.1
543.587	8850.61
543.952	8699.88
544.316	8741.69
544.681	8721.35
545.045	8720.22
545.41	8709.83
545.774	8714.35
546.138	8771.07
546.503	8666.66
546.867	8602.03
547.231	8642.26
547.595	8667.12
547.959	8607.01
548.324	8584.63
548.688	8581.02
549.052	8562.94
549.416	8568.36
549.779	8540.57
550.143	8551.41
550.507	8524.97
550.871	8507.8
551.235	8514.35
551.599	8431.19
551.962	8508.93
552.326	8419.21
552.689	8427.35
553.053	8415.15
553.417	8394.13
553.78	8460.12
554.143	8409.95
554.507	8364.75
554.87	8378.76
555.234	8382.6
555.597	8338.76
555.96	8341.48
556.323	8388.25
556.686	8342.15
557.05	8315.04
557.413	8329.27
557.776	8341.25
558.139	8290.63
558.502	8302.15
558.865	8213.34
559.228	8361.36
559.59	8360.68
559.953	8267.58
560.316	8338.09
560.679	8321.82
561.041	8351.19
561.404	8349.84
561.767	8348.93
562.129	8361.59
562.492	8396.16
562.854	8319.78
563.217	8367.92
563.579	8294.7
563.941	8415.82
564.304	8433.9
564.666	8424.86
565.028	8480.45
565.39	8435.26
565.753	8520.91
566.115	8505.54
566.477	8458.99
566.839	8458.53
567.201	8474.58
567.563	8525.65
567.925	8549.38
568.287	8558.65
568.648	8520
569.01	8563.84
569.372	8619.43
569.734	8620.79
570.095	8620.34
570.457	8605.2
570.819	8606.1
571.18	8654.69
571.542	8639.55
571.903	8660.79
572.265	8698.08
572.626	8731.52
572.987	8699.88
573.349	8726.55
573.71	8813.1
574.071	8776.49
574.432	8749.37
574.794	8875.25
575.155	8793.67
575.516	8831.63
575.877	8852.65
576.238	8837.73
576.599	8912.08
576.96	8928.58
577.32	8908.01
577.681	8971.52
578.042	8934.45
578.403	8989.37
578.763	9008.35
579.124	9042.93
579.485	9041.12
579.845	9119.31
580.206	9056.94
580.566	9126.77
580.927	9104.62
581.287	9116.6
581.648	9128.12
582.008	9158.86
582.368	9190.04
582.728	9143.04
583.089	9173.54
583.449	9253.09
583.809	9230.04
584.169	9244.73
584.529	9282.92
584.889	9303.71
585.249	9270.49
585.609	9316.59
585.969	9367.44
586.329	9456.02
586.688	9364.95
587.048	9337.16
587.408	9324.27
587.768	9357.72
588.127	9417.15
588.487	9430.03
588.846	9453.54
589.206	9403.14
589.565	9444.72
589.925	9472.75
590.284	9536.7
590.643	9511.16
591.003	9472.52
591.362	9529.01
591.721	9590.03
592.08	9509.13
592.44	9539.64
592.799	9572.18
593.158	9581.67
593.517	9553.87
593.876	9601.1
594.235	9535.34
594.593	9623.7
594.952	9614.66
595.311	9591.39
595.67	9616.02
596.029	9684.72
596.387	9609.24
596.746	9673.42
597.104	9622.35
597.463	9601.33
597.822	9596.36
598.18	9690.82
598.538	9716.35
598.897	9702.12
599.255	9620.99
599.613	9808.33
599.972	9707.32
600.33	9774.43
600.688	9712.06
601.046	9790.7
601.404	9769.01
601.762	9714.09
602.12	9793.41
602.478	9775.34
602.836	9760.65
603.194	9771.04
603.552	9787.31
603.91	9707.32
604.268	9795.67
604.625	9730.82
604.983	9802.68
605.341	9777.6
605.698	9855.33
606.056	9810.14
606.413	9748.67
606.771	9884.03
607.128	9855.79
607.485	9773.53
607.843	9855.33
608.2	9896.46
608.557	9823.47
608.914	9847.2
609.272	9888.55
609.629	10004.48
609.986	9973.52
610.343	9916.58
610.7	9958.16
611.057	10034.76
611.414	9951.6
611.771	9934.2
612.127	9980.08
612.484	10000.64
612.841	10122.22
613.198	9989.79
613.554	10028.44
613.911	10013.97
614.267	10052.17
614.624	10134.2
614.98	10089.23
615.337	10076.12
615.693	10103.01
616.05	10105.5
616.406	10140.98
616.762	10070.7
617.118	10116.57
617.475	10132.39
617.831	10131.03
618.187	10105.95
618.543	10159.05
618.899	10225.04
619.255	10187.53
619.611	10242.89
619.967	10218.04
620.323	10296.9
620.678	10238.37
621.034	10174.42
621.39	10154.08
621.746	10131.94
622.101	10281.31
622.457	10208.55
622.812	10203.35
623.168	10256
623.523	10209.9
623.879	10291.71
624.234	10202.44
624.589	10244.48
624.945	10270.69
625.3	10138.04
625.655	10229.56
626.01	10163.57
626.365	10265.94
626.72	10256.45
627.075	10204.25
627.43	10249.9
627.785	10127.42
628.14	10202.22
628.495	10195.89
628.85	10216
629.205	10149.34
629.559	10220.97
629.914	10159.96
630.269	10154.99
630.623	10145.27
630.978	10129.45
631.332	10107.3
631.687	10144.14
632.041	10112.95
632.396	10108.43
632.75	10006.29
633.104	10075.89
633.459	9990.25
633.813	10039.51
634.167	10009.68
634.521	9966.97
634.875	10032.28
635.229	10024.82
635.583	9906.86
635.937	9958.83
636.291	9937.59
636.645	9952.28
636.999	9981.66
637.352	9904.15
637.706	9887.65
638.06	9952.05
638.413	9966.52
638.767	9828.22
639.121	9884.71
639.474	9763.13
639.828	9815.11
640.181	9834.09
640.534	9793.64
640.888	9792.74
641.241	9691.27
641.594	9745.05
641.947	9800.19
642.301	9755.9
642.654	9771.49
643.007	9736.47
643.36	9721.33
643.713	9760.42
644.066	9760.65
644.419	9687.2
644.771	9616.7
645.124	9574.89
645.477	9611.95
645.83	9469.36
646.182	9518.39
646.535	9419.19
646.888	9431.16
647.24	9454.67
647.593	9443.37
647.945	9407.66
648.298	9425.97
648.65	9360.43
649.002	9393.65
649.355	9469.36
649.707	9418.28
650.059	9480.43
650.411	9646.53
650.763	9577.6
651.115	9636.13
651.467	9594.55
651.819	9669.58
652.171	9604.49
652.523	9628.22
652.875	9611.95
653.227	9562.46
653.578	9703.25
653.93	9658.96
654.282	9584.15
654.633	9562.01
654.985	9621.44
655.337	9548
655.688	9620.54
656.039	9686.3
656.391	9585.96
656.742	9591.16
657.094	9632.74
657.445	9668.9
657.796	9699.18
658.147	9651.72
658.498	9640.2
658.849	9644.72
659.2	9633.19
659.551	9570.6
659.902	9638.62
660.253	9670.93
660.604	9700.76
660.955	9616.02
661.306	9631.84
661.656	9655.79
662.007	9598.39
662.358	9694.89
662.708	9733.08
663.059	9596.13
663.409	9731.95
663.76	9739.63
664.11	9673.42
664.461	9716.35
664.811	9698.5
665.161	9646.98
665.511	9625.51
665.862	9749.8
666.212	9750.48
666.562	9655.57
666.912	9727.2
667.262	9664.83
667.612	9677.26
667.962	9668.67
668.312	9623.25
668.662	9668.45
669.011	9667.32
669.361	9660.99
669.711	9613.31
670.06	9642.91
670.41	9576.25
670.76	9617.37
671.109	9608.79
671.459	9608.56
671.808	9620.54
672.157	9596.36
672.507	9596.13
672.856	9540.31
673.205	9561.33
673.554	9625.74
673.904	9502.58
674.253	9603.14
674.602	9631.39
674.951	9468.45
675.3	9455.12
675.649	9529.92
675.998	9522.91
676.346	9536.7
676.695	9469.13
677.044	9482.46
677.393	9460.09
677.741	9508.45
678.09	9546.64
678.438	9429.36
678.787	9446.31
679.135	9548.45
679.484	9509.35
679.832	9377.61
680.181	9357.72
680.529	9421.45
680.877	9304.39
681.225	9374.44
681.573	9425.51
681.922	9285.41
682.27	9318.4
682.618	9309.36
682.966	9260.1
683.314	9279.53
683.661	9232.98
684.009	9233.43
684.357	9205.86
684.705	9184.62
685.053	9123.6
685.4	9166.76
685.748	9113.43
686.095	9083.15
686.443	9053.55
686.79	9091.29
687.138	9061
687.485	9071.85
687.832	8982.36
688.18	8978.07
688.527	8952.98
688.874	8896.49
689.221	8910.95
689.568	8951.63
689.915	8877.51
690.262	8834.57
690.609	8825.53
690.956	8778.07
691.303	8803.38
691.65	8721.58
691.997	8714.35
692.344	8690.84
692.69	8662.37
693.037	8631.41
693.383	8571.3
693.73	8613.78
694.077	8514.35
694.423	8494.69
694.769	8489.72
695.116	8420.34
695.462	8481.13
695.808	8447.01
696.155	8393.45
696.501	8386.67
696.847	8291.53
697.193	8294.47
697.539	8268.26
697.885	8186.9
698.231	8168.82
698.577	8190.52
698.923	8139.9
699.269	8094.7
699.614	8044.53
699.96	8062.16
700.306	8091.54
700.651	7967.93
700.997	7921.83
701.342	7946.23
701.688	7913.46
702.033	7910.98
702.379	7897.42
702.724	7905.33
703.069	7837.53
703.415	7793.47
703.76	7724.77
704.105	7763.41
704.45	7683.41
704.795	7649.06
705.14	7587.6
705.485	7620.36
705.83	7602.96
706.175	7574.04
706.52	7588.05
706.865	7546.47
707.209	7455.62
707.554	7532.46
707.899	7482.74
708.243	7398
708.588	7421.05
708.932	7401.16
709.277	7318.45
709.621	7371.56
709.966	7305.57
710.31	7313.25
710.654	7229.87
710.998	7305.57
711.342	7261.96
711.687	7226.02
712.031	7156.65
712.375	7181.51
712.719	7215.18
713.063	7231.67
713.407	7197.55
713.75	7110.77
714.094	7169.3
714.438	7099.47
714.782	7075.52
715.125	7101.28
715.469	7109.42
715.812	7064
716.156	7049.98
716.499	7050.89
716.843	7047.5
717.186	7031.91
717.53	7013.83
717.873	6925.69
718.216	6981.74
718.559	7028.06
718.902	6955.52
719.246	6983.55
719.589	6955.52
719.932	6953.94
720.275	6933.15
720.617	6898.8
720.96	6932.47
721.303	6916.43
721.646	6885.24
721.989	6836.88
722.331	6959.82
722.674	6885.02
723.016	6887.5
723.359	6878.24
723.701	6852.93
724.044	6815.41
724.386	6785.13
724.729	6794.85
725.071	6856.32
725.413	6815.87
725.755	6764.57
726.097	6778.35
726.439	6785.36
726.782	6767.28
727.124	6819.48
727.465	6809.54
727.807	6806.37
728.149	6762.08
728.491	6725.47
728.833	6769.09
729.175	6750.11
729.516	6730.9
729.858	6745.59
730.199	6746.72
730.541	6722.08
730.882	6679.82
731.224	6785.81
731.565	6726.83
731.906	6759.6
732.248	6799.14
732.589	6692.03
732.93	6681.86
733.271	6756.88
733.612	6787.84
733.953	6754.4
734.294	6771.8
734.635	6716.66
734.976	6750.33
735.317	6723.21
735.658	6718.47
735.999	6729.31
736.339	6774.74
736.68	6768.41
737.021	6769.09
737.361	6751.46
737.702	6814.06
738.042	6805.92
738.383	6782.87
738.723	6784.23
739.063	6807.28
739.404	6807.28
739.744	6806.83
740.084	6853.61
740.424	6802.08
740.764	6795.08
741.104	6855.41
741.444	6881.4
741.784	6841.85
742.124	6882.76
742.464	6852.25
742.804	6890.89
743.143	6899.71
743.483	6986.71
743.823	6944.45
744.162	7022.41
744.502	6982.42
744.841	7018.8
745.181	7071
745.52	7063.09
745.86	7137.67
746.199	7139.25
746.538	7135.18
746.877	7266.7
747.216	7296.08
747.556	7332.01
747.895	7374.95
748.234	7373.37
748.573	7427.15
748.911	7500.14
749.25	7583.3
749.589	7600.93
749.928	7641.61
750.267	7690.87
750.605	7783.07
750.944	7865.33
751.283	7908.72
751.621	8001.37
751.96	8087.24
752.298	8165.44
752.636	8258.99
752.975	8374.24
753.313	8440.91
753.651	8584.18
753.989	8652.65
754.327	8744.4
754.666	8791.63
755.004	9008.35
755.342	9021.46
755.679	9272.98
756.017	9228.01
756.355	9495.8
756.693	9525.4
757.031	9729.69
757.368	9836.58
757.706	9953.64
758.044	10119.06
758.381	10253.29
758.719	10486.05
759.056	10600.4
759.394	10733.28
759.731	10851.69
760.068	11053.27
760.405	11239.48
760.743	11244.22
761.08	11559.24
761.417	11639.02
761.754	11872
762.091	12020.93
762.428	12172.34
762.765	12330.98
763.102	12548.82
763.438	12666.79
763.775	12884.86
764.112	13085.08
764.449	13140.9
764.785	13333.89
765.122	13562.36
765.458	13618.85
765.795	13835.12
766.131	13988.33
766.467	14148.33
766.804	14287.53
767.14	14410.02
767.476	14554.65
767.812	14737.69
