Data from hue_26_FLMS001491_00089.txt Node
Date: Tue Feb 07 17:14:42 GMT 2017
User: dcchb
Spectrometer: FLMS00149
Trigger mode: 0
Integration Time (sec): 2.000000E-2
Scans to average: 10
Electric dark correction enabled: true
Nonlinearity correction enabled: false
Boxcar width: 0
XAxis mode: Wavelengths
Number of Pixels in Spectrum: 2048
>>>>>Begin Spectral Data<<<<<
341.393	-13.95
341.776	-13.95
342.16	-13.95
342.543	-76.33
342.927	-61.41
343.31	-35.87
343.693	-82.2
344.077	-68.42
344.46	-67.74
344.843	-66.61
345.226	-47.4
345.61	-34.07
345.993	-18.47
346.376	-24.12
346.759	28.53
347.142	19.72
347.525	43.22
347.908	49.77
348.291	78.7
348.674	107.62
349.057	117.34
349.44	135.42
349.823	146.72
350.206	150.11
350.588	177.45
350.971	207.51
351.354	224.68
351.737	238.47
352.119	258.58
352.502	265.59
352.884	273.27
353.267	265.13
353.65	259.26
354.032	301.29
354.414	310.78
354.797	323.89
355.179	310.33
355.562	335.19
355.944	326.83
356.326	346.26
356.709	325.25
357.091	343.78
357.473	354.17
357.855	357.34
358.238	334.28
358.62	314.4
359.002	320.95
359.384	323.89
359.766	322.31
360.148	356.21
360.53	340.84
360.912	324.34
361.294	343.1
361.676	334.28
362.057	327.73
362.439	333.16
362.821	340.84
363.203	354.85
363.584	333.16
363.966	320.5
364.348	327.51
364.729	307.17
365.111	326.38
365.493	310.78
365.874	312.14
366.256	330.44
366.637	312.82
367.019	312.82
367.4	320.73
367.781	315.98
368.163	323.89
368.544	320.5
368.925	301.74
369.306	328.86
369.688	329.09
370.069	310.33
370.45	303.55
370.831	297
371.212	312.59
371.593	321.86
371.974	320.5
372.355	331.8
372.736	329.31
373.117	311.23
373.498	315.08
373.879	315.53
374.26	317.34
374.641	315.08
375.021	312.59
375.402	315.75
375.783	343.32
376.163	331.35
376.544	339.26
376.925	328.41
377.305	325.7
377.686	339.48
378.066	324.57
378.447	323.21
378.827	334.51
379.208	328.64
379.588	335.87
379.968	345.13
380.349	331.8
380.729	325.7
381.109	351.46
381.489	316.21
381.87	342.65
382.25	323.44
382.63	330.67
383.01	353.49
383.39	354.17
383.77	352.82
384.15	340.61
384.53	354.62
384.91	342.65
385.29	334.51
385.67	361.85
386.049	355.98
386.429	353.72
386.809	347.39
387.189	359.82
387.568	356.66
387.948	358.92
388.328	355.53
388.707	377.9
389.087	370.89
389.466	377.45
389.846	354.17
390.225	351.01
390.605	354.4
390.984	372.02
391.363	366.6
391.743	373.38
392.122	389.2
392.501	363.21
392.881	370.22
393.26	379.48
393.639	363.66
394.018	382.42
394.397	374.51
394.776	379.93
395.155	376.54
395.534	360.05
395.913	366.83
396.292	384
396.671	384.91
397.05	391.46
397.429	380.39
397.808	388.07
398.186	394.4
398.565	387.39
398.944	383.32
399.323	388.07
399.701	387.62
400.08	383.78
400.458	403.21
400.837	393.49
401.215	395.53
401.594	388.97
401.972	395.53
402.351	391.91
402.729	381.97
403.107	396.88
403.486	397.79
403.864	409.09
404.242	438.92
404.62	393.04
404.999	416.32
405.377	409.76
405.755	425.81
406.133	409.99
406.511	388.07
406.889	413.38
407.267	426.03
407.645	411.8
408.023	439.14
408.401	431.68
408.779	446.37
409.156	450.21
409.534	453.83
409.912	455.41
410.29	432.36
410.667	462.42
411.045	468.52
411.422	447.05
411.8	461.97
412.178	471.91
412.555	447.95
412.933	475.75
413.31	479.14
413.687	476.65
414.065	464
414.442	467.84
414.819	482.3
415.197	475.75
415.574	478.01
415.951	474.39
416.328	494.51
416.705	482.53
417.082	492.47
417.46	491.57
417.837	506.26
418.214	487.28
418.591	497.9
418.967	481.4
419.344	515.75
419.721	482.98
420.098	493.15
420.475	491.12
420.852	513.04
421.228	510.55
421.605	527.5
421.982	510.55
422.358	534.73
422.735	535.64
423.111	534.96
423.488	529.76
423.864	526.37
424.241	540.38
424.617	551.68
424.994	527.05
425.37	549.19
425.746	525.01
426.123	556.2
426.499	528.63
426.875	576.31
427.251	576.31
427.627	561.4
428.003	568.18
428.379	589.42
428.756	587.39
429.132	597.78
429.507	568.4
429.883	596.88
430.259	595.97
430.635	576.09
431.011	578.57
431.387	581.28
431.763	616.54
432.138	620.38
432.514	621.06
432.89	640.27
433.265	630.32
433.641	627.61
434.016	645.46
434.392	634.84
434.767	661.06
435.143	663.32
435.518	666.03
435.894	671.9
436.269	658.12
436.644	688.4
437.02	676.42
437.395	684.56
437.77	691.34
438.145	689.76
438.52	689.3
438.895	713.71
439.271	691.79
439.646	719.81
440.021	712.58
440.395	727.04
440.77	698.34
441.145	716.65
441.52	757.1
441.895	722.52
442.27	730.21
442.645	742.64
443.019	733.6
443.394	756.42
443.769	757.1
444.143	753.03
444.518	748.29
444.892	756.42
445.267	770.66
445.641	773.6
446.016	784.44
446.39	783.09
446.764	802.52
447.139	779.02
447.513	799.81
447.887	786.7
448.262	801.62
448.636	787.83
449.01	811.11
449.384	789.64
449.758	819.24
450.132	805.69
450.506	831.22
450.88	818.57
451.254	828.28
451.628	822.63
452.002	857.89
452.376	831.67
452.75	856.08
453.123	863.54
453.497	860.6
453.871	894.04
454.244	890.88
454.618	915.06
454.992	913.03
455.365	918
455.739	917.09
456.112	922.07
456.486	936.08
456.859	926.36
457.232	943.76
457.606	975.17
457.979	961.61
458.352	977.66
458.725	986.7
459.099	974.72
459.472	998.45
459.845	989.86
460.218	997.09
460.591	1019.46
460.964	1049.97
461.337	1069.63
461.71	1060.37
462.083	1076.64
462.456	1082.74
462.829	1098.56
463.201	1102.85
463.574	1113.7
463.947	1125.22
464.32	1139.46
464.692	1158.44
465.065	1159.12
465.438	1179.69
465.81	1183.08
466.183	1192.79
466.555	1248.39
466.928	1234.6
467.3	1233.02
467.672	1264.66
468.045	1281.83
468.417	1303.75
468.789	1277.99
469.161	1310.3
469.534	1314.15
469.906	1337.65
470.278	1390.75
470.65	1359.12
471.022	1376.52
471.394	1422.39
471.766	1431.21
472.138	1468.94
472.51	1480.7
472.882	1520.02
473.253	1529.51
473.625	1543.52
473.997	1583.97
474.369	1563.18
474.74	1616.29
475.112	1600.01
475.484	1686.79
475.855	1684.53
476.227	1706
476.598	1781.48
476.97	1795.04
477.341	1819.67
477.713	1852.66
478.084	1825.55
478.455	1929.05
478.827	1943.28
479.198	2004.07
479.569	2002.26
479.94	2078.87
480.311	2125.42
480.682	2119.77
481.053	2165.65
481.424	2261.24
481.795	2265.76
482.166	2286.32
482.537	2306.21
482.908	2345.76
483.279	2409.71
483.65	2489.26
484.021	2503.95
484.391	2561.57
484.762	2592.3
485.133	2623.04
485.503	2673.21
485.874	2722.47
486.244	2805.18
486.615	2806.31
486.985	2883.82
487.356	2932.41
487.726	2957.27
488.097	3037.72
488.467	3060.09
488.837	3091.5
489.207	3189.13
489.578	3243.14
489.948	3283.59
490.318	3294.43
490.688	3376.92
491.058	3378.95
491.428	3443.13
491.798	3513.64
492.168	3592.28
492.538	3644.25
492.908	3693.07
493.278	3711.82
493.648	3742.78
494.017	3755.89
494.387	3846.74
494.757	3899.84
495.126	3933.51
495.496	3973.51
495.866	3979.61
496.235	4057.58
496.605	4072.04
496.974	4115.2
497.344	4128.31
497.713	4157.69
498.082	4230
498.452	4314.52
498.821	4303.67
499.19	4340.28
499.559	4347.06
499.928	4368.98
500.298	4404.46
500.667	4454.63
501.036	4437.45
501.405	4538.02
501.774	4497.11
502.143	4611.91
502.512	4627.96
502.88	4664.11
503.249	4668.86
503.618	4726.94
503.987	4675.87
504.356	4795.64
504.724	4734.85
505.093	4824.34
505.462	4832.25
505.83	4888.29
506.199	4929.19
506.567	4980.72
506.936	4942.75
507.304	4969.42
507.672	5012.81
508.041	5021.17
508.409	5124.89
508.777	5135.74
509.145	5193.37
509.514	5126.93
509.882	5138.45
510.25	5200.37
510.618	5234.27
510.986	5297.32
511.354	5285.34
511.722	5314.27
512.09	5356.3
512.458	5325.79
512.826	5410.76
513.193	5492.12
513.561	5453.47
513.929	5434.26
514.297	5509.52
514.664	5530.98
515.032	5512.45
515.4	5564.66
515.767	5626.12
516.135	5607.37
516.502	5627.03
516.869	5722.84
517.237	5707.48
517.604	5624.54
517.972	5746.35
518.339	5743.86
518.706	5748.83
519.073	5792.67
519.44	5820.47
519.808	5881.48
520.175	5861.37
520.542	5950.41
520.909	5983.85
521.276	5933.23
521.643	6029.05
522.009	6034.7
522.376	6014.59
522.743	6044.87
523.11	6158.09
523.477	6187.46
523.843	6178.65
524.21	6276.95
524.577	6305.88
524.943	6341.13
525.31	6355.37
525.676	6414.13
526.043	6432.43
526.409	6420
526.776	6483.5
527.142	6518.08
527.508	6519.89
527.874	6576.38
528.241	6625.87
528.607	6645.08
528.973	6630.62
529.339	6683.72
529.705	6759.65
530.071	6784.28
530.437	6820.67
530.803	6822.48
531.169	6889.37
531.535	6820.89
531.901	6884.4
532.267	6962.59
532.632	6975.24
532.998	7008.46
533.364	6974.11
533.73	7059.08
534.095	7132.07
534.461	7137.04
534.826	7158.51
535.192	7240.32
535.557	7214.78
535.923	7260.2
536.288	7250.71
536.653	7308.34
537.019	7300.2
537.384	7337.26
537.749	7307.66
538.114	7405.96
538.479	7453.87
538.845	7502.68
539.21	7504.72
539.575	7553.53
539.94	7466.07
540.305	7617.48
540.67	7573.87
541.034	7644.83
541.399	7655.67
541.764	7748.78
542.129	7723.02
542.494	7793.52
542.858	7839.85
543.223	7821.55
543.587	7866.06
543.952	7839.85
544.316	7861.54
544.681	7933.41
545.045	7967.53
545.41	8033.97
545.774	8014.08
546.138	8052.27
546.503	8153.06
546.867	8104.02
547.231	8170.01
547.595	8166.4
547.959	8184.25
548.324	8258.6
548.688	8271.48
549.052	8333.62
549.416	8376.11
549.779	8398.93
550.143	8397.12
550.507	8420.63
550.871	8448.42
551.235	8446.39
551.599	8531.58
551.962	8544.46
552.326	8606.61
552.689	8584.24
553.053	8604.35
553.417	8549.21
553.78	8736.32
554.143	8681.64
554.507	8718.7
554.87	8724.8
555.234	8819.49
555.597	8795.08
555.96	8825.36
556.323	8911.46
556.686	8851.58
557.05	8935.19
557.413	9030.78
557.776	8983.32
558.139	9072.59
558.502	9091.57
558.865	9065.81
559.228	9081.4
559.59	9144.9
559.953	9146.71
560.316	9248.4
560.679	9228.06
561.041	9232.58
561.404	9305.12
561.767	9358.23
562.129	9379.7
562.492	9407.27
562.854	9416.98
563.217	9463.31
563.579	9388.74
563.941	9479.36
564.304	9472.12
564.666	9566.36
565.028	9673.47
565.39	9706.47
565.753	9658.79
566.115	9669.86
566.477	9766.35
566.839	9786.24
567.201	9882.06
567.563	9879.57
567.925	9901.72
568.287	9913.69
568.648	9966.8
569.01	10073.01
569.372	10057.87
569.734	10077.98
570.095	10188.49
570.457	10164.76
570.819	10250.63
571.18	10275.49
571.542	10388.48
571.903	10357.75
572.265	10405.88
572.626	10417.86
572.987	10473.23
573.349	10519.78
573.71	10633.22
574.071	10632.55
574.432	10720
574.794	10774.46
575.155	10859.21
575.516	10879.54
575.877	10987.11
576.238	11042.93
576.599	11115.7
576.96	11162.25
577.32	11272.08
577.681	11344.39
578.042	11440.89
578.403	11488.34
578.763	11633.65
579.124	11703.48
579.485	11863.7
579.845	12011.94
580.206	12037.48
580.566	12206.29
580.927	12246.74
581.287	12430.01
581.648	12515.21
582.008	12765.14
582.368	12863
582.728	12989.32
583.089	13075.19
583.449	13287.39
583.809	13536.65
584.169	13674.5
584.529	13756.76
584.889	14083.08
585.249	14226.58
585.609	14353.13
585.969	14610.07
586.329	14752.44
586.688	15032.88
587.048	15193.33
587.408	15517.16
587.768	15606.43
588.127	15841
588.487	16073.76
588.846	16484.37
589.206	16613.63
589.565	16886.62
589.925	17184.69
590.284	17417.45
590.643	17606.83
591.003	17953.03
591.362	18221.95
591.721	18510.3
592.08	18794.14
592.44	19081.36
592.799	19413.78
593.158	19685.64
593.517	19885.86
593.876	20198.4
594.235	20500.53
594.593	20757.48
594.952	21146.39
595.311	21276.79
595.67	21649.66
596.029	22133.71
596.387	22464.32
596.746	22762.62
597.104	22926.69
597.463	23221.82
597.822	23600.57
598.18	23837.85
598.538	24123.49
598.897	24529.58
599.255	24614.55
599.613	25297.47
599.972	25404.13
600.33	25782.66
600.688	25976.32
601.046	26349.42
601.404	26669.19
601.762	26799.8
602.12	27259.45
602.478	27508.71
602.836	27907.8
603.194	27984.18
603.552	28354.57
603.91	28470.49
604.268	28783.71
604.625	29040.42
604.983	29265.95
605.341	29566.28
605.698	29899.84
606.056	30273.61
606.413	30364.91
606.771	30665.69
607.128	30991.56
607.485	31095.51
607.843	31428.38
608.2	31857.98
608.557	31965.77
608.914	32151.75
609.272	32449.15
609.629	32711.06
609.986	33010.94
610.343	33104.95
610.7	33411.83
611.057	33600.75
611.414	33672.17
611.771	33967.07
612.127	34310.57
612.484	34383.56
612.841	34653.16
613.198	34859.48
613.554	34972.47
613.911	35278
614.267	35450.42
614.624	35563.64
614.98	35668.5
615.337	35897.64
615.693	36104.64
616.05	36195.26
616.406	36689.04
616.762	36519.1
617.118	36657.62
617.475	36928.35
617.831	37036.37
618.187	37148.91
618.543	37313.65
618.899	37681.78
619.255	37748.67
619.611	37817.59
619.967	37963.13
620.323	38162.67
620.678	38334.42
621.034	38390.23
621.39	38321.31
621.746	38409.22
622.101	38974.17
622.457	38684.69
622.812	38915.19
623.168	39056.43
623.523	39144.79
623.879	39278.35
624.234	39165.13
624.589	39443.09
624.945	39482.41
625.3	39580.71
625.655	39683.31
626.01	39818.67
626.365	39871.32
626.72	39875.17
627.075	39998.55
627.43	40036.52
627.785	39868.61
628.14	40056.86
628.495	40134.82
628.85	40295.95
629.205	40146.8
629.559	40382.5
629.914	40152.67
630.269	40359.22
630.623	40288.94
630.978	40351.99
631.332	40558.09
631.687	40730.51
632.041	40542.04
632.396	40574.81
632.75	40585.43
633.104	40615.71
633.459	40421.37
633.813	40454.13
634.167	40520.12
634.521	40627.01
634.875	40624.53
635.229	40519.44
635.583	40514.02
635.937	40691.42
636.291	40488.71
636.645	40533.91
636.999	40408.03
637.352	40485.32
637.706	40455.04
638.06	40627.24
638.413	40634.92
638.767	40601.47
639.121	40485.77
639.474	40488.94
639.828	40411.42
640.181	40591.53
640.534	40491.2
640.888	40420.69
641.241	40307.02
641.594	40429.05
641.947	40534.81
642.301	40396.73
642.654	40544.08
643.007	40447.13
643.36	40420.24
643.713	40476.73
644.066	40607.35
644.419	40355.15
644.771	40010.76
645.124	39821.61
645.477	39553.59
645.83	39523.54
646.182	39291.68
646.535	39202.64
646.888	39431.34
647.24	39043.1
647.593	39461.84
647.945	39351.79
648.298	39232.47
648.65	39152.25
649.002	39025.25
649.355	39101.63
649.707	39191.12
650.059	39480.83
650.411	39836.52
650.763	39811.44
651.115	40253.91
651.467	40100.25
651.819	40074.71
652.171	40014.82
652.523	40084.88
652.875	40083.75
653.227	39803.08
653.578	40069.96
653.93	40010.98
654.282	39920.59
654.633	39848.05
654.985	39916.75
655.337	39900.25
655.688	39970.98
656.039	39997.2
656.391	39702.52
656.742	39732.12
657.094	39763.76
657.445	39979.57
657.796	39718.33
658.147	39768.5
658.498	39701.84
658.849	39871.32
659.2	39785.45
659.551	39765.11
659.902	39885.11
660.253	39689.41
660.604	39812.79
660.955	39553.14
661.306	39739.58
661.656	39830.42
662.007	39707.94
662.358	39698
662.708	39675.17
663.059	39848.05
663.409	39644.66
663.76	39742.74
664.11	39748.39
664.461	39836.07
664.811	39695.51
665.161	39693.48
665.511	39765.11
665.862	39639.01
666.212	39739.8
666.562	39745.68
666.912	39677.88
667.262	39542.07
667.612	39707.71
667.962	39793.13
668.312	39516.98
668.662	39750.2
669.011	39523.54
669.361	39582.74
669.711	39533.25
670.06	39535.74
670.41	39481.73
670.76	39439.92
671.109	39607.6
671.459	39401.73
671.808	39518.79
672.157	39587.94
672.507	39277.44
672.856	39333.03
673.205	39312.02
673.554	39532.58
673.904	39415.29
674.253	39530.32
674.602	39385.24
674.951	38814.63
675.3	38617.8
675.649	39338.23
675.998	39234.51
676.346	39307.95
676.695	39475.85
677.044	39015.75
677.393	39176.88
677.741	39250.1
678.09	39122.42
678.438	38978.69
678.787	39101.85
679.135	39113.15
679.484	38878.81
679.832	38975.98
680.181	38847.85
680.529	38780.05
680.877	38793.39
681.225	38771.24
681.573	38928.3
681.922	38646.27
682.27	38522.43
682.618	38669.77
682.966	38564.92
683.314	38644.92
683.661	38507.97
684.009	38276.56
684.357	38252.38
684.705	38204.7
685.053	38184.82
685.4	38139.39
685.748	38074.99
686.095	37985.27
686.443	37953.86
686.79	37780.98
687.138	37883.35
687.485	38035.89
687.832	37759.52
688.18	37833.86
688.527	37577.37
688.874	37561.33
689.221	37532.18
689.568	37382.35
689.915	37364.72
690.262	37203.6
690.609	37184.62
690.956	37096.93
691.303	37005.64
691.65	36908.92
691.997	36985.52
692.344	36684.74
692.69	36816.26
693.037	36736.72
693.383	36542.82
693.73	36596.38
694.077	36326.56
694.423	36288.14
694.769	36216.28
695.116	36200.46
695.462	36106.45
695.808	35911.2
696.155	35969.96
696.501	35856.97
696.847	35722.73
697.193	35710.08
697.539	35566.58
697.885	35316.64
698.231	35320.03
698.577	35295.17
698.923	35247.94
699.269	35225.8
699.614	34964.33
699.96	34862.42
700.306	34934.28
700.651	34739.71
700.997	34653.61
701.342	34612.71
701.688	34547.62
702.033	34363.67
702.379	34423.56
702.724	34284.35
703.069	34448.42
703.415	34003.68
703.76	34094.98
704.105	34050.69
704.45	33996.45
704.795	33756.46
705.14	33704.71
705.485	33625.16
705.83	33534.99
706.175	33616.57
706.52	33410.25
706.865	33400.53
707.209	33273.31
707.554	33122.35
707.899	33163.03
708.243	33102.91
708.588	33056.81
708.932	32798.97
709.277	32708.35
709.621	32821.57
709.966	32638.07
710.31	32718.97
710.654	32428.81
710.998	32572.31
711.342	32447.56
711.687	32289.38
712.031	32171.87
712.375	32056.61
712.719	32086.67
713.063	32118.31
713.407	32194.92
713.75	31866.79
714.094	31963.28
714.438	31752.22
714.782	31773.01
715.125	31686
715.469	31918.99
715.812	31542.73
716.156	31409.85
716.499	31531.2
716.843	31585.21
717.186	31330.98
717.53	31620.02
717.873	31420.47
718.216	31319.91
718.559	31220.7
718.902	31004.21
719.246	31123.53
719.589	31056.87
719.932	30900.03
720.275	30956.3
720.617	30861.84
720.96	30881.96
721.303	30775.07
721.646	30687.16
721.989	30610.1
722.331	30696.88
722.674	30556.32
723.016	30533.04
723.359	30624.11
723.701	30553.83
724.044	30314.74
724.386	30246.94
724.729	30339.37
725.071	30155.87
725.413	30131.47
725.755	30148.19
726.097	29972.38
726.439	29896.67
726.782	29880.63
727.124	30134.63
727.465	29799.27
727.807	29877.24
728.149	29801.98
728.491	29807.18
728.833	29828.88
729.175	29641.99
729.516	29698.94
729.858	29574.87
730.199	29524.03
730.541	29569.22
730.882	29395.89
731.224	29563.35
731.565	29378.72
731.906	29436.8
732.248	29449.9
732.589	29149.35
732.93	29207.2
733.271	29097.14
733.612	29164.49
733.953	29244.26
734.294	29075.9
734.635	29090.82
734.976	29106.41
735.317	28862.8
735.658	28885.17
735.999	28821.22
736.339	28859.41
736.68	28863.03
737.021	28857.38
737.361	28584.62
737.702	28737.38
738.042	28639.3
738.383	28579.64
738.723	28755.46
739.063	28560.44
739.404	28513.43
739.744	28475.69
740.084	28352.98
740.424	28402.47
740.764	28253.1
741.104	28428.46
741.444	28242.48
741.784	28176.49
742.124	28285.41
742.464	28151.18
742.804	28101.24
743.143	28070.73
743.483	28034.12
743.823	27864.41
744.162	27909.38
744.502	27986.67
744.841	27820.34
745.181	27961.36
745.52	27889.72
745.86	27917.51
746.199	27816.73
746.538	27723.4
746.877	27904.63
747.216	27656.28
747.556	27752.1
747.895	27635.71
748.234	27562.5
748.573	27443.85
748.911	27508.94
749.25	27353.24
749.589	27386.23
749.928	27313.69
750.267	27393.91
750.605	27282.5
750.944	27227.82
751.283	27089.97
751.621	27212.9
751.96	27007.71
752.298	27016.97
752.636	27031.21
752.975	26878.67
753.313	26820.59
753.651	27066.92
753.989	26659.24
754.327	26739.92
754.666	26647.94
755.004	26638.68
755.342	26696.3
755.679	26420.38
756.017	26467.61
756.355	26510.32
756.693	26353.71
757.031	26447.95
757.368	26261.06
757.706	26225.81
758.044	26038.47
758.381	26156.66
758.719	26009.09
759.056	26171.12
759.394	26010.67
759.731	25882.09
760.068	25774.29
